SpectraSuite Data File
++++++++++++++++++++++++++++++++++++
Date: Fri Feb 01 18:05:46 EST 2013
User: group
Dark Spectrum Present: No
Reference Spectrum Present: No
Number of Sampled Component Spectra: 1
Spectrometers: USB2E7196
Integration Time (usec): 35000 (USB2E7196)
Spectra Averaged: 100 (USB2E7196)
Boxcar Smoothing: 10 (USB2E7196)
Correct for Electrical Dark: No (USB2E7196)
Strobe/Lamp Enabled: No (USB2E7196)
Correct for Detector Non-linearity: No (USB2E7196)
Correct for Stray Light: No (USB2E7196)
Number of Pixels in Processed Spectrum: 2048
>>>>>Begin Processed Spectral Data<<<<<
339.09	0.00
339.48	213.07
339.86	214.26
340.24	216.07
340.63	217.29
341.01	220.72
341.39	220.40
341.78	221.67
342.16	222.08
342.54	223.03
342.93	211.66
343.31	222.33
343.69	222.86
344.07	223.33
344.46	223.75
344.84	224.15
345.22	224.36
345.60	224.63
345.99	224.81
346.37	224.95
346.75	225.07
347.13	225.13
347.52	225.18
347.90	225.23
348.28	225.28
348.66	225.36
349.05	225.35
349.43	225.40
349.81	225.47
350.19	225.51
350.57	225.53
350.96	225.60
351.34	225.71
351.72	225.80
352.10	225.92
352.48	226.00
352.87	226.01
353.25	226.07
353.63	226.06
354.01	226.12
354.39	226.20
354.77	226.26
355.15	226.33
355.54	226.39
355.92	226.41
356.30	226.48
356.68	226.59
357.06	226.67
357.44	226.73
357.82	226.74
358.20	226.79
358.58	226.83
358.97	226.89
359.35	226.96
359.73	227.04
360.11	227.07
360.49	227.12
360.87	227.19
361.25	227.24
361.63	227.34
362.01	227.40
362.39	227.41
362.77	227.45
363.15	227.49
363.53	227.51
363.91	227.54
364.29	227.53
364.67	227.44
365.05	227.45
365.43	227.45
365.81	227.47
366.19	227.50
366.57	227.55
366.95	227.53
367.33	227.50
367.71	227.52
368.09	227.52
368.47	227.48
368.85	227.45
369.23	227.46
369.61	227.39
369.99	227.36
370.37	227.37
370.75	227.37
371.13	227.30
371.51	227.24
371.89	227.22
372.27	227.17
372.65	227.13
373.03	227.09
373.41	227.03
373.78	226.96
374.16	226.88
374.54	226.79
374.92	226.73
375.30	226.65
375.68	226.54
376.06	226.47
376.44	226.41
376.82	226.35
377.19	226.30
377.57	226.25
377.95	226.19
378.33	226.12
378.71	226.02
379.09	225.98
379.47	225.93
379.84	225.88
380.22	225.84
380.60	225.77
380.98	225.70
381.36	225.63
381.73	225.59
382.11	225.58
382.49	225.53
382.87	225.46
383.25	225.43
383.62	225.50
384.00	225.43
384.38	225.42
384.76	225.41
385.13	225.40
385.51	225.37
385.89	225.31
386.27	225.26
386.64	225.24
387.02	225.21
387.40	225.19
387.78	225.14
388.15	225.10
388.53	225.06
388.91	225.04
389.29	225.02
389.66	225.01
390.04	224.93
390.42	224.94
390.79	224.94
391.17	224.92
391.55	224.81
391.92	224.86
392.30	224.87
392.68	224.85
393.05	224.84
393.43	224.83
393.81	224.87
394.18	224.87
394.56	224.89
394.94	224.92
395.31	224.95
395.69	224.99
396.06	225.01
396.44	225.10
396.82	225.13
397.19	225.23
397.57	225.27
397.95	225.38
398.32	225.41
398.70	225.47
399.07	225.58
399.45	225.62
399.82	225.65
400.20	225.70
400.58	225.76
400.95	225.75
401.33	225.89
401.70	225.99
402.08	226.10
402.45	226.21
402.83	226.33
403.20	226.41
403.58	226.52
403.95	226.68
404.33	226.77
404.71	226.90
405.08	227.11
405.46	227.25
405.83	227.39
406.21	227.55
406.58	227.74
406.96	227.89
407.33	228.10
407.70	228.34
408.08	228.66
408.45	228.91
408.83	229.25
409.20	229.51
409.58	229.76
409.95	230.06
410.33	230.39
410.70	230.69
411.08	231.08
411.45	231.49
411.82	231.90
412.20	232.38
412.57	232.95
412.95	233.30
413.32	233.85
413.69	234.40
414.07	234.93
414.44	235.54
414.82	236.18
415.19	236.93
415.56	237.70
415.94	238.45
416.31	239.31
416.68	240.12
417.06	241.03
417.43	241.96
417.81	243.02
418.18	244.04
418.55	245.15
418.93	246.32
419.30	247.51
419.67	248.75
420.04	250.03
420.42	251.34
420.79	252.94
421.16	254.49
421.54	256.11
421.91	257.82
422.28	259.57
422.66	261.39
423.03	263.14
423.40	264.91
423.77	266.82
424.15	268.78
424.52	270.81
424.89	273.02
425.26	275.14
425.64	277.11
426.01	279.29
426.38	281.56
426.75	283.84
427.13	286.21
427.50	288.66
427.87	291.23
428.24	293.80
428.61	296.21
428.99	298.81
429.36	301.70
429.73	304.46
430.10	307.21
430.47	310.02
430.85	312.91
431.22	315.97
431.59	319.20
431.96	322.24
432.33	325.62
432.70	328.86
433.08	332.67
433.45	336.19
433.82	339.78
434.19	343.72
434.56	347.53
434.93	351.16
435.30	354.71
435.68	358.69
436.05	362.54
436.42	366.35
436.79	369.78
437.16	373.46
437.53	377.31
437.90	381.12
438.27	384.91
438.64	388.77
439.01	392.29
439.38	395.31
439.75	398.28
440.13	401.66
440.50	404.83
440.87	407.40
441.24	410.12
441.61	413.04
441.98	415.03
442.35	417.49
442.72	420.07
443.09	422.58
443.46	423.93
443.83	424.73
444.20	425.43
444.57	426.61
444.94	426.99
445.31	427.47
445.68	427.90
446.05	427.97
446.42	427.43
446.79	426.86
447.16	426.25
447.53	425.85
447.90	424.29
448.27	422.74
448.64	420.52
449.01	418.99
449.37	416.30
449.74	413.73
450.11	410.58
450.48	407.15
450.85	403.70
451.22	400.77
451.59	397.99
451.96	395.28
452.33	391.73
452.70	388.52
453.07	384.68
453.43	380.76
453.80	376.99
454.17	373.36
454.54	369.89
454.91	366.19
455.28	362.55
455.65	359.16
456.02	355.74
456.38	352.85
456.75	349.22
457.12	346.16
457.49	343.18
457.86	340.30
458.23	337.75
458.59	334.92
458.96	332.04
459.33	329.51
459.70	326.98
460.07	324.89
460.43	322.50
460.80	320.25
461.17	318.26
461.54	316.20
461.91	314.21
462.27	312.22
462.64	310.49
463.01	308.59
463.38	306.74
463.74	304.90
464.11	303.27
464.48	301.81
464.85	300.25
465.21	298.98
465.58	297.72
465.95	296.21
466.32	294.98
466.68	293.74
467.05	292.49
467.42	291.28
467.78	290.03
468.15	288.85
468.52	287.96
468.88	286.81
469.25	285.73
469.62	284.86
469.98	283.89
470.35	283.05
470.72	282.21
471.08	281.35
471.45	280.64
471.82	279.85
472.18	279.06
472.55	278.46
472.92	277.78
473.28	277.13
473.65	276.51
474.02	275.89
474.38	275.38
474.75	274.91
475.11	274.41
475.48	273.99
475.85	273.63
476.21	273.27
476.58	272.98
476.94	272.74
477.31	272.47
477.67	272.25
478.04	272.02
478.41	271.90
478.77	271.84
479.14	271.67
479.50	271.67
479.87	271.66
480.23	271.71
480.60	271.69
480.96	271.70
481.33	271.86
481.69	271.98
482.06	272.13
482.42	272.30
482.79	272.50
483.15	272.82
483.52	273.18
483.88	273.47
484.25	273.81
484.61	274.18
484.98	274.64
485.34	275.18
485.71	275.80
486.07	276.40
486.44	276.99
486.80	277.70
487.17	278.40
487.53	279.21
487.90	280.02
488.26	280.98
488.62	282.04
488.99	283.03
489.35	284.15
489.72	285.30
490.08	286.54
490.44	287.85
490.81	289.24
491.17	290.64
491.54	292.20
491.90	293.82
492.26	295.58
492.63	297.39
492.99	299.26
493.36	301.25
493.72	303.39
494.08	305.59
494.45	307.96
494.81	310.48
495.17	313.09
495.54	315.87
495.90	318.70
496.26	321.62
496.63	324.74
496.99	328.05
497.35	331.50
497.72	335.15
498.08	338.86
498.44	342.74
498.80	346.93
499.17	351.27
499.53	355.72
499.89	360.35
500.26	365.10
500.62	370.06
500.98	375.37
501.34	380.76
501.71	386.46
502.07	392.22
502.43	398.21
502.79	404.37
503.16	410.77
503.52	417.44
503.88	424.29
504.24	431.40
504.60	438.73
504.97	446.34
505.33	454.08
505.69	462.34
506.05	470.61
506.41	478.96
506.78	487.73
507.14	496.75
507.50	506.04
507.86	515.72
508.22	525.50
508.59	535.29
508.95	545.60
509.31	556.00
509.67	566.81
510.03	577.75
510.39	589.05
510.75	600.70
511.12	612.50
511.48	624.59
511.84	636.92
512.20	649.30
512.56	662.10
512.92	675.18
513.28	688.53
513.64	702.05
514.00	715.77
514.37	729.61
514.73	743.64
515.09	757.73
515.45	772.04
515.81	786.77
516.17	801.90
516.53	817.16
516.89	832.63
517.25	847.99
517.61	863.64
517.97	879.38
518.33	895.03
518.69	911.08
519.05	927.36
519.41	943.82
519.77	960.74
520.13	977.66
520.49	994.53
520.85	1011.19
521.21	1028.30
521.57	1046.07
521.93	1063.34
522.29	1081.40
522.65	1099.24
523.01	1117.02
523.37	1134.68
523.73	1152.46
524.09	1170.09
524.45	1188.00
524.81	1206.37
525.17	1224.79
525.53	1243.46
525.89	1262.09
526.25	1280.77
526.61	1298.85
526.97	1317.44
527.33	1335.65
527.68	1353.94
528.04	1372.27
528.40	1390.78
528.76	1409.76
529.12	1428.25
529.48	1447.05
529.84	1464.87
530.20	1483.49
530.56	1502.54
530.91	1521.99
531.27	1540.75
531.63	1559.29
531.99	1577.98
532.35	1596.06
532.71	1614.19
533.07	1632.51
533.42	1650.54
533.78	1668.70
534.14	1687.36
534.50	1704.81
534.86	1722.93
535.21	1740.37
535.57	1758.49
535.93	1776.20
536.29	1793.11
536.65	1810.33
537.00	1827.26
537.36	1844.99
537.72	1861.70
538.08	1878.32
538.44	1894.27
538.79	1910.36
539.15	1926.16
539.51	1942.08
539.87	1958.61
540.22	1974.60
540.58	1990.55
540.94	2006.13
541.29	2021.17
541.65	2035.97
542.01	2051.40
542.37	2066.08
542.72	2080.74
543.08	2094.75
543.44	2109.58
543.79	2123.10
544.15	2136.38
544.51	2150.33
544.87	2163.52
545.22	2176.65
545.58	2189.21
545.94	2201.26
546.29	2213.39
546.65	2225.68
547.01	2237.28
547.36	2248.21
547.72	2258.90
548.07	2269.02
548.43	2279.41
548.79	2289.62
549.14	2299.33
549.50	2308.76
549.86	2318.42
550.21	2327.97
550.57	2337.30
550.92	2345.84
551.28	2354.94
551.64	2364.16
551.99	2372.68
552.35	2380.77
552.70	2388.89
553.06	2396.75
553.41	2405.17
553.77	2413.11
554.13	2421.19
554.48	2429.29
554.84	2436.74
555.19	2443.74
555.55	2450.85
555.90	2457.09
556.26	2463.86
556.61	2470.49
556.97	2476.69
557.32	2482.52
557.68	2488.22
558.03	2494.21
558.39	2499.40
558.74	2505.85
559.10	2511.41
559.45	2516.71
559.81	2522.61
560.16	2528.19
560.52	2532.97
560.87	2537.75
561.23	2541.87
561.58	2546.10
561.94	2550.01
562.29	2553.69
562.64	2557.94
563.00	2561.82
563.35	2566.63
563.71	2571.02
564.06	2575.56
564.42	2579.66
564.77	2583.69
565.12	2587.38
565.48	2590.56
565.83	2593.78
566.19	2596.24
566.54	2598.12
566.89	2600.47
567.25	2602.08
567.60	2604.22
567.96	2607.08
568.31	2608.95
568.66	2611.09
569.02	2612.60
569.37	2613.81
569.72	2615.59
570.08	2616.50
570.43	2617.25
570.78	2617.58
571.14	2616.65
571.49	2615.69
571.84	2616.14
572.20	2615.51
572.55	2614.78
572.90	2613.59
573.26	2612.68
573.61	2611.34
573.96	2609.96
574.31	2607.16
574.67	2604.58
575.02	2601.12
575.37	2597.79
575.72	2594.19
576.08	2591.05
576.43	2587.73
576.78	2584.17
577.13	2581.07
577.49	2578.04
577.84	2574.65
578.19	2570.86
578.54	2567.24
578.90	2563.00
579.25	2557.06
579.60	2551.86
579.95	2546.62
580.30	2541.33
580.66	2535.92
581.01	2530.56
581.36	2525.27
581.71	2520.86
582.06	2516.04
582.42	2511.38
582.77	2505.82
583.12	2500.79
583.47	2495.75
583.82	2490.50
584.17	2484.81
584.53	2478.85
584.88	2472.68
585.23	2466.37
585.58	2460.23
585.93	2454.24
586.28	2449.05
586.63	2443.51
586.98	2437.78
587.34	2432.68
587.69	2427.26
588.04	2421.39
588.39	2415.18
588.74	2407.98
589.09	2401.03
589.44	2393.57
589.79	2386.67
590.14	2380.46
590.49	2373.21
590.84	2365.98
591.19	2359.20
591.54	2351.86
591.89	2343.59
592.25	2336.12
592.60	2327.80
592.95	2319.34
593.30	2311.04
593.65	2302.66
594.00	2294.69
594.35	2286.50
594.70	2277.31
595.05	2269.37
595.40	2261.06
595.75	2252.50
596.10	2245.65
596.45	2238.14
596.80	2230.90
597.15	2223.44
597.50	2215.36
597.85	2207.84
598.19	2200.20
598.54	2192.03
598.89	2184.38
599.24	2177.60
599.59	2169.80
599.94	2162.75
600.29	2155.37
600.64	2147.80
600.99	2139.11
601.34	2131.22
601.69	2123.25
602.04	2115.31
602.39	2106.72
602.74	2098.77
603.08	2090.92
603.43	2082.81
603.78	2074.24
604.13	2065.71
604.48	2057.34
604.83	2049.36
605.18	2041.38
605.53	2032.02
605.87	2022.62
606.22	2014.13
606.57	2004.74
606.92	1996.05
607.27	1987.60
607.62	1979.37
607.96	1970.80
608.31	1963.01
608.66	1953.99
609.01	1945.06
609.36	1936.21
609.70	1926.65
610.05	1917.21
610.40	1908.18
610.75	1898.37
611.10	1889.16
611.44	1879.29
611.79	1869.75
612.14	1859.30
612.49	1848.49
612.83	1838.68
613.18	1829.25
613.53	1819.70
613.88	1809.57
614.22	1799.85
614.57	1789.68
614.92	1780.25
615.27	1771.26
615.61	1761.29
615.96	1751.81
616.31	1742.73
616.65	1733.96
617.00	1725.05
617.35	1716.02
617.70	1706.16
618.04	1696.27
618.39	1686.70
618.74	1677.79
619.08	1667.99
619.43	1659.00
619.78	1650.87
620.12	1642.32
620.47	1633.42
620.82	1623.66
621.16	1614.92
621.51	1605.86
621.85	1596.96
622.20	1586.98
622.55	1577.12
622.89	1567.95
623.24	1558.93
623.59	1550.21
623.93	1541.44
624.28	1532.93
624.62	1523.93
624.97	1515.47
625.32	1507.44
625.66	1499.07
626.01	1490.65
626.35	1481.84
626.70	1472.79
627.04	1463.60
627.39	1454.42
627.73	1445.66
628.08	1437.53
628.43	1428.99
628.77	1420.26
629.12	1411.32
629.46	1402.84
629.81	1394.14
630.15	1385.57
630.50	1376.85
630.84	1367.10
631.19	1357.64
631.53	1348.70
631.88	1339.86
632.22	1330.93
632.57	1322.36
632.91	1313.47
633.26	1304.78
633.60	1296.11
633.95	1287.64
634.29	1279.27
634.64	1271.30
634.98	1262.59
635.32	1254.23
635.67	1246.40
636.01	1238.70
636.36	1230.71
636.70	1222.99
637.05	1215.15
637.39	1207.52
637.73	1199.84
638.08	1192.97
638.42	1186.00
638.77	1178.49
639.11	1170.81
639.45	1163.22
639.80	1155.38
640.14	1147.90
640.49	1140.20
640.83	1132.76
641.17	1125.52
641.52	1118.05
641.86	1110.51
642.20	1103.70
642.55	1096.17
642.89	1088.59
643.23	1080.84
643.58	1074.12
643.92	1066.91
644.26	1059.93
644.61	1052.80
644.95	1045.92
645.29	1038.29
645.64	1030.40
645.98	1022.91
646.32	1016.02
646.66	1008.98
647.01	1002.21
647.35	995.54
647.69	988.64
648.04	982.18
648.38	975.40
648.72	968.60
649.06	961.57
649.41	954.65
649.75	947.84
650.09	940.99
650.43	934.29
650.78	927.07
651.12	920.05
651.46	913.33
651.80	906.75
652.14	900.37
652.49	894.13
652.83	888.12
653.17	881.66
653.51	875.14
653.85	868.94
654.20	862.30
654.54	855.30
654.88	848.67
655.22	841.82
655.56	835.21
655.90	828.78
656.25	822.76
656.59	816.48
656.93	810.63
657.27	804.62
657.61	798.30
657.95	792.42
658.29	786.66
658.64	780.61
658.98	774.47
659.32	768.11
659.66	762.07
660.00	755.84
660.34	749.95
660.68	744.16
661.02	738.34
661.36	732.98
661.70	727.73
662.05	722.75
662.39	717.78
662.73	712.54
663.07	707.47
663.41	702.32
663.75	697.14
664.09	691.77
664.43	686.70
664.77	681.96
665.11	676.98
665.45	672.13
665.79	667.36
666.13	662.55
666.47	657.84
666.81	653.00
667.15	648.27
667.49	643.76
667.83	639.34
668.17	634.75
668.51	630.04
668.85	625.46
669.19	620.88
669.53	616.42
669.87	612.03
670.21	607.68
670.55	603.40
670.89	599.46
671.23	595.46
671.57	591.41
671.91	587.27
672.25	583.19
672.58	579.08
672.92	575.09
673.26	571.44
673.60	567.73
673.94	564.11
674.28	560.76
674.62	557.35
674.96	553.74
675.30	550.36
675.64	546.92
675.97	543.64
676.31	540.34
676.65	536.99
676.99	533.88
677.33	530.59
677.67	527.33
678.01	523.82
678.34	520.38
678.68	516.95
679.02	513.66
679.36	510.45
679.70	507.37
680.04	504.18
680.37	500.83
680.71	497.62
681.05	494.66
681.39	491.43
681.73	488.34
682.06	485.43
682.40	482.48
682.74	479.54
683.08	476.58
683.42	473.58
683.75	470.61
684.09	467.57
684.43	464.68
684.77	461.81
685.10	459.09
685.44	456.35
685.78	453.73
686.12	451.13
686.45	448.45
686.79	445.74
687.13	443.21
687.46	440.67
687.80	438.12
688.14	435.47
688.48	433.13
688.81	430.53
689.15	427.96
689.49	425.46
689.82	423.03
690.16	420.58
690.50	418.31
690.83	416.07
691.17	413.78
691.51	411.57
691.84	409.37
692.18	407.09
692.52	404.79
692.85	402.47
693.19	400.25
693.52	398.10
693.86	395.95
694.20	393.84
694.53	391.74
694.87	389.60
695.21	387.49
695.54	385.32
695.88	383.29
696.21	381.34
696.55	379.38
696.88	377.41
697.22	375.44
697.56	373.53
697.89	371.60
698.23	369.72
698.56	367.88
698.90	366.09
699.23	364.17
699.57	362.41
699.90	360.63
700.24	358.84
700.58	357.09
700.91	355.39
701.25	353.69
701.58	352.08
701.92	350.53
702.25	348.96
702.59	347.38
702.92	345.86
703.26	344.32
703.59	342.84
703.93	341.46
704.26	340.07
704.60	338.59
704.93	337.08
705.26	335.59
705.60	334.19
705.93	332.77
706.27	331.53
706.60	330.25
706.94	329.03
707.27	327.71
707.61	326.47
707.94	325.28
708.27	324.03
708.61	322.81
708.94	321.56
709.28	320.39
709.61	319.26
709.94	318.13
710.28	316.93
710.61	315.75
710.95	314.46
711.28	313.34
711.61	312.22
711.95	311.17
712.28	310.12
712.61	308.93
712.95	307.83
713.28	306.82
713.61	305.81
713.95	304.80
714.28	303.85
714.61	302.85
714.95	301.85
715.28	300.88
715.61	299.85
715.95	298.89
716.28	297.88
716.61	296.91
716.95	295.93
717.28	295.06
717.61	294.14
717.94	293.33
718.28	292.42
718.61	291.59
718.94	290.78
719.27	290.00
719.61	289.29
719.94	288.50
720.27	287.69
720.60	286.94
720.94	286.17
721.27	285.46
721.60	284.78
721.93	284.06
722.27	283.39
722.60	282.72
722.93	282.04
723.26	281.44
723.59	280.79
723.93	280.21
724.26	279.52
724.59	278.90
724.92	278.28
725.25	277.69
725.59	277.07
725.92	276.48
726.25	275.88
726.58	275.30
726.91	274.78
727.24	274.19
727.57	273.61
727.91	272.99
728.24	272.45
728.57	271.84
728.90	271.32
729.23	270.73
729.56	270.25
729.89	269.69
730.22	269.09
730.55	268.49
730.89	267.94
731.22	267.46
731.55	266.92
731.88	266.38
732.21	265.86
732.54	265.33
732.87	264.79
733.20	264.29
733.53	263.82
733.86	263.35
734.19	262.87
734.52	262.41
734.85	262.07
735.18	261.57
735.51	261.16
735.84	260.73
736.17	260.31
736.50	259.84
736.83	259.58
737.16	259.17
737.49	258.80
737.82	258.39
738.15	257.97
738.48	257.59
738.81	257.21
739.14	256.81
739.47	256.46
739.80	256.14
740.13	255.81
740.46	255.44
740.79	255.06
741.12	254.72
741.45	254.36
741.78	253.92
742.11	253.65
742.44	253.29
742.77	252.92
743.10	252.55
743.43	252.19
743.75	251.74
744.08	251.59
744.41	251.27
744.74	251.00
745.07	250.72
745.40	250.45
745.73	250.19
746.06	249.88
746.39	249.58
746.71	249.29
747.04	248.98
747.37	248.69
747.70	248.42
748.03	248.13
748.36	247.87
748.68	247.60
749.01	247.27
749.34	247.01
749.67	246.80
750.00	246.57
750.33	246.37
750.65	246.17
750.98	245.84
751.31	245.62
751.64	245.36
751.97	245.14
752.29	244.87
752.62	244.58
752.95	244.36
753.28	244.13
753.60	243.89
753.93	243.69
754.26	243.48
754.59	243.23
754.91	243.04
755.24	242.85
755.57	242.67
755.90	242.49
756.22	242.28
756.55	242.02
756.88	241.78
757.20	241.54
757.53	241.31
757.86	241.07
758.19	240.88
758.51	240.68
758.84	240.45
759.17	240.27
759.49	240.09
759.82	239.97
760.15	239.82
760.47	239.63
760.80	239.40
761.13	239.26
761.45	239.09
761.78	238.90
762.11	238.70
762.43	238.51
762.76	238.34
763.08	238.18
763.41	238.06
763.74	237.95
764.06	237.80
764.39	237.62
764.71	237.46
765.04	237.30
765.37	237.13
765.69	236.97
766.02	236.80
766.34	236.66
766.67	236.48
767.00	236.32
767.32	236.24
767.65	236.19
767.97	236.02
768.30	235.89
768.62	235.80
768.95	235.67
769.27	235.57
769.60	235.45
769.92	235.30
770.25	235.19
770.57	235.03
770.90	234.90
771.22	234.80
771.55	234.69
771.87	234.56
772.20	234.47
772.52	234.45
772.85	234.46
773.17	234.36
773.50	234.23
773.82	234.13
774.15	233.96
774.47	233.78
774.80	233.68
775.12	233.57
775.45	233.45
775.77	233.32
776.09	233.21
776.42	233.09
776.74	233.02
777.07	232.86
777.39	232.79
777.72	232.66
778.04	232.56
778.36	232.45
778.69	232.36
779.01	232.28
779.33	232.12
779.66	231.94
779.98	231.82
780.31	231.73
780.63	231.67
780.95	231.61
781.28	231.53
781.60	231.43
781.92	231.37
782.25	231.27
782.57	231.19
782.89	231.12
783.22	231.05
783.54	230.97
783.86	230.96
784.19	230.87
784.51	230.87
784.83	230.79
785.16	230.75
785.48	230.69
785.80	230.61
786.12	230.53
786.45	230.45
