SpectraSuite Data File
++++++++++++++++++++++++++++++++++++
Date: Fri Feb 01 17:53:56 EST 2013
User: group
Dark Spectrum Present: No
Reference Spectrum Present: No
Number of Sampled Component Spectra: 1
Spectrometers: USB2E7196
Integration Time (usec): 35000 (USB2E7196)
Spectra Averaged: 100 (USB2E7196)
Boxcar Smoothing: 10 (USB2E7196)
Correct for Electrical Dark: No (USB2E7196)
Strobe/Lamp Enabled: No (USB2E7196)
Correct for Detector Non-linearity: No (USB2E7196)
Correct for Stray Light: No (USB2E7196)
Number of Pixels in Processed Spectrum: 2048
>>>>>Begin Processed Spectral Data<<<<<
339.09	0.00
339.48	212.92
339.86	214.03
340.24	215.77
340.63	217.12
341.01	219.44
341.39	219.44
341.78	220.68
342.16	221.94
342.54	222.79
342.93	211.11
343.31	221.78
343.69	222.33
344.07	222.80
344.46	223.24
344.84	223.60
345.22	223.86
345.60	224.11
345.99	224.35
346.37	224.50
346.75	224.61
347.13	224.70
347.52	224.75
347.90	224.80
348.28	224.83
348.66	224.87
349.05	224.88
349.43	224.95
349.81	224.98
350.19	225.03
350.57	225.06
350.96	225.13
351.34	225.22
351.72	225.28
352.10	225.39
352.48	225.46
352.87	225.52
353.25	225.58
353.63	225.65
354.01	225.69
354.39	225.75
354.77	225.83
355.15	225.90
355.54	225.97
355.92	226.03
356.30	226.11
356.68	226.23
357.06	226.30
357.44	226.34
357.82	226.44
358.20	226.52
358.58	226.60
358.97	226.67
359.35	226.74
359.73	226.81
360.11	226.87
360.49	226.89
360.87	226.94
361.25	227.00
361.63	227.07
362.01	227.11
362.39	227.13
362.77	227.17
363.15	227.17
363.53	227.24
363.91	227.26
364.29	227.30
364.67	227.21
365.05	227.22
365.43	227.26
365.81	227.28
366.19	227.31
366.57	227.33
366.95	227.34
367.33	227.34
367.71	227.34
368.09	227.32
368.47	227.32
368.85	227.29
369.23	227.29
369.61	227.26
369.99	227.27
370.37	227.28
370.75	227.30
371.13	227.27
371.51	227.19
371.89	227.14
372.27	227.13
372.65	227.13
373.03	227.11
373.41	227.06
373.78	226.97
374.16	226.89
374.54	226.83
374.92	226.74
375.30	226.67
375.68	226.59
376.06	226.57
376.44	226.50
376.82	226.45
377.19	226.39
377.57	226.30
377.95	226.20
378.33	226.12
378.71	226.02
379.09	225.99
379.47	225.93
379.84	225.86
380.22	225.76
380.60	225.65
380.98	225.58
381.36	225.49
381.73	225.44
382.11	225.41
382.49	225.40
382.87	225.35
383.25	225.27
383.62	225.38
384.00	225.27
384.38	225.23
384.76	225.21
385.13	225.19
385.51	225.14
385.89	225.05
386.27	225.01
386.64	224.96
387.02	224.90
387.40	224.86
387.78	224.84
388.15	224.80
388.53	224.82
388.91	224.78
389.29	224.75
389.66	224.74
390.04	224.66
390.42	224.59
390.79	224.58
391.17	224.58
391.55	224.41
391.92	224.42
392.30	224.41
392.68	224.35
393.05	224.33
393.43	224.36
393.81	224.40
394.18	224.40
394.56	224.44
394.94	224.44
395.31	224.46
395.69	224.49
396.06	224.53
396.44	224.54
396.82	224.58
397.19	224.68
397.57	224.73
397.95	224.82
398.32	224.85
398.70	224.91
399.07	224.97
399.45	225.02
399.82	225.08
400.20	225.15
400.58	225.24
400.95	225.30
401.33	225.35
401.70	225.51
402.08	225.63
402.45	225.70
402.83	225.84
403.20	225.97
403.58	226.09
403.95	226.22
404.33	226.35
404.71	226.46
405.08	226.65
405.46	226.79
405.83	226.93
406.21	227.10
406.58	227.31
406.96	227.48
407.33	227.71
407.70	227.96
408.08	228.27
408.45	228.58
408.83	228.85
409.20	229.13
409.58	229.34
409.95	229.65
410.33	229.95
410.70	230.25
411.08	230.64
411.45	231.02
411.82	231.42
412.20	231.88
412.57	232.39
412.95	232.76
413.32	233.29
413.69	233.82
414.07	234.40
414.44	234.98
414.82	235.58
415.19	236.29
415.56	237.03
415.94	237.77
416.31	238.55
416.68	239.38
417.06	240.36
417.43	241.29
417.81	242.31
418.18	243.34
418.55	244.47
418.93	245.59
419.30	246.76
419.67	247.96
420.04	249.24
420.42	250.62
420.79	252.16
421.16	253.71
421.54	255.29
421.91	256.89
422.28	258.55
422.66	260.33
423.03	262.07
423.40	263.78
423.77	265.66
424.15	267.56
424.52	269.51
424.89	271.62
425.26	273.67
425.64	275.58
426.01	277.73
426.38	279.93
426.75	282.18
427.13	284.52
427.50	286.94
427.87	289.44
428.24	291.90
428.61	294.26
428.99	296.80
429.36	299.59
429.73	302.34
430.10	305.07
430.47	307.82
430.85	310.66
431.22	313.64
431.59	316.77
431.96	319.74
432.33	323.04
432.70	326.21
433.08	329.97
433.45	333.50
433.82	336.92
434.19	340.75
434.56	344.45
434.93	347.96
435.30	351.48
435.68	355.32
436.05	359.06
436.42	362.74
436.79	366.08
437.16	369.69
437.53	373.47
437.90	377.18
438.27	380.85
438.64	384.63
439.01	388.12
439.38	391.11
439.75	394.01
440.13	397.36
440.50	400.44
440.87	402.86
441.24	405.43
441.61	408.37
441.98	410.41
442.35	412.86
442.72	415.33
443.09	417.74
443.46	419.06
443.83	419.88
444.20	420.59
444.57	421.81
444.94	422.20
445.31	422.70
445.68	423.16
446.05	423.28
446.42	422.77
446.79	422.24
447.16	421.66
447.53	421.24
447.90	419.72
448.27	418.17
448.64	416.14
449.01	414.61
449.37	411.96
449.74	409.42
450.11	406.37
450.48	403.00
450.85	399.62
451.22	396.77
451.59	394.09
451.96	391.49
452.33	387.99
452.70	384.84
453.07	381.04
453.43	377.21
453.80	373.50
454.17	369.92
454.54	366.50
454.91	362.86
455.28	359.33
455.65	356.01
456.02	352.69
456.38	349.77
456.75	346.22
457.12	343.20
457.49	340.22
457.86	337.31
458.23	334.90
458.59	332.14
458.96	329.32
459.33	326.79
459.70	324.26
460.07	322.19
460.43	319.89
460.80	317.67
461.17	315.71
461.54	313.66
461.91	311.74
462.27	309.80
462.64	308.11
463.01	306.25
463.38	304.50
463.74	302.70
464.11	301.13
464.48	299.73
464.85	298.27
465.21	297.08
465.58	295.83
465.95	294.36
466.32	293.13
466.68	291.96
467.05	290.79
467.42	289.60
467.78	288.34
468.15	287.13
468.52	286.24
468.88	285.10
469.25	284.07
469.62	283.19
469.98	282.28
470.35	281.41
470.72	280.65
471.08	279.79
471.45	279.05
471.82	278.35
472.18	277.58
472.55	276.99
472.92	276.25
473.28	275.64
473.65	274.99
474.02	274.44
474.38	273.90
474.75	273.46
475.11	272.96
475.48	272.61
475.85	272.31
476.21	271.98
476.58	271.70
476.94	271.48
477.31	271.23
477.67	270.97
478.04	270.78
478.41	270.63
478.77	270.57
479.14	270.48
479.50	270.41
479.87	270.42
480.23	270.40
480.60	270.45
480.96	270.52
481.33	270.72
481.69	270.91
482.06	271.10
482.42	271.21
482.79	271.48
483.15	271.75
483.52	272.08
483.88	272.37
484.25	272.69
484.61	273.10
484.98	273.55
485.34	274.08
485.71	274.65
486.07	275.23
486.44	275.81
486.80	276.49
487.17	277.25
487.53	278.11
487.90	279.01
488.26	280.01
488.62	281.02
488.99	282.03
489.35	283.06
489.72	284.22
490.08	285.51
490.44	286.81
490.81	288.22
491.17	289.62
491.54	291.22
491.90	292.84
492.26	294.58
492.63	296.37
492.99	298.24
493.36	300.25
493.72	302.42
494.08	304.62
494.45	307.01
494.81	309.49
495.17	312.04
495.54	314.73
495.90	317.49
496.26	320.38
496.63	323.47
496.99	326.79
497.35	330.21
497.72	333.78
498.08	337.44
498.44	341.28
498.80	345.42
499.17	349.69
499.53	354.10
499.89	358.70
500.26	363.49
500.62	368.42
500.98	373.67
501.34	378.99
501.71	384.62
502.07	390.35
502.43	396.30
502.79	402.45
503.16	408.83
503.52	415.45
503.88	422.28
504.24	429.29
504.60	436.55
504.97	444.05
505.33	451.86
505.69	460.04
506.05	468.28
506.41	476.64
506.78	485.28
507.14	494.23
507.50	503.41
507.86	512.98
508.22	522.75
508.59	532.50
508.95	542.70
509.31	553.19
509.67	563.92
510.03	574.83
510.39	586.02
510.75	597.47
511.12	609.07
511.48	621.07
511.84	633.28
512.20	645.55
512.56	658.30
512.92	671.22
513.28	684.49
513.64	697.88
514.00	711.45
514.37	725.35
514.73	739.27
515.09	753.25
515.45	767.51
515.81	782.12
516.17	797.24
516.53	812.40
516.89	827.59
517.25	842.90
517.61	858.44
517.97	874.07
518.33	889.66
518.69	905.65
519.05	921.78
519.41	938.23
519.77	954.97
520.13	971.69
520.49	988.50
520.85	1005.07
521.21	1022.06
521.57	1039.65
521.93	1056.70
522.29	1074.52
522.65	1092.31
523.01	1109.90
523.37	1127.31
523.73	1144.86
524.09	1162.38
524.45	1180.18
524.81	1198.19
525.17	1216.51
525.53	1234.91
525.89	1253.42
526.25	1271.97
526.61	1289.98
526.97	1308.29
527.33	1326.60
527.68	1344.95
528.04	1363.02
528.40	1381.29
528.76	1400.21
529.12	1418.61
529.48	1437.38
529.84	1455.08
530.20	1473.48
530.56	1492.32
530.91	1511.62
531.27	1530.37
531.63	1548.73
531.99	1567.21
532.35	1585.22
532.71	1603.13
533.07	1621.37
533.42	1639.26
533.78	1657.23
534.14	1675.55
534.50	1692.81
534.86	1710.52
535.21	1727.68
535.57	1745.60
535.93	1763.07
536.29	1779.64
536.65	1796.62
537.00	1813.34
537.36	1830.89
537.72	1847.38
538.08	1863.89
538.44	1879.67
538.79	1895.49
539.15	1911.15
539.51	1926.93
539.87	1943.40
540.22	1959.09
540.58	1974.81
540.94	1990.03
541.29	2004.89
541.65	2019.60
542.01	2034.97
542.37	2049.60
542.72	2064.03
543.08	2078.08
543.44	2092.80
543.79	2106.34
544.15	2119.43
544.51	2133.02
544.87	2146.02
545.22	2159.00
545.58	2171.33
545.94	2183.17
546.29	2194.97
546.65	2206.88
547.01	2218.27
547.36	2228.91
547.72	2239.42
548.07	2249.60
548.43	2259.70
548.79	2269.45
549.14	2279.02
549.50	2288.19
549.86	2297.53
550.21	2306.79
550.57	2315.71
550.92	2324.12
551.28	2332.99
551.64	2342.04
551.99	2350.59
552.35	2358.67
552.70	2366.67
553.06	2374.47
553.41	2382.73
553.77	2390.61
554.13	2398.42
554.48	2406.27
554.84	2413.82
555.19	2420.65
555.55	2427.28
555.90	2433.50
556.26	2440.42
556.61	2446.79
556.97	2452.81
557.32	2458.57
557.68	2464.40
558.03	2470.13
558.39	2475.16
558.74	2481.36
559.10	2486.71
559.45	2491.59
559.81	2497.21
560.16	2502.39
560.52	2507.03
560.87	2511.67
561.23	2515.57
561.58	2519.71
561.94	2523.48
562.29	2526.62
562.64	2530.80
563.00	2534.54
563.35	2539.27
563.71	2543.62
564.06	2547.80
564.42	2551.97
564.77	2555.73
565.12	2559.17
565.48	2562.33
565.83	2565.42
566.19	2568.01
566.54	2569.78
566.89	2572.18
567.25	2573.77
567.60	2576.10
567.96	2578.81
568.31	2580.69
568.66	2582.82
569.02	2584.48
569.37	2585.65
569.72	2587.49
570.08	2588.48
570.43	2589.43
570.78	2589.88
571.14	2588.78
571.49	2588.14
571.84	2588.38
572.20	2587.98
572.55	2587.52
572.90	2586.34
573.26	2585.43
573.61	2583.83
573.96	2582.83
574.31	2580.02
574.67	2577.44
575.02	2573.82
575.37	2570.38
575.72	2566.88
576.08	2563.43
576.43	2559.91
576.78	2556.46
577.13	2553.26
577.49	2549.85
577.84	2546.47
578.19	2542.55
578.54	2539.12
578.90	2535.05
579.25	2529.28
579.60	2524.08
579.95	2518.77
580.30	2513.47
580.66	2508.16
581.01	2502.96
581.36	2497.44
581.71	2493.16
582.06	2488.47
582.42	2484.02
582.77	2478.57
583.12	2473.64
583.47	2468.96
583.82	2464.01
584.17	2458.31
584.53	2452.39
584.88	2446.57
585.23	2440.30
585.58	2434.25
585.93	2428.22
586.28	2422.65
586.63	2417.24
586.98	2411.58
587.34	2406.31
587.69	2400.93
588.04	2395.23
588.39	2388.93
588.74	2381.79
589.09	2374.99
589.44	2367.48
589.79	2360.54
590.14	2354.20
590.49	2346.83
590.84	2339.56
591.19	2332.83
591.54	2325.52
591.89	2317.63
592.25	2310.08
592.60	2301.96
592.95	2293.71
593.30	2285.54
593.65	2277.17
594.00	2269.13
594.35	2261.05
594.70	2251.88
595.05	2244.10
595.40	2235.68
595.75	2227.23
596.10	2220.40
596.45	2212.87
596.80	2205.70
597.15	2198.43
597.50	2190.80
597.85	2183.40
598.19	2175.92
598.54	2168.15
598.89	2160.75
599.24	2153.82
599.59	2146.46
599.94	2139.35
600.29	2131.94
600.64	2124.23
600.99	2115.80
601.34	2107.92
601.69	2099.72
602.04	2092.01
602.39	2083.30
602.74	2075.59
603.08	2068.00
603.43	2060.08
603.78	2051.61
604.13	2043.37
604.48	2035.02
604.83	2026.92
605.18	2019.16
605.53	2010.00
605.87	2000.56
606.22	1992.10
606.57	1982.98
606.92	1974.09
607.27	1965.86
607.62	1957.93
607.96	1949.67
608.31	1942.26
608.66	1933.64
609.01	1925.05
609.36	1916.45
609.70	1907.18
610.05	1897.89
610.40	1888.93
610.75	1879.35
611.10	1870.50
611.44	1860.71
611.79	1851.28
612.14	1841.23
612.49	1830.39
612.83	1820.57
613.18	1810.93
613.53	1801.50
613.88	1791.53
614.22	1782.00
614.57	1771.85
614.92	1762.48
615.27	1753.79
615.61	1744.01
615.96	1734.58
616.31	1725.62
616.65	1716.92
617.00	1708.29
617.35	1699.15
617.70	1689.50
618.04	1679.70
618.39	1669.92
618.74	1661.12
619.08	1651.49
619.43	1642.50
619.78	1634.42
620.12	1626.26
620.47	1617.54
620.82	1607.92
621.16	1599.10
621.51	1590.16
621.85	1581.15
622.20	1571.25
622.55	1561.29
622.89	1551.99
623.24	1542.91
623.59	1534.14
623.93	1525.22
624.28	1516.69
624.62	1507.96
624.97	1499.44
625.32	1491.36
625.66	1483.12
626.01	1474.67
626.35	1466.16
626.70	1457.10
627.04	1448.13
627.39	1438.89
627.73	1430.24
628.08	1422.22
628.43	1413.92
628.77	1405.59
629.12	1396.90
629.46	1388.57
629.81	1379.92
630.15	1371.44
630.50	1362.99
630.84	1353.54
631.19	1344.33
631.53	1335.40
631.88	1326.57
632.22	1317.81
632.57	1309.32
632.91	1300.62
633.26	1292.07
633.60	1283.32
633.95	1274.97
634.29	1266.59
634.64	1258.68
634.98	1250.11
635.32	1241.80
635.67	1233.97
636.01	1226.07
636.36	1218.28
636.70	1210.62
637.05	1202.89
637.39	1195.40
637.73	1187.71
638.08	1180.84
638.42	1173.98
638.77	1166.56
639.11	1159.06
639.45	1151.67
639.80	1143.99
640.14	1136.58
640.49	1128.94
640.83	1121.67
641.17	1114.53
641.52	1107.39
641.86	1099.95
642.20	1093.17
642.55	1085.77
642.89	1078.40
643.23	1070.76
643.58	1064.06
643.92	1056.97
644.26	1050.19
644.61	1043.16
644.95	1036.34
645.29	1028.78
645.64	1020.95
645.98	1013.56
646.32	1006.59
646.66	999.63
647.01	992.90
647.35	986.37
647.69	979.66
648.04	973.20
648.38	966.57
648.72	959.69
649.06	952.79
649.41	945.94
649.75	939.20
650.09	932.33
650.43	925.72
650.78	918.60
651.12	911.71
651.46	905.08
651.80	898.55
652.14	892.28
652.49	886.16
652.83	880.25
653.17	873.99
653.51	867.62
653.85	861.37
654.20	854.90
654.54	847.94
654.88	841.37
655.22	834.56
655.56	827.98
655.90	821.65
656.25	815.60
656.59	809.54
656.93	803.66
657.27	797.76
657.61	791.50
657.95	785.62
658.29	779.79
658.64	773.67
658.98	767.53
659.32	761.26
659.66	755.32
660.00	749.27
660.34	743.44
660.68	737.74
661.02	731.95
661.36	726.53
661.70	721.37
662.05	716.34
662.39	711.43
662.73	706.34
663.07	701.28
663.41	696.26
663.75	691.08
664.09	685.78
664.43	680.76
664.77	676.04
665.11	671.22
665.45	666.42
665.79	661.83
666.13	657.21
666.47	652.51
666.81	647.79
667.15	643.02
667.49	638.53
667.83	634.04
668.17	629.52
668.51	624.96
668.85	620.31
669.19	615.85
669.53	611.53
669.87	607.12
670.21	602.88
670.55	598.64
670.89	594.71
671.23	590.88
671.57	586.82
671.91	582.84
672.25	578.78
672.58	574.79
672.92	570.80
673.26	567.12
673.60	563.47
673.94	559.85
674.28	556.49
674.62	553.09
674.96	549.68
675.30	546.40
675.64	542.99
675.97	539.82
676.31	536.56
676.65	533.15
676.99	530.00
677.33	526.73
677.67	523.47
678.01	520.05
678.34	516.68
678.68	513.39
679.02	510.13
679.36	506.99
679.70	503.89
680.04	500.76
680.37	497.50
680.71	494.28
681.05	491.30
681.39	488.23
681.73	485.15
682.06	482.24
682.40	479.32
682.74	476.39
683.08	473.46
683.42	470.48
683.75	467.64
684.09	464.71
684.43	461.84
684.77	459.03
685.10	456.27
685.44	453.50
685.78	450.83
686.12	448.23
686.45	445.56
686.79	442.91
687.13	440.37
687.46	437.85
687.80	435.41
688.14	432.78
688.48	430.37
688.81	427.90
689.15	425.34
689.49	422.83
689.82	420.45
690.16	418.01
690.50	415.69
690.83	413.46
691.17	411.11
691.51	408.97
691.84	406.89
692.18	404.72
692.52	402.55
692.85	400.29
693.19	398.09
693.52	395.94
693.86	393.82
694.20	391.78
694.53	389.74
694.87	387.58
695.21	385.56
695.54	383.42
695.88	381.35
696.21	379.36
696.55	377.39
696.88	375.47
697.22	373.62
697.56	371.74
697.89	369.82
698.23	368.02
698.56	366.09
698.90	364.28
699.23	362.40
699.57	360.56
699.90	358.80
700.24	357.05
700.58	355.32
700.91	353.63
701.25	351.93
701.58	350.34
701.92	348.81
702.25	347.27
702.59	345.73
702.92	344.25
703.26	342.77
703.59	341.34
703.93	339.97
704.26	338.54
704.60	337.08
704.93	335.63
705.26	334.21
705.60	332.87
705.93	331.50
706.27	330.25
706.60	329.04
706.94	327.82
707.27	326.53
707.61	325.27
707.94	324.05
708.27	322.81
708.61	321.56
708.94	320.35
709.28	319.16
709.61	318.06
709.94	316.98
710.28	315.81
710.61	314.63
710.95	313.37
711.28	312.30
711.61	311.20
711.95	310.18
712.28	309.06
712.61	307.91
712.95	306.83
713.28	305.83
713.61	304.79
713.95	303.75
714.28	302.79
714.61	301.82
714.95	300.84
715.28	299.86
715.61	298.82
715.95	297.80
716.28	296.85
716.61	295.88
716.95	294.87
717.28	294.00
717.61	293.14
717.94	292.27
718.28	291.31
718.61	290.46
718.94	289.60
719.27	288.83
719.61	288.11
719.94	287.34
720.27	286.53
720.60	285.79
720.94	285.10
721.27	284.42
721.60	283.75
721.93	283.08
722.27	282.41
722.60	281.79
722.93	281.15
723.26	280.54
723.59	279.87
723.93	279.25
724.26	278.61
724.59	277.93
724.92	277.33
725.25	276.75
725.59	276.15
725.92	275.58
726.25	274.99
726.58	274.45
726.91	273.90
727.24	273.33
727.57	272.75
727.91	272.15
728.24	271.57
728.57	270.99
728.90	270.44
729.23	269.93
729.56	269.41
729.89	268.86
730.22	268.25
730.55	267.72
730.89	267.23
731.22	266.75
731.55	266.26
731.88	265.77
732.21	265.29
732.54	264.81
732.87	264.30
733.20	263.83
733.53	263.34
733.86	262.88
734.19	262.47
734.52	262.05
734.85	261.64
735.18	261.16
735.51	260.74
735.84	260.33
736.17	259.90
736.50	259.42
736.83	259.17
737.16	258.81
737.49	258.44
737.82	258.04
738.15	257.67
738.48	257.27
738.81	256.91
739.14	256.55
739.47	256.17
739.80	255.81
740.13	255.45
740.46	255.07
740.79	254.68
741.12	254.29
741.45	253.93
741.78	253.59
742.11	253.28
742.44	252.92
742.77	252.58
743.10	252.25
743.43	251.94
743.75	251.49
744.08	251.28
744.41	250.98
744.74	250.69
745.07	250.37
745.40	250.09
745.73	249.85
746.06	249.54
746.39	249.23
746.71	248.95
747.04	248.65
747.37	248.35
747.70	248.13
748.03	247.88
748.36	247.64
748.68	247.39
749.01	247.13
749.34	246.88
749.67	246.62
750.00	246.37
750.33	246.18
750.65	245.98
750.98	245.60
751.31	245.34
751.64	245.08
751.97	244.88
752.29	244.66
752.62	244.32
752.95	244.10
753.28	243.85
753.60	243.62
753.93	243.45
754.26	243.26
754.59	242.98
754.91	242.69
755.24	242.43
755.57	242.18
755.90	241.98
756.22	241.74
756.55	241.51
756.88	241.25
757.20	240.99
757.53	240.74
757.86	240.58
758.19	240.40
758.51	240.23
758.84	239.98
759.17	239.77
759.49	239.62
759.82	239.45
760.15	239.30
760.47	239.10
760.80	238.84
761.13	238.68
761.45	238.49
761.78	238.34
762.11	238.20
762.43	238.01
762.76	237.82
763.08	237.69
763.41	237.52
763.74	237.37
764.06	237.19
764.39	236.99
764.71	236.79
765.04	236.59
765.37	236.38
765.69	236.25
766.02	236.11
766.34	235.94
766.67	235.77
767.00	235.64
767.32	235.57
767.65	235.51
767.97	235.38
768.30	235.28
768.62	235.14
768.95	234.98
769.27	234.85
769.60	234.73
769.92	234.58
770.25	234.48
770.57	234.35
770.90	234.25
771.22	234.14
771.55	234.03
771.87	233.94
772.20	233.83
772.52	233.77
772.85	233.75
773.17	233.65
773.50	233.51
773.82	233.41
774.15	233.28
774.47	233.12
774.80	232.98
775.12	232.90
775.45	232.81
775.77	232.76
776.09	232.69
776.42	232.60
776.74	232.51
777.07	232.40
777.39	232.32
777.72	232.24
778.04	232.19
778.36	232.09
778.69	232.01
779.01	231.96
779.33	231.81
779.66	231.61
779.98	231.53
780.31	231.50
780.63	231.42
780.95	231.38
781.28	231.30
781.60	231.20
781.92	231.08
782.25	231.02
782.57	230.89
782.89	230.82
783.22	230.74
783.54	230.66
783.86	230.61
784.19	230.55
784.51	230.51
784.83	230.42
785.16	230.40
785.48	230.37
785.80	230.29
786.12	230.26
786.45	230.20
