SpectraSuite Data File
++++++++++++++++++++++++++++++++++++
Date: Fri Feb 01 15:07:16 EST 2013
User: group
Dark Spectrum Present: No
Reference Spectrum Present: No
Number of Sampled Component Spectra: 1
Spectrometers: USB2E7196
Integration Time (usec): 35000 (USB2E7196)
Spectra Averaged: 100 (USB2E7196)
Boxcar Smoothing: 10 (USB2E7196)
Correct for Electrical Dark: No (USB2E7196)
Strobe/Lamp Enabled: No (USB2E7196)
Correct for Detector Non-linearity: No (USB2E7196)
Correct for Stray Light: No (USB2E7196)
Number of Pixels in Processed Spectrum: 2048
>>>>>Begin Processed Spectral Data<<<<<
339.09	0.00
339.48	214.98
339.86	216.12
340.24	217.97
340.63	219.13
341.01	222.20
341.39	222.04
341.78	223.94
342.16	224.51
342.54	225.28
342.93	213.47
343.31	224.26
343.69	224.83
344.07	225.30
344.46	225.75
344.84	226.14
345.22	226.37
345.60	226.61
345.99	226.77
346.37	226.91
346.75	226.99
347.13	227.05
347.52	227.10
347.90	227.16
348.28	227.20
348.66	227.24
349.05	227.20
349.43	227.24
349.81	227.27
350.19	227.34
350.57	227.41
350.96	227.47
351.34	227.56
351.72	227.62
352.10	227.73
352.48	227.78
352.87	227.83
353.25	227.91
353.63	228.01
354.01	228.06
354.39	228.17
354.77	228.28
355.15	228.39
355.54	228.46
355.92	228.51
356.30	228.60
356.68	228.72
357.06	228.78
357.44	228.82
357.82	228.90
358.20	228.99
358.58	229.01
358.97	229.06
359.35	229.09
359.73	229.16
360.11	229.23
360.49	229.31
360.87	229.38
361.25	229.44
361.63	229.49
362.01	229.55
362.39	229.55
362.77	229.59
363.15	229.62
363.53	229.64
363.91	229.65
364.29	229.67
364.67	229.59
365.05	229.63
365.43	229.66
365.81	229.66
366.19	229.67
366.57	229.74
366.95	229.74
367.33	229.73
367.71	229.73
368.09	229.73
368.47	229.68
368.85	229.65
369.23	229.64
369.61	229.58
369.99	229.56
370.37	229.56
370.75	229.56
371.13	229.48
371.51	229.47
371.89	229.47
372.27	229.39
372.65	229.40
373.03	229.36
373.41	229.28
373.78	229.20
374.16	229.09
374.54	228.97
374.92	228.90
375.30	228.84
375.68	228.73
376.06	228.66
376.44	228.58
376.82	228.53
377.19	228.45
377.57	228.36
377.95	228.24
378.33	228.12
378.71	227.96
379.09	227.91
379.47	227.82
379.84	227.71
380.22	227.63
380.60	227.50
380.98	227.42
381.36	227.38
381.73	227.32
382.11	227.26
382.49	227.21
382.87	227.12
383.25	227.05
383.62	227.06
384.00	226.98
384.38	226.91
384.76	226.81
385.13	226.77
385.51	226.71
385.89	226.66
386.27	226.63
386.64	226.62
387.02	226.57
387.40	226.50
387.78	226.43
388.15	226.41
388.53	226.40
388.91	226.35
389.29	226.31
389.66	226.31
390.04	226.30
390.42	226.28
390.79	226.30
391.17	226.29
391.55	226.21
391.92	226.19
392.30	226.22
392.68	226.25
393.05	226.28
393.43	226.29
393.81	226.31
394.18	226.33
394.56	226.28
394.94	226.30
395.31	226.33
395.69	226.43
396.06	226.48
396.44	226.53
396.82	226.62
397.19	226.71
397.57	226.75
397.95	226.87
398.32	226.91
398.70	226.99
399.07	227.09
399.45	227.19
399.82	227.27
400.20	227.33
400.58	227.42
400.95	227.45
401.33	227.57
401.70	227.75
402.08	227.85
402.45	228.01
402.83	228.18
403.20	228.30
403.58	228.42
403.95	228.54
404.33	228.70
404.71	228.80
405.08	228.98
405.46	229.13
405.83	229.28
406.21	229.46
406.58	229.61
406.96	229.79
407.33	229.99
407.70	230.24
408.08	230.53
408.45	230.72
408.83	231.01
409.20	231.26
409.58	231.42
409.95	231.71
410.33	231.99
410.70	232.26
411.08	232.56
411.45	232.84
411.82	233.15
412.20	233.47
412.57	233.88
412.95	234.18
413.32	234.58
413.69	234.99
414.07	235.42
414.44	235.89
414.82	236.36
415.19	236.90
415.56	237.42
415.94	237.95
416.31	238.58
416.68	239.19
417.06	239.89
417.43	240.59
417.81	241.35
418.18	242.09
418.55	242.89
418.93	243.78
419.30	244.71
419.67	245.65
420.04	246.66
420.42	247.64
420.79	248.83
421.16	249.96
421.54	251.13
421.91	252.35
422.28	253.59
422.66	254.88
423.03	256.17
423.40	257.50
423.77	258.91
424.15	260.34
424.52	261.82
424.89	263.43
425.26	265.01
425.64	266.44
426.01	268.04
426.38	269.70
426.75	271.38
427.13	273.07
427.50	274.90
427.87	276.74
428.24	278.58
428.61	280.29
428.99	282.26
429.36	284.34
429.73	286.41
430.10	288.43
430.47	290.53
430.85	292.62
431.22	294.85
431.59	297.25
431.96	299.53
432.33	302.00
432.70	304.39
433.08	307.16
433.45	309.77
433.82	312.46
434.19	315.36
434.56	318.18
434.93	320.82
435.30	323.40
435.68	326.31
436.05	329.17
436.42	332.00
436.79	334.49
437.16	337.16
437.53	339.99
437.90	342.80
438.27	345.57
438.64	348.38
439.01	351.04
439.38	353.27
439.75	355.44
440.13	357.93
440.50	360.26
440.87	362.13
441.24	364.11
441.61	366.18
441.98	367.69
442.35	369.48
442.72	371.39
443.09	373.21
443.46	374.18
443.83	374.81
444.20	375.33
444.57	376.17
444.94	376.49
445.31	376.80
445.68	377.13
446.05	377.16
446.42	376.78
446.79	376.32
447.16	375.87
447.53	375.50
447.90	374.34
448.27	373.17
448.64	371.58
449.01	370.44
449.37	368.49
449.74	366.55
450.11	364.29
450.48	361.83
450.85	359.27
451.22	357.14
451.59	355.10
451.96	353.13
452.33	350.53
452.70	348.23
453.07	345.43
453.43	342.58
453.80	339.81
454.17	337.17
454.54	334.66
454.91	331.92
455.28	329.28
455.65	326.78
456.02	324.33
456.38	322.17
456.75	319.47
457.12	317.24
457.49	315.05
457.86	312.87
458.23	310.98
458.59	308.94
458.96	306.84
459.33	304.93
459.70	303.09
460.07	301.58
460.43	299.80
460.80	298.19
461.17	296.71
461.54	295.20
461.91	293.75
462.27	292.24
462.64	290.97
463.01	289.59
463.38	288.28
463.74	286.91
464.11	285.72
464.48	284.69
464.85	283.58
465.21	282.69
465.58	281.77
465.95	280.64
466.32	279.73
466.68	278.82
467.05	277.93
467.42	277.00
467.78	276.07
468.15	275.22
468.52	274.53
468.88	273.68
469.25	272.93
469.62	272.32
469.98	271.64
470.35	271.03
470.72	270.44
471.08	269.80
471.45	269.25
471.82	268.71
472.18	268.14
472.55	267.67
472.92	267.13
473.28	266.65
473.65	266.22
474.02	265.72
474.38	265.34
474.75	265.00
475.11	264.65
475.48	264.36
475.85	264.11
476.21	263.87
476.58	263.66
476.94	263.49
477.31	263.30
477.67	263.18
478.04	263.02
478.41	262.95
478.77	263.00
479.14	262.90
479.50	262.93
479.87	262.98
480.23	263.03
480.60	263.10
480.96	263.17
481.33	263.38
481.69	263.60
482.06	263.80
482.42	264.01
482.79	264.26
483.15	264.54
483.52	264.91
483.88	265.24
484.25	265.65
484.61	266.09
484.98	266.53
485.34	267.09
485.71	267.68
486.07	268.24
486.44	268.80
486.80	269.54
487.17	270.22
487.53	271.02
487.90	271.89
488.26	272.81
488.62	273.77
488.99	274.72
489.35	275.77
489.72	276.86
490.08	278.05
490.44	279.28
490.81	280.61
491.17	281.94
491.54	283.42
491.90	284.91
492.26	286.54
492.63	288.27
492.99	290.02
493.36	291.92
493.72	293.98
494.08	296.07
494.45	298.27
494.81	300.64
495.17	303.05
495.54	305.63
495.90	308.35
496.26	311.19
496.63	314.14
496.99	317.23
497.35	320.48
497.72	323.91
498.08	327.41
498.44	331.10
498.80	335.00
499.17	339.04
499.53	343.23
499.89	347.62
500.26	352.14
500.62	356.84
500.98	361.76
501.34	366.88
501.71	372.20
502.07	377.62
502.43	383.19
502.79	389.01
503.16	395.03
503.52	401.26
503.88	407.62
504.24	414.23
504.60	421.08
504.97	428.16
505.33	435.42
505.69	443.14
506.05	450.86
506.41	458.75
506.78	466.90
507.14	475.31
507.50	483.96
507.86	492.94
508.22	502.06
508.59	511.27
508.95	520.80
509.31	530.57
509.67	540.67
510.03	550.98
510.39	561.48
510.75	572.29
511.12	583.22
511.48	594.51
511.84	605.98
512.20	617.51
512.56	629.52
512.92	641.73
513.28	653.99
513.64	666.53
514.00	679.20
514.37	692.12
514.73	705.22
515.09	718.36
515.45	731.62
515.81	745.25
516.17	759.27
516.53	773.34
516.89	787.50
517.25	801.74
517.61	816.21
517.97	830.78
518.33	845.24
518.69	860.07
519.05	875.17
519.41	890.42
519.77	905.99
520.13	921.47
520.49	936.82
520.85	952.42
521.21	968.19
521.57	984.47
521.93	1000.35
522.29	1016.86
522.65	1033.11
523.01	1049.45
523.37	1065.61
523.73	1081.89
524.09	1098.07
524.45	1114.49
524.81	1131.16
525.17	1148.11
525.53	1164.97
525.89	1181.93
526.25	1198.72
526.61	1215.06
526.97	1231.88
527.33	1248.38
527.68	1265.14
528.04	1281.70
528.40	1298.35
528.76	1315.45
529.12	1332.10
529.48	1349.11
529.84	1365.23
530.20	1381.81
530.56	1398.88
530.91	1416.35
531.27	1433.06
531.63	1449.64
531.99	1466.34
532.35	1482.32
532.71	1498.13
533.07	1514.54
533.42	1530.47
533.78	1546.66
534.14	1563.02
534.50	1578.38
534.86	1594.37
535.21	1609.50
535.57	1625.49
535.93	1640.98
536.29	1655.83
536.65	1671.09
537.00	1685.97
537.36	1701.27
537.72	1716.16
538.08	1730.66
538.44	1744.55
538.79	1758.58
539.15	1772.38
539.51	1786.23
539.87	1800.74
540.22	1814.70
540.58	1828.60
540.94	1842.14
541.29	1855.25
541.65	1868.04
542.01	1881.36
542.37	1893.73
542.72	1906.29
543.08	1918.20
543.44	1930.71
543.79	1941.95
544.15	1952.99
544.51	1964.41
544.87	1975.48
545.22	1986.20
545.58	1996.50
545.94	2006.19
546.29	2016.18
546.65	2025.94
547.01	2035.19
547.36	2044.00
547.72	2052.45
548.07	2060.31
548.43	2068.55
548.79	2076.42
549.14	2083.97
549.50	2091.44
549.86	2099.13
550.21	2106.48
550.57	2113.68
550.92	2120.34
551.28	2127.58
551.64	2134.58
551.99	2141.22
552.35	2147.37
552.70	2153.35
553.06	2159.19
553.41	2165.64
553.77	2171.65
554.13	2177.89
554.48	2184.01
554.84	2189.33
555.19	2194.67
555.55	2199.71
555.90	2204.08
556.26	2208.91
556.61	2213.68
556.97	2217.72
557.32	2221.89
557.68	2226.10
558.03	2230.35
558.39	2234.00
558.74	2238.47
559.10	2242.32
559.45	2246.04
559.81	2250.37
560.16	2254.30
560.52	2257.63
560.87	2260.97
561.23	2263.53
561.58	2266.25
561.94	2268.69
562.29	2271.12
562.64	2273.71
563.00	2276.37
563.35	2279.77
563.71	2282.96
564.06	2286.09
564.42	2288.96
564.77	2291.22
565.12	2293.34
565.48	2295.24
565.83	2296.97
566.19	2298.23
566.54	2299.17
566.89	2300.00
567.25	2300.33
567.60	2301.56
567.96	2303.00
568.31	2303.75
568.66	2304.69
569.02	2305.17
569.37	2305.31
569.72	2305.95
570.08	2305.86
570.43	2305.67
570.78	2304.83
571.14	2303.13
571.49	2301.53
571.84	2301.10
572.20	2299.97
572.55	2298.85
572.90	2297.05
573.26	2295.50
573.61	2293.72
573.96	2291.67
574.31	2288.60
574.67	2285.49
575.02	2281.71
575.37	2278.27
575.72	2274.16
576.08	2270.74
576.43	2267.40
576.78	2263.72
577.13	2260.51
577.49	2257.42
577.84	2253.89
578.19	2250.16
578.54	2246.43
578.90	2242.22
579.25	2236.57
579.60	2231.44
579.95	2226.12
580.30	2221.01
580.66	2215.84
581.01	2210.61
581.36	2205.64
581.71	2201.36
582.06	2196.76
582.42	2192.23
582.77	2186.85
583.12	2182.31
583.47	2177.43
583.82	2172.19
584.17	2166.78
584.53	2161.04
584.88	2155.24
585.23	2149.23
585.58	2143.73
585.93	2138.26
586.28	2133.39
586.63	2128.28
586.98	2123.14
587.34	2118.36
587.69	2113.47
588.04	2107.94
588.39	2102.25
588.74	2095.79
589.09	2089.49
589.44	2082.65
589.79	2076.56
590.14	2070.93
590.49	2064.22
590.84	2057.77
591.19	2051.71
591.54	2045.12
591.89	2037.57
592.25	2030.68
592.60	2023.40
592.95	2015.64
593.30	2008.06
593.65	2000.41
594.00	1993.22
594.35	1985.99
594.70	1978.00
595.05	1970.52
595.40	1963.21
595.75	1955.65
596.10	1949.14
596.45	1942.40
596.80	1936.13
597.15	1929.27
597.50	1921.93
597.85	1915.51
598.19	1908.88
598.54	1901.69
598.89	1895.12
599.24	1889.34
599.59	1882.59
599.94	1876.39
600.29	1869.98
600.64	1863.39
600.99	1855.79
601.34	1848.97
601.69	1841.87
602.04	1834.75
602.39	1827.49
602.74	1820.65
603.08	1813.92
603.43	1807.29
603.78	1799.95
604.13	1792.80
604.48	1785.38
604.83	1778.61
605.18	1771.50
605.53	1763.37
605.87	1755.37
606.22	1748.12
606.57	1740.27
606.92	1732.81
607.27	1725.53
607.62	1718.64
607.96	1711.34
608.31	1704.66
608.66	1696.90
609.01	1689.34
609.36	1681.83
609.70	1673.80
610.05	1665.64
610.40	1657.93
610.75	1649.52
611.10	1641.94
611.44	1633.63
611.79	1625.70
612.14	1616.99
612.49	1607.89
612.83	1599.65
613.18	1591.64
613.53	1583.57
613.88	1574.89
614.22	1566.72
614.57	1558.29
614.92	1550.20
615.27	1542.55
615.61	1534.29
615.96	1526.45
616.31	1518.88
616.65	1511.49
617.00	1503.87
617.35	1496.27
617.70	1487.86
618.04	1479.25
618.39	1471.02
618.74	1463.27
619.08	1455.14
619.43	1447.70
619.78	1440.73
620.12	1433.49
620.47	1425.89
620.82	1417.65
621.16	1410.34
621.51	1402.78
621.85	1395.13
622.20	1386.66
622.55	1378.44
622.89	1370.74
623.24	1363.06
623.59	1355.70
623.93	1348.38
624.28	1341.28
624.62	1333.77
624.97	1326.71
625.32	1320.22
625.66	1313.11
626.01	1305.91
626.35	1298.48
626.70	1290.65
627.04	1283.04
627.39	1275.31
627.73	1267.96
628.08	1261.03
628.43	1253.63
628.77	1246.21
629.12	1238.68
629.46	1231.58
629.81	1224.17
630.15	1216.88
630.50	1209.48
630.84	1201.36
631.19	1193.36
631.53	1185.85
631.88	1178.40
632.22	1170.84
632.57	1163.49
632.91	1156.09
633.26	1148.76
633.60	1141.39
633.95	1134.44
634.29	1127.41
634.64	1120.71
634.98	1113.40
635.32	1106.40
635.67	1099.97
636.01	1093.41
636.36	1086.61
636.70	1080.14
637.05	1073.66
637.39	1067.30
637.73	1060.84
638.08	1054.99
638.42	1049.07
638.77	1042.65
639.11	1036.11
639.45	1029.76
639.80	1023.12
640.14	1016.64
640.49	1010.10
640.83	1003.83
641.17	997.56
641.52	991.31
641.86	985.03
642.20	979.22
642.55	972.91
642.89	966.38
643.23	959.89
643.58	954.09
643.92	947.84
644.26	941.72
644.61	935.67
644.95	929.68
645.29	923.08
645.64	916.37
645.98	910.03
646.32	904.19
646.66	898.17
647.01	892.34
647.35	886.71
647.69	881.00
648.04	875.57
648.38	869.80
648.72	863.71
649.06	857.54
649.41	851.59
649.75	845.52
650.09	839.55
650.43	833.78
650.78	827.69
651.12	821.76
651.46	816.08
651.80	810.34
652.14	804.92
652.49	799.55
652.83	794.41
653.17	788.71
653.51	782.98
653.85	777.57
654.20	771.97
654.54	765.96
654.88	760.24
655.22	754.32
655.56	748.56
655.90	743.23
656.25	738.06
656.59	732.78
656.93	727.75
657.27	722.60
657.61	717.17
657.95	712.01
658.29	706.97
658.64	701.71
658.98	696.39
659.32	690.94
659.66	685.74
660.00	680.35
660.34	675.51
660.68	670.62
661.02	665.60
661.36	660.87
661.70	656.40
662.05	651.99
662.39	647.68
662.73	643.38
663.07	638.99
663.41	634.52
663.75	630.03
664.09	625.57
664.43	621.25
664.77	617.15
665.11	613.00
665.45	608.89
665.79	604.81
666.13	600.73
666.47	596.68
666.81	592.49
667.15	588.40
667.49	584.50
667.83	580.78
668.17	576.91
668.51	572.91
668.85	568.90
669.19	565.10
669.53	561.24
669.87	557.30
670.21	553.60
670.55	549.97
670.89	546.60
671.23	543.13
671.57	539.59
671.91	536.05
672.25	532.62
672.58	529.16
672.92	525.86
673.26	522.70
673.60	519.54
673.94	516.50
674.28	513.63
674.62	510.68
674.96	507.51
675.30	504.60
675.64	501.68
675.97	498.94
676.31	496.06
676.65	493.18
676.99	490.52
677.33	487.74
677.67	484.96
678.01	481.91
678.34	478.87
678.68	476.04
679.02	473.25
679.36	470.51
679.70	467.79
680.04	464.97
680.37	462.11
680.71	459.36
681.05	456.76
681.39	454.06
681.73	451.45
682.06	448.94
682.40	446.46
682.74	443.94
683.08	441.40
683.42	438.83
683.75	436.38
684.09	433.86
684.43	431.39
684.77	428.95
685.10	426.65
685.44	424.42
685.78	422.17
686.12	419.99
686.45	417.70
686.79	415.44
687.13	413.28
687.46	411.17
687.80	409.05
688.14	406.86
688.48	404.79
688.81	402.51
689.15	400.38
689.49	398.21
689.82	396.16
690.16	394.08
690.50	392.12
690.83	390.14
691.17	388.19
691.51	386.25
691.84	384.39
692.18	382.45
692.52	380.47
692.85	378.58
693.19	376.68
693.52	374.89
693.86	373.08
694.20	371.32
694.53	369.49
694.87	367.62
695.21	365.82
695.54	364.02
695.88	362.32
696.21	360.59
696.55	358.91
696.88	357.20
697.22	355.59
697.56	354.00
697.89	352.33
698.23	350.69
698.56	349.09
698.90	347.47
699.23	345.81
699.57	344.31
699.90	342.78
700.24	341.26
700.58	339.69
700.91	338.21
701.25	336.76
701.58	335.40
701.92	334.09
702.25	332.73
702.59	331.38
702.92	330.10
703.26	328.83
703.59	327.52
703.93	326.39
704.26	325.13
704.60	323.83
704.93	322.57
705.26	321.32
705.60	320.18
705.93	319.06
706.27	318.07
706.60	316.99
706.94	315.90
707.27	314.75
707.61	313.72
707.94	312.68
708.27	311.61
708.61	310.53
708.94	309.49
709.28	308.54
709.61	307.58
709.94	306.61
710.28	305.61
710.61	304.67
710.95	303.56
711.28	302.69
711.61	301.72
711.95	300.83
712.28	299.90
712.61	298.94
712.95	298.01
713.28	297.13
713.61	296.24
713.95	295.36
714.28	294.53
714.61	293.70
714.95	292.86
715.28	292.01
715.61	291.14
715.95	290.30
716.28	289.42
716.61	288.63
716.95	287.85
717.28	287.13
717.61	286.34
717.94	285.64
718.28	284.84
718.61	284.14
718.94	283.47
719.27	282.82
719.61	282.18
719.94	281.51
720.27	280.82
720.60	280.16
720.94	279.54
721.27	278.96
721.60	278.35
721.93	277.77
722.27	277.25
722.60	276.69
722.93	276.14
723.26	275.63
723.59	275.02
723.93	274.46
724.26	273.87
724.59	273.36
724.92	272.89
725.25	272.38
725.59	271.89
725.92	271.38
726.25	270.90
726.58	270.40
726.91	269.92
727.24	269.41
727.57	268.97
727.91	268.47
728.24	268.02
728.57	267.53
728.90	267.06
729.23	266.56
729.56	266.13
729.89	265.63
730.22	265.15
730.55	264.73
730.89	264.30
731.22	263.85
731.55	263.40
731.88	262.96
732.21	262.57
732.54	262.12
732.87	261.73
733.20	261.31
733.53	260.95
733.86	260.60
734.19	260.21
734.52	259.79
734.85	259.48
735.18	259.06
735.51	258.71
735.84	258.31
736.17	257.96
736.50	257.57
736.83	257.37
737.16	257.01
737.49	256.72
737.82	256.37
738.15	256.06
738.48	255.71
738.81	255.36
739.14	255.00
739.47	254.67
739.80	254.32
740.13	254.00
740.46	253.62
740.79	253.24
741.12	252.93
741.45	252.61
741.78	252.28
742.11	251.96
742.44	251.64
742.77	251.37
743.10	251.09
743.43	250.77
743.75	250.40
744.08	250.26
744.41	249.89
744.74	249.61
745.07	249.36
745.40	249.12
745.73	248.88
746.06	248.59
746.39	248.38
746.71	248.11
747.04	247.85
747.37	247.65
747.70	247.43
748.03	247.17
748.36	246.94
748.68	246.70
749.01	246.47
749.34	246.24
749.67	246.02
750.00	245.78
750.33	245.65
750.65	245.42
750.98	245.07
751.31	244.87
751.64	244.67
751.97	244.47
752.29	244.22
752.62	243.95
752.95	243.69
753.28	243.45
753.60	243.23
753.93	243.03
754.26	242.82
754.59	242.61
754.91	242.41
755.24	242.22
755.57	241.98
755.90	241.80
756.22	241.58
756.55	241.38
756.88	241.15
757.20	240.93
757.53	240.73
757.86	240.55
758.19	240.43
758.51	240.26
758.84	240.05
759.17	239.89
759.49	239.76
759.82	239.68
760.15	239.53
760.47	239.39
760.80	239.23
761.13	239.08
761.45	238.93
761.78	238.80
762.11	238.68
762.43	238.57
762.76	238.44
763.08	238.32
763.41	238.21
763.74	238.10
764.06	237.96
764.39	237.82
764.71	237.70
765.04	237.55
765.37	237.41
765.69	237.30
766.02	237.19
766.34	237.07
766.67	236.93
767.00	236.87
767.32	236.80
767.65	236.77
767.97	236.64
768.30	236.52
768.62	236.46
768.95	236.33
769.27	236.24
769.60	236.15
769.92	236.07
770.25	235.93
770.57	235.80
770.90	235.75
771.22	235.63
771.55	235.55
771.87	235.47
772.20	235.36
772.52	235.39
772.85	235.42
773.17	235.28
773.50	235.21
773.82	235.09
774.15	234.98
774.47	234.81
774.80	234.72
775.12	234.65
775.45	234.51
775.77	234.44
776.09	234.33
776.42	234.22
776.74	234.16
777.07	234.08
777.39	234.02
777.72	233.90
778.04	233.88
778.36	233.80
778.69	233.74
779.01	233.69
779.33	233.51
779.66	233.31
779.98	233.27
780.31	233.18
780.63	233.15
780.95	233.10
781.28	233.06
781.60	233.00
781.92	232.92
782.25	232.90
782.57	232.84
782.89	232.78
783.22	232.71
783.54	232.64
783.86	232.61
784.19	232.54
784.51	232.53
784.83	232.48
785.16	232.43
785.48	232.40
785.80	232.36
786.12	232.32
786.45	232.26
786.77	232.20
787.09	232.14
