SpectraSuite Data File
++++++++++++++++++++++++++++++++++++
Date: Fri Feb 01 15:49:15 EST 2013
User: group
Dark Spectrum Present: No
Reference Spectrum Present: No
Number of Sampled Component Spectra: 1
Spectrometers: USB2E7196
Integration Time (usec): 35000 (USB2E7196)
Spectra Averaged: 100 (USB2E7196)
Boxcar Smoothing: 10 (USB2E7196)
Correct for Electrical Dark: No (USB2E7196)
Strobe/Lamp Enabled: No (USB2E7196)
Correct for Detector Non-linearity: No (USB2E7196)
Correct for Stray Light: No (USB2E7196)
Number of Pixels in Processed Spectrum: 2048
>>>>>Begin Processed Spectral Data<<<<<
339.09	0.00
339.48	215.04
339.86	216.40
340.24	217.82
340.63	218.95
341.01	221.69
341.39	221.75
341.78	222.92
342.16	224.18
342.54	224.64
342.93	213.06
343.31	223.85
343.69	224.38
344.07	224.86
344.46	225.28
344.84	225.64
345.22	225.87
345.60	226.10
345.99	226.27
346.37	226.39
346.75	226.47
347.13	226.52
347.52	226.58
347.90	226.64
348.28	226.66
348.66	226.71
349.05	226.70
349.43	226.72
349.81	226.78
350.19	226.82
350.57	226.88
350.96	226.95
351.34	226.98
351.72	227.03
352.10	227.12
352.48	227.16
352.87	227.25
353.25	227.35
353.63	227.41
354.01	227.50
354.39	227.58
354.77	227.66
355.15	227.78
355.54	227.82
355.92	227.88
356.30	227.98
356.68	228.13
357.06	228.20
357.44	228.26
357.82	228.32
358.20	228.35
358.58	228.40
358.97	228.45
359.35	228.54
359.73	228.63
360.11	228.67
360.49	228.73
360.87	228.77
361.25	228.78
361.63	228.89
362.01	228.95
362.39	229.00
362.77	229.05
363.15	229.03
363.53	229.11
363.91	229.14
364.29	229.12
364.67	229.04
365.05	229.06
365.43	229.09
365.81	229.12
366.19	229.19
366.57	229.27
366.95	229.28
367.33	229.27
367.71	229.25
368.09	229.27
368.47	229.29
368.85	229.27
369.23	229.26
369.61	229.18
369.99	229.15
370.37	229.13
370.75	229.19
371.13	229.16
371.51	229.06
371.89	229.00
372.27	229.01
372.65	228.99
373.03	228.90
373.41	228.81
373.78	228.76
374.16	228.69
374.54	228.57
374.92	228.50
375.30	228.41
375.68	228.35
376.06	228.27
376.44	228.15
376.82	228.11
377.19	228.07
377.57	228.03
377.95	227.92
378.33	227.79
378.71	227.63
379.09	227.61
379.47	227.56
379.84	227.48
380.22	227.40
380.60	227.33
380.98	227.28
381.36	227.25
381.73	227.16
382.11	227.07
382.49	227.00
382.87	226.92
383.25	226.86
383.62	226.89
384.00	226.81
384.38	226.78
384.76	226.74
385.13	226.70
385.51	226.63
385.89	226.62
386.27	226.60
386.64	226.56
387.02	226.51
387.40	226.45
387.78	226.44
388.15	226.40
388.53	226.35
388.91	226.32
389.29	226.28
389.66	226.29
390.04	226.29
390.42	226.30
390.79	226.30
391.17	226.30
391.55	226.19
391.92	226.19
392.30	226.19
392.68	226.19
393.05	226.19
393.43	226.19
393.81	226.16
394.18	226.15
394.56	226.17
394.94	226.20
395.31	226.25
395.69	226.30
396.06	226.37
396.44	226.39
396.82	226.43
397.19	226.51
397.57	226.54
397.95	226.60
398.32	226.64
398.70	226.69
399.07	226.77
399.45	226.82
399.82	226.87
400.20	226.94
400.58	227.04
400.95	227.07
401.33	227.20
401.70	227.35
402.08	227.45
402.45	227.56
402.83	227.68
403.20	227.78
403.58	227.89
403.95	227.98
404.33	228.15
404.71	228.29
405.08	228.49
405.46	228.63
405.83	228.77
406.21	228.91
406.58	229.06
406.96	229.23
407.33	229.43
407.70	229.62
408.08	229.89
408.45	230.09
408.83	230.33
409.20	230.51
409.58	230.68
409.95	230.95
410.33	231.23
410.70	231.46
411.08	231.74
411.45	232.00
411.82	232.32
412.20	232.64
412.57	233.05
412.95	233.33
413.32	233.75
413.69	234.17
414.07	234.59
414.44	235.06
414.82	235.56
415.19	236.11
415.56	236.67
415.94	237.19
416.31	237.82
416.68	238.41
417.06	239.15
417.43	239.85
417.81	240.61
418.18	241.39
418.55	242.23
418.93	243.12
419.30	244.05
419.67	245.01
420.04	245.96
420.42	246.94
420.79	248.15
421.16	249.24
421.54	250.39
421.91	251.64
422.28	252.87
422.66	254.18
423.03	255.49
423.40	256.84
423.77	258.24
424.15	259.66
424.52	261.15
424.89	262.73
425.26	264.31
425.64	265.76
426.01	267.35
426.38	268.98
426.75	270.65
427.13	272.36
427.50	274.13
427.87	276.05
428.24	277.89
428.61	279.60
428.99	281.60
429.36	283.70
429.73	285.77
430.10	287.81
430.47	289.87
430.85	291.95
431.22	294.17
431.59	296.56
431.96	298.81
432.33	301.29
432.70	303.70
433.08	306.50
433.45	309.16
433.82	311.74
434.19	314.70
434.56	317.50
434.93	320.16
435.30	322.75
435.68	325.64
436.05	328.47
436.42	331.28
436.79	333.79
437.16	336.50
437.53	339.30
437.90	342.12
438.27	344.89
438.64	347.77
439.01	350.39
439.38	352.62
439.75	354.77
440.13	357.25
440.50	359.54
440.87	361.39
441.24	363.33
441.61	365.49
441.98	366.94
442.35	368.78
442.72	370.64
443.09	372.49
443.46	373.45
443.83	374.02
444.20	374.55
444.57	375.35
444.94	375.64
445.31	376.00
445.68	376.37
446.05	376.43
446.42	376.01
446.79	375.58
447.16	375.10
447.53	374.79
447.90	373.70
448.27	372.56
448.64	370.94
449.01	369.80
449.37	367.83
449.74	365.92
450.11	363.69
450.48	361.21
450.85	358.63
451.22	356.50
451.59	354.49
451.96	352.54
452.33	349.97
452.70	347.58
453.07	344.72
453.43	341.80
453.80	339.04
454.17	336.35
454.54	333.81
454.91	331.12
455.28	328.46
455.65	325.91
456.02	323.46
456.38	321.34
456.75	318.63
457.12	316.37
457.49	314.20
457.86	311.97
458.23	310.09
458.59	308.11
458.96	306.01
459.33	304.18
459.70	302.31
460.07	300.79
460.43	299.09
460.80	297.54
461.17	296.12
461.54	294.64
461.91	293.22
462.27	291.79
462.64	290.54
463.01	289.19
463.38	287.93
463.74	286.54
464.11	285.39
464.48	284.40
464.85	283.30
465.21	282.40
465.58	281.49
465.95	280.43
466.32	279.52
466.68	278.63
467.05	277.71
467.42	276.82
467.78	275.91
468.15	275.07
468.52	274.36
468.88	273.53
469.25	272.75
469.62	272.13
469.98	271.45
470.35	270.81
470.72	270.23
471.08	269.56
471.45	269.05
471.82	268.54
472.18	267.98
472.55	267.58
472.92	267.02
473.28	266.57
473.65	266.14
474.02	265.68
474.38	265.31
474.75	265.00
475.11	264.68
475.48	264.37
475.85	264.12
476.21	263.90
476.58	263.72
476.94	263.56
477.31	263.38
477.67	263.24
478.04	263.17
478.41	263.09
478.77	263.11
479.14	263.06
479.50	263.06
479.87	263.09
480.23	263.16
480.60	263.29
480.96	263.41
481.33	263.61
481.69	263.83
482.06	264.06
482.42	264.25
482.79	264.45
483.15	264.78
483.52	265.16
483.88	265.51
484.25	265.85
484.61	266.29
484.98	266.73
485.34	267.29
485.71	267.85
486.07	268.45
486.44	269.04
486.80	269.70
487.17	270.42
487.53	271.22
487.90	272.04
488.26	272.91
488.62	273.83
488.99	274.76
489.35	275.77
489.72	276.90
490.08	278.07
490.44	279.34
490.81	280.70
491.17	282.03
491.54	283.45
491.90	285.00
492.26	286.61
492.63	288.36
492.99	290.13
493.36	292.06
493.72	294.10
494.08	296.16
494.45	298.39
494.81	300.75
495.17	303.18
495.54	305.78
495.90	308.48
496.26	311.32
496.63	314.31
496.99	317.38
497.35	320.60
497.72	323.99
498.08	327.54
498.44	331.17
498.80	335.06
499.17	339.13
499.53	343.28
499.89	347.64
500.26	352.13
500.62	356.81
500.98	361.71
501.34	366.78
501.71	372.17
502.07	377.64
502.43	383.27
502.79	389.07
503.16	395.14
503.52	401.47
503.88	407.86
504.24	414.53
504.60	421.50
504.97	428.63
505.33	436.00
505.69	443.64
506.05	451.46
506.41	459.35
506.78	467.57
507.14	476.09
507.50	484.88
507.86	493.90
508.22	503.12
508.59	512.34
508.95	521.99
509.31	531.80
509.67	541.89
510.03	552.17
510.39	562.75
510.75	573.55
511.12	584.44
511.48	595.78
511.84	607.22
512.20	618.78
512.56	630.77
512.92	642.95
513.28	655.29
513.64	667.80
514.00	680.60
514.37	693.40
514.73	706.42
515.09	719.34
515.45	732.58
515.81	746.19
516.17	760.22
516.53	774.28
516.89	788.46
517.25	802.72
517.61	817.18
517.97	831.61
518.33	846.00
518.69	860.81
519.05	875.77
519.41	890.90
519.77	906.35
520.13	921.64
520.49	937.01
520.85	952.45
521.21	968.13
521.57	984.30
521.93	1000.19
522.29	1016.59
522.65	1032.96
523.01	1049.30
523.37	1065.30
523.73	1081.42
524.09	1097.44
524.45	1113.77
524.81	1130.38
525.17	1147.12
525.53	1164.05
525.89	1180.96
526.25	1197.78
526.61	1214.22
526.97	1230.94
527.33	1247.45
527.68	1264.12
528.04	1280.56
528.40	1297.13
528.76	1314.17
529.12	1330.83
529.48	1347.68
529.84	1363.60
530.20	1380.22
530.56	1397.15
530.91	1414.56
531.27	1431.34
531.63	1447.91
531.99	1464.44
532.35	1480.45
532.71	1496.23
533.07	1512.41
533.42	1528.40
533.78	1544.46
534.14	1560.69
534.50	1576.05
534.86	1592.01
535.21	1607.26
535.57	1623.24
535.93	1638.73
536.29	1653.51
536.65	1668.51
537.00	1683.36
537.36	1698.69
537.72	1713.06
538.08	1727.54
538.44	1741.26
538.79	1755.15
539.15	1768.77
539.51	1782.44
539.87	1796.62
540.22	1810.48
540.58	1824.33
540.94	1837.58
541.29	1850.44
541.65	1863.01
542.01	1876.24
542.37	1888.39
542.72	1900.77
543.08	1912.51
543.44	1924.89
543.79	1936.09
544.15	1947.06
544.51	1958.55
544.87	1969.62
545.22	1980.47
545.58	1990.65
545.94	2000.40
546.29	2010.20
546.65	2020.02
547.01	2029.40
547.36	2038.25
547.72	2046.71
548.07	2054.40
548.43	2062.52
548.79	2070.48
549.14	2078.11
549.50	2085.39
549.86	2093.20
550.21	2100.51
550.57	2107.73
550.92	2114.39
551.28	2121.41
551.64	2128.49
551.99	2134.99
552.35	2141.09
552.70	2147.22
553.06	2153.26
553.41	2159.55
553.77	2165.61
554.13	2171.78
554.48	2177.79
554.84	2183.12
555.19	2188.45
555.55	2193.67
555.90	2198.16
556.26	2203.14
556.61	2208.03
556.97	2212.37
557.32	2216.32
557.68	2220.44
558.03	2224.73
558.39	2228.39
558.74	2233.18
559.10	2237.09
559.45	2240.72
559.81	2245.06
560.16	2248.88
560.52	2252.06
560.87	2255.57
561.23	2258.28
561.58	2261.14
561.94	2263.65
562.29	2266.06
562.64	2268.69
563.00	2271.47
563.35	2274.99
563.71	2278.10
564.06	2281.11
564.42	2283.83
564.77	2286.48
565.12	2288.75
565.48	2290.68
565.83	2292.53
566.19	2293.76
566.54	2294.57
566.89	2295.65
567.25	2296.04
567.60	2297.39
567.96	2299.03
568.31	2299.76
568.66	2300.88
569.02	2301.43
569.37	2301.86
569.72	2302.68
570.08	2302.68
570.43	2302.55
570.78	2302.00
571.14	2300.30
571.49	2298.95
571.84	2298.77
572.20	2297.62
572.55	2296.59
572.90	2294.89
573.26	2293.51
573.61	2291.91
573.96	2290.10
574.31	2287.18
574.67	2284.19
575.02	2280.66
575.37	2277.24
575.72	2273.42
576.08	2270.14
576.43	2266.86
576.78	2263.00
577.13	2259.87
577.49	2256.93
577.84	2253.23
578.19	2249.53
578.54	2246.07
578.90	2241.72
579.25	2236.18
579.60	2231.06
579.95	2226.04
580.30	2221.13
580.66	2215.96
581.01	2210.94
581.36	2206.07
581.71	2201.97
582.06	2197.71
582.42	2193.13
582.77	2187.87
583.12	2183.33
583.47	2178.52
583.82	2173.43
584.17	2168.23
584.53	2162.72
584.88	2157.10
585.23	2151.62
585.58	2146.05
585.93	2140.55
586.28	2135.92
586.63	2130.79
586.98	2125.82
587.34	2121.03
587.69	2116.00
588.04	2110.70
588.39	2104.97
588.74	2098.55
589.09	2092.29
589.44	2085.39
589.79	2079.41
590.14	2073.80
590.49	2067.23
590.84	2060.75
591.19	2054.83
591.54	2048.53
591.89	2041.05
592.25	2034.14
592.60	2026.80
592.95	2019.21
593.30	2011.85
593.65	2004.25
594.00	1997.16
594.35	1989.90
594.70	1981.89
595.05	1974.75
595.40	1967.42
595.75	1959.84
596.10	1953.67
596.45	1946.98
596.80	1940.71
597.15	1934.08
597.50	1927.02
597.85	1920.61
598.19	1913.98
598.54	1906.79
598.89	1900.06
599.24	1894.22
599.59	1887.55
599.94	1881.48
600.29	1875.11
600.64	1868.43
600.99	1860.97
601.34	1854.17
601.69	1847.23
602.04	1840.44
602.39	1833.06
602.74	1826.25
603.08	1819.69
603.43	1812.90
603.78	1805.55
604.13	1798.39
604.48	1791.02
604.83	1784.17
605.18	1777.20
605.53	1769.19
605.87	1761.17
606.22	1753.84
606.57	1745.94
606.92	1738.65
607.27	1731.37
607.62	1724.55
607.96	1717.33
608.31	1710.65
608.66	1702.96
609.01	1695.41
609.36	1687.77
609.70	1679.73
610.05	1671.67
610.40	1663.76
610.75	1655.33
611.10	1647.67
611.44	1639.35
611.79	1631.37
612.14	1622.65
612.49	1613.43
612.83	1605.14
613.18	1597.02
613.53	1589.04
613.88	1580.53
614.22	1572.17
614.57	1563.62
614.92	1555.49
615.27	1547.82
615.61	1539.47
615.96	1531.55
616.31	1523.93
616.65	1516.54
617.00	1508.97
617.35	1501.20
617.70	1492.88
618.04	1484.44
618.39	1476.22
618.74	1468.59
619.08	1460.37
619.43	1452.72
619.78	1445.91
620.12	1438.61
620.47	1431.18
620.82	1422.90
621.16	1415.42
621.51	1407.89
621.85	1400.18
622.20	1391.69
622.55	1383.45
622.89	1375.71
623.24	1368.05
623.59	1360.64
623.93	1353.13
624.28	1345.94
624.62	1338.47
624.97	1331.29
625.32	1324.59
625.66	1317.61
626.01	1310.40
626.35	1302.85
626.70	1295.19
627.04	1287.40
627.39	1279.71
627.73	1272.26
628.08	1265.39
628.43	1258.13
628.77	1250.72
629.12	1243.18
629.46	1236.00
629.81	1228.57
630.15	1221.28
630.50	1213.90
630.84	1205.66
631.19	1197.79
631.53	1190.30
631.88	1182.78
632.22	1175.28
632.57	1168.00
632.91	1160.33
633.26	1152.85
633.60	1145.51
633.95	1138.41
634.29	1131.45
634.64	1124.78
634.98	1117.40
635.32	1110.30
635.67	1103.71
636.01	1097.10
636.36	1090.24
636.70	1083.74
637.05	1077.19
637.39	1070.72
637.73	1064.19
638.08	1058.34
638.42	1052.24
638.77	1045.76
639.11	1039.16
639.45	1032.75
639.80	1026.02
640.14	1019.68
640.49	1013.23
640.83	1006.88
641.17	1000.62
641.52	994.28
641.86	987.84
642.20	981.97
642.55	975.64
642.89	969.15
643.23	962.57
643.58	956.82
643.92	950.55
644.26	944.42
644.61	938.39
644.95	932.35
645.29	925.73
645.64	919.05
645.98	912.68
646.32	906.86
646.66	900.79
647.01	895.04
647.35	889.33
647.69	883.50
648.04	878.04
648.38	872.25
648.72	866.15
649.06	860.04
649.41	854.17
649.75	848.16
650.09	842.25
650.43	836.44
650.78	830.30
651.12	824.47
651.46	818.72
651.80	812.92
652.14	807.54
652.49	802.16
652.83	796.97
653.17	791.35
653.51	785.59
653.85	780.20
654.20	774.50
654.54	768.49
654.88	762.78
655.22	756.84
655.56	751.15
655.90	745.76
656.25	740.59
656.59	735.21
656.93	730.20
657.27	724.98
657.61	719.54
657.95	714.47
658.29	709.25
658.64	704.06
658.98	698.78
659.32	693.33
659.66	688.18
660.00	682.85
660.34	677.87
660.68	672.95
661.02	667.91
661.36	663.21
661.70	658.72
662.05	654.39
662.39	650.06
662.73	645.61
663.07	641.27
663.41	636.71
663.75	632.20
664.09	627.64
664.43	623.28
664.77	619.18
665.11	614.86
665.45	610.81
665.79	606.73
666.13	602.62
666.47	598.51
666.81	594.29
667.15	590.23
667.49	586.33
667.83	582.58
668.17	578.66
668.51	574.55
668.85	570.51
669.19	566.60
669.53	562.77
669.87	558.84
670.21	555.13
670.55	551.51
670.89	548.06
671.23	544.56
671.57	541.01
671.91	537.46
672.25	533.99
672.58	530.43
672.92	526.95
673.26	523.78
673.60	520.59
673.94	517.48
674.28	514.61
674.62	511.66
674.96	508.54
675.30	505.58
675.64	502.70
675.97	499.96
676.31	497.14
676.65	494.23
676.99	491.55
677.33	488.64
677.67	485.84
678.01	482.80
678.34	479.80
678.68	476.96
679.02	474.16
679.36	471.43
679.70	468.76
680.04	466.07
680.37	463.22
680.71	460.48
681.05	457.89
681.39	455.09
681.73	452.47
682.06	449.96
682.40	447.43
682.74	444.92
683.08	442.34
683.42	439.69
683.75	437.20
684.09	434.69
684.43	432.21
684.77	429.74
685.10	427.44
685.44	425.17
685.78	422.90
686.12	420.70
686.45	418.37
686.79	416.08
687.13	413.92
687.46	411.76
687.80	409.57
688.14	407.39
688.48	405.34
688.81	403.05
689.15	400.87
689.49	398.75
689.82	396.65
690.16	394.58
690.50	392.67
690.83	390.69
691.17	388.68
691.51	386.82
691.84	385.01
692.18	383.05
692.52	381.04
692.85	379.13
693.19	377.22
693.52	375.42
693.86	373.57
694.20	371.77
694.53	369.98
694.87	368.08
695.21	366.28
695.54	364.52
695.88	362.81
696.21	361.09
696.55	359.36
696.88	357.69
697.22	356.04
697.56	354.44
697.89	352.78
698.23	351.16
698.56	349.52
698.90	347.90
699.23	346.24
699.57	344.67
699.90	343.10
700.24	341.58
700.58	340.01
700.91	338.52
701.25	337.05
701.58	335.67
701.92	334.38
702.25	333.02
702.59	331.62
702.92	330.30
703.26	329.03
703.59	327.79
703.93	326.56
704.26	325.30
704.60	323.96
704.93	322.68
705.26	321.43
705.60	320.28
705.93	319.12
706.27	318.09
706.60	317.04
706.94	315.94
707.27	314.80
707.61	313.75
707.94	312.78
708.27	311.68
708.61	310.60
708.94	309.58
709.28	308.55
709.61	307.60
709.94	306.63
710.28	305.62
710.61	304.64
710.95	303.59
711.28	302.70
711.61	301.77
711.95	300.87
712.28	299.92
712.61	298.92
712.95	297.98
713.28	297.15
713.61	296.28
713.95	295.39
714.28	294.57
714.61	293.72
714.95	292.83
715.28	291.98
715.61	291.08
715.95	290.21
716.28	289.35
716.61	288.50
716.95	287.69
717.28	286.91
717.61	286.15
717.94	285.40
718.28	284.57
718.61	283.83
718.94	283.12
719.27	282.48
719.61	281.84
719.94	281.18
720.27	280.43
720.60	279.77
720.94	279.16
721.27	278.54
721.60	277.94
721.93	277.34
722.27	276.79
722.60	276.24
722.93	275.69
723.26	275.18
723.59	274.62
723.93	274.06
724.26	273.54
724.59	272.96
724.92	272.45
725.25	271.97
725.59	271.47
725.92	270.98
726.25	270.47
726.58	270.00
726.91	269.50
727.24	269.06
727.57	268.56
727.91	268.05
728.24	267.58
728.57	267.08
728.90	266.66
729.23	266.15
729.56	265.76
729.89	265.31
730.22	264.82
730.55	264.37
730.89	263.95
731.22	263.48
731.55	263.03
731.88	262.59
732.21	262.13
732.54	261.70
732.87	261.27
733.20	260.87
733.53	260.47
733.86	260.14
734.19	259.72
734.52	259.36
734.85	259.04
735.18	258.67
735.51	258.35
735.84	257.97
736.17	257.60
736.50	257.16
736.83	256.92
737.16	256.59
737.49	256.24
737.82	255.87
738.15	255.53
738.48	255.22
738.81	254.89
739.14	254.56
739.47	254.23
739.80	253.94
740.13	253.65
740.46	253.32
740.79	252.94
741.12	252.63
741.45	252.31
741.78	251.96
742.11	251.66
742.44	251.32
742.77	251.01
743.10	250.74
743.43	250.47
743.75	250.06
744.08	249.91
744.41	249.65
744.74	249.40
745.07	249.13
745.40	248.87
745.73	248.68
746.06	248.43
746.39	248.18
746.71	247.89
747.04	247.58
747.37	247.33
747.70	247.13
748.03	246.87
748.36	246.66
748.68	246.47
749.01	246.19
749.34	245.94
749.67	245.72
750.00	245.52
750.33	245.34
750.65	245.14
750.98	244.78
751.31	244.53
751.64	244.32
751.97	244.17
752.29	243.98
752.62	243.71
752.95	243.46
753.28	243.30
753.60	243.08
753.93	242.94
754.26	242.76
754.59	242.52
754.91	242.34
755.24	242.12
755.57	241.90
755.90	241.73
756.22	241.55
756.55	241.35
756.88	241.13
757.20	240.90
757.53	240.66
757.86	240.52
758.19	240.38
758.51	240.17
758.84	239.94
759.17	239.78
759.49	239.63
759.82	239.55
760.15	239.37
760.47	239.25
760.80	239.06
761.13	238.87
761.45	238.76
761.78	238.58
762.11	238.42
762.43	238.31
762.76	238.19
763.08	238.04
763.41	237.94
763.74	237.79
764.06	237.65
764.39	237.58
764.71	237.44
765.04	237.30
765.37	237.20
765.69	237.10
766.02	236.96
766.34	236.82
766.67	236.65
767.00	236.55
767.32	236.47
767.65	236.40
767.97	236.29
768.30	236.16
768.62	236.07
768.95	235.98
769.27	235.85
769.60	235.76
769.92	235.66
770.25	235.51
770.57	235.42
770.90	235.30
771.22	235.19
771.55	235.09
771.87	234.99
772.20	234.89
772.52	234.82
772.85	234.84
773.17	234.72
773.50	234.63
773.82	234.51
774.15	234.36
774.47	234.22
774.80	234.13
775.12	234.02
775.45	233.95
775.77	233.89
776.09	233.80
776.42	233.70
776.74	233.66
777.07	233.58
777.39	233.50
777.72	233.44
778.04	233.36
778.36	233.31
778.69	233.21
779.01	233.13
779.33	233.00
779.66	232.83
779.98	232.80
780.31	232.73
780.63	232.70
780.95	232.63
781.28	232.56
781.60	232.49
781.92	232.41
782.25	232.34
782.57	232.25
782.89	232.16
783.22	232.09
783.54	231.97
783.86	231.93
784.19	231.89
784.51	231.87
784.83	231.80
785.16	231.71
785.48	231.70
785.80	231.65
786.12	231.66
786.45	231.60
786.77	231.57
787.09	231.53
