SpectraSuite Data File
++++++++++++++++++++++++++++++++++++
Date: Fri Feb 01 18:08:27 EST 2013
User: group
Dark Spectrum Present: No
Reference Spectrum Present: No
Number of Sampled Component Spectra: 1
Spectrometers: USB2E7196
Integration Time (usec): 35000 (USB2E7196)
Spectra Averaged: 100 (USB2E7196)
Boxcar Smoothing: 10 (USB2E7196)
Correct for Electrical Dark: No (USB2E7196)
Strobe/Lamp Enabled: No (USB2E7196)
Correct for Detector Non-linearity: No (USB2E7196)
Correct for Stray Light: No (USB2E7196)
Number of Pixels in Processed Spectrum: 2048
>>>>>Begin Processed Spectral Data<<<<<
339.09	0.00
339.48	213.05
339.86	214.77
340.24	215.85
340.63	217.11
341.01	220.39
341.39	220.58
341.78	221.43
342.16	222.69
342.54	223.53
342.93	211.65
343.31	222.34
343.69	222.90
344.07	223.39
344.46	223.84
344.84	224.23
345.22	224.45
345.60	224.67
345.99	224.84
346.37	224.99
346.75	225.06
347.13	225.11
347.52	225.18
347.90	225.21
348.28	225.25
348.66	225.30
349.05	225.30
349.43	225.32
349.81	225.38
350.19	225.44
350.57	225.53
350.96	225.57
351.34	225.64
351.72	225.72
352.10	225.80
352.48	225.83
352.87	225.88
353.25	225.97
353.63	226.02
354.01	226.11
354.39	226.17
354.77	226.25
355.15	226.34
355.54	226.42
355.92	226.44
356.30	226.50
356.68	226.58
357.06	226.65
357.44	226.71
357.82	226.75
358.20	226.79
358.58	226.86
358.97	226.94
359.35	227.03
359.73	227.10
360.11	227.10
360.49	227.16
360.87	227.21
361.25	227.26
361.63	227.33
362.01	227.39
362.39	227.41
362.77	227.46
363.15	227.48
363.53	227.48
363.91	227.53
364.29	227.56
364.67	227.49
365.05	227.48
365.43	227.48
365.81	227.52
366.19	227.61
366.57	227.64
366.95	227.63
367.33	227.56
367.71	227.55
368.09	227.60
368.47	227.60
368.85	227.59
369.23	227.63
369.61	227.56
369.99	227.55
370.37	227.53
370.75	227.56
371.13	227.50
371.51	227.49
371.89	227.46
372.27	227.42
372.65	227.44
373.03	227.41
373.41	227.40
373.78	227.35
374.16	227.24
374.54	227.14
374.92	227.10
375.30	227.06
375.68	227.00
376.06	226.93
376.44	226.88
376.82	226.82
377.19	226.72
377.57	226.68
377.95	226.59
378.33	226.58
378.71	226.44
379.09	226.40
379.47	226.35
379.84	226.32
380.22	226.26
380.60	226.19
380.98	226.16
381.36	226.07
381.73	226.00
382.11	225.96
382.49	225.90
382.87	225.84
383.25	225.84
383.62	225.89
384.00	225.84
384.38	225.78
384.76	225.80
385.13	225.78
385.51	225.74
385.89	225.68
386.27	225.63
386.64	225.62
387.02	225.57
387.40	225.52
387.78	225.47
388.15	225.43
388.53	225.38
388.91	225.32
389.29	225.31
389.66	225.32
390.04	225.28
390.42	225.27
390.79	225.27
391.17	225.22
391.55	225.10
391.92	225.09
392.30	225.08
392.68	225.01
393.05	224.99
393.43	225.00
393.81	224.99
394.18	224.94
394.56	224.96
394.94	225.01
395.31	224.98
395.69	225.03
396.06	225.06
396.44	225.10
396.82	225.14
397.19	225.19
397.57	225.19
397.95	225.23
398.32	225.26
398.70	225.28
399.07	225.32
399.45	225.37
399.82	225.44
400.20	225.49
400.58	225.56
400.95	225.55
401.33	225.66
401.70	225.84
402.08	225.95
402.45	226.01
402.83	226.09
403.20	226.23
403.58	226.32
403.95	226.44
404.33	226.55
404.71	226.67
405.08	226.89
405.46	227.06
405.83	227.22
406.21	227.40
406.58	227.64
406.96	227.83
407.33	228.07
407.70	228.27
408.08	228.59
408.45	228.86
408.83	229.18
409.20	229.42
409.58	229.67
409.95	229.99
410.33	230.35
410.70	230.68
411.08	231.04
411.45	231.45
411.82	231.87
412.20	232.34
412.57	232.87
412.95	233.28
413.32	233.80
413.69	234.38
414.07	234.97
414.44	235.55
414.82	236.21
415.19	236.92
415.56	237.69
415.94	238.44
416.31	239.32
416.68	240.16
417.06	241.13
417.43	242.02
417.81	243.07
418.18	244.14
418.55	245.28
418.93	246.48
419.30	247.67
419.67	248.98
420.04	250.28
420.42	251.59
420.79	253.15
421.16	254.72
421.54	256.32
421.91	257.98
422.28	259.75
422.66	261.59
423.03	263.35
423.40	265.14
423.77	267.07
424.15	268.99
424.52	271.08
424.89	273.27
425.26	275.40
425.64	277.41
426.01	279.56
426.38	281.85
426.75	284.14
427.13	286.52
427.50	288.95
427.87	291.52
428.24	294.12
428.61	296.51
428.99	299.17
429.36	302.04
429.73	304.86
430.10	307.58
430.47	310.39
430.85	313.32
431.22	316.42
431.59	319.67
431.96	322.74
432.33	326.15
432.70	329.38
433.08	333.23
433.45	336.80
433.82	340.39
434.19	344.31
434.56	348.14
434.93	351.72
435.30	355.30
435.68	359.23
436.05	363.11
436.42	366.97
436.79	370.42
437.16	374.10
437.53	377.98
437.90	381.85
438.27	385.53
438.64	389.39
439.01	392.90
439.38	395.93
439.75	398.93
440.13	402.30
440.50	405.52
440.87	408.02
441.24	410.72
441.61	413.70
441.98	415.76
442.35	418.27
442.72	420.90
443.09	423.36
443.46	424.76
443.83	425.55
444.20	426.26
444.57	427.37
444.94	427.76
445.31	428.21
445.68	428.66
446.05	428.76
446.42	428.23
446.79	427.64
447.16	427.06
447.53	426.57
447.90	424.95
448.27	423.35
448.64	421.21
449.01	419.60
449.37	416.85
449.74	414.21
450.11	411.04
450.48	407.58
450.85	404.12
451.22	401.18
451.59	398.40
451.96	395.67
452.33	392.13
452.70	388.92
453.07	385.10
453.43	381.16
453.80	377.41
454.17	373.71
454.54	370.26
454.91	366.50
455.28	362.88
455.65	359.49
456.02	356.06
456.38	353.13
456.75	349.48
457.12	346.39
457.49	343.39
457.86	340.45
458.23	337.92
458.59	335.12
458.96	332.27
459.33	329.73
459.70	327.19
460.07	325.10
460.43	322.74
460.80	320.44
461.17	318.46
461.54	316.42
461.91	314.51
462.27	312.49
462.64	310.77
463.01	308.89
463.38	307.11
463.74	305.29
464.11	303.67
464.48	302.25
464.85	300.70
465.21	299.45
465.58	298.15
465.95	296.64
466.32	295.40
466.68	294.12
467.05	292.87
467.42	291.64
467.78	290.38
468.15	289.18
468.52	288.26
468.88	287.04
469.25	285.96
469.62	285.05
469.98	284.14
470.35	283.25
470.72	282.39
471.08	281.48
471.45	280.73
471.82	280.00
472.18	279.15
472.55	278.54
472.92	277.80
473.28	277.14
473.65	276.51
474.02	275.86
474.38	275.34
474.75	274.84
475.11	274.33
475.48	273.94
475.85	273.56
476.21	273.20
476.58	272.91
476.94	272.67
477.31	272.44
477.67	272.17
478.04	271.96
478.41	271.87
478.77	271.80
479.14	271.61
479.50	271.48
479.87	271.53
480.23	271.55
480.60	271.53
480.96	271.59
481.33	271.76
481.69	271.89
482.06	272.05
482.42	272.20
482.79	272.39
483.15	272.68
483.52	273.02
483.88	273.31
484.25	273.67
484.61	274.05
484.98	274.44
485.34	275.02
485.71	275.61
486.07	276.19
486.44	276.76
486.80	277.47
487.17	278.25
487.53	279.09
487.90	279.96
488.26	280.97
488.62	281.99
488.99	282.98
489.35	284.06
489.72	285.17
490.08	286.46
490.44	287.74
490.81	289.11
491.17	290.52
491.54	292.11
491.90	293.68
492.26	295.44
492.63	297.24
492.99	299.08
493.36	301.08
493.72	303.23
494.08	305.47
494.45	307.86
494.81	310.38
495.17	312.96
495.54	315.70
495.90	318.52
496.26	321.46
496.63	324.58
496.99	327.91
497.35	331.43
497.72	335.07
498.08	338.91
498.44	342.82
498.80	346.99
499.17	351.27
499.53	355.75
499.89	360.41
500.26	365.25
500.62	370.24
500.98	375.50
501.34	380.93
501.71	386.60
502.07	392.40
502.43	398.38
502.79	404.54
503.16	410.98
503.52	417.64
503.88	424.50
504.24	431.62
504.60	438.97
504.97	446.55
505.33	454.30
505.69	462.50
506.05	470.83
506.41	479.25
506.78	487.97
507.14	497.02
507.50	506.30
507.86	515.96
508.22	525.73
508.59	535.60
508.95	545.80
509.31	556.25
509.67	567.09
510.03	578.12
510.39	589.49
510.75	601.07
511.12	612.86
511.48	624.97
511.84	637.26
512.20	649.64
512.56	662.51
512.92	675.66
513.28	688.98
513.64	702.46
514.00	716.26
514.37	730.23
514.73	744.33
515.09	758.40
515.45	772.76
515.81	787.52
516.17	802.65
516.53	818.03
516.89	833.49
517.25	849.00
517.61	864.71
517.97	880.44
518.33	896.07
518.69	912.19
519.05	928.47
519.41	945.01
519.77	961.85
520.13	978.70
520.49	995.56
520.85	1012.44
521.21	1029.62
521.57	1047.32
521.93	1064.66
522.29	1082.59
522.65	1100.53
523.01	1118.42
523.37	1136.08
523.73	1153.93
524.09	1171.70
524.45	1189.64
524.81	1207.86
525.17	1226.32
525.53	1244.89
525.89	1263.65
526.25	1282.34
526.61	1300.64
526.97	1319.18
527.33	1337.66
527.68	1356.13
528.04	1374.46
528.40	1392.80
528.76	1411.75
529.12	1430.37
529.48	1449.26
529.84	1467.25
530.20	1485.91
530.56	1504.90
530.91	1524.57
531.27	1543.48
531.63	1561.96
531.99	1580.77
532.35	1598.97
532.71	1617.04
533.07	1635.46
533.42	1653.69
533.78	1671.84
534.14	1690.32
534.50	1707.89
534.86	1725.97
535.21	1743.42
535.57	1761.56
535.93	1779.31
536.29	1796.30
536.65	1813.67
537.00	1830.54
537.36	1848.23
537.72	1865.01
538.08	1881.73
538.44	1897.58
538.79	1913.62
539.15	1929.52
539.51	1945.36
539.87	1961.89
540.22	1977.92
540.58	1994.12
540.94	2009.55
541.29	2024.68
541.65	2039.75
542.01	2055.34
542.37	2069.88
542.72	2084.55
543.08	2098.65
543.44	2113.57
543.79	2127.26
544.15	2140.37
544.51	2154.50
544.87	2167.68
545.22	2180.82
545.58	2193.38
545.94	2205.50
546.29	2217.68
546.65	2229.93
547.01	2241.71
547.36	2252.62
547.72	2263.31
548.07	2273.43
548.43	2283.74
548.79	2293.81
549.14	2303.36
549.50	2312.83
549.86	2322.72
550.21	2332.21
550.57	2341.54
550.92	2350.11
551.28	2359.14
551.64	2368.24
551.99	2376.63
552.35	2384.81
552.70	2392.93
553.06	2400.75
553.41	2408.95
553.77	2416.81
554.13	2424.69
554.48	2432.73
554.84	2440.22
555.19	2447.24
555.55	2454.07
555.90	2460.46
556.26	2467.49
556.61	2473.98
556.97	2480.00
557.32	2485.69
557.68	2491.46
558.03	2497.39
558.39	2502.64
558.74	2508.96
559.10	2514.66
559.45	2519.91
559.81	2525.77
560.16	2531.18
560.52	2535.99
560.87	2540.89
561.23	2545.07
561.58	2549.39
561.94	2553.27
562.29	2556.75
562.64	2561.04
563.00	2565.09
563.35	2569.94
563.71	2574.32
564.06	2578.89
564.42	2583.16
564.77	2587.07
565.12	2590.83
565.48	2594.01
565.83	2597.16
566.19	2599.83
566.54	2601.56
566.89	2603.88
567.25	2605.50
567.60	2607.79
567.96	2610.55
568.31	2612.38
568.66	2614.59
569.02	2616.22
569.37	2617.33
569.72	2619.31
570.08	2620.23
570.43	2621.09
570.78	2621.32
571.14	2620.36
571.49	2619.60
571.84	2619.87
572.20	2619.37
572.55	2618.85
572.90	2617.62
573.26	2616.78
573.61	2615.25
573.96	2613.96
574.31	2611.24
574.67	2608.60
575.02	2605.04
575.37	2601.83
575.72	2598.27
576.08	2594.89
576.43	2591.55
576.78	2587.82
577.13	2584.74
577.49	2581.65
577.84	2578.16
578.19	2574.37
578.54	2570.64
578.90	2566.42
579.25	2560.40
579.60	2555.13
579.95	2549.79
580.30	2544.58
580.66	2539.00
581.01	2533.81
581.36	2528.62
581.71	2524.28
582.06	2519.60
582.42	2515.06
582.77	2509.54
583.12	2504.74
583.47	2499.97
583.82	2494.85
584.17	2489.41
584.53	2483.29
584.88	2477.16
585.23	2470.84
585.58	2464.78
585.93	2459.07
586.28	2453.79
586.63	2448.50
586.98	2443.13
587.34	2437.98
587.69	2432.61
588.04	2426.96
588.39	2420.60
588.74	2413.39
589.09	2406.41
589.44	2398.78
589.79	2391.78
590.14	2385.42
590.49	2377.89
590.84	2370.52
591.19	2363.65
591.54	2356.38
591.89	2348.29
592.25	2340.75
592.60	2332.68
592.95	2324.14
593.30	2315.64
593.65	2306.98
594.00	2298.86
594.35	2290.48
594.70	2281.18
595.05	2273.00
595.40	2264.54
595.75	2255.90
596.10	2248.85
596.45	2241.40
596.80	2234.45
597.15	2227.15
597.50	2219.03
597.85	2211.68
598.19	2204.09
598.54	2196.10
598.89	2188.44
599.24	2181.55
599.59	2173.76
599.94	2166.36
600.29	2158.99
600.64	2151.13
600.99	2142.47
601.34	2134.67
601.69	2126.60
602.04	2118.78
602.39	2110.17
602.74	2102.16
603.08	2094.41
603.43	2086.44
603.78	2077.73
604.13	2069.13
604.48	2060.49
604.83	2052.28
605.18	2044.05
605.53	2034.74
605.87	2025.20
606.22	2016.51
606.57	2007.12
606.92	1998.32
607.27	1990.06
607.62	1981.90
607.96	1973.57
608.31	1965.94
608.66	1956.95
609.01	1948.18
609.36	1939.13
609.70	1929.82
610.05	1920.44
610.40	1911.39
610.75	1901.64
611.10	1892.51
611.44	1882.58
611.79	1873.19
612.14	1863.12
612.49	1852.33
612.83	1842.26
613.18	1832.65
613.53	1823.13
613.88	1813.17
614.22	1803.48
614.57	1793.21
614.92	1783.82
615.27	1774.86
615.61	1764.94
615.96	1755.39
616.31	1746.17
616.65	1737.44
617.00	1728.64
617.35	1719.46
617.70	1709.73
618.04	1699.68
618.39	1689.93
618.74	1680.94
619.08	1671.03
619.43	1662.01
619.78	1653.84
620.12	1645.44
620.47	1636.60
620.82	1626.92
621.16	1618.00
621.51	1609.03
621.85	1600.00
622.20	1589.78
622.55	1579.90
622.89	1570.59
623.24	1561.45
623.59	1552.65
623.93	1543.68
624.28	1534.90
624.62	1526.01
624.97	1517.52
625.32	1509.54
625.66	1501.27
626.01	1492.86
626.35	1484.11
626.70	1474.91
627.04	1465.76
627.39	1456.50
627.73	1447.63
628.08	1439.44
628.43	1431.01
628.77	1422.37
629.12	1413.49
629.46	1405.18
629.81	1396.33
630.15	1387.78
630.50	1379.05
630.84	1369.49
631.19	1360.19
631.53	1351.30
631.88	1342.52
632.22	1333.44
632.57	1324.83
632.91	1315.90
633.26	1307.09
633.60	1298.29
633.95	1289.87
634.29	1281.57
634.64	1273.73
634.98	1265.11
635.32	1256.66
635.67	1248.62
636.01	1240.67
636.36	1232.66
636.70	1224.91
637.05	1217.13
637.39	1209.58
637.73	1201.96
638.08	1194.87
638.42	1187.84
638.77	1180.26
639.11	1172.42
639.45	1164.88
639.80	1156.95
640.14	1149.52
640.49	1141.88
640.83	1134.61
641.17	1127.39
641.52	1119.91
641.86	1112.21
642.20	1105.33
642.55	1097.98
642.89	1090.41
643.23	1082.76
643.58	1076.01
643.92	1068.73
644.26	1061.79
644.61	1054.67
644.95	1047.64
645.29	1040.03
645.64	1032.15
645.98	1024.78
646.32	1017.94
646.66	1010.91
647.01	1004.17
647.35	997.33
647.69	990.47
648.04	983.98
648.38	977.19
648.72	970.31
649.06	963.38
649.41	956.42
649.75	949.56
650.09	942.62
650.43	935.92
650.78	928.66
651.12	921.77
651.46	915.05
651.80	908.43
652.14	902.16
652.49	895.86
652.83	889.80
653.17	883.19
653.51	876.53
653.85	870.24
654.20	863.70
654.54	856.77
654.88	850.12
655.22	843.24
655.56	836.55
655.90	830.14
656.25	823.99
656.59	817.83
656.93	811.82
657.27	805.88
657.61	799.44
657.95	793.60
658.29	787.69
658.64	781.48
658.98	775.24
659.32	768.84
659.66	762.89
660.00	756.69
660.34	750.91
660.68	745.13
661.02	739.24
661.36	733.73
661.70	728.50
662.05	723.44
662.39	718.44
662.73	713.25
663.07	708.17
663.41	702.97
663.75	697.68
664.09	692.38
664.43	687.23
664.77	682.52
665.11	677.56
665.45	672.68
665.79	667.94
666.13	663.18
666.47	658.44
666.81	653.56
667.15	648.76
667.49	644.17
667.83	639.79
668.17	635.23
668.51	630.55
668.85	625.89
669.19	621.34
669.53	616.90
669.87	612.44
670.21	608.06
670.55	603.84
670.89	599.89
671.23	595.93
671.57	591.90
671.91	587.77
672.25	583.67
672.58	579.57
672.92	575.62
673.26	571.92
673.60	568.24
673.94	564.65
674.28	561.34
674.62	557.96
674.96	554.34
675.30	550.99
675.64	547.59
675.97	544.37
676.31	541.07
676.65	537.68
676.99	534.58
677.33	531.29
677.67	528.08
678.01	524.59
678.34	521.15
678.68	517.82
679.02	514.56
679.36	511.38
679.70	508.25
680.04	505.07
680.37	501.78
680.71	498.56
681.05	495.49
681.39	492.26
681.73	489.23
682.06	486.33
682.40	483.42
682.74	480.48
683.08	477.53
683.42	474.52
683.75	471.55
684.09	468.49
684.43	465.66
684.77	462.77
685.10	460.01
685.44	457.26
685.78	454.57
686.12	451.92
686.45	449.25
686.79	446.50
687.13	443.94
687.46	441.38
687.80	438.88
688.14	436.29
688.48	433.88
688.81	431.19
689.15	428.68
689.49	426.11
689.82	423.68
690.16	421.23
690.50	418.93
690.83	416.66
691.17	414.36
691.51	412.10
691.84	409.88
692.18	407.67
692.52	405.37
692.85	403.11
693.19	400.94
693.52	398.75
693.86	396.68
694.20	394.54
694.53	392.46
694.87	390.26
695.21	388.15
695.54	386.08
695.88	384.06
696.21	382.02
696.55	380.09
696.88	378.08
697.22	376.14
697.56	374.21
697.89	372.27
698.23	370.45
698.56	368.54
698.90	366.70
699.23	364.79
699.57	362.95
699.90	361.11
700.24	359.27
700.58	357.51
700.91	355.77
701.25	354.11
701.58	352.47
701.92	350.93
702.25	349.34
702.59	347.70
702.92	346.16
703.26	344.64
703.59	343.12
703.93	341.76
704.26	340.31
704.60	338.82
704.93	337.36
705.26	335.90
705.60	334.51
705.93	333.17
706.27	331.94
706.60	330.72
706.94	329.52
707.27	328.21
707.61	326.97
707.94	325.77
708.27	324.48
708.61	323.20
708.94	322.00
709.28	320.82
709.61	319.71
709.94	318.59
710.28	317.40
710.61	316.18
710.95	314.89
711.28	313.79
711.61	312.67
711.95	311.57
712.28	310.46
712.61	309.37
712.95	308.28
713.28	307.23
713.61	306.19
713.95	305.14
714.28	304.20
714.61	303.18
714.95	302.18
715.28	301.17
715.61	300.16
715.95	299.12
716.28	298.12
716.61	297.14
716.95	296.17
717.28	295.32
717.61	294.47
717.94	293.60
718.28	292.69
718.61	291.85
718.94	291.08
719.27	290.33
719.61	289.55
719.94	288.74
720.27	287.91
720.60	287.09
720.94	286.35
721.27	285.66
721.60	284.99
721.93	284.31
722.27	283.68
722.60	283.05
722.93	282.43
723.26	281.85
723.59	281.24
723.93	280.61
724.26	279.94
724.59	279.29
724.92	278.70
725.25	278.09
725.59	277.49
725.92	276.88
726.25	276.25
726.58	275.66
726.91	275.09
727.24	274.55
727.57	274.07
727.91	273.45
728.24	272.84
728.57	272.25
728.90	271.69
729.23	271.11
729.56	270.59
729.89	270.02
730.22	269.40
730.55	268.84
730.89	268.32
731.22	267.78
731.55	267.27
731.88	266.76
732.21	266.28
732.54	265.78
732.87	265.25
733.20	264.77
733.53	264.31
733.86	263.83
734.19	263.36
734.52	262.87
734.85	262.50
735.18	262.02
735.51	261.61
735.84	261.19
736.17	260.80
736.50	260.31
736.83	260.00
737.16	259.60
737.49	259.18
737.82	258.75
738.15	258.36
738.48	257.96
738.81	257.60
739.14	257.20
739.47	256.85
739.80	256.48
740.13	256.14
740.46	255.77
740.79	255.41
741.12	255.04
741.45	254.70
741.78	254.28
742.11	253.96
742.44	253.57
742.77	253.20
743.10	252.79
743.43	252.47
743.75	252.05
744.08	251.86
744.41	251.53
744.74	251.24
745.07	250.93
745.40	250.65
745.73	250.33
746.06	250.03
746.39	249.72
746.71	249.39
747.04	249.06
747.37	248.77
747.70	248.48
748.03	248.19
748.36	247.93
748.68	247.68
749.01	247.42
749.34	247.15
749.67	246.88
750.00	246.67
750.33	246.46
750.65	246.21
750.98	245.85
751.31	245.62
751.64	245.38
751.97	245.16
752.29	244.89
752.62	244.60
752.95	244.35
753.28	244.11
753.60	243.87
753.93	243.68
754.26	243.44
754.59	243.23
754.91	242.96
755.24	242.69
755.57	242.44
755.90	242.21
756.22	242.02
756.55	241.85
756.88	241.62
757.20	241.37
757.53	241.15
757.86	240.94
758.19	240.76
758.51	240.54
758.84	240.31
759.17	240.13
759.49	239.93
759.82	239.75
760.15	239.55
760.47	239.41
760.80	239.19
761.13	239.02
761.45	238.82
761.78	238.70
762.11	238.57
762.43	238.42
762.76	238.23
763.08	238.05
763.41	237.87
763.74	237.69
764.06	237.55
764.39	237.40
764.71	237.26
765.04	237.05
765.37	236.90
765.69	236.78
766.02	236.65
766.34	236.56
766.67	236.44
767.00	236.32
767.32	236.22
767.65	236.15
767.97	236.00
768.30	235.86
768.62	235.69
768.95	235.57
769.27	235.44
769.60	235.36
769.92	235.26
770.25	235.13
770.57	234.98
770.90	234.83
771.22	234.70
771.55	234.57
771.87	234.50
772.20	234.39
772.52	234.33
772.85	234.32
773.17	234.20
773.50	234.07
773.82	233.95
774.15	233.83
774.47	233.65
774.80	233.56
775.12	233.46
775.45	233.38
775.77	233.27
776.09	233.17
776.42	233.07
776.74	232.97
777.07	232.90
777.39	232.86
777.72	232.79
778.04	232.74
778.36	232.68
778.69	232.58
779.01	232.55
779.33	232.40
779.66	232.21
779.98	232.11
780.31	232.03
780.63	232.01
780.95	231.93
781.28	231.86
781.60	231.79
781.92	231.77
782.25	231.70
782.57	231.65
782.89	231.59
783.22	231.49
783.54	231.42
783.86	231.34
784.19	231.25
784.51	231.21
784.83	231.10
785.16	231.01
785.48	230.96
785.80	230.85
786.12	230.78
786.45	230.69
