SpectraSuite Data File
++++++++++++++++++++++++++++++++++++
Date: Fri Feb 01 16:01:09 EST 2013
User: group
Dark Spectrum Present: No
Reference Spectrum Present: No
Number of Sampled Component Spectra: 1
Spectrometers: USB2E7196
Integration Time (usec): 35000 (USB2E7196)
Spectra Averaged: 100 (USB2E7196)
Boxcar Smoothing: 10 (USB2E7196)
Correct for Electrical Dark: No (USB2E7196)
Strobe/Lamp Enabled: No (USB2E7196)
Correct for Detector Non-linearity: No (USB2E7196)
Correct for Stray Light: No (USB2E7196)
Number of Pixels in Processed Spectrum: 2048
>>>>>Begin Processed Spectral Data<<<<<
339.09	0.00
339.48	214.85
339.86	216.16
340.24	217.04
340.63	218.64
341.01	221.87
341.39	221.48
341.78	222.61
342.16	224.04
342.54	224.23
342.93	212.95
343.31	223.70
343.69	224.23
344.07	224.71
344.46	225.16
344.84	225.56
345.22	225.78
345.60	226.04
345.99	226.23
346.37	226.37
346.75	226.48
347.13	226.56
347.52	226.65
347.90	226.72
348.28	226.75
348.66	226.80
349.05	226.83
349.43	226.85
349.81	226.92
350.19	226.93
350.57	227.01
350.96	227.07
351.34	227.16
351.72	227.24
352.10	227.32
352.48	227.38
352.87	227.41
353.25	227.50
353.63	227.57
354.01	227.66
354.39	227.74
354.77	227.85
355.15	227.95
355.54	227.99
355.92	228.01
356.30	228.09
356.68	228.22
357.06	228.23
357.44	228.26
357.82	228.31
358.20	228.38
358.58	228.43
358.97	228.53
359.35	228.60
359.73	228.68
360.11	228.73
360.49	228.79
360.87	228.87
361.25	228.89
361.63	228.93
362.01	228.99
362.39	229.01
362.77	229.03
363.15	229.05
363.53	229.05
363.91	229.09
364.29	229.12
364.67	229.07
365.05	229.14
365.43	229.18
365.81	229.22
366.19	229.28
366.57	229.33
366.95	229.27
367.33	229.23
367.71	229.21
368.09	229.23
368.47	229.22
368.85	229.17
369.23	229.17
369.61	229.15
369.99	229.11
370.37	229.09
370.75	229.11
371.13	229.04
371.51	229.00
371.89	228.97
372.27	228.91
372.65	228.87
373.03	228.78
373.41	228.71
373.78	228.65
374.16	228.54
374.54	228.47
374.92	228.43
375.30	228.37
375.68	228.29
376.06	228.20
376.44	228.15
376.82	228.12
377.19	228.05
377.57	227.95
377.95	227.86
378.33	227.78
378.71	227.66
379.09	227.64
379.47	227.60
379.84	227.49
380.22	227.42
380.60	227.30
380.98	227.25
381.36	227.19
381.73	227.08
382.11	227.05
382.49	226.97
382.87	226.90
383.25	226.86
383.62	226.91
384.00	226.85
384.38	226.78
384.76	226.75
385.13	226.75
385.51	226.71
385.89	226.66
386.27	226.65
386.64	226.61
387.02	226.56
387.40	226.51
387.78	226.51
388.15	226.45
388.53	226.46
388.91	226.43
389.29	226.40
389.66	226.41
390.04	226.37
390.42	226.37
390.79	226.37
391.17	226.35
391.55	226.27
391.92	226.29
392.30	226.32
392.68	226.26
393.05	226.23
393.43	226.27
393.81	226.29
394.18	226.28
394.56	226.29
394.94	226.31
395.31	226.33
395.69	226.38
396.06	226.47
396.44	226.46
396.82	226.50
397.19	226.58
397.57	226.64
397.95	226.70
398.32	226.75
398.70	226.83
399.07	226.90
399.45	226.95
399.82	227.00
400.20	227.06
400.58	227.16
400.95	227.22
401.33	227.27
401.70	227.40
402.08	227.51
402.45	227.60
402.83	227.70
403.20	227.82
403.58	227.92
403.95	228.03
404.33	228.19
404.71	228.32
405.08	228.51
405.46	228.64
405.83	228.77
406.21	228.90
406.58	229.05
406.96	229.19
407.33	229.38
407.70	229.58
408.08	229.83
408.45	230.04
408.83	230.28
409.20	230.48
409.58	230.68
409.95	230.91
410.33	231.15
410.70	231.40
411.08	231.66
411.45	231.95
411.82	232.23
412.20	232.58
412.57	232.97
412.95	233.24
413.32	233.63
413.69	234.03
414.07	234.48
414.44	234.97
414.82	235.47
415.19	235.99
415.56	236.53
415.94	237.05
416.31	237.68
416.68	238.33
417.06	239.05
417.43	239.73
417.81	240.49
418.18	241.31
418.55	242.12
418.93	242.99
419.30	243.88
419.67	244.84
420.04	245.78
420.42	246.76
420.79	247.92
421.16	249.07
421.54	250.26
421.91	251.45
422.28	252.70
422.66	254.04
423.03	255.37
423.40	256.67
423.77	258.08
424.15	259.50
424.52	260.96
424.89	262.59
425.26	264.12
425.64	265.56
426.01	267.13
426.38	268.80
426.75	270.47
427.13	272.22
427.50	274.01
427.87	275.89
428.24	277.76
428.61	279.52
428.99	281.43
429.36	283.54
429.73	285.61
430.10	287.57
430.47	289.62
430.85	291.69
431.22	293.95
431.59	296.38
431.96	298.61
432.33	301.09
432.70	303.48
433.08	306.28
433.45	308.94
433.82	311.59
434.19	314.52
434.56	317.37
434.93	320.01
435.30	322.64
435.68	325.56
436.05	328.39
436.42	331.18
436.79	333.70
437.16	336.43
437.53	339.25
437.90	342.06
438.27	344.82
438.64	347.73
439.01	350.28
439.38	352.49
439.75	354.66
440.13	357.18
440.50	359.47
440.87	361.36
441.24	363.27
441.61	365.43
441.98	366.90
442.35	368.63
442.72	370.43
443.09	372.23
443.46	373.23
443.83	373.83
444.20	374.34
444.57	375.21
444.94	375.46
445.31	375.84
445.68	376.20
446.05	376.25
446.42	375.79
446.79	375.38
447.16	374.94
447.53	374.66
447.90	373.46
448.27	372.34
448.64	370.72
449.01	369.61
449.37	367.63
449.74	365.72
450.11	363.48
450.48	361.07
450.85	358.52
451.22	356.34
451.59	354.29
451.96	352.34
452.33	349.74
452.70	347.41
453.07	344.56
453.43	341.71
453.80	338.96
454.17	336.30
454.54	333.77
454.91	331.04
455.28	328.36
455.65	325.86
456.02	323.39
456.38	321.30
456.75	318.59
457.12	316.32
457.49	314.11
457.86	311.95
458.23	310.09
458.59	308.06
458.96	306.02
459.33	304.19
459.70	302.31
460.07	300.81
460.43	299.04
460.80	297.40
461.17	295.91
461.54	294.41
461.91	293.00
462.27	291.56
462.64	290.27
463.01	288.88
463.38	287.61
463.74	286.23
464.11	285.02
464.48	284.00
464.85	282.85
465.21	281.97
465.58	281.04
465.95	279.95
466.32	279.03
466.68	278.12
467.05	277.23
467.42	276.37
467.78	275.41
468.15	274.54
468.52	273.87
468.88	273.02
469.25	272.25
469.62	271.60
469.98	270.91
470.35	270.29
470.72	269.72
471.08	269.06
471.45	268.55
471.82	268.04
472.18	267.47
472.55	267.07
472.92	266.51
473.28	266.09
473.65	265.65
474.02	265.23
474.38	264.82
474.75	264.48
475.11	264.09
475.48	263.84
475.85	263.67
476.21	263.49
476.58	263.29
476.94	263.17
477.31	263.01
477.67	262.91
478.04	262.80
478.41	262.76
478.77	262.81
479.14	262.74
479.50	262.74
479.87	262.82
480.23	262.90
480.60	262.96
480.96	263.06
481.33	263.25
481.69	263.46
482.06	263.69
482.42	263.87
482.79	264.15
483.15	264.46
483.52	264.78
483.88	265.11
484.25	265.53
484.61	265.92
484.98	266.39
485.34	266.95
485.71	267.55
486.07	268.14
486.44	268.72
486.80	269.42
487.17	270.13
487.53	270.96
487.90	271.83
488.26	272.81
488.62	273.79
488.99	274.78
489.35	275.83
489.72	276.97
490.08	278.21
490.44	279.44
490.81	280.78
491.17	282.17
491.54	283.67
491.90	285.19
492.26	286.88
492.63	288.62
492.99	290.40
493.36	292.31
493.72	294.33
494.08	296.42
494.45	298.62
494.81	300.99
495.17	303.37
495.54	305.93
495.90	308.61
496.26	311.42
496.63	314.36
496.99	317.44
497.35	320.67
497.72	324.07
498.08	327.57
498.44	331.28
498.80	335.22
499.17	339.26
499.53	343.40
499.89	347.76
500.26	352.29
500.62	356.95
500.98	361.92
501.34	367.00
501.71	372.40
502.07	377.89
502.43	383.52
502.79	389.40
503.16	395.48
503.52	401.73
503.88	408.21
504.24	414.89
504.60	421.79
504.97	428.96
505.33	436.26
505.69	444.04
506.05	451.83
506.41	459.71
506.78	467.89
507.14	476.39
507.50	485.12
507.86	494.17
508.22	503.36
508.59	512.54
508.95	522.16
509.31	531.92
509.67	542.10
510.03	552.41
510.39	562.95
510.75	573.77
511.12	584.75
511.48	596.03
511.84	607.48
512.20	618.98
512.56	630.94
512.92	643.15
513.28	655.52
513.64	668.00
514.00	680.67
514.37	693.58
514.73	706.66
515.09	719.74
515.45	733.08
515.81	746.72
516.17	760.70
516.53	774.87
516.89	789.03
517.25	803.11
517.61	817.58
517.97	832.09
518.33	846.52
518.69	861.30
519.05	876.23
519.41	891.34
519.77	906.90
520.13	922.34
520.49	937.73
520.85	953.01
521.21	968.63
521.57	984.94
521.93	1000.70
522.29	1017.12
522.65	1033.28
523.01	1049.48
523.37	1065.41
523.73	1081.63
524.09	1097.57
524.45	1113.87
524.81	1130.51
525.17	1147.26
525.53	1164.10
525.89	1181.02
526.25	1197.90
526.61	1214.29
526.97	1231.11
527.33	1247.47
527.68	1264.09
528.04	1280.43
528.40	1297.15
528.76	1314.41
529.12	1330.98
529.48	1347.80
529.84	1363.79
530.20	1380.57
530.56	1397.56
530.91	1415.04
531.27	1431.77
531.63	1448.23
531.99	1464.72
532.35	1480.68
532.71	1496.52
533.07	1512.73
533.42	1528.51
533.78	1544.51
534.14	1560.78
534.50	1576.03
534.86	1592.04
535.21	1607.13
535.57	1623.10
535.93	1638.43
536.29	1653.04
536.65	1667.99
537.00	1682.74
537.36	1698.07
537.72	1712.47
538.08	1726.68
538.44	1740.36
538.79	1754.15
539.15	1767.89
539.51	1781.59
539.87	1795.84
540.22	1809.55
540.58	1823.23
540.94	1836.57
541.29	1849.30
541.65	1861.89
542.01	1875.20
542.37	1887.42
542.72	1899.75
543.08	1911.53
543.44	1923.98
543.79	1935.19
544.15	1946.23
544.51	1957.89
544.87	1968.80
545.22	1979.47
545.58	1989.79
545.94	1999.62
546.29	2009.50
546.65	2019.22
547.01	2028.58
547.36	2037.28
547.72	2045.70
548.07	2053.36
548.43	2061.57
548.79	2069.84
549.14	2077.35
549.50	2084.63
549.86	2092.41
550.21	2099.81
550.57	2106.93
550.92	2113.46
551.28	2120.43
551.64	2127.47
551.99	2133.92
552.35	2140.06
552.70	2146.31
553.06	2152.25
553.41	2158.64
553.77	2164.67
554.13	2170.80
554.48	2176.82
554.84	2182.35
555.19	2187.75
555.55	2193.06
555.90	2197.45
556.26	2202.21
556.61	2207.03
556.97	2211.19
557.32	2215.19
557.68	2219.29
558.03	2223.65
558.39	2227.48
558.74	2232.23
559.10	2236.03
559.45	2239.75
559.81	2243.92
560.16	2247.83
560.52	2251.11
560.87	2254.37
561.23	2257.16
561.58	2260.26
561.94	2262.83
562.29	2265.15
562.64	2267.85
563.00	2270.49
563.35	2274.13
563.71	2277.28
564.06	2280.51
564.42	2283.37
564.77	2285.84
565.12	2288.11
565.48	2289.93
565.83	2291.72
566.19	2292.93
566.54	2294.01
566.89	2294.97
567.25	2295.53
567.60	2296.71
567.96	2298.40
568.31	2299.34
568.66	2300.38
569.02	2300.77
569.37	2301.10
569.72	2302.07
570.08	2302.08
570.43	2302.22
570.78	2301.45
571.14	2299.87
571.49	2298.56
571.84	2298.33
572.20	2297.35
572.55	2296.33
572.90	2294.89
573.26	2293.55
573.61	2291.87
573.96	2290.13
574.31	2287.41
574.67	2284.56
575.02	2281.08
575.37	2277.68
575.72	2273.92
576.08	2270.61
576.43	2267.43
576.78	2263.74
577.13	2260.63
577.49	2257.61
577.84	2254.22
578.19	2250.60
578.54	2246.97
578.90	2242.66
579.25	2237.13
579.60	2232.07
579.95	2227.02
580.30	2222.03
580.66	2216.91
581.01	2212.00
581.36	2207.03
581.71	2202.74
582.06	2198.29
582.42	2193.67
582.77	2188.59
583.12	2183.94
583.47	2179.26
583.82	2174.17
584.17	2169.02
584.53	2163.43
584.88	2157.76
585.23	2151.84
585.58	2146.34
585.93	2140.82
586.28	2136.05
586.63	2130.92
586.98	2125.88
587.34	2121.37
587.69	2116.33
588.04	2110.98
588.39	2105.30
588.74	2098.77
589.09	2092.61
589.44	2085.69
589.79	2079.82
590.14	2074.03
590.49	2067.66
590.84	2061.25
591.19	2055.24
591.54	2048.68
591.89	2041.21
592.25	2034.36
592.60	2027.18
592.95	2019.54
593.30	2012.15
593.65	2004.52
594.00	1997.63
594.35	1990.37
594.70	1982.30
595.05	1975.13
595.40	1967.94
595.75	1960.44
596.10	1954.33
596.45	1947.67
596.80	1941.77
597.15	1935.07
597.50	1927.96
597.85	1921.26
598.19	1914.61
598.54	1907.52
598.89	1900.90
599.24	1895.17
599.59	1888.44
599.94	1882.33
600.29	1876.11
600.64	1869.68
600.99	1862.40
601.34	1855.57
601.69	1848.63
602.04	1841.69
602.39	1834.39
602.74	1827.49
603.08	1820.71
603.43	1813.96
603.78	1806.61
604.13	1799.21
604.48	1791.80
604.83	1785.06
605.18	1778.16
605.53	1770.01
605.87	1761.97
606.22	1754.76
606.57	1746.72
606.92	1739.51
607.27	1732.26
607.62	1725.30
607.96	1718.05
608.31	1711.34
608.66	1703.56
609.01	1695.97
609.36	1688.35
609.70	1680.40
610.05	1672.32
610.40	1664.65
610.75	1656.34
611.10	1648.70
611.44	1640.36
611.79	1632.50
612.14	1623.77
612.49	1614.63
612.83	1606.37
613.18	1598.22
613.53	1590.18
613.88	1581.68
614.22	1573.38
614.57	1564.72
614.92	1556.65
615.27	1548.95
615.61	1540.63
615.96	1532.77
616.31	1525.15
616.65	1517.77
617.00	1510.18
617.35	1502.59
617.70	1494.11
618.04	1485.56
618.39	1477.27
618.74	1469.68
619.08	1461.31
619.43	1453.77
619.78	1446.93
620.12	1439.67
620.47	1432.13
620.82	1423.93
621.16	1416.53
621.51	1408.96
621.85	1401.41
622.20	1392.83
622.55	1384.58
622.89	1376.68
623.24	1368.99
623.59	1361.69
623.93	1354.12
624.28	1346.77
624.62	1339.20
624.97	1332.27
625.32	1325.47
625.66	1318.46
626.01	1311.12
626.35	1303.68
626.70	1295.87
627.04	1287.95
627.39	1280.23
627.73	1272.85
628.08	1265.97
628.43	1258.59
628.77	1251.18
629.12	1243.60
629.46	1236.51
629.81	1229.08
630.15	1221.86
630.50	1214.49
630.84	1206.18
631.19	1198.37
631.53	1190.92
631.88	1183.36
632.22	1175.66
632.57	1168.31
632.91	1160.67
633.26	1153.31
633.60	1145.95
633.95	1138.79
634.29	1131.76
634.64	1125.07
634.98	1117.74
635.32	1110.50
635.67	1103.99
636.01	1097.38
636.36	1090.50
636.70	1083.94
637.05	1077.30
637.39	1070.84
637.73	1064.27
638.08	1058.39
638.42	1052.32
638.77	1045.88
639.11	1039.27
639.45	1032.91
639.80	1026.24
640.14	1019.86
640.49	1013.35
640.83	1007.07
641.17	1000.87
641.52	994.59
641.86	988.16
642.20	982.28
642.55	975.96
642.89	969.36
643.23	962.85
643.58	957.14
643.92	950.99
644.26	944.94
644.61	938.88
644.95	932.87
645.29	926.22
645.64	919.50
645.98	913.18
646.32	907.36
646.66	901.30
647.01	895.52
647.35	889.84
647.69	884.03
648.04	878.51
648.38	872.62
648.72	866.61
649.06	860.61
649.41	854.71
649.75	848.77
650.09	842.85
650.43	837.04
650.78	830.77
651.12	824.77
651.46	819.00
651.80	813.26
652.14	807.78
652.49	802.49
652.83	797.32
653.17	791.57
653.51	785.77
653.85	780.37
654.20	774.71
654.54	768.67
654.88	762.91
655.22	757.01
655.56	751.38
655.90	745.96
656.25	740.67
656.59	735.33
656.93	730.30
657.27	725.17
657.61	719.70
657.95	714.74
658.29	709.69
658.64	704.52
658.98	699.22
659.32	693.83
659.66	688.59
660.00	683.22
660.34	678.25
660.68	673.44
661.02	668.39
661.36	663.70
661.70	659.19
662.05	654.84
662.39	650.50
662.73	646.04
663.07	641.69
663.41	637.23
663.75	632.76
664.09	628.15
664.43	623.70
664.77	619.57
665.11	615.26
665.45	611.09
665.79	606.97
666.13	602.83
666.47	598.69
666.81	594.60
667.15	590.53
667.49	586.67
667.83	582.84
668.17	578.90
668.51	574.86
668.85	570.87
669.19	567.05
669.53	563.20
669.87	559.25
670.21	555.53
670.55	551.87
670.89	548.40
671.23	544.99
671.57	541.48
671.91	537.94
672.25	534.43
672.58	530.89
672.92	527.47
673.26	524.32
673.60	521.19
673.94	517.98
674.28	515.03
674.62	512.13
674.96	508.95
675.30	506.00
675.64	502.99
675.97	500.19
676.31	497.28
676.65	494.33
676.99	491.73
677.33	488.83
677.67	486.03
678.01	482.97
678.34	479.98
678.68	477.14
679.02	474.28
679.36	471.51
679.70	468.85
680.04	466.12
680.37	463.20
680.71	460.36
681.05	457.74
681.39	455.04
681.73	452.36
682.06	449.86
682.40	447.32
682.74	444.82
683.08	442.25
683.42	439.61
683.75	437.14
684.09	434.53
684.43	432.07
684.77	429.55
685.10	427.25
685.44	424.92
685.78	422.63
686.12	420.44
686.45	418.13
686.79	415.75
687.13	413.53
687.46	411.39
687.80	409.26
688.14	407.11
688.48	405.04
688.81	402.77
689.15	400.62
689.49	398.48
689.82	396.40
690.16	394.34
690.50	392.40
690.83	390.40
691.17	388.42
691.51	386.49
691.84	384.64
692.18	382.66
692.52	380.70
692.85	378.77
693.19	376.87
693.52	375.06
693.86	373.28
694.20	371.48
694.53	369.67
694.87	367.84
695.21	366.01
695.54	364.18
695.88	362.50
696.21	360.78
696.55	359.14
696.88	357.48
697.22	355.87
697.56	354.24
697.89	352.62
698.23	351.01
698.56	349.44
698.90	347.85
699.23	346.20
699.57	344.67
699.90	343.14
700.24	341.58
700.58	340.08
700.91	338.56
701.25	337.16
701.58	335.81
701.92	334.45
702.25	333.08
702.59	331.72
702.92	330.35
703.26	329.04
703.59	327.74
703.93	326.52
704.26	325.27
704.60	323.98
704.93	322.71
705.26	321.45
705.60	320.28
705.93	319.15
706.27	318.13
706.60	317.04
706.94	315.96
707.27	314.87
707.61	313.81
707.94	312.82
708.27	311.70
708.61	310.64
708.94	309.61
709.28	308.65
709.61	307.72
709.94	306.77
710.28	305.73
710.61	304.71
710.95	303.63
711.28	302.68
711.61	301.77
711.95	300.86
712.28	299.94
712.61	298.96
712.95	298.01
713.28	297.13
713.61	296.28
713.95	295.38
714.28	294.53
714.61	293.65
714.95	292.78
715.28	291.89
715.61	290.98
715.95	290.16
716.28	289.30
716.61	288.47
716.95	287.68
717.28	286.95
717.61	286.21
717.94	285.49
718.28	284.75
718.61	283.98
718.94	283.28
719.27	282.63
719.61	281.94
719.94	281.30
720.27	280.57
720.60	279.85
720.94	279.21
721.27	278.62
721.60	278.06
721.93	277.49
722.27	276.97
722.60	276.42
722.93	275.85
723.26	275.30
723.59	274.70
723.93	274.15
724.26	273.58
724.59	273.00
724.92	272.47
725.25	271.94
725.59	271.44
725.92	270.93
726.25	270.41
726.58	269.92
726.91	269.37
727.24	268.88
727.57	268.45
727.91	267.97
728.24	267.49
728.57	266.99
728.90	266.52
729.23	265.98
729.56	265.54
729.89	265.03
730.22	264.54
730.55	264.07
730.89	263.61
731.22	263.19
731.55	262.79
731.88	262.31
732.21	261.90
732.54	261.46
732.87	261.00
733.20	260.58
733.53	260.21
733.86	259.86
734.19	259.44
734.52	259.09
734.85	258.75
735.18	258.38
735.51	257.96
735.84	257.61
736.17	257.28
736.50	256.89
736.83	256.71
737.16	256.41
737.49	256.08
737.82	255.75
738.15	255.40
738.48	255.11
738.81	254.80
739.14	254.47
739.47	254.14
739.80	253.84
740.13	253.57
740.46	253.24
740.79	252.93
741.12	252.66
741.45	252.31
741.78	251.98
742.11	251.66
742.44	251.37
742.77	251.07
743.10	250.81
743.43	250.52
743.75	250.09
744.08	249.97
744.41	249.70
744.74	249.44
745.07	249.16
745.40	248.89
745.73	248.70
746.06	248.42
746.39	248.16
746.71	247.93
747.04	247.63
747.37	247.41
747.70	247.19
748.03	246.94
748.36	246.74
748.68	246.49
749.01	246.25
749.34	246.06
749.67	245.84
750.00	245.62
750.33	245.47
750.65	245.31
750.98	244.94
751.31	244.73
751.64	244.57
751.97	244.42
752.29	244.20
752.62	243.92
752.95	243.72
753.28	243.54
753.60	243.33
753.93	243.16
754.26	242.96
754.59	242.73
754.91	242.52
755.24	242.30
755.57	242.10
755.90	241.89
756.22	241.70
756.55	241.47
756.88	241.27
757.20	241.05
757.53	240.85
757.86	240.69
758.19	240.51
758.51	240.29
758.84	240.06
759.17	239.87
759.49	239.75
759.82	239.63
760.15	239.45
760.47	239.30
760.80	239.13
761.13	239.00
761.45	238.81
761.78	238.68
762.11	238.55
762.43	238.44
762.76	238.32
763.08	238.15
763.41	237.99
763.74	237.84
764.06	237.67
764.39	237.49
764.71	237.35
765.04	237.22
765.37	237.12
765.69	237.00
766.02	236.88
766.34	236.74
766.67	236.59
767.00	236.50
767.32	236.45
767.65	236.39
767.97	236.26
768.30	236.18
768.62	236.04
768.95	235.91
769.27	235.76
769.60	235.66
769.92	235.55
770.25	235.45
770.57	235.32
770.90	235.21
771.22	235.09
771.55	234.99
771.87	234.87
772.20	234.74
772.52	234.74
772.85	234.78
773.17	234.68
773.50	234.57
773.82	234.44
774.15	234.28
774.47	234.14
774.80	234.01
775.12	233.93
775.45	233.86
775.77	233.83
776.09	233.77
776.42	233.68
776.74	233.65
777.07	233.57
777.39	233.55
777.72	233.49
778.04	233.48
778.36	233.39
778.69	233.38
779.01	233.33
779.33	233.21
779.66	233.00
779.98	232.93
780.31	232.87
780.63	232.86
780.95	232.84
781.28	232.77
781.60	232.71
781.92	232.62
782.25	232.58
782.57	232.49
782.89	232.44
783.22	232.41
783.54	232.31
783.86	232.27
784.19	232.20
784.51	232.19
784.83	232.13
785.16	232.09
785.48	232.03
785.80	231.99
786.12	231.91
786.45	231.90
786.77	231.89
787.09	231.86
