SpectraSuite Data File
++++++++++++++++++++++++++++++++++++
Date: Fri Feb 01 17:03:20 EST 2013
User: group
Dark Spectrum Present: No
Reference Spectrum Present: No
Number of Sampled Component Spectra: 1
Spectrometers: USB2E7196
Integration Time (usec): 35000 (USB2E7196)
Spectra Averaged: 100 (USB2E7196)
Boxcar Smoothing: 10 (USB2E7196)
Correct for Electrical Dark: No (USB2E7196)
Strobe/Lamp Enabled: No (USB2E7196)
Correct for Detector Non-linearity: No (USB2E7196)
Correct for Stray Light: No (USB2E7196)
Number of Pixels in Processed Spectrum: 2048
>>>>>Begin Processed Spectral Data<<<<<
339.09	0.00
339.48	213.18
339.86	214.32
340.24	216.39
340.63	217.33
341.01	220.63
341.39	219.93
341.78	221.71
342.16	222.70
342.54	223.33
342.93	211.72
343.31	222.44
343.69	223.01
344.07	223.49
344.46	223.90
344.84	224.29
345.22	224.52
345.60	224.78
345.99	224.96
346.37	225.08
346.75	225.18
347.13	225.28
347.52	225.33
347.90	225.42
348.28	225.44
348.66	225.46
349.05	225.45
349.43	225.50
349.81	225.55
350.19	225.58
350.57	225.59
350.96	225.64
351.34	225.71
351.72	225.78
352.10	225.86
352.48	225.93
352.87	225.98
353.25	226.04
353.63	226.12
354.01	226.18
354.39	226.25
354.77	226.29
355.15	226.37
355.54	226.44
355.92	226.44
356.30	226.49
356.68	226.64
357.06	226.73
357.44	226.77
357.82	226.87
358.20	226.95
358.58	227.04
358.97	227.12
359.35	227.19
359.73	227.26
360.11	227.32
360.49	227.38
360.87	227.39
361.25	227.45
361.63	227.48
362.01	227.52
362.39	227.54
362.77	227.64
363.15	227.68
363.53	227.70
363.91	227.74
364.29	227.76
364.67	227.67
365.05	227.69
365.43	227.74
365.81	227.73
366.19	227.76
366.57	227.79
366.95	227.75
367.33	227.72
367.71	227.72
368.09	227.74
368.47	227.71
368.85	227.70
369.23	227.70
369.61	227.69
369.99	227.70
370.37	227.71
370.75	227.70
371.13	227.65
371.51	227.59
371.89	227.58
372.27	227.58
372.65	227.56
373.03	227.51
373.41	227.43
373.78	227.37
374.16	227.26
374.54	227.16
374.92	227.10
375.30	227.06
375.68	226.96
376.06	226.90
376.44	226.83
376.82	226.80
377.19	226.74
377.57	226.65
377.95	226.53
378.33	226.45
378.71	226.30
379.09	226.24
379.47	226.23
379.84	226.16
380.22	226.07
380.60	225.97
380.98	225.92
381.36	225.86
381.73	225.78
382.11	225.75
382.49	225.74
382.87	225.69
383.25	225.62
383.62	225.68
384.00	225.59
384.38	225.56
384.76	225.53
385.13	225.50
385.51	225.46
385.89	225.42
386.27	225.40
386.64	225.38
387.02	225.31
387.40	225.22
387.78	225.19
388.15	225.17
388.53	225.17
388.91	225.13
389.29	225.08
389.66	225.06
390.04	225.05
390.42	225.02
390.79	224.99
391.17	224.95
391.55	224.85
391.92	224.85
392.30	224.87
392.68	224.83
393.05	224.83
393.43	224.86
393.81	224.89
394.18	224.85
394.56	224.89
394.94	224.94
395.31	224.96
395.69	224.99
396.06	225.02
396.44	225.03
396.82	225.05
397.19	225.12
397.57	225.15
397.95	225.17
398.32	225.17
398.70	225.22
399.07	225.32
399.45	225.34
399.82	225.42
400.20	225.45
400.58	225.52
400.95	225.55
401.33	225.64
401.70	225.79
402.08	225.88
402.45	225.91
402.83	226.02
403.20	226.14
403.58	226.22
403.95	226.31
404.33	226.45
404.71	226.55
405.08	226.73
405.46	226.89
405.83	227.02
406.21	227.19
406.58	227.35
406.96	227.48
407.33	227.67
407.70	227.82
408.08	228.07
408.45	228.28
408.83	228.51
409.20	228.65
409.58	228.82
409.95	229.11
410.33	229.40
410.70	229.60
411.08	229.89
411.45	230.19
411.82	230.49
412.20	230.79
412.57	231.21
412.95	231.48
413.32	231.84
413.69	232.26
414.07	232.68
414.44	233.13
414.82	233.59
415.19	234.14
415.56	234.69
415.94	235.24
416.31	235.89
416.68	236.52
417.06	237.25
417.43	237.93
417.81	238.67
418.18	239.45
418.55	240.28
418.93	241.13
419.30	242.01
419.67	242.95
420.04	243.92
420.42	244.92
420.79	246.09
421.16	247.29
421.54	248.50
421.91	249.71
422.28	250.94
422.66	252.29
423.03	253.60
423.40	254.95
423.77	256.34
424.15	257.71
424.52	259.19
424.89	260.80
425.26	262.32
425.64	263.78
426.01	265.34
426.38	267.02
426.75	268.69
427.13	270.44
427.50	272.23
427.87	274.06
428.24	275.88
428.61	277.59
428.99	279.50
429.36	281.56
429.73	283.63
430.10	285.70
430.47	287.75
430.85	289.83
431.22	292.05
431.59	294.41
431.96	296.67
432.33	299.15
432.70	301.48
433.08	304.24
433.45	306.85
433.82	309.48
434.19	312.36
434.56	315.20
434.93	317.81
435.30	320.41
435.68	323.34
436.05	326.21
436.42	329.03
436.79	331.52
437.16	334.19
437.53	336.98
437.90	339.76
438.27	342.51
438.64	345.29
439.01	347.86
439.38	350.10
439.75	352.23
440.13	354.67
440.50	356.99
440.87	358.84
441.24	360.71
441.61	362.81
441.98	364.30
442.35	366.05
442.72	367.88
443.09	369.68
443.46	370.62
443.83	371.20
444.20	371.69
444.57	372.54
444.94	372.86
445.31	373.24
445.68	373.56
446.05	373.63
446.42	373.28
446.79	372.90
447.16	372.44
447.53	372.18
447.90	371.06
448.27	369.97
448.64	368.47
449.01	367.34
449.37	365.42
449.74	363.50
450.11	361.30
450.48	358.85
450.85	356.34
451.22	354.27
451.59	352.27
451.96	350.40
452.33	347.79
452.70	345.46
453.07	342.63
453.43	339.74
453.80	336.96
454.17	334.31
454.54	331.78
454.91	329.08
455.28	326.40
455.65	323.91
456.02	321.44
456.38	319.29
456.75	316.70
457.12	314.50
457.49	312.29
457.86	310.11
458.23	308.29
458.59	306.22
458.96	304.16
459.33	302.31
459.70	300.46
460.07	298.97
460.43	297.25
460.80	295.66
461.17	294.27
461.54	292.78
461.91	291.38
462.27	289.96
462.64	288.73
463.01	287.40
463.38	286.13
463.74	284.81
464.11	283.65
464.48	282.66
464.85	281.52
465.21	280.68
465.58	279.74
465.95	278.66
466.32	277.81
466.68	276.91
467.05	276.02
467.42	275.11
467.78	274.21
468.15	273.33
468.52	272.66
468.88	271.84
469.25	271.09
469.62	270.49
469.98	269.78
470.35	269.15
470.72	268.56
471.08	267.90
471.45	267.33
471.82	266.80
472.18	266.19
472.55	265.77
472.92	265.27
473.28	264.85
473.65	264.44
474.02	264.04
474.38	263.71
474.75	263.41
475.11	263.07
475.48	262.85
475.85	262.68
476.21	262.43
476.58	262.29
476.94	262.18
477.31	262.03
477.67	261.95
478.04	261.89
478.41	261.87
478.77	261.94
479.14	261.90
479.50	261.97
479.87	262.06
480.23	262.15
480.60	262.26
480.96	262.35
481.33	262.53
481.69	262.71
482.06	262.88
482.42	263.08
482.79	263.35
483.15	263.66
483.52	264.03
483.88	264.39
484.25	264.73
484.61	265.18
484.98	265.61
485.34	266.14
485.71	266.74
486.07	267.35
486.44	267.91
486.80	268.61
487.17	269.32
487.53	270.16
487.90	271.02
488.26	271.94
488.62	272.93
488.99	273.93
489.35	274.98
489.72	276.11
490.08	277.30
490.44	278.52
490.81	279.84
491.17	281.20
491.54	282.73
491.90	284.27
492.26	285.87
492.63	287.62
492.99	289.42
493.36	291.29
493.72	293.32
494.08	295.44
494.45	297.68
494.81	300.05
495.17	302.47
495.54	305.01
495.90	307.66
496.26	310.50
496.63	313.44
496.99	316.54
497.35	319.79
497.72	323.18
498.08	326.67
498.44	330.37
498.80	334.25
499.17	338.30
499.53	342.42
499.89	346.79
500.26	351.27
500.62	355.90
500.98	360.82
501.34	365.89
501.71	371.16
502.07	376.55
502.43	382.11
502.79	387.89
503.16	393.94
503.52	400.17
503.88	406.51
504.24	413.10
504.60	419.83
504.97	426.84
505.33	434.10
505.69	441.81
506.05	449.45
506.41	457.21
506.78	465.24
507.14	473.64
507.50	482.21
507.86	491.12
508.22	500.19
508.59	509.31
508.95	518.74
509.31	528.41
509.67	538.41
510.03	548.58
510.39	559.00
510.75	569.63
511.12	580.33
511.48	591.47
511.84	602.77
512.20	614.19
512.56	625.97
512.92	637.86
513.28	650.10
513.64	662.36
514.00	674.91
514.37	687.70
514.73	700.55
515.09	713.41
515.45	726.40
515.81	739.82
516.17	753.57
516.53	767.39
516.89	781.40
517.25	795.30
517.61	809.46
517.97	823.67
518.33	837.78
518.69	852.41
519.05	867.07
519.41	881.87
519.77	897.14
520.13	912.36
520.49	927.50
520.85	942.41
521.21	957.83
521.57	973.60
521.93	988.98
522.29	1005.05
522.65	1021.00
523.01	1036.98
523.37	1052.60
523.73	1068.39
524.09	1084.21
524.45	1099.97
524.81	1116.20
525.17	1132.59
525.53	1149.10
525.89	1165.63
526.25	1182.10
526.61	1198.20
526.97	1214.68
527.33	1230.81
527.68	1247.01
528.04	1263.18
528.40	1279.50
528.76	1296.14
529.12	1312.46
529.48	1329.00
529.84	1344.51
530.20	1360.72
530.56	1377.23
530.91	1394.33
531.27	1410.76
531.63	1426.93
531.99	1443.31
532.35	1459.03
532.71	1474.61
533.07	1490.50
533.42	1506.18
533.78	1521.87
534.14	1537.79
534.50	1552.76
534.86	1568.19
535.21	1583.06
535.57	1598.68
535.93	1613.74
536.29	1628.31
536.65	1643.01
537.00	1657.35
537.36	1672.55
537.72	1686.66
538.08	1700.83
538.44	1714.26
538.79	1727.77
539.15	1740.97
539.51	1754.38
539.87	1768.48
540.22	1781.86
540.58	1795.17
540.94	1808.02
541.29	1820.45
541.65	1832.77
542.01	1845.69
542.37	1857.73
542.72	1869.82
543.08	1881.19
543.44	1893.42
543.79	1904.46
544.15	1915.28
544.51	1926.72
544.87	1937.30
545.22	1948.01
545.58	1958.09
545.94	1967.69
546.29	1977.43
546.65	1987.15
547.01	1996.30
547.36	2004.71
547.72	2013.16
548.07	2021.04
548.43	2029.14
548.79	2037.06
549.14	2044.50
549.50	2051.62
549.86	2059.09
550.21	2066.34
550.57	2073.59
550.92	2080.05
551.28	2086.98
551.64	2094.03
551.99	2100.51
552.35	2106.72
552.70	2112.76
553.06	2118.73
553.41	2125.05
553.77	2130.99
554.13	2136.96
554.48	2142.93
554.84	2148.52
555.19	2153.62
555.55	2158.89
555.90	2163.22
556.26	2168.23
556.61	2172.99
556.97	2177.55
557.32	2181.87
557.68	2186.01
558.03	2190.36
558.39	2194.13
558.74	2198.82
559.10	2202.72
559.45	2206.30
559.81	2210.55
560.16	2214.55
560.52	2217.94
560.87	2221.30
561.23	2224.09
561.58	2227.19
561.94	2229.72
562.29	2232.02
562.64	2234.98
563.00	2237.64
563.35	2241.41
563.71	2244.54
564.06	2247.71
564.42	2250.60
564.77	2253.27
565.12	2255.80
565.48	2257.75
565.83	2259.85
566.19	2261.31
566.54	2262.24
566.89	2263.74
567.25	2264.55
567.60	2265.88
567.96	2267.60
568.31	2268.70
568.66	2270.03
569.02	2270.76
569.37	2271.46
569.72	2272.72
570.08	2273.05
570.43	2273.19
570.78	2272.90
571.14	2271.84
571.49	2270.82
571.84	2270.62
572.20	2269.82
572.55	2268.83
572.90	2267.30
573.26	2266.10
573.61	2264.52
573.96	2263.16
574.31	2260.27
574.67	2257.47
575.02	2254.17
575.37	2250.93
575.72	2247.46
576.08	2244.09
576.43	2240.99
576.78	2237.60
577.13	2234.45
577.49	2231.38
577.84	2228.27
578.19	2224.61
578.54	2221.13
578.90	2217.29
579.25	2211.90
579.60	2206.94
579.95	2202.37
580.30	2197.64
580.66	2192.55
581.01	2187.85
581.36	2183.04
581.71	2179.20
582.06	2175.08
582.42	2170.89
582.77	2165.92
583.12	2161.50
583.47	2157.26
583.82	2152.45
584.17	2147.44
584.53	2142.16
584.88	2136.91
585.23	2131.26
585.58	2125.95
585.93	2120.56
586.28	2115.74
586.63	2111.04
586.98	2106.33
587.34	2101.72
587.69	2096.99
588.04	2092.05
588.39	2086.59
588.74	2080.35
589.09	2074.31
589.44	2067.66
589.79	2061.53
590.14	2056.05
590.49	2049.58
590.84	2043.24
591.19	2037.42
591.54	2030.99
591.89	2023.97
592.25	2017.34
592.60	2010.29
592.95	2003.02
593.30	1996.00
593.65	1988.51
594.00	1981.60
594.35	1974.47
594.70	1966.43
595.05	1959.62
595.40	1952.41
595.75	1945.04
596.10	1939.07
596.45	1932.64
596.80	1926.72
597.15	1920.41
597.50	1913.66
597.85	1907.42
598.19	1900.92
598.54	1894.15
598.89	1887.73
599.24	1881.92
599.59	1875.43
599.94	1869.28
600.29	1863.12
600.64	1856.54
600.99	1849.45
601.34	1842.66
601.69	1835.75
602.04	1829.25
602.39	1821.87
602.74	1815.27
603.08	1808.70
603.43	1802.06
603.78	1794.73
604.13	1787.60
604.48	1780.53
604.83	1773.72
605.18	1767.10
605.53	1759.29
605.87	1751.36
606.22	1744.29
606.57	1736.32
606.92	1728.90
607.27	1722.03
607.62	1715.25
607.96	1708.15
608.31	1701.83
608.66	1694.48
609.01	1687.13
609.36	1679.61
609.70	1671.77
610.05	1663.87
610.40	1656.25
610.75	1648.01
611.10	1640.58
611.44	1632.22
611.79	1624.28
612.14	1615.70
612.49	1606.45
612.83	1598.11
613.18	1589.89
613.53	1581.88
613.88	1573.45
614.22	1565.38
614.57	1556.65
614.92	1548.66
615.27	1541.26
615.61	1532.86
615.96	1524.73
616.31	1517.13
616.65	1509.81
617.00	1502.27
617.35	1494.59
617.70	1486.42
618.04	1477.99
618.39	1469.64
618.74	1462.20
619.08	1453.88
619.43	1446.26
619.78	1439.41
620.12	1432.31
620.47	1425.00
620.82	1416.87
621.16	1409.54
621.51	1402.01
621.85	1394.43
622.20	1385.97
622.55	1377.48
622.89	1369.63
623.24	1362.18
623.59	1354.84
623.93	1347.36
624.28	1340.16
624.62	1332.71
624.97	1325.51
625.32	1318.60
625.66	1311.66
626.01	1304.39
626.35	1297.09
626.70	1289.39
627.04	1281.75
627.39	1274.06
627.73	1266.62
628.08	1259.69
628.43	1252.44
628.77	1245.06
629.12	1237.63
629.46	1230.51
629.81	1223.07
630.15	1215.93
630.50	1208.54
630.84	1200.36
631.19	1192.46
631.53	1185.03
631.88	1177.45
632.22	1169.99
632.57	1162.81
632.91	1155.26
633.26	1147.93
633.60	1140.57
633.95	1133.38
634.29	1126.30
634.64	1119.60
634.98	1112.39
635.32	1105.28
635.67	1098.74
636.01	1092.08
636.36	1085.33
636.70	1078.78
637.05	1072.35
637.39	1065.90
637.73	1059.42
638.08	1053.54
638.42	1047.55
638.77	1041.12
639.11	1034.56
639.45	1028.07
639.80	1021.45
640.14	1015.22
640.49	1008.79
640.83	1002.44
641.17	996.40
641.52	990.13
641.86	983.56
642.20	977.67
642.55	971.31
642.89	964.82
643.23	958.26
643.58	952.51
643.92	946.39
644.26	940.48
644.61	934.37
644.95	928.33
645.29	921.85
645.64	915.12
645.98	908.74
646.32	902.88
646.66	896.88
647.01	891.11
647.35	885.30
647.69	879.32
648.04	873.85
648.38	868.02
648.72	862.09
649.06	856.22
649.41	850.32
649.75	844.44
650.09	838.60
650.43	832.88
650.78	826.74
651.12	820.77
651.46	814.95
651.80	809.34
652.14	804.03
652.49	798.63
652.83	793.49
653.17	787.99
653.51	782.32
653.85	776.91
654.20	771.34
654.54	765.30
654.88	759.63
655.22	753.69
655.56	748.05
655.90	742.57
656.25	737.32
656.59	731.96
656.93	726.81
657.27	721.67
657.61	716.25
657.95	711.23
658.29	706.15
658.64	700.87
658.98	695.47
659.32	689.95
659.66	684.79
660.00	679.57
660.34	674.64
660.68	669.75
661.02	664.78
661.36	660.10
661.70	655.71
662.05	651.36
662.39	647.14
662.73	642.74
663.07	638.37
663.41	633.91
663.75	629.48
664.09	625.00
664.43	620.62
664.77	616.61
665.11	612.31
665.45	608.18
665.79	604.24
666.13	600.16
666.47	596.15
666.81	592.03
667.15	587.89
667.49	583.96
667.83	580.10
668.17	576.16
668.51	572.17
668.85	568.13
669.19	564.31
669.53	560.55
669.87	556.72
670.21	553.02
670.55	549.44
670.89	545.99
671.23	542.60
671.57	539.15
671.91	535.61
672.25	532.13
672.58	528.69
672.92	525.25
673.26	522.12
673.60	519.01
673.94	515.92
674.28	513.04
674.62	510.13
674.96	507.14
675.30	504.32
675.64	501.37
675.97	498.61
676.31	495.78
676.65	492.83
676.99	490.16
677.33	487.35
677.67	484.52
678.01	481.53
678.34	478.58
678.68	475.65
679.02	472.84
679.36	470.07
679.70	467.39
680.04	464.64
680.37	461.82
680.71	458.96
681.05	456.26
681.39	453.57
681.73	450.88
682.06	448.35
682.40	445.81
682.74	443.32
683.08	440.79
683.42	438.19
683.75	435.72
684.09	433.13
684.43	430.65
684.77	428.23
685.10	425.87
685.44	423.57
685.78	421.32
686.12	419.05
686.45	416.78
686.79	414.44
687.13	412.23
687.46	410.06
687.80	407.95
688.14	405.84
688.48	403.76
688.81	401.56
689.15	399.37
689.49	397.18
689.82	395.07
690.16	392.96
690.50	391.01
690.83	389.07
691.17	387.06
691.51	385.14
691.84	383.30
692.18	381.43
692.52	379.45
692.85	377.49
693.19	375.67
693.52	373.86
693.86	371.99
694.20	370.20
694.53	368.39
694.87	366.51
695.21	364.70
695.54	362.81
695.88	361.05
696.21	359.32
696.55	357.63
696.88	355.89
697.22	354.23
697.56	352.60
697.89	350.97
698.23	349.40
698.56	347.81
698.90	346.24
699.23	344.59
699.57	343.06
699.90	341.49
700.24	339.92
700.58	338.41
700.91	336.97
701.25	335.55
701.58	334.22
701.92	332.86
702.25	331.51
702.59	330.21
702.92	328.90
703.26	327.64
703.59	326.33
703.93	325.18
704.26	323.99
704.60	322.72
704.93	321.42
705.26	320.16
705.60	318.95
705.93	317.75
706.27	316.69
706.60	315.60
706.94	314.58
707.27	313.45
707.61	312.37
707.94	311.37
708.27	310.26
708.61	309.14
708.94	308.14
709.28	307.18
709.61	306.22
709.94	305.25
710.28	304.22
710.61	303.27
710.95	302.19
711.28	301.27
711.61	300.33
711.95	299.44
712.28	298.57
712.61	297.60
712.95	296.66
713.28	295.78
713.61	294.88
713.95	293.98
714.28	293.17
714.61	292.32
714.95	291.43
715.28	290.61
715.61	289.80
715.95	288.92
716.28	288.02
716.61	287.16
716.95	286.37
717.28	285.65
717.61	284.94
717.94	284.14
718.28	283.32
718.61	282.60
718.94	281.87
719.27	281.16
719.61	280.51
719.94	279.88
720.27	279.18
720.60	278.50
720.94	277.86
721.27	277.25
721.60	276.66
721.93	276.11
722.27	275.55
722.60	274.98
722.93	274.43
723.26	273.88
723.59	273.32
723.93	272.74
724.26	272.16
724.59	271.54
724.92	271.05
725.25	270.57
725.59	270.07
725.92	269.58
726.25	269.04
726.58	268.55
726.91	268.03
727.24	267.52
727.57	267.10
727.91	266.56
728.24	266.07
728.57	265.60
728.90	265.10
729.23	264.56
729.56	264.11
729.89	263.64
730.22	263.17
730.55	262.70
730.89	262.27
731.22	261.82
731.55	261.42
731.88	261.00
732.21	260.55
732.54	260.08
732.87	259.64
733.20	259.25
733.53	258.84
733.86	258.47
734.19	258.09
734.52	257.66
734.85	257.36
735.18	256.95
735.51	256.55
735.84	256.16
736.17	255.84
736.50	255.43
736.83	255.16
737.16	254.82
737.49	254.50
737.82	254.19
738.15	253.86
738.48	253.51
738.81	253.19
739.14	252.86
739.47	252.53
739.80	252.18
740.13	251.86
740.46	251.54
740.79	251.23
741.12	250.94
741.45	250.65
741.78	250.31
742.11	250.04
742.44	249.76
742.77	249.49
743.10	249.19
743.43	248.91
743.75	248.56
744.08	248.44
744.41	248.17
744.74	247.90
745.07	247.62
745.40	247.38
745.73	247.15
746.06	246.89
746.39	246.66
746.71	246.43
747.04	246.17
747.37	245.94
747.70	245.69
748.03	245.45
748.36	245.21
748.68	244.97
749.01	244.71
749.34	244.49
749.67	244.29
750.00	244.09
750.33	243.93
750.65	243.75
750.98	243.40
751.31	243.19
751.64	242.99
751.97	242.83
752.29	242.62
752.62	242.37
752.95	242.18
753.28	241.99
753.60	241.80
753.93	241.62
754.26	241.43
754.59	241.24
754.91	241.04
755.24	240.86
755.57	240.65
755.90	240.49
756.22	240.31
756.55	240.10
756.88	239.91
757.20	239.69
757.53	239.48
757.86	239.32
758.19	239.18
758.51	239.00
758.84	238.83
759.17	238.66
759.49	238.51
759.82	238.37
760.15	238.23
760.47	238.11
760.80	237.93
761.13	237.80
761.45	237.65
761.78	237.50
762.11	237.36
762.43	237.23
762.76	237.05
763.08	236.89
763.41	236.77
763.74	236.63
764.06	236.48
764.39	236.34
764.71	236.17
765.04	236.03
765.37	235.88
765.69	235.71
766.02	235.58
766.34	235.47
766.67	235.34
767.00	235.18
767.32	235.06
767.65	235.00
767.97	234.85
768.30	234.72
768.62	234.59
768.95	234.47
769.27	234.37
769.60	234.25
769.92	234.11
770.25	233.99
770.57	233.86
770.90	233.78
771.22	233.65
771.55	233.55
771.87	233.45
772.20	233.35
772.52	233.32
772.85	233.37
773.17	233.24
773.50	233.12
773.82	233.04
774.15	232.90
774.47	232.76
774.80	232.66
775.12	232.57
775.45	232.45
775.77	232.37
776.09	232.30
776.42	232.24
776.74	232.20
777.07	232.12
777.39	232.05
777.72	231.96
778.04	231.92
778.36	231.86
778.69	231.78
779.01	231.73
779.33	231.58
779.66	231.39
779.98	231.34
780.31	231.26
780.63	231.23
780.95	231.19
781.28	231.14
781.60	231.07
781.92	231.02
782.25	231.00
782.57	230.95
782.89	230.88
783.22	230.82
783.54	230.73
783.86	230.68
784.19	230.60
784.51	230.57
784.83	230.50
785.16	230.46
785.48	230.44
785.80	230.37
786.12	230.33
786.45	230.27
786.77	230.22
787.09	230.20
