SpectraSuite Data File
++++++++++++++++++++++++++++++++++++
Date: Fri Feb 01 15:26:38 EST 2013
User: group
Dark Spectrum Present: No
Reference Spectrum Present: No
Number of Sampled Component Spectra: 1
Spectrometers: USB2E7196
Integration Time (usec): 35000 (USB2E7196)
Spectra Averaged: 100 (USB2E7196)
Boxcar Smoothing: 10 (USB2E7196)
Correct for Electrical Dark: No (USB2E7196)
Strobe/Lamp Enabled: No (USB2E7196)
Correct for Detector Non-linearity: No (USB2E7196)
Correct for Stray Light: No (USB2E7196)
Number of Pixels in Processed Spectrum: 2048
>>>>>Begin Processed Spectral Data<<<<<
339.09	0.00
339.48	215.21
339.86	215.94
340.24	217.82
340.63	219.51
341.01	221.93
341.39	221.48
341.78	224.16
342.16	224.71
342.54	225.28
342.93	213.52
343.31	224.31
343.69	224.86
344.07	225.32
344.46	225.76
344.84	226.15
345.22	226.42
345.60	226.70
345.99	226.85
346.37	227.00
346.75	227.06
347.13	227.13
347.52	227.20
347.90	227.25
348.28	227.25
348.66	227.32
349.05	227.32
349.43	227.37
349.81	227.39
350.19	227.44
350.57	227.45
350.96	227.53
351.34	227.56
351.72	227.64
352.10	227.80
352.48	227.88
352.87	227.91
353.25	227.97
353.63	228.04
354.01	228.12
354.39	228.17
354.77	228.27
355.15	228.35
355.54	228.40
355.92	228.45
356.30	228.54
356.68	228.65
357.06	228.71
357.44	228.74
357.82	228.82
358.20	228.89
358.58	228.97
358.97	229.03
359.35	229.16
359.73	229.21
360.11	229.27
360.49	229.32
360.87	229.37
361.25	229.40
361.63	229.49
362.01	229.52
362.39	229.56
362.77	229.60
363.15	229.63
363.53	229.65
363.91	229.68
364.29	229.71
364.67	229.64
365.05	229.69
365.43	229.74
365.81	229.72
366.19	229.76
366.57	229.80
366.95	229.80
367.33	229.74
367.71	229.74
368.09	229.70
368.47	229.68
368.85	229.66
369.23	229.67
369.61	229.58
369.99	229.57
370.37	229.54
370.75	229.52
371.13	229.46
371.51	229.42
371.89	229.40
372.27	229.34
372.65	229.28
373.03	229.22
373.41	229.14
373.78	229.09
374.16	228.98
374.54	228.87
374.92	228.77
375.30	228.70
375.68	228.62
376.06	228.55
376.44	228.46
376.82	228.40
377.19	228.32
377.57	228.24
377.95	228.14
378.33	228.05
378.71	227.93
379.09	227.85
379.47	227.77
379.84	227.67
380.22	227.61
380.60	227.54
380.98	227.45
381.36	227.35
381.73	227.25
382.11	227.19
382.49	227.14
382.87	227.10
383.25	227.05
383.62	227.07
384.00	227.00
384.38	226.93
384.76	226.90
385.13	226.86
385.51	226.83
385.89	226.77
386.27	226.70
386.64	226.69
387.02	226.66
387.40	226.60
387.78	226.55
388.15	226.51
388.53	226.47
388.91	226.44
389.29	226.46
389.66	226.44
390.04	226.39
390.42	226.38
390.79	226.37
391.17	226.33
391.55	226.25
391.92	226.25
392.30	226.28
392.68	226.25
393.05	226.23
393.43	226.21
393.81	226.21
394.18	226.24
394.56	226.26
394.94	226.31
395.31	226.32
395.69	226.38
396.06	226.43
396.44	226.45
396.82	226.47
397.19	226.56
397.57	226.63
397.95	226.69
398.32	226.73
398.70	226.81
399.07	226.91
399.45	226.99
399.82	227.07
400.20	227.10
400.58	227.20
400.95	227.29
401.33	227.42
401.70	227.60
402.08	227.73
402.45	227.84
402.83	227.93
403.20	228.08
403.58	228.19
403.95	228.33
404.33	228.47
404.71	228.62
405.08	228.80
405.46	228.93
405.83	229.14
406.21	229.28
406.58	229.44
406.96	229.63
407.33	229.79
407.70	229.98
408.08	230.30
408.45	230.53
408.83	230.75
409.20	230.97
409.58	231.14
409.95	231.38
410.33	231.64
410.70	231.90
411.08	232.19
411.45	232.50
411.82	232.81
412.20	233.17
412.57	233.59
412.95	233.90
413.32	234.32
413.69	234.68
414.07	235.11
414.44	235.61
414.82	236.06
415.19	236.63
415.56	237.17
415.94	237.66
416.31	238.29
416.68	238.91
417.06	239.63
417.43	240.31
417.81	241.07
418.18	241.87
418.55	242.71
418.93	243.57
419.30	244.46
419.67	245.36
420.04	246.29
420.42	247.27
420.79	248.45
421.16	249.58
421.54	250.79
421.91	251.97
422.28	253.19
422.66	254.50
423.03	255.76
423.40	257.09
423.77	258.52
424.15	259.94
424.52	261.42
424.89	263.01
425.26	264.55
425.64	265.99
426.01	267.56
426.38	269.19
426.75	270.87
427.13	272.61
427.50	274.43
427.87	276.35
428.24	278.26
428.61	279.99
428.99	281.94
429.36	284.04
429.73	286.13
430.10	288.18
430.47	290.26
430.85	292.39
431.22	294.63
431.59	297.03
431.96	299.26
432.33	301.76
432.70	304.14
433.08	307.02
433.45	309.71
433.82	312.33
434.19	315.26
434.56	318.08
434.93	320.71
435.30	323.33
435.68	326.24
436.05	329.04
436.42	331.86
436.79	334.38
437.16	337.05
437.53	339.88
437.90	342.72
438.27	345.47
438.64	348.36
439.01	350.96
439.38	353.17
439.75	355.37
440.13	357.85
440.50	360.17
440.87	361.96
441.24	363.91
441.61	366.09
441.98	367.58
442.35	369.40
442.72	371.25
443.09	373.11
443.46	374.04
443.83	374.60
444.20	375.08
444.57	375.92
444.94	376.25
445.31	376.59
445.68	376.87
446.05	376.95
446.42	376.54
446.79	376.11
447.16	375.68
447.53	375.37
447.90	374.19
448.27	373.08
448.64	371.50
449.01	370.36
449.37	368.36
449.74	366.45
450.11	364.21
450.48	361.74
450.85	359.21
451.22	357.08
451.59	355.04
451.96	353.09
452.33	350.49
452.70	348.12
453.07	345.30
453.43	342.41
453.80	339.61
454.17	336.94
454.54	334.38
454.91	331.63
455.28	328.97
455.65	326.52
456.02	324.02
456.38	321.86
456.75	319.14
457.12	316.86
457.49	314.67
457.86	312.50
458.23	310.66
458.59	308.58
458.96	306.51
459.33	304.68
459.70	302.81
460.07	301.31
460.43	299.57
460.80	297.93
461.17	296.55
461.54	295.07
461.91	293.60
462.27	292.17
462.64	290.91
463.01	289.53
463.38	288.26
463.74	286.91
464.11	285.74
464.48	284.78
464.85	283.70
465.21	282.80
465.58	281.85
465.95	280.74
466.32	279.81
466.68	278.87
467.05	278.01
467.42	277.16
467.78	276.21
468.15	275.33
468.52	274.69
468.88	273.78
469.25	273.01
469.62	272.40
469.98	271.71
470.35	271.09
470.72	270.44
471.08	269.76
471.45	269.21
471.82	268.66
472.18	268.03
472.55	267.60
472.92	267.08
473.28	266.60
473.65	266.12
474.02	265.70
474.38	265.36
474.75	265.01
475.11	264.63
475.48	264.34
475.85	264.10
476.21	263.84
476.58	263.67
476.94	263.51
477.31	263.34
477.67	263.18
478.04	263.08
478.41	263.04
478.77	263.07
479.14	263.02
479.50	263.00
479.87	263.08
480.23	263.13
480.60	263.20
480.96	263.29
481.33	263.51
481.69	263.71
482.06	263.86
482.42	264.04
482.79	264.31
483.15	264.63
483.52	265.02
483.88	265.41
484.25	265.80
484.61	266.26
484.98	266.75
485.34	267.33
485.71	267.89
486.07	268.50
486.44	269.06
486.80	269.75
487.17	270.52
487.53	271.32
487.90	272.18
488.26	273.08
488.62	274.09
488.99	275.08
489.35	276.12
489.72	277.28
490.08	278.50
490.44	279.68
490.81	281.02
491.17	282.36
491.54	283.83
491.90	285.39
492.26	287.02
492.63	288.70
492.99	290.43
493.36	292.34
493.72	294.37
494.08	296.47
494.45	298.72
494.81	301.10
495.17	303.47
495.54	306.04
495.90	308.74
496.26	311.48
496.63	314.41
496.99	317.53
497.35	320.75
497.72	324.14
498.08	327.67
498.44	331.35
498.80	335.28
499.17	339.33
499.53	343.46
499.89	347.85
500.26	352.39
500.62	357.09
500.98	362.09
501.34	367.15
501.71	372.48
502.07	377.92
502.43	383.54
502.79	389.42
503.16	395.48
503.52	401.80
503.88	408.23
504.24	414.90
504.60	421.79
504.97	428.97
505.33	436.31
505.69	444.03
506.05	451.77
506.41	459.65
506.78	467.76
507.14	476.21
507.50	484.86
507.86	493.89
508.22	503.06
508.59	512.23
508.95	521.85
509.31	531.69
509.67	541.79
510.03	552.06
510.39	562.61
510.75	573.46
511.12	584.38
511.48	595.64
511.84	607.01
512.20	618.54
512.56	630.47
512.92	642.65
513.28	655.02
513.64	667.59
514.00	680.30
514.37	693.19
514.73	706.29
515.09	719.42
515.45	732.77
515.81	746.36
516.17	760.33
516.53	774.48
516.89	788.65
517.25	802.80
517.61	817.31
517.97	831.79
518.33	846.18
518.69	860.96
519.05	876.10
519.41	891.41
519.77	907.03
520.13	922.51
520.49	937.88
520.85	953.35
521.21	969.09
521.57	985.43
521.93	1001.40
522.29	1017.84
522.65	1034.11
523.01	1050.32
523.37	1066.47
523.73	1082.72
524.09	1098.77
524.45	1115.19
524.81	1131.94
525.17	1148.82
525.53	1165.73
525.89	1182.69
526.25	1199.55
526.61	1215.97
526.97	1232.70
527.33	1249.16
527.68	1265.95
528.04	1282.56
528.40	1299.32
528.76	1316.38
529.12	1332.98
529.48	1349.78
529.84	1365.82
530.20	1382.48
530.56	1399.53
530.91	1416.96
531.27	1433.80
531.63	1450.36
531.99	1467.01
532.35	1483.11
532.71	1499.01
533.07	1515.38
533.42	1531.25
533.78	1547.22
534.14	1563.49
534.50	1578.96
534.86	1594.87
535.21	1610.06
535.57	1626.02
535.93	1641.59
536.29	1656.55
536.65	1671.67
537.00	1686.49
537.36	1701.80
537.72	1716.44
538.08	1730.98
538.44	1744.81
538.79	1758.84
539.15	1772.70
539.51	1786.49
539.87	1800.90
540.22	1814.83
540.58	1828.64
540.94	1842.16
541.29	1855.38
541.65	1868.12
542.01	1881.42
542.37	1893.83
542.72	1906.18
543.08	1918.05
543.44	1930.45
543.79	1941.72
544.15	1952.78
544.51	1964.46
544.87	1975.61
545.22	1986.45
545.58	1996.72
545.94	2006.50
546.29	2016.34
546.65	2026.15
547.01	2035.35
547.36	2044.10
547.72	2052.43
548.07	2060.24
548.43	2068.39
548.79	2076.39
549.14	2083.93
549.50	2091.40
549.86	2099.15
550.21	2106.46
550.57	2113.58
550.92	2120.15
551.28	2127.24
551.64	2134.25
551.99	2140.80
552.35	2146.95
552.70	2153.22
553.06	2159.05
553.41	2165.46
553.77	2171.65
554.13	2177.71
554.48	2183.91
554.84	2189.23
555.19	2194.52
555.55	2199.73
555.90	2204.20
556.26	2209.06
556.61	2213.88
556.97	2217.80
557.32	2221.87
557.68	2226.08
558.03	2230.50
558.39	2234.18
558.74	2238.76
559.10	2242.60
559.45	2246.22
559.81	2250.56
560.16	2254.18
560.52	2257.63
560.87	2261.06
561.23	2263.52
561.58	2266.49
561.94	2268.90
562.29	2271.34
562.64	2274.07
563.00	2276.61
563.35	2280.11
563.71	2283.22
564.06	2286.36
564.42	2289.30
564.77	2291.78
565.12	2293.90
565.48	2295.60
565.83	2297.37
566.19	2298.63
566.54	2299.77
566.89	2300.97
567.25	2301.44
567.60	2302.76
567.96	2304.21
568.31	2305.01
568.66	2306.02
569.02	2306.47
569.37	2306.76
569.72	2307.55
570.08	2307.59
570.43	2307.66
570.78	2306.87
571.14	2305.33
571.49	2304.04
571.84	2303.82
572.20	2302.58
572.55	2301.55
572.90	2300.06
573.26	2298.61
573.61	2296.94
573.96	2294.91
574.31	2291.86
574.67	2288.79
575.02	2285.14
575.37	2281.73
575.72	2277.88
576.08	2274.59
576.43	2271.37
576.78	2267.66
577.13	2264.49
577.49	2261.35
577.84	2257.77
578.19	2254.10
578.54	2250.30
578.90	2245.91
579.25	2240.37
579.60	2235.44
579.95	2230.37
580.30	2225.31
580.66	2220.09
581.01	2214.97
581.36	2210.12
581.71	2205.79
582.06	2201.10
582.42	2196.52
582.77	2191.22
583.12	2186.55
583.47	2181.67
583.82	2176.49
584.17	2171.23
584.53	2165.61
584.88	2159.87
585.23	2153.95
585.58	2148.46
585.93	2142.86
586.28	2138.09
586.63	2132.68
586.98	2127.42
587.34	2122.72
587.69	2117.64
588.04	2112.23
588.39	2106.37
588.74	2099.75
589.09	2093.53
589.44	2086.81
589.79	2080.76
590.14	2075.03
590.49	2068.36
590.84	2061.87
591.19	2055.74
591.54	2049.27
591.89	2041.70
592.25	2034.84
592.60	2027.61
592.95	2019.94
593.30	2012.71
593.65	2005.06
594.00	1998.17
594.35	1990.90
594.70	1982.77
595.05	1975.55
595.40	1968.30
595.75	1960.84
596.10	1954.59
596.45	1947.68
596.80	1941.44
597.15	1934.70
597.50	1927.49
597.85	1921.16
598.19	1914.48
598.54	1907.45
598.89	1900.61
599.24	1894.73
599.59	1887.94
599.94	1881.78
600.29	1875.36
600.64	1868.62
600.99	1860.98
601.34	1853.89
601.69	1846.94
602.04	1839.91
602.39	1832.48
602.74	1825.65
603.08	1818.90
603.43	1812.06
603.78	1804.92
604.13	1797.72
604.48	1790.35
604.83	1783.54
605.18	1776.32
605.53	1768.30
605.87	1760.04
606.22	1752.77
606.57	1744.76
606.92	1737.33
607.27	1729.97
607.62	1722.97
607.96	1715.68
608.31	1709.15
608.66	1701.55
609.01	1693.94
609.36	1686.36
609.70	1678.31
610.05	1670.14
610.40	1662.34
610.75	1654.00
611.10	1646.30
611.44	1638.01
611.79	1630.08
612.14	1621.44
612.49	1612.29
612.83	1603.93
613.18	1595.87
613.53	1587.80
613.88	1579.33
614.22	1571.16
614.57	1562.62
614.92	1554.62
615.27	1546.91
615.61	1538.44
615.96	1530.47
616.31	1522.80
616.65	1515.47
617.00	1507.96
617.35	1500.43
617.70	1492.16
618.04	1483.54
618.39	1475.13
618.74	1467.35
619.08	1458.92
619.43	1451.32
619.78	1444.48
620.12	1437.30
620.47	1429.77
620.82	1421.68
621.16	1414.30
621.51	1406.71
621.85	1399.10
622.20	1390.60
622.55	1382.32
622.89	1374.57
623.24	1366.99
623.59	1359.70
623.93	1352.19
624.28	1344.95
624.62	1337.21
624.97	1330.02
625.32	1323.36
625.66	1316.45
626.01	1309.23
626.35	1301.86
626.70	1294.09
627.04	1286.25
627.39	1278.44
627.73	1271.13
628.08	1264.15
628.43	1256.76
628.77	1249.33
629.12	1241.72
629.46	1234.51
629.81	1227.17
630.15	1219.81
630.50	1212.40
630.84	1204.10
631.19	1196.17
631.53	1188.67
631.88	1181.22
632.22	1173.53
632.57	1166.34
632.91	1158.85
633.26	1151.53
633.60	1144.21
633.95	1137.10
634.29	1130.25
634.64	1123.60
634.98	1116.19
635.32	1109.10
635.67	1102.60
636.01	1096.06
636.36	1089.36
636.70	1082.93
637.05	1076.37
637.39	1070.11
637.73	1063.57
638.08	1057.71
638.42	1051.72
638.77	1045.24
639.11	1038.60
639.45	1032.37
639.80	1025.63
640.14	1019.11
640.49	1012.57
640.83	1006.27
641.17	1000.07
641.52	993.60
641.86	987.19
642.20	981.35
642.55	975.05
642.89	968.49
643.23	961.92
643.58	956.07
643.92	949.85
644.26	943.76
644.61	937.65
644.95	931.63
645.29	925.09
645.64	918.34
645.98	912.04
646.32	906.22
646.66	900.06
647.01	894.28
647.35	888.59
647.69	882.82
648.04	877.35
648.38	871.49
648.72	865.46
649.06	859.37
649.41	853.49
649.75	847.39
650.09	841.48
650.43	835.65
650.78	829.39
651.12	823.38
651.46	817.64
651.80	811.81
652.14	806.37
652.49	801.01
652.83	795.86
653.17	790.10
653.51	784.40
653.85	779.10
654.20	773.37
654.54	767.37
654.88	761.58
655.22	755.53
655.56	749.92
655.90	744.51
656.25	739.21
656.59	733.82
656.93	728.88
657.27	723.61
657.61	718.18
657.95	713.13
658.29	708.09
658.64	702.85
658.98	697.59
659.32	692.17
659.66	686.89
660.00	681.56
660.34	676.60
660.68	671.67
661.02	666.60
661.36	661.87
661.70	657.44
662.05	653.08
662.39	648.80
662.73	644.33
663.07	639.99
663.41	635.65
663.75	631.22
664.09	626.63
664.43	622.29
664.77	618.19
665.11	614.00
665.45	609.87
665.79	605.84
666.13	601.80
666.47	597.70
666.81	593.54
667.15	589.45
667.49	585.64
667.83	581.89
668.17	578.02
668.51	574.03
668.85	569.95
669.19	566.17
669.53	562.36
669.87	558.53
670.21	554.86
670.55	551.20
670.89	547.75
671.23	544.32
671.57	540.90
671.91	537.41
672.25	533.97
672.58	530.46
672.92	527.02
673.26	523.83
673.60	520.74
673.94	517.68
674.28	514.75
674.62	511.82
674.96	508.69
675.30	505.79
675.64	502.82
675.97	500.15
676.31	497.25
676.65	494.37
676.99	491.70
677.33	488.89
677.67	486.06
678.01	483.02
678.34	480.06
678.68	477.23
679.02	474.40
679.36	471.62
679.70	468.93
680.04	466.24
680.37	463.31
680.71	460.53
681.05	457.94
681.39	455.22
681.73	452.58
682.06	450.04
682.40	447.47
682.74	445.01
683.08	442.41
683.42	439.81
683.75	437.32
684.09	434.80
684.43	432.25
684.77	429.77
685.10	427.41
685.44	425.08
685.78	422.82
686.12	420.58
686.45	418.27
686.79	415.96
687.13	413.73
687.46	411.60
687.80	409.43
688.14	407.24
688.48	405.18
688.81	402.92
689.15	400.78
689.49	398.70
689.82	396.59
690.16	394.50
690.50	392.52
690.83	390.52
691.17	388.49
691.51	386.59
691.84	384.77
692.18	382.85
692.52	380.81
692.85	378.80
693.19	376.90
693.52	375.10
693.86	373.31
694.20	371.52
694.53	369.70
694.87	367.84
695.21	366.04
695.54	364.23
695.88	362.49
696.21	360.79
696.55	359.02
696.88	357.31
697.22	355.66
697.56	354.03
697.89	352.34
698.23	350.73
698.56	349.12
698.90	347.54
699.23	345.88
699.57	344.38
699.90	342.85
700.24	341.30
700.58	339.77
700.91	338.26
701.25	336.77
701.58	335.43
701.92	334.10
702.25	332.72
702.59	331.32
702.92	330.05
703.26	328.75
703.59	327.47
703.93	326.33
704.26	325.11
704.60	323.87
704.93	322.63
705.26	321.40
705.60	320.25
705.93	319.10
706.27	318.12
706.60	317.07
706.94	315.99
707.27	314.89
707.61	313.90
707.94	312.87
708.27	311.79
708.61	310.74
708.94	309.72
709.28	308.76
709.61	307.89
709.94	306.96
710.28	305.95
710.61	305.05
710.95	303.97
711.28	303.05
711.61	302.12
711.95	301.23
712.28	300.28
712.61	299.25
712.95	298.35
713.28	297.48
713.61	296.57
713.95	295.72
714.28	294.88
714.61	293.99
714.95	293.19
715.28	292.39
715.61	291.51
715.95	290.72
716.28	289.90
716.61	289.09
716.95	288.26
717.28	287.54
717.61	286.76
717.94	286.04
718.28	285.25
718.61	284.51
718.94	283.84
719.27	283.17
719.61	282.58
719.94	281.92
720.27	281.17
720.60	280.57
720.94	279.91
721.27	279.33
721.60	278.75
721.93	278.13
722.27	277.58
722.60	277.02
722.93	276.43
723.26	275.89
723.59	275.33
723.93	274.78
724.26	274.22
724.59	273.65
724.92	273.11
725.25	272.61
725.59	272.12
725.92	271.60
726.25	271.11
726.58	270.60
726.91	270.06
727.24	269.58
727.57	269.06
727.91	268.55
728.24	268.09
728.57	267.57
728.90	267.12
729.23	266.62
729.56	266.17
729.89	265.67
730.22	265.17
730.55	264.67
730.89	264.22
731.22	263.74
731.55	263.29
731.88	262.85
732.21	262.40
732.54	261.92
732.87	261.47
733.20	261.07
733.53	260.66
733.86	260.27
734.19	259.85
734.52	259.50
734.85	259.22
735.18	258.77
735.51	258.42
735.84	258.02
736.17	257.67
736.50	257.25
736.83	257.00
737.16	256.64
737.49	256.29
737.82	255.93
738.15	255.61
738.48	255.27
738.81	254.93
739.14	254.63
739.47	254.36
739.80	254.06
740.13	253.77
740.46	253.44
740.79	253.13
741.12	252.85
741.45	252.50
741.78	252.12
742.11	251.83
742.44	251.48
742.77	251.21
743.10	250.91
743.43	250.63
743.75	250.26
744.08	250.12
744.41	249.82
744.74	249.60
745.07	249.32
745.40	249.08
745.73	248.86
746.06	248.56
746.39	248.27
746.71	248.01
747.04	247.73
747.37	247.53
747.70	247.28
748.03	247.04
748.36	246.84
748.68	246.63
749.01	246.42
749.34	246.21
749.67	245.96
750.00	245.74
750.33	245.61
750.65	245.43
750.98	245.10
751.31	244.92
751.64	244.67
751.97	244.51
752.29	244.28
752.62	244.02
752.95	243.84
753.28	243.64
753.60	243.45
753.93	243.27
754.26	243.08
754.59	242.87
754.91	242.66
755.24	242.48
755.57	242.28
755.90	242.11
756.22	241.91
756.55	241.74
756.88	241.55
757.20	241.34
757.53	241.14
757.86	241.02
758.19	240.87
758.51	240.72
758.84	240.51
759.17	240.37
759.49	240.22
759.82	240.11
760.15	239.96
760.47	239.80
760.80	239.63
761.13	239.46
761.45	239.31
761.78	239.17
762.11	239.03
762.43	238.89
762.76	238.74
763.08	238.62
763.41	238.49
763.74	238.37
764.06	238.18
764.39	238.04
764.71	237.90
765.04	237.75
765.37	237.62
765.69	237.49
766.02	237.34
766.34	237.20
766.67	237.05
767.00	236.94
767.32	236.86
767.65	236.80
767.97	236.68
768.30	236.57
768.62	236.45
768.95	236.34
769.27	236.20
769.60	236.13
769.92	236.01
770.25	235.85
770.57	235.69
770.90	235.61
771.22	235.43
771.55	235.30
771.87	235.22
772.20	235.14
772.52	235.13
772.85	235.16
773.17	235.08
773.50	234.94
773.82	234.81
774.15	234.66
774.47	234.49
774.80	234.38
775.12	234.28
775.45	234.16
775.77	234.06
776.09	233.96
776.42	233.85
776.74	233.82
777.07	233.75
777.39	233.69
777.72	233.59
778.04	233.54
778.36	233.49
778.69	233.39
779.01	233.31
779.33	233.16
779.66	232.96
779.98	232.90
780.31	232.85
780.63	232.84
780.95	232.78
781.28	232.72
781.60	232.66
781.92	232.59
782.25	232.55
782.57	232.49
782.89	232.43
783.22	232.36
783.54	232.21
783.86	232.17
784.19	232.11
784.51	232.11
784.83	232.08
785.16	231.99
785.48	231.93
785.80	231.89
786.12	231.84
786.45	231.79
786.77	231.74
787.09	231.69
