SpectraSuite Data File
++++++++++++++++++++++++++++++++++++
Date: Fri Feb 01 15:40:21 EST 2013
User: group
Dark Spectrum Present: No
Reference Spectrum Present: No
Number of Sampled Component Spectra: 1
Spectrometers: USB2E7196
Integration Time (usec): 35000 (USB2E7196)
Spectra Averaged: 100 (USB2E7196)
Boxcar Smoothing: 10 (USB2E7196)
Correct for Electrical Dark: No (USB2E7196)
Strobe/Lamp Enabled: No (USB2E7196)
Correct for Detector Non-linearity: No (USB2E7196)
Correct for Stray Light: No (USB2E7196)
Number of Pixels in Processed Spectrum: 2048
>>>>>Begin Processed Spectral Data<<<<<
339.09	0.00
339.48	214.88
339.86	216.68
340.24	216.95
340.63	219.02
341.01	221.99
341.39	222.17
341.78	223.25
342.16	224.40
342.54	224.90
342.93	213.20
343.31	223.97
343.69	224.53
344.07	225.00
344.46	225.44
344.84	225.82
345.22	226.06
345.60	226.30
345.99	226.49
346.37	226.63
346.75	226.71
347.13	226.78
347.52	226.85
347.90	226.94
348.28	226.96
348.66	226.99
349.05	227.00
349.43	227.03
349.81	227.12
350.19	227.14
350.57	227.24
350.96	227.34
351.34	227.43
351.72	227.50
352.10	227.58
352.48	227.68
352.87	227.71
353.25	227.77
353.63	227.83
354.01	227.91
354.39	227.98
354.77	228.08
355.15	228.16
355.54	228.24
355.92	228.27
356.30	228.38
356.68	228.51
357.06	228.55
357.44	228.61
357.82	228.64
358.20	228.73
358.58	228.78
358.97	228.83
359.35	228.91
359.73	228.98
360.11	229.04
360.49	229.11
360.87	229.18
361.25	229.22
361.63	229.28
362.01	229.31
362.39	229.34
362.77	229.38
363.15	229.43
363.53	229.43
363.91	229.48
364.29	229.46
364.67	229.39
365.05	229.42
365.43	229.41
365.81	229.45
366.19	229.52
366.57	229.55
366.95	229.51
367.33	229.48
367.71	229.47
368.09	229.45
368.47	229.40
368.85	229.37
369.23	229.36
369.61	229.32
369.99	229.31
370.37	229.30
370.75	229.28
371.13	229.20
371.51	229.13
371.89	229.07
372.27	228.98
372.65	228.95
373.03	228.90
373.41	228.88
373.78	228.81
374.16	228.64
374.54	228.57
374.92	228.51
375.30	228.44
375.68	228.34
376.06	228.30
376.44	228.25
376.82	228.19
377.19	228.10
377.57	228.02
377.95	227.91
378.33	227.82
378.71	227.68
379.09	227.64
379.47	227.58
379.84	227.49
380.22	227.45
380.60	227.37
380.98	227.28
381.36	227.18
381.73	227.07
382.11	227.05
382.49	226.98
382.87	226.92
383.25	226.84
383.62	226.90
384.00	226.76
384.38	226.71
384.76	226.68
385.13	226.68
385.51	226.62
385.89	226.57
386.27	226.53
386.64	226.53
387.02	226.48
387.40	226.43
387.78	226.40
388.15	226.39
388.53	226.30
388.91	226.25
389.29	226.20
389.66	226.23
390.04	226.17
390.42	226.17
390.79	226.15
391.17	226.14
391.55	226.00
391.92	226.02
392.30	226.01
392.68	225.99
393.05	225.97
393.43	226.01
393.81	226.05
394.18	226.05
394.56	226.07
394.94	226.12
395.31	226.16
395.69	226.23
396.06	226.29
396.44	226.41
396.82	226.46
397.19	226.58
397.57	226.65
397.95	226.74
398.32	226.77
398.70	226.89
399.07	226.96
399.45	227.08
399.82	227.17
400.20	227.29
400.58	227.39
400.95	227.47
401.33	227.57
401.70	227.71
402.08	227.83
402.45	227.91
402.83	228.01
403.20	228.14
403.58	228.24
403.95	228.36
404.33	228.47
404.71	228.60
405.08	228.82
405.46	228.97
405.83	229.11
406.21	229.27
406.58	229.43
406.96	229.65
407.33	229.83
407.70	230.02
408.08	230.28
408.45	230.50
408.83	230.73
409.20	230.94
409.58	231.10
409.95	231.35
410.33	231.62
410.70	231.89
411.08	232.17
411.45	232.49
411.82	232.76
412.20	233.11
412.57	233.54
412.95	233.77
413.32	234.18
413.69	234.58
414.07	235.02
414.44	235.42
414.82	235.87
415.19	236.40
415.56	236.94
415.94	237.45
416.31	238.10
416.68	238.71
417.06	239.43
417.43	240.12
417.81	240.86
418.18	241.65
418.55	242.46
418.93	243.31
419.30	244.17
419.67	245.16
420.04	246.09
420.42	247.08
420.79	248.27
421.16	249.35
421.54	250.54
421.91	251.74
422.28	253.01
422.66	254.32
423.03	255.63
423.40	256.95
423.77	258.34
424.15	259.76
424.52	261.24
424.89	262.82
425.26	264.38
425.64	265.87
426.01	267.43
426.38	269.06
426.75	270.77
427.13	272.49
427.50	274.25
427.87	276.13
428.24	278.01
428.61	279.75
428.99	281.72
429.36	283.87
429.73	285.90
430.10	287.95
430.47	290.03
430.85	292.14
431.22	294.38
431.59	296.80
431.96	299.03
432.33	301.53
432.70	303.92
433.08	306.72
433.45	309.33
433.82	311.99
434.19	314.92
434.56	317.70
434.93	320.34
435.30	322.97
435.68	325.87
436.05	328.69
436.42	331.46
436.79	334.02
437.16	336.65
437.53	339.53
437.90	342.32
438.27	345.10
438.64	347.95
439.01	350.56
439.38	352.79
439.75	354.93
440.13	357.42
440.50	359.74
440.87	361.59
441.24	363.54
441.61	365.70
441.98	367.21
442.35	369.05
442.72	370.88
443.09	372.71
443.46	373.69
443.83	374.30
444.20	374.82
444.57	375.61
444.94	375.97
445.31	376.28
445.68	376.63
446.05	376.68
446.42	376.24
446.79	375.82
447.16	375.38
447.53	375.10
447.90	373.94
448.27	372.81
448.64	371.19
449.01	370.03
449.37	368.02
449.74	366.10
450.11	363.85
450.48	361.44
450.85	358.88
451.22	356.78
451.59	354.72
451.96	352.78
452.33	350.21
452.70	347.81
453.07	344.98
453.43	342.07
453.80	339.29
454.17	336.63
454.54	334.07
454.91	331.32
455.28	328.63
455.65	326.08
456.02	323.57
456.38	321.44
456.75	318.79
457.12	316.54
457.49	314.30
457.86	312.08
458.23	310.23
458.59	308.22
458.96	306.12
459.33	304.31
459.70	302.42
460.07	300.88
460.43	299.18
460.80	297.55
461.17	296.11
461.54	294.59
461.91	293.17
462.27	291.72
462.64	290.45
463.01	289.07
463.38	287.80
463.74	286.46
464.11	285.31
464.48	284.29
464.85	283.19
465.21	282.30
465.58	281.43
465.95	280.33
466.32	279.40
466.68	278.44
467.05	277.50
467.42	276.66
467.78	275.75
468.15	274.88
468.52	274.24
468.88	273.41
469.25	272.63
469.62	272.01
469.98	271.39
470.35	270.78
470.72	270.21
471.08	269.58
471.45	269.05
471.82	268.48
472.18	267.90
472.55	267.43
472.92	266.93
473.28	266.43
473.65	265.96
474.02	265.51
474.38	265.17
474.75	264.86
475.11	264.47
475.48	264.17
475.85	263.94
476.21	263.73
476.58	263.52
476.94	263.39
477.31	263.21
477.67	263.02
478.04	262.91
478.41	262.85
478.77	262.90
479.14	262.86
479.50	262.91
479.87	262.98
480.23	263.11
480.60	263.21
480.96	263.29
481.33	263.51
481.69	263.70
482.06	263.92
482.42	264.12
482.79	264.41
483.15	264.76
483.52	265.10
483.88	265.43
484.25	265.82
484.61	266.25
484.98	266.73
485.34	267.27
485.71	267.86
486.07	268.46
486.44	269.02
486.80	269.74
487.17	270.45
487.53	271.26
487.90	272.11
488.26	273.00
488.62	274.03
488.99	274.98
489.35	276.02
489.72	277.16
490.08	278.38
490.44	279.60
490.81	280.94
491.17	282.32
491.54	283.81
491.90	285.35
492.26	287.01
492.63	288.72
492.99	290.49
493.36	292.40
493.72	294.47
494.08	296.58
494.45	298.83
494.81	301.23
495.17	303.69
495.54	306.24
495.90	308.92
496.26	311.68
496.63	314.63
496.99	317.79
497.35	320.99
497.72	324.40
498.08	327.89
498.44	331.57
498.80	335.48
499.17	339.50
499.53	343.69
499.89	348.09
500.26	352.62
500.62	357.34
500.98	362.29
501.34	367.36
501.71	372.67
502.07	378.09
502.43	383.65
502.79	389.40
503.16	395.50
503.52	401.79
503.88	408.21
504.24	414.84
504.60	421.69
504.97	428.81
505.33	436.16
505.69	443.85
506.05	451.65
506.41	459.55
506.78	467.70
507.14	476.12
507.50	484.83
507.86	493.82
508.22	502.99
508.59	512.18
508.95	521.75
509.31	531.51
509.67	541.60
510.03	551.87
510.39	562.44
510.75	573.19
511.12	584.11
511.48	595.46
511.84	606.94
512.20	618.43
512.56	630.46
512.92	642.63
513.28	654.95
513.64	667.42
514.00	680.09
514.37	693.00
514.73	706.06
515.09	719.10
515.45	732.33
515.81	745.90
516.17	759.92
516.53	774.02
516.89	788.29
517.25	802.46
517.61	816.99
517.97	831.47
518.33	845.89
518.69	860.69
519.05	875.67
519.41	890.91
519.77	906.47
520.13	921.79
520.49	937.14
520.85	952.69
521.21	968.46
521.57	984.71
521.93	1000.59
522.29	1017.00
522.65	1033.24
523.01	1049.54
523.37	1065.65
523.73	1081.84
524.09	1097.98
524.45	1114.34
524.81	1130.99
525.17	1147.74
525.53	1164.66
525.89	1181.68
526.25	1198.48
526.61	1214.81
526.97	1231.58
527.33	1248.14
527.68	1264.88
528.04	1281.47
528.40	1298.05
528.76	1315.04
529.12	1331.78
529.48	1348.62
529.84	1364.76
530.20	1381.36
530.56	1398.41
530.91	1415.81
531.27	1432.53
531.63	1449.00
531.99	1465.52
532.35	1481.41
532.71	1497.30
533.07	1513.67
533.42	1529.55
533.78	1545.63
534.14	1562.04
534.50	1577.40
534.86	1593.36
535.21	1608.46
535.57	1624.30
535.93	1639.70
536.29	1654.40
536.65	1669.39
537.00	1684.25
537.36	1699.44
537.72	1714.06
538.08	1728.43
538.44	1742.20
538.79	1756.08
539.15	1769.76
539.51	1783.47
539.87	1797.91
540.22	1811.68
540.58	1825.34
540.94	1838.63
541.29	1851.52
541.65	1864.16
542.01	1877.26
542.37	1889.39
542.72	1901.98
543.08	1913.74
543.44	1926.25
543.79	1937.58
544.15	1948.59
544.51	1960.07
544.87	1971.04
545.22	1981.82
545.58	1992.07
545.94	2001.82
546.29	2011.68
546.65	2021.63
547.01	2030.90
547.36	2039.69
547.72	2048.04
548.07	2055.84
548.43	2064.06
548.79	2072.12
549.14	2079.63
549.50	2087.04
549.86	2094.93
550.21	2102.14
550.57	2109.38
550.92	2115.97
551.28	2123.11
551.64	2130.01
551.99	2136.60
552.35	2142.71
552.70	2148.77
553.06	2154.71
553.41	2161.02
553.77	2167.14
554.13	2173.19
554.48	2179.22
554.84	2184.58
555.19	2190.05
555.55	2195.23
555.90	2199.68
556.26	2204.46
556.61	2209.33
556.97	2213.40
557.32	2217.47
557.68	2221.71
558.03	2226.05
558.39	2229.76
558.74	2234.41
559.10	2238.46
559.45	2242.17
559.81	2246.62
560.16	2250.46
560.52	2253.70
560.87	2257.31
561.23	2259.89
561.58	2262.81
561.94	2265.37
562.29	2267.73
562.64	2270.43
563.00	2272.98
563.35	2276.51
563.71	2279.69
564.06	2282.76
564.42	2285.79
564.77	2288.22
565.12	2290.46
565.48	2292.18
565.83	2293.96
566.19	2295.00
566.54	2295.80
566.89	2296.93
567.25	2297.38
567.60	2298.80
567.96	2300.55
568.31	2301.31
568.66	2302.39
569.02	2302.96
569.37	2303.36
569.72	2304.13
570.08	2304.13
570.43	2304.35
570.78	2303.51
571.14	2301.97
571.49	2300.63
571.84	2300.33
572.20	2299.08
572.55	2297.94
572.90	2296.42
573.26	2295.08
573.61	2293.47
573.96	2291.73
574.31	2288.75
574.67	2285.66
575.02	2281.93
575.37	2278.41
575.72	2274.53
576.08	2271.24
576.43	2267.89
576.78	2264.05
577.13	2261.13
577.49	2257.99
577.84	2254.38
578.19	2250.91
578.54	2247.19
578.90	2242.91
579.25	2237.33
579.60	2232.28
579.95	2227.34
580.30	2222.36
580.66	2217.10
581.01	2212.13
581.36	2207.12
581.71	2202.78
582.06	2198.28
582.42	2193.87
582.77	2188.66
583.12	2184.09
583.47	2179.30
583.82	2174.23
584.17	2169.10
584.53	2163.46
584.88	2157.86
585.23	2151.90
585.58	2146.39
585.93	2141.02
586.28	2136.34
586.63	2131.22
586.98	2126.24
587.34	2121.37
587.69	2116.39
588.04	2111.17
588.39	2105.60
588.74	2099.20
589.09	2093.03
589.44	2086.30
589.79	2080.31
590.14	2074.68
590.49	2068.06
590.84	2061.71
591.19	2055.63
591.54	2049.13
591.89	2041.54
592.25	2034.73
592.60	2027.66
592.95	2019.97
593.30	2012.52
593.65	2004.88
594.00	1997.87
594.35	1990.66
594.70	1982.60
595.05	1975.32
595.40	1968.03
595.75	1960.43
596.10	1954.08
596.45	1947.34
596.80	1941.11
597.15	1934.25
597.50	1927.13
597.85	1920.71
598.19	1913.97
598.54	1906.77
598.89	1900.08
599.24	1894.35
599.59	1887.49
599.94	1881.27
600.29	1874.86
600.64	1868.25
600.99	1860.72
601.34	1853.85
601.69	1846.86
602.04	1839.93
602.39	1832.58
602.74	1825.55
603.08	1818.77
603.43	1811.93
603.78	1804.59
604.13	1797.33
604.48	1789.95
604.83	1783.04
605.18	1775.87
605.53	1767.73
605.87	1759.73
606.22	1752.42
606.57	1744.45
606.92	1737.25
607.27	1730.00
607.62	1723.11
607.96	1715.87
608.31	1709.24
608.66	1701.59
609.01	1693.88
609.36	1686.45
609.70	1678.39
610.05	1670.45
610.40	1662.69
610.75	1654.42
611.10	1646.71
611.44	1638.46
611.79	1630.58
612.14	1621.98
612.49	1612.90
612.83	1604.59
613.18	1596.48
613.53	1588.40
613.88	1579.79
614.22	1571.40
614.57	1562.76
614.92	1554.57
615.27	1546.83
615.61	1538.40
615.96	1530.42
616.31	1522.89
616.65	1515.38
617.00	1507.88
617.35	1500.25
617.70	1491.95
618.04	1483.48
618.39	1475.27
618.74	1467.60
619.08	1459.36
619.43	1451.69
619.78	1444.83
620.12	1437.69
620.47	1430.15
620.82	1422.08
621.16	1414.74
621.51	1407.28
621.85	1399.68
622.20	1391.24
622.55	1383.11
622.89	1375.40
623.24	1367.74
623.59	1360.35
623.93	1352.90
624.28	1345.69
624.62	1338.01
624.97	1330.85
625.32	1324.16
625.66	1317.18
626.01	1309.92
626.35	1302.46
626.70	1294.78
627.04	1286.95
627.39	1279.25
627.73	1271.89
628.08	1265.01
628.43	1257.63
628.77	1250.12
629.12	1242.52
629.46	1235.52
629.81	1228.00
630.15	1220.66
630.50	1213.26
630.84	1205.09
631.19	1197.13
631.53	1189.61
631.88	1182.25
632.22	1174.60
632.57	1167.28
632.91	1159.76
633.26	1152.39
633.60	1145.03
633.95	1137.91
634.29	1131.04
634.64	1124.39
634.98	1117.03
635.32	1109.84
635.67	1103.31
636.01	1096.73
636.36	1089.95
636.70	1083.36
637.05	1076.78
637.39	1070.41
637.73	1063.81
638.08	1057.93
638.42	1051.96
638.77	1045.48
639.11	1038.76
639.45	1032.44
639.80	1025.77
640.14	1019.31
640.49	1012.84
640.83	1006.53
641.17	1000.29
641.52	993.89
641.86	987.37
642.20	981.49
642.55	975.17
642.89	968.63
643.23	962.12
643.58	956.31
643.92	950.06
644.26	943.95
644.61	937.84
644.95	931.85
645.29	925.18
645.64	918.35
645.98	911.98
646.32	906.15
646.66	900.08
647.01	894.26
647.35	888.55
647.69	882.65
648.04	877.01
648.38	871.20
648.72	865.13
649.06	859.07
649.41	853.17
649.75	847.12
650.09	841.15
650.43	835.36
650.78	829.25
651.12	823.31
651.46	817.67
651.80	811.92
652.14	806.47
652.49	801.08
652.83	795.93
653.17	790.30
653.51	784.55
653.85	779.11
654.20	773.40
654.54	767.36
654.88	761.58
655.22	755.74
655.56	750.00
655.90	744.58
656.25	739.25
656.59	733.92
656.93	728.90
657.27	723.81
657.61	718.35
657.95	713.20
658.29	708.12
658.64	702.88
658.98	697.66
659.32	692.26
659.66	687.11
660.00	681.81
660.34	676.89
660.68	672.03
661.02	667.06
661.36	662.35
661.70	657.91
662.05	653.63
662.39	649.30
662.73	644.88
663.07	640.56
663.41	636.17
663.75	631.66
664.09	627.18
664.43	622.83
664.77	618.74
665.11	614.50
665.45	610.42
665.79	606.32
666.13	602.14
666.47	598.07
666.81	593.94
667.15	589.85
667.49	585.96
667.83	582.16
668.17	578.23
668.51	574.26
668.85	570.29
669.19	566.50
669.53	562.71
669.87	558.81
670.21	555.09
670.55	551.50
670.89	548.08
671.23	544.63
671.57	541.08
671.91	537.52
672.25	534.10
672.58	530.58
672.92	527.20
673.26	524.09
673.60	520.92
673.94	517.76
674.28	514.91
674.62	511.96
674.96	508.82
675.30	505.97
675.64	503.03
675.97	500.19
676.31	497.30
676.65	494.39
676.99	491.74
677.33	488.90
677.67	486.10
678.01	483.17
678.34	480.16
678.68	477.30
679.02	474.53
679.36	471.68
679.70	468.97
680.04	466.16
680.37	463.27
680.71	460.49
681.05	457.88
681.39	455.18
681.73	452.58
682.06	450.09
682.40	447.50
682.74	444.98
683.08	442.48
683.42	439.83
683.75	437.29
684.09	434.74
684.43	432.26
684.77	429.74
685.10	427.30
685.44	425.01
685.78	422.68
686.12	420.42
686.45	418.20
686.79	415.86
687.13	413.72
687.46	411.55
687.80	409.37
688.14	407.17
688.48	405.10
688.81	402.79
689.15	400.58
689.49	398.40
689.82	396.35
690.16	394.22
690.50	392.31
690.83	390.39
691.17	388.43
691.51	386.51
691.84	384.67
692.18	382.79
692.52	380.80
692.85	378.89
693.19	377.02
693.52	375.21
693.86	373.41
694.20	371.61
694.53	369.83
694.87	367.97
695.21	366.22
695.54	364.35
695.88	362.62
696.21	360.93
696.55	359.28
696.88	357.57
697.22	355.93
697.56	354.29
697.89	352.61
698.23	350.96
698.56	349.41
698.90	347.80
699.23	346.11
699.57	344.55
699.90	343.02
700.24	341.49
700.58	339.95
700.91	338.46
701.25	337.02
701.58	335.62
701.92	334.29
702.25	332.95
702.59	331.64
702.92	330.34
703.26	329.05
703.59	327.80
703.93	326.60
704.26	325.37
704.60	324.06
704.93	322.86
705.26	321.64
705.60	320.46
705.93	319.34
706.27	318.32
706.60	317.31
706.94	316.24
707.27	315.14
707.61	314.06
707.94	313.06
708.27	312.00
708.61	310.95
708.94	309.95
709.28	308.94
709.61	307.94
709.94	307.00
710.28	305.99
710.61	305.00
710.95	303.94
711.28	303.04
711.61	302.10
711.95	301.15
712.28	300.19
712.61	299.17
712.95	298.26
713.28	297.40
713.61	296.50
713.95	295.64
714.28	294.79
714.61	293.97
714.95	293.09
715.28	292.19
715.61	291.30
715.95	290.45
716.28	289.58
716.61	288.76
716.95	287.94
717.28	287.19
717.61	286.41
717.94	285.68
718.28	284.87
718.61	284.19
718.94	283.49
719.27	282.83
719.61	282.19
719.94	281.49
720.27	280.76
720.60	280.05
720.94	279.40
721.27	278.77
721.60	278.17
721.93	277.61
722.27	277.05
722.60	276.53
722.93	275.96
723.26	275.44
723.59	274.87
723.93	274.34
724.26	273.79
724.59	273.28
724.92	272.75
725.25	272.23
725.59	271.68
725.92	271.15
726.25	270.64
726.58	270.12
726.91	269.58
727.24	269.13
727.57	268.64
727.91	268.12
728.24	267.65
728.57	267.11
728.90	266.63
729.23	266.15
729.56	265.71
729.89	265.27
730.22	264.76
730.55	264.28
730.89	263.81
731.22	263.35
731.55	262.89
731.88	262.45
732.21	262.00
732.54	261.56
732.87	261.13
733.20	260.70
733.53	260.33
733.86	260.00
734.19	259.58
734.52	259.16
734.85	258.86
735.18	258.46
735.51	258.14
735.84	257.79
736.17	257.44
736.50	256.99
736.83	256.76
737.16	256.42
737.49	256.10
737.82	255.77
738.15	255.45
738.48	255.11
738.81	254.79
739.14	254.50
739.47	254.18
739.80	253.88
740.13	253.61
740.46	253.24
740.79	252.87
741.12	252.59
741.45	252.31
741.78	251.95
742.11	251.66
742.44	251.35
742.77	251.03
743.10	250.75
743.43	250.43
743.75	250.03
744.08	249.88
744.41	249.60
744.74	249.33
745.07	249.04
745.40	248.79
745.73	248.58
746.06	248.29
746.39	248.08
746.71	247.83
747.04	247.57
747.37	247.35
747.70	247.13
748.03	246.88
748.36	246.69
748.68	246.47
749.01	246.25
749.34	246.03
749.67	245.84
750.00	245.59
750.33	245.48
750.65	245.26
750.98	244.97
751.31	244.75
751.64	244.57
751.97	244.41
752.29	244.18
752.62	243.94
752.95	243.75
753.28	243.49
753.60	243.33
753.93	243.18
754.26	243.00
754.59	242.81
754.91	242.63
755.24	242.40
755.57	242.22
755.90	242.01
756.22	241.79
756.55	241.60
756.88	241.44
757.20	241.23
757.53	241.03
757.86	240.85
758.19	240.69
758.51	240.51
758.84	240.34
759.17	240.19
759.49	240.00
759.82	239.89
760.15	239.75
760.47	239.55
760.80	239.35
761.13	239.22
761.45	239.11
761.78	238.96
762.11	238.84
762.43	238.67
762.76	238.54
763.08	238.47
763.41	238.35
763.74	238.25
764.06	238.10
764.39	237.97
764.71	237.80
765.04	237.69
765.37	237.56
765.69	237.44
766.02	237.30
766.34	237.17
766.67	237.01
767.00	236.89
767.32	236.85
767.65	236.81
767.97	236.69
768.30	236.56
768.62	236.42
768.95	236.29
769.27	236.19
769.60	236.06
769.92	235.89
770.25	235.77
770.57	235.63
770.90	235.53
771.22	235.38
771.55	235.31
771.87	235.19
772.20	235.08
772.52	235.02
772.85	235.03
773.17	234.96
773.50	234.87
773.82	234.77
774.15	234.60
774.47	234.43
774.80	234.32
775.12	234.20
775.45	234.13
775.77	234.04
776.09	233.97
776.42	233.90
776.74	233.88
777.07	233.77
777.39	233.71
777.72	233.62
778.04	233.62
778.36	233.51
778.69	233.45
779.01	233.37
779.33	233.25
779.66	233.06
779.98	232.98
780.31	232.89
780.63	232.86
780.95	232.84
781.28	232.79
781.60	232.71
781.92	232.63
782.25	232.57
782.57	232.52
782.89	232.47
783.22	232.42
783.54	232.33
783.86	232.27
784.19	232.21
784.51	232.16
784.83	232.06
785.16	232.04
785.48	231.96
785.80	231.93
786.12	231.87
786.45	231.86
786.77	231.81
787.09	231.78
