SpectraSuite Data File
++++++++++++++++++++++++++++++++++++
Date: Fri Feb 01 15:08:18 EST 2013
User: group
Dark Spectrum Present: No
Reference Spectrum Present: No
Number of Sampled Component Spectra: 1
Spectrometers: USB2E7196
Integration Time (usec): 35000 (USB2E7196)
Spectra Averaged: 100 (USB2E7196)
Boxcar Smoothing: 10 (USB2E7196)
Correct for Electrical Dark: No (USB2E7196)
Strobe/Lamp Enabled: No (USB2E7196)
Correct for Detector Non-linearity: No (USB2E7196)
Correct for Stray Light: No (USB2E7196)
Number of Pixels in Processed Spectrum: 2048
>>>>>Begin Processed Spectral Data<<<<<
339.09	0.00
339.48	215.14
339.86	217.15
340.24	217.88
340.63	219.55
341.01	222.43
341.39	222.53
341.78	223.43
342.16	224.56
342.54	225.08
342.93	213.58
343.31	224.39
343.69	224.92
344.07	225.38
344.46	225.81
344.84	226.17
345.22	226.42
345.60	226.67
345.99	226.85
346.37	227.00
346.75	227.08
347.13	227.13
347.52	227.18
347.90	227.25
348.28	227.27
348.66	227.31
349.05	227.31
349.43	227.37
349.81	227.38
350.19	227.39
350.57	227.43
350.96	227.48
351.34	227.51
351.72	227.61
352.10	227.68
352.48	227.72
352.87	227.78
353.25	227.81
353.63	227.84
354.01	227.87
354.39	227.94
354.77	228.02
355.15	228.13
355.54	228.18
355.92	228.23
356.30	228.30
356.68	228.42
357.06	228.47
357.44	228.49
357.82	228.56
358.20	228.61
358.58	228.67
358.97	228.73
359.35	228.84
359.73	228.90
360.11	228.94
360.49	229.02
360.87	229.03
361.25	229.10
361.63	229.18
362.01	229.26
362.39	229.29
362.77	229.32
363.15	229.36
363.53	229.39
363.91	229.41
364.29	229.41
364.67	229.36
365.05	229.36
365.43	229.37
365.81	229.40
366.19	229.47
366.57	229.54
366.95	229.54
367.33	229.49
367.71	229.47
368.09	229.48
368.47	229.44
368.85	229.44
369.23	229.44
369.61	229.34
369.99	229.30
370.37	229.27
370.75	229.31
371.13	229.25
371.51	229.17
371.89	229.14
372.27	229.11
372.65	229.06
373.03	229.00
373.41	228.98
373.78	228.91
374.16	228.77
374.54	228.66
374.92	228.57
375.30	228.52
375.68	228.44
376.06	228.39
376.44	228.32
376.82	228.25
377.19	228.18
377.57	228.13
377.95	228.05
378.33	227.97
378.71	227.82
379.09	227.77
379.47	227.74
379.84	227.63
380.22	227.54
380.60	227.45
380.98	227.40
381.36	227.28
381.73	227.23
382.11	227.21
382.49	227.14
382.87	227.07
383.25	226.99
383.62	227.05
384.00	226.97
384.38	226.90
384.76	226.88
385.13	226.84
385.51	226.77
385.89	226.74
386.27	226.71
386.64	226.64
387.02	226.57
387.40	226.52
387.78	226.50
388.15	226.49
388.53	226.47
388.91	226.43
389.29	226.39
389.66	226.38
390.04	226.32
390.42	226.34
390.79	226.32
391.17	226.30
391.55	226.18
391.92	226.17
392.30	226.15
392.68	226.13
393.05	226.10
393.43	226.13
393.81	226.14
394.18	226.15
394.56	226.20
394.94	226.27
395.31	226.25
395.69	226.31
396.06	226.35
396.44	226.42
396.82	226.47
397.19	226.60
397.57	226.65
397.95	226.70
398.32	226.71
398.70	226.78
399.07	226.90
399.45	226.97
399.82	227.05
400.20	227.16
400.58	227.24
400.95	227.29
401.33	227.39
401.70	227.53
402.08	227.64
402.45	227.74
402.83	227.85
403.20	227.98
403.58	228.10
403.95	228.24
404.33	228.33
404.71	228.49
405.08	228.67
405.46	228.85
405.83	229.05
406.21	229.23
406.58	229.39
406.96	229.55
407.33	229.73
407.70	229.93
408.08	230.23
408.45	230.45
408.83	230.69
409.20	230.95
409.58	231.14
409.95	231.38
410.33	231.68
410.70	231.95
411.08	232.23
411.45	232.54
411.82	232.83
412.20	233.19
412.57	233.57
412.95	233.86
413.32	234.22
413.69	234.62
414.07	235.05
414.44	235.50
414.82	235.98
415.19	236.54
415.56	237.08
415.94	237.61
416.31	238.26
416.68	238.92
417.06	239.63
417.43	240.30
417.81	241.11
418.18	241.88
418.55	242.68
418.93	243.58
419.30	244.49
419.67	245.45
420.04	246.43
420.42	247.44
420.79	248.61
421.16	249.76
421.54	250.94
421.91	252.16
422.28	253.45
422.66	254.75
423.03	256.06
423.40	257.39
423.77	258.81
424.15	260.25
424.52	261.75
424.89	263.32
425.26	264.89
425.64	266.32
426.01	267.92
426.38	269.60
426.75	271.24
427.13	272.97
427.50	274.77
427.87	276.62
428.24	278.47
428.61	280.18
428.99	282.13
429.36	284.25
429.73	286.30
430.10	288.34
430.47	290.43
430.85	292.52
431.22	294.75
431.59	297.11
431.96	299.28
432.33	301.74
432.70	304.19
433.08	307.00
433.45	309.65
433.82	312.28
434.19	315.17
434.56	318.05
434.93	320.72
435.30	323.35
435.68	326.27
436.05	329.12
436.42	331.95
436.79	334.48
437.16	337.21
437.53	340.11
437.90	342.93
438.27	345.70
438.64	348.55
439.01	351.19
439.38	353.43
439.75	355.69
440.13	358.21
440.50	360.52
440.87	362.40
441.24	364.36
441.61	366.50
441.98	368.02
442.35	369.81
442.72	371.67
443.09	373.47
443.46	374.48
443.83	375.10
444.20	375.64
444.57	376.51
444.94	376.79
445.31	377.12
445.68	377.44
446.05	377.52
446.42	377.17
446.79	376.72
447.16	376.29
447.53	375.92
447.90	374.75
448.27	373.58
448.64	371.96
449.01	370.83
449.37	368.87
449.74	366.95
450.11	364.70
450.48	362.20
450.85	359.68
451.22	357.56
451.59	355.52
451.96	353.55
452.33	350.89
452.70	348.52
453.07	345.70
453.43	342.81
453.80	340.03
454.17	337.36
454.54	334.84
454.91	332.09
455.28	329.43
455.65	326.93
456.02	324.48
456.38	322.31
456.75	319.65
457.12	317.38
457.49	315.11
457.86	312.89
458.23	311.03
458.59	308.98
458.96	306.86
459.33	304.99
459.70	303.13
460.07	301.62
460.43	299.89
460.80	298.23
461.17	296.81
461.54	295.28
461.91	293.84
462.27	292.32
462.64	291.09
463.01	289.74
463.38	288.46
463.74	287.07
464.11	285.89
464.48	284.84
464.85	283.74
465.21	282.89
465.58	282.01
465.95	280.89
466.32	279.99
466.68	279.06
467.05	278.13
467.42	277.19
467.78	276.20
468.15	275.34
468.52	274.64
468.88	273.76
469.25	272.99
469.62	272.32
469.98	271.67
470.35	271.04
470.72	270.41
471.08	269.75
471.45	269.25
471.82	268.72
472.18	268.13
472.55	267.66
472.92	267.08
473.28	266.57
473.65	266.14
474.02	265.67
474.38	265.30
474.75	265.01
475.11	264.66
475.48	264.41
475.85	264.15
476.21	263.91
476.58	263.71
476.94	263.57
477.31	263.40
477.67	263.24
478.04	263.09
478.41	263.03
478.77	263.06
479.14	262.92
479.50	262.92
479.87	262.96
480.23	263.01
480.60	263.10
480.96	263.20
481.33	263.38
481.69	263.56
482.06	263.74
482.42	263.95
482.79	264.21
483.15	264.51
483.52	264.88
483.88	265.24
484.25	265.59
484.61	266.00
484.98	266.45
485.34	267.02
485.71	267.61
486.07	268.22
486.44	268.76
486.80	269.48
487.17	270.19
487.53	271.02
487.90	271.88
488.26	272.83
488.62	273.80
488.99	274.75
489.35	275.81
489.72	276.96
490.08	278.13
490.44	279.38
490.81	280.71
491.17	282.06
491.54	283.54
491.90	285.08
492.26	286.71
492.63	288.45
492.99	290.20
493.36	292.10
493.72	294.11
494.08	296.21
494.45	298.45
494.81	300.81
495.17	303.25
495.54	305.81
495.90	308.51
496.26	311.29
496.63	314.27
496.99	317.35
497.35	320.57
497.72	323.98
498.08	327.44
498.44	331.10
498.80	335.00
499.17	339.01
499.53	343.15
499.89	347.50
500.26	352.01
500.62	356.68
500.98	361.67
501.34	366.73
501.71	372.06
502.07	377.48
502.43	383.05
502.79	388.84
503.16	394.91
503.52	401.10
503.88	407.54
504.24	414.16
504.60	421.05
504.97	428.15
505.33	435.41
505.69	443.11
506.05	450.90
506.41	458.80
506.78	466.96
507.14	475.40
507.50	484.21
507.86	493.22
508.22	502.37
508.59	511.50
508.95	521.05
509.31	530.82
509.67	540.92
510.03	551.25
510.39	561.76
510.75	572.52
511.12	583.45
511.48	594.75
511.84	606.24
512.20	617.79
512.56	629.73
512.92	641.91
513.28	654.25
513.64	666.82
514.00	679.46
514.37	692.40
514.73	705.51
515.09	718.48
515.45	731.78
515.81	745.42
516.17	759.45
516.53	773.64
516.89	787.84
517.25	802.03
517.61	816.50
517.97	831.01
518.33	845.53
518.69	860.38
519.05	875.33
519.41	890.49
519.77	906.07
520.13	921.49
520.49	936.87
520.85	952.30
521.21	968.06
521.57	984.35
521.93	1000.22
522.29	1016.64
522.65	1032.99
523.01	1049.16
523.37	1065.29
523.73	1081.50
524.09	1097.67
524.45	1114.05
524.81	1130.85
525.17	1147.71
525.53	1164.63
525.89	1181.47
526.25	1198.25
526.61	1214.77
526.97	1231.56
527.33	1248.01
527.68	1264.75
528.04	1281.39
528.40	1298.21
528.76	1315.20
529.12	1331.92
529.48	1348.81
529.84	1364.91
530.20	1381.53
530.56	1398.76
530.91	1416.23
531.27	1433.11
531.63	1449.52
531.99	1466.25
532.35	1482.15
532.71	1498.03
533.07	1514.31
533.42	1530.31
533.78	1546.54
534.14	1562.99
534.50	1578.35
534.86	1594.39
535.21	1609.73
535.57	1625.70
535.93	1641.30
536.29	1656.18
536.65	1671.36
537.00	1686.22
537.36	1701.56
537.72	1716.21
538.08	1730.60
538.44	1744.44
538.79	1758.34
539.15	1772.29
539.51	1786.10
539.87	1800.63
540.22	1814.67
540.58	1828.67
540.94	1842.26
541.29	1855.26
541.65	1867.88
542.01	1881.34
542.37	1893.80
542.72	1906.26
543.08	1918.11
543.44	1930.44
543.79	1941.86
544.15	1952.82
544.51	1964.49
544.87	1975.58
545.22	1986.45
545.58	1996.80
545.94	2006.78
546.29	2016.66
546.65	2026.48
547.01	2035.76
547.36	2044.51
547.72	2052.83
548.07	2060.80
548.43	2068.96
548.79	2077.13
549.14	2084.75
549.50	2092.18
549.86	2099.87
550.21	2107.07
550.57	2114.30
550.92	2121.01
551.28	2127.92
551.64	2135.01
551.99	2141.44
552.35	2147.54
552.70	2153.62
553.06	2159.60
553.41	2165.69
553.77	2171.81
554.13	2177.77
554.48	2183.81
554.84	2189.07
555.19	2194.47
555.55	2199.35
555.90	2203.66
556.26	2208.39
556.61	2213.13
556.97	2217.14
557.32	2221.12
557.68	2225.39
558.03	2229.63
558.39	2233.27
558.74	2237.96
559.10	2241.76
559.45	2245.44
559.81	2249.90
560.16	2253.75
560.52	2257.03
560.87	2260.53
561.23	2263.15
561.58	2266.16
561.94	2268.59
562.29	2271.14
562.64	2273.74
563.00	2276.46
563.35	2280.01
563.71	2283.03
564.06	2286.13
564.42	2288.99
564.77	2291.42
565.12	2293.48
565.48	2295.17
565.83	2296.90
566.19	2298.11
566.54	2299.05
566.89	2300.08
567.25	2300.43
567.60	2301.78
567.96	2303.22
568.31	2303.98
568.66	2304.91
569.02	2305.26
569.37	2305.56
569.72	2306.16
570.08	2305.98
570.43	2305.83
570.78	2305.09
571.14	2303.59
571.49	2302.08
571.84	2301.52
572.20	2300.13
572.55	2299.22
572.90	2297.84
573.26	2296.33
573.61	2294.48
573.96	2292.55
574.31	2289.63
574.67	2286.50
575.02	2282.66
575.37	2279.15
575.72	2275.09
576.08	2271.78
576.43	2268.56
576.78	2264.81
577.13	2261.63
577.49	2258.64
577.84	2255.02
578.19	2251.23
578.54	2247.25
578.90	2242.89
579.25	2237.33
579.60	2232.36
579.95	2227.00
580.30	2221.74
580.66	2216.57
581.01	2211.61
581.36	2206.53
581.71	2202.08
582.06	2197.52
582.42	2192.90
582.77	2187.55
583.12	2182.86
583.47	2177.88
583.82	2172.65
584.17	2167.28
584.53	2161.60
584.88	2155.73
585.23	2149.85
585.58	2144.16
585.93	2138.67
586.28	2133.86
586.63	2128.81
586.98	2123.70
587.34	2118.92
587.69	2113.93
588.04	2108.44
588.39	2102.46
588.74	2095.95
589.09	2089.71
589.44	2082.72
589.79	2076.70
590.14	2071.07
590.49	2064.48
590.84	2058.02
591.19	2051.85
591.54	2045.25
591.89	2037.77
592.25	2030.86
592.60	2023.63
592.95	2015.91
593.30	2008.48
593.65	2000.73
594.00	1993.53
594.35	1986.21
594.70	1978.26
595.05	1970.78
595.40	1963.40
595.75	1955.97
596.10	1949.57
596.45	1942.64
596.80	1936.43
597.15	1929.59
597.50	1922.29
597.85	1915.87
598.19	1909.15
598.54	1901.99
598.89	1895.37
599.24	1889.42
599.59	1882.70
599.94	1876.41
600.29	1870.07
600.64	1863.52
600.99	1856.06
601.34	1849.09
601.69	1842.09
602.04	1834.97
602.39	1827.69
602.74	1820.84
603.08	1814.08
603.43	1807.32
603.78	1800.12
604.13	1792.89
604.48	1785.54
604.83	1778.73
605.18	1771.62
605.53	1763.57
605.87	1755.57
606.22	1748.24
606.57	1740.28
606.92	1733.04
607.27	1725.92
607.62	1718.89
607.96	1711.47
608.31	1704.76
608.66	1697.22
609.01	1689.63
609.36	1682.08
609.70	1674.15
610.05	1666.14
610.40	1658.44
610.75	1650.21
611.10	1642.58
611.44	1634.36
611.79	1626.49
612.14	1617.75
612.49	1608.65
612.83	1600.38
613.18	1592.33
613.53	1584.26
613.88	1575.83
614.22	1567.47
614.57	1558.91
614.92	1551.01
615.27	1543.52
615.61	1535.33
615.96	1527.30
616.31	1519.67
616.65	1512.39
617.00	1504.85
617.35	1497.12
617.70	1488.69
618.04	1480.13
618.39	1471.78
618.74	1464.12
619.08	1455.83
619.43	1448.34
619.78	1441.41
620.12	1434.18
620.47	1426.62
620.82	1418.51
621.16	1411.10
621.51	1403.42
621.85	1395.79
622.20	1387.24
622.55	1378.84
622.89	1371.00
623.24	1363.50
623.59	1356.21
623.93	1348.75
624.28	1341.52
624.62	1334.05
624.97	1327.01
625.32	1320.40
625.66	1313.52
626.01	1306.15
626.35	1298.64
626.70	1290.85
627.04	1283.13
627.39	1275.32
627.73	1267.93
628.08	1260.97
628.43	1253.69
628.77	1246.35
629.12	1238.71
629.46	1231.55
629.81	1224.29
630.15	1217.07
630.50	1209.59
630.84	1201.33
631.19	1193.40
631.53	1185.86
631.88	1178.36
632.22	1170.69
632.57	1163.30
632.91	1155.78
633.26	1148.50
633.60	1141.26
633.95	1134.30
634.29	1127.40
634.64	1120.87
634.98	1113.59
635.32	1106.53
635.67	1099.85
636.01	1093.34
636.36	1086.64
636.70	1080.29
637.05	1073.69
637.39	1067.33
637.73	1060.90
638.08	1055.18
638.42	1049.24
638.77	1042.83
639.11	1036.18
639.45	1029.87
639.80	1023.35
640.14	1016.93
640.49	1010.51
640.83	1004.19
641.17	997.95
641.52	991.69
641.86	985.28
642.20	979.45
642.55	973.24
642.89	966.81
643.23	960.30
643.58	954.53
643.92	948.27
644.26	942.25
644.61	936.18
644.95	930.14
645.29	923.49
645.64	916.76
645.98	910.52
646.32	904.79
646.66	898.78
647.01	892.96
647.35	887.32
647.69	881.57
648.04	876.02
648.38	870.24
648.72	864.14
649.06	858.05
649.41	852.15
649.75	846.08
650.09	840.11
650.43	834.38
650.78	828.15
651.12	822.26
651.46	816.50
651.80	810.72
652.14	805.32
652.49	799.99
652.83	794.78
653.17	789.02
653.51	783.24
653.85	777.84
654.20	772.19
654.54	766.17
654.88	760.38
655.22	754.56
655.56	748.86
655.90	743.46
656.25	738.29
656.59	732.96
656.93	727.92
657.27	722.81
657.61	717.30
657.95	712.30
658.29	707.15
658.64	701.93
658.98	696.71
659.32	691.26
659.66	686.01
660.00	680.75
660.34	675.87
660.68	671.02
661.02	666.01
661.36	661.31
661.70	656.84
662.05	652.49
662.39	648.12
662.73	643.72
663.07	639.32
663.41	634.84
663.75	630.27
664.09	625.75
664.43	621.40
664.77	617.30
665.11	613.10
665.45	609.04
665.79	604.98
666.13	600.85
666.47	596.78
666.81	592.65
667.15	588.52
667.49	584.66
667.83	580.94
668.17	577.08
668.51	573.04
668.85	569.06
669.19	565.18
669.53	561.32
669.87	557.37
670.21	553.68
670.55	550.04
670.89	546.70
671.23	543.23
671.57	539.73
671.91	536.23
672.25	532.75
672.58	529.26
672.92	525.91
673.26	522.77
673.60	519.66
673.94	516.58
674.28	513.75
674.62	510.78
674.96	507.63
675.30	504.65
675.64	501.74
675.97	498.96
676.31	496.14
676.65	493.29
676.99	490.66
677.33	487.87
677.67	485.05
678.01	481.98
678.34	479.01
678.68	476.19
679.02	473.43
679.36	470.67
679.70	467.91
680.04	465.17
680.37	462.33
680.71	459.56
681.05	456.98
681.39	454.19
681.73	451.62
682.06	449.11
682.40	446.63
682.74	444.08
683.08	441.57
683.42	439.01
683.75	436.52
684.09	433.99
684.43	431.50
684.77	429.10
685.10	426.84
685.44	424.61
685.78	422.33
686.12	420.07
686.45	417.82
686.79	415.59
687.13	413.42
687.46	411.25
687.80	409.09
688.14	406.84
688.48	404.85
688.81	402.57
689.15	400.46
689.49	398.28
689.82	396.24
690.16	394.12
690.50	392.14
690.83	390.18
691.17	388.19
691.51	386.30
691.84	384.46
692.18	382.49
692.52	380.49
692.85	378.63
693.19	376.75
693.52	374.96
693.86	373.15
694.20	371.33
694.53	369.58
694.87	367.75
695.21	366.01
695.54	364.13
695.88	362.39
696.21	360.63
696.55	358.99
696.88	357.31
697.22	355.67
697.56	354.04
697.89	352.42
698.23	350.83
698.56	349.22
698.90	347.62
699.23	346.02
699.57	344.51
699.90	342.95
700.24	341.45
700.58	339.88
700.91	338.34
701.25	336.94
701.58	335.55
701.92	334.20
702.25	332.79
702.59	331.45
702.92	330.12
703.26	328.83
703.59	327.58
703.93	326.42
704.26	325.20
704.60	323.95
704.93	322.68
705.26	321.47
705.60	320.34
705.93	319.18
706.27	318.13
706.60	317.04
706.94	315.95
707.27	314.82
707.61	313.77
707.94	312.77
708.27	311.67
708.61	310.54
708.94	309.56
709.28	308.59
709.61	307.65
709.94	306.72
710.28	305.68
710.61	304.71
710.95	303.65
711.28	302.70
711.61	301.74
711.95	300.83
712.28	299.85
712.61	298.83
712.95	297.89
713.28	296.99
713.61	296.08
713.95	295.18
714.28	294.34
714.61	293.48
714.95	292.65
715.28	291.83
715.61	291.00
715.95	290.13
716.28	289.27
716.61	288.47
716.95	287.65
717.28	286.95
717.61	286.18
717.94	285.42
718.28	284.63
718.61	283.89
718.94	283.20
719.27	282.54
719.61	281.90
719.94	281.26
720.27	280.55
720.60	279.89
720.94	279.24
721.27	278.63
721.60	278.07
721.93	277.48
722.27	276.96
722.60	276.41
722.93	275.82
723.26	275.31
723.59	274.73
723.93	274.20
724.26	273.65
724.59	273.12
724.92	272.59
725.25	272.11
725.59	271.64
725.92	271.14
726.25	270.61
726.58	270.12
726.91	269.63
727.24	269.14
727.57	268.69
727.91	268.21
728.24	267.77
728.57	267.28
728.90	266.80
729.23	266.26
729.56	265.85
729.89	265.40
730.22	264.91
730.55	264.45
730.89	264.00
731.22	263.58
731.55	263.14
731.88	262.75
732.21	262.31
732.54	261.85
732.87	261.43
733.20	261.06
733.53	260.71
733.86	260.36
734.19	259.98
734.52	259.62
734.85	259.32
735.18	258.88
735.51	258.52
735.84	258.19
736.17	257.87
736.50	257.43
736.83	257.18
737.16	256.85
737.49	256.54
737.82	256.22
738.15	255.86
738.48	255.49
738.81	255.16
739.14	254.86
739.47	254.55
739.80	254.26
740.13	253.96
740.46	253.63
740.79	253.28
741.12	252.98
741.45	252.67
741.78	252.31
742.11	252.05
742.44	251.76
742.77	251.48
743.10	251.19
743.43	250.90
743.75	250.53
744.08	250.38
744.41	250.09
744.74	249.81
745.07	249.55
745.40	249.34
745.73	249.08
746.06	248.79
746.39	248.53
746.71	248.27
747.04	247.95
747.37	247.67
747.70	247.44
748.03	247.22
748.36	247.03
748.68	246.81
749.01	246.55
749.34	246.27
749.67	246.02
750.00	245.77
750.33	245.65
750.65	245.45
750.98	245.11
751.31	244.91
751.64	244.71
751.97	244.53
752.29	244.30
752.62	244.03
752.95	243.82
753.28	243.58
753.60	243.37
753.93	243.23
754.26	243.01
754.59	242.79
754.91	242.57
755.24	242.34
755.57	242.15
755.90	241.96
756.22	241.79
756.55	241.58
756.88	241.38
757.20	241.12
757.53	240.92
757.86	240.73
758.19	240.56
758.51	240.40
758.84	240.20
759.17	240.03
759.49	239.93
759.82	239.80
760.15	239.70
760.47	239.53
760.80	239.32
761.13	239.22
761.45	239.01
761.78	238.85
762.11	238.69
762.43	238.53
762.76	238.40
763.08	238.27
763.41	238.14
763.74	238.03
764.06	237.90
764.39	237.75
764.71	237.61
765.04	237.45
765.37	237.30
765.69	237.15
766.02	237.01
766.34	236.88
766.67	236.72
767.00	236.59
767.32	236.54
767.65	236.52
767.97	236.41
768.30	236.34
768.62	236.27
768.95	236.17
769.27	236.07
769.60	235.99
769.92	235.89
770.25	235.80
770.57	235.69
770.90	235.60
771.22	235.49
771.55	235.40
771.87	235.32
772.20	235.25
772.52	235.25
772.85	235.30
773.17	235.21
773.50	235.17
773.82	235.09
774.15	234.92
774.47	234.77
774.80	234.68
775.12	234.60
775.45	234.49
775.77	234.41
776.09	234.35
776.42	234.25
776.74	234.21
777.07	234.11
777.39	234.04
777.72	233.98
778.04	233.98
778.36	233.89
778.69	233.84
779.01	233.77
779.33	233.65
779.66	233.48
779.98	233.41
780.31	233.33
780.63	233.30
780.95	233.29
781.28	233.28
781.60	233.22
781.92	233.15
782.25	233.11
782.57	233.05
782.89	232.98
783.22	232.92
783.54	232.83
783.86	232.85
784.19	232.77
784.51	232.73
784.83	232.66
785.16	232.64
785.48	232.62
785.80	232.57
786.12	232.52
786.45	232.43
786.77	232.38
787.09	232.32
