SpectraSuite Data File
++++++++++++++++++++++++++++++++++++
Date: Fri Feb 01 15:23:14 EST 2013
User: group
Dark Spectrum Present: No
Reference Spectrum Present: No
Number of Sampled Component Spectra: 1
Spectrometers: USB2E7196
Integration Time (usec): 35000 (USB2E7196)
Spectra Averaged: 100 (USB2E7196)
Boxcar Smoothing: 10 (USB2E7196)
Correct for Electrical Dark: No (USB2E7196)
Strobe/Lamp Enabled: No (USB2E7196)
Correct for Detector Non-linearity: No (USB2E7196)
Correct for Stray Light: No (USB2E7196)
Number of Pixels in Processed Spectrum: 2048
>>>>>Begin Processed Spectral Data<<<<<
339.09	0.00
339.48	215.31
339.86	216.85
340.24	217.96
340.63	219.40
341.01	222.72
341.39	222.71
341.78	223.90
342.16	224.38
342.54	225.52
342.93	213.72
343.31	224.52
343.69	225.06
344.07	225.52
344.46	225.94
344.84	226.31
345.22	226.54
345.60	226.76
345.99	226.88
346.37	227.01
346.75	227.10
347.13	227.14
347.52	227.19
347.90	227.24
348.28	227.27
348.66	227.28
349.05	227.25
349.43	227.29
349.81	227.34
350.19	227.36
350.57	227.41
350.96	227.46
351.34	227.54
351.72	227.65
352.10	227.72
352.48	227.77
352.87	227.83
353.25	227.88
353.63	227.92
354.01	228.04
354.39	228.10
354.77	228.15
355.15	228.28
355.54	228.35
355.92	228.39
356.30	228.44
356.68	228.57
357.06	228.63
357.44	228.70
357.82	228.77
358.20	228.87
358.58	228.89
358.97	228.99
359.35	229.08
359.73	229.13
360.11	229.19
360.49	229.28
360.87	229.33
361.25	229.39
361.63	229.46
362.01	229.48
362.39	229.52
362.77	229.59
363.15	229.60
363.53	229.60
363.91	229.64
364.29	229.66
364.67	229.59
365.05	229.62
365.43	229.62
365.81	229.61
366.19	229.63
366.57	229.69
366.95	229.64
367.33	229.60
367.71	229.56
368.09	229.57
368.47	229.53
368.85	229.52
369.23	229.50
369.61	229.45
369.99	229.46
370.37	229.46
370.75	229.46
371.13	229.40
371.51	229.36
371.89	229.33
372.27	229.28
372.65	229.24
373.03	229.19
373.41	229.13
373.78	229.05
374.16	228.93
374.54	228.86
374.92	228.80
375.30	228.69
375.68	228.61
376.06	228.54
376.44	228.46
376.82	228.40
377.19	228.31
377.57	228.25
377.95	228.12
378.33	228.04
378.71	227.89
379.09	227.84
379.47	227.75
379.84	227.65
380.22	227.59
380.60	227.49
380.98	227.43
381.36	227.35
381.73	227.29
382.11	227.25
382.49	227.17
382.87	227.10
383.25	227.06
383.62	227.16
384.00	227.09
384.38	227.03
384.76	226.96
385.13	226.93
385.51	226.86
385.89	226.82
386.27	226.77
386.64	226.73
387.02	226.68
387.40	226.63
387.78	226.59
388.15	226.57
388.53	226.54
388.91	226.48
389.29	226.45
389.66	226.44
390.04	226.42
390.42	226.39
390.79	226.37
391.17	226.37
391.55	226.22
391.92	226.21
392.30	226.23
392.68	226.22
393.05	226.24
393.43	226.28
393.81	226.29
394.18	226.29
394.56	226.30
394.94	226.33
395.31	226.38
395.69	226.44
396.06	226.46
396.44	226.48
396.82	226.51
397.19	226.62
397.57	226.64
397.95	226.69
398.32	226.74
398.70	226.82
399.07	226.88
399.45	226.95
399.82	227.05
400.20	227.13
400.58	227.20
400.95	227.25
401.33	227.33
401.70	227.47
402.08	227.58
402.45	227.69
402.83	227.81
403.20	227.93
403.58	228.03
403.95	228.16
404.33	228.36
404.71	228.49
405.08	228.69
405.46	228.86
405.83	229.03
406.21	229.19
406.58	229.38
406.96	229.55
407.33	229.72
407.70	229.90
408.08	230.13
408.45	230.37
408.83	230.66
409.20	230.91
409.58	231.13
409.95	231.41
410.33	231.70
410.70	231.97
411.08	232.27
411.45	232.57
411.82	232.89
412.20	233.25
412.57	233.69
412.95	233.97
413.32	234.40
413.69	234.80
414.07	235.25
414.44	235.70
414.82	236.20
415.19	236.80
415.56	237.37
415.94	237.94
416.31	238.59
416.68	239.17
417.06	239.90
417.43	240.57
417.81	241.34
418.18	242.12
418.55	242.96
418.93	243.84
419.30	244.74
419.67	245.68
420.04	246.61
420.42	247.59
420.79	248.75
421.16	249.85
421.54	251.03
421.91	252.25
422.28	253.52
422.66	254.86
423.03	256.12
423.40	257.45
423.77	258.90
424.15	260.33
424.52	261.82
424.89	263.39
425.26	264.95
425.64	266.35
426.01	267.95
426.38	269.59
426.75	271.26
427.13	272.96
427.50	274.75
427.87	276.65
428.24	278.53
428.61	280.31
428.99	282.28
429.36	284.37
429.73	286.45
430.10	288.50
430.47	290.52
430.85	292.67
431.22	294.88
431.59	297.23
431.96	299.43
432.33	301.92
432.70	304.33
433.08	307.13
433.45	309.76
433.82	312.34
434.19	315.24
434.56	318.10
434.93	320.78
435.30	323.42
435.68	326.29
436.05	329.12
436.42	331.90
436.79	334.43
437.16	337.17
437.53	340.01
437.90	342.81
438.27	345.57
438.64	348.41
439.01	350.99
439.38	353.24
439.75	355.45
440.13	357.95
440.50	360.32
440.87	362.17
441.24	364.14
441.61	366.35
441.98	367.83
442.35	369.59
442.72	371.45
443.09	373.23
443.46	374.22
443.83	374.81
444.20	375.32
444.57	376.10
444.94	376.39
445.31	376.70
445.68	377.01
446.05	377.10
446.42	376.73
446.79	376.34
447.16	375.88
447.53	375.53
447.90	374.35
448.27	373.15
448.64	371.55
449.01	370.40
449.37	368.42
449.74	366.52
450.11	364.29
450.48	361.82
450.85	359.27
451.22	357.18
451.59	355.14
451.96	353.19
452.33	350.62
452.70	348.25
453.07	345.41
453.43	342.55
453.80	339.76
454.17	337.04
454.54	334.48
454.91	331.79
455.28	329.18
455.65	326.71
456.02	324.27
456.38	322.17
456.75	319.56
457.12	317.34
457.49	315.12
457.86	312.96
458.23	311.11
458.59	309.10
458.96	307.00
459.33	305.13
459.70	303.29
460.07	301.80
460.43	300.05
460.80	298.43
461.17	296.99
461.54	295.53
461.91	294.17
462.27	292.76
462.64	291.47
463.01	290.08
463.38	288.78
463.74	287.39
464.11	286.17
464.48	285.13
464.85	283.97
465.21	283.08
465.58	282.15
465.95	281.05
466.32	280.13
466.68	279.22
467.05	278.33
467.42	277.42
467.78	276.45
468.15	275.57
468.52	274.93
468.88	274.03
469.25	273.24
469.62	272.56
469.98	271.86
470.35	271.22
470.72	270.61
471.08	269.94
471.45	269.40
471.82	268.86
472.18	268.23
472.55	267.78
472.92	267.28
473.28	266.79
473.65	266.36
474.02	265.89
474.38	265.50
474.75	265.15
475.11	264.79
475.48	264.54
475.85	264.30
476.21	264.01
476.58	263.84
476.94	263.67
477.31	263.44
477.67	263.29
478.04	263.20
478.41	263.11
478.77	263.12
479.14	263.03
479.50	263.00
479.87	263.05
480.23	263.11
480.60	263.16
480.96	263.24
481.33	263.40
481.69	263.59
482.06	263.79
482.42	264.01
482.79	264.26
483.15	264.58
483.52	264.97
483.88	265.34
484.25	265.71
484.61	266.10
484.98	266.57
485.34	267.10
485.71	267.66
486.07	268.24
486.44	268.79
486.80	269.47
487.17	270.24
487.53	271.05
487.90	271.91
488.26	272.86
488.62	273.82
488.99	274.80
489.35	275.85
489.72	276.96
490.08	278.16
490.44	279.42
490.81	280.71
491.17	282.02
491.54	283.50
491.90	285.03
492.26	286.71
492.63	288.42
492.99	290.21
493.36	292.07
493.72	294.16
494.08	296.27
494.45	298.53
494.81	300.89
495.17	303.31
495.54	305.86
495.90	308.52
496.26	311.31
496.63	314.29
496.99	317.38
497.35	320.63
497.72	324.04
498.08	327.54
498.44	331.20
498.80	335.09
499.17	339.10
499.53	343.26
499.89	347.63
500.26	352.15
500.62	356.82
500.98	361.77
501.34	366.84
501.71	372.22
502.07	377.66
502.43	383.31
502.79	389.12
503.16	395.18
503.52	401.45
503.88	407.85
504.24	414.47
504.60	421.37
504.97	428.44
505.33	435.79
505.69	443.52
506.05	451.34
506.41	459.23
506.78	467.41
507.14	475.94
507.50	484.69
507.86	493.68
508.22	502.90
508.59	512.11
508.95	521.71
509.31	531.53
509.67	541.65
510.03	551.89
510.39	562.49
510.75	573.34
511.12	584.35
511.48	595.71
511.84	607.16
512.20	618.65
512.56	630.73
512.92	642.78
513.28	655.09
513.64	667.62
514.00	680.40
514.37	693.38
514.73	706.35
515.09	719.37
515.45	732.73
515.81	746.32
516.17	760.36
516.53	774.45
516.89	788.50
517.25	802.78
517.61	817.23
517.97	831.75
518.33	846.21
518.69	860.89
519.05	875.86
519.41	891.07
519.77	906.62
520.13	922.04
520.49	937.52
520.85	953.06
521.21	968.73
521.57	985.01
521.93	1000.77
522.29	1017.38
522.65	1033.66
523.01	1049.87
523.37	1065.93
523.73	1082.15
524.09	1098.29
524.45	1114.71
524.81	1131.35
525.17	1148.18
525.53	1165.08
525.89	1181.97
526.25	1198.81
526.61	1215.35
526.97	1232.21
527.33	1248.80
527.68	1265.36
528.04	1281.87
528.40	1298.51
528.76	1315.68
529.12	1332.36
529.48	1349.33
529.84	1365.41
530.20	1382.10
530.56	1399.31
530.91	1416.62
531.27	1433.48
531.63	1450.02
531.99	1466.81
532.35	1482.82
532.71	1498.73
533.07	1515.03
533.42	1530.85
533.78	1547.03
534.14	1563.25
534.50	1578.54
534.86	1594.51
535.21	1609.80
535.57	1625.81
535.93	1641.36
536.29	1656.23
536.65	1671.35
537.00	1686.27
537.36	1701.51
537.72	1716.08
538.08	1730.51
538.44	1744.63
538.79	1758.62
539.15	1772.51
539.51	1786.15
539.87	1800.54
540.22	1814.37
540.58	1828.27
540.94	1841.83
541.29	1854.83
541.65	1867.65
542.01	1880.99
542.37	1893.26
542.72	1905.79
543.08	1917.62
543.44	1929.95
543.79	1941.21
544.15	1952.20
544.51	1963.70
544.87	1974.76
545.22	1985.60
545.58	1995.88
545.94	2005.63
546.29	2015.41
546.65	2025.04
547.01	2034.14
547.36	2042.94
547.72	2051.46
548.07	2059.44
548.43	2067.72
548.79	2075.74
549.14	2083.27
549.50	2090.71
549.86	2098.60
550.21	2105.89
550.57	2113.07
550.92	2119.80
551.28	2126.93
551.64	2134.03
551.99	2140.59
552.35	2146.59
552.70	2152.78
553.06	2158.82
553.41	2165.17
553.77	2171.26
554.13	2177.58
554.48	2183.88
554.84	2189.21
555.19	2194.65
555.55	2199.52
555.90	2203.87
556.26	2208.80
556.61	2213.56
556.97	2217.66
557.32	2221.71
557.68	2225.92
558.03	2230.20
558.39	2234.03
558.74	2238.52
559.10	2242.30
559.45	2245.97
559.81	2250.53
560.16	2254.34
560.52	2257.44
560.87	2260.83
561.23	2263.50
561.58	2266.41
561.94	2269.08
562.29	2271.60
562.64	2274.15
563.00	2276.89
563.35	2280.48
563.71	2283.56
564.06	2286.72
564.42	2289.68
564.77	2292.16
565.12	2294.36
565.48	2296.20
565.83	2297.74
566.19	2299.05
566.54	2300.07
566.89	2301.27
567.25	2301.68
567.60	2302.99
567.96	2304.59
568.31	2305.42
568.66	2306.55
569.02	2307.04
569.37	2307.25
569.72	2307.93
570.08	2307.99
570.43	2307.88
570.78	2307.04
571.14	2305.65
571.49	2304.27
571.84	2303.90
572.20	2302.57
572.55	2301.39
572.90	2299.94
573.26	2298.56
573.61	2296.81
573.96	2294.85
574.31	2291.69
574.67	2288.67
575.02	2284.95
575.37	2281.49
575.72	2277.49
576.08	2273.98
576.43	2270.57
576.78	2266.67
577.13	2263.36
577.49	2260.24
577.84	2256.73
578.19	2253.14
578.54	2249.15
578.90	2244.76
579.25	2239.09
579.60	2234.04
579.95	2229.05
580.30	2223.77
580.66	2218.61
581.01	2213.46
581.36	2208.52
581.71	2204.30
582.06	2199.75
582.42	2195.28
582.77	2190.01
583.12	2185.36
583.47	2180.46
583.82	2175.37
584.17	2170.14
584.53	2164.67
584.88	2158.94
585.23	2153.13
585.58	2147.55
585.93	2142.05
586.28	2137.37
586.63	2132.15
586.98	2127.17
587.34	2122.49
587.69	2117.66
588.04	2112.27
588.39	2106.58
588.74	2100.10
589.09	2093.75
589.44	2086.71
589.79	2080.62
590.14	2075.00
590.49	2068.37
590.84	2061.97
591.19	2055.79
591.54	2049.24
591.89	2041.66
592.25	2034.71
592.60	2027.43
592.95	2019.68
593.30	2012.24
593.65	2004.43
594.00	1997.55
594.35	1990.21
594.70	1981.99
595.05	1974.54
595.40	1967.18
595.75	1959.64
596.10	1953.27
596.45	1946.56
596.80	1940.39
597.15	1933.52
597.50	1926.15
597.85	1919.63
598.19	1912.87
598.54	1905.77
598.89	1899.19
599.24	1893.43
599.59	1886.68
599.94	1880.48
600.29	1874.20
600.64	1867.68
600.99	1860.27
601.34	1853.15
601.69	1846.17
602.04	1839.25
602.39	1831.98
602.74	1825.12
603.08	1818.49
603.43	1811.86
603.78	1804.54
604.13	1797.36
604.48	1790.07
604.83	1783.27
605.18	1776.33
605.53	1768.47
605.87	1760.41
606.22	1753.09
606.57	1745.00
606.92	1737.83
607.27	1730.47
607.62	1723.51
607.96	1716.07
608.31	1709.39
608.66	1701.89
609.01	1694.11
609.36	1686.50
609.70	1678.45
610.05	1670.28
610.40	1662.44
610.75	1653.88
611.10	1646.12
611.44	1637.76
611.79	1629.83
612.14	1621.13
612.49	1612.06
612.83	1603.61
613.18	1595.58
613.53	1587.50
613.88	1579.07
614.22	1570.79
614.57	1562.30
614.92	1554.18
615.27	1546.68
615.61	1538.30
615.96	1530.29
616.31	1522.79
616.65	1515.41
617.00	1507.97
617.35	1500.38
617.70	1492.02
618.04	1483.52
618.39	1475.24
618.74	1467.56
619.08	1459.21
619.43	1451.68
619.78	1444.65
620.12	1437.48
620.47	1429.85
620.82	1421.60
621.16	1414.13
621.51	1406.40
621.85	1398.78
622.20	1390.23
622.55	1381.88
622.89	1374.01
623.24	1366.31
623.59	1358.84
623.93	1351.38
624.28	1344.06
624.62	1336.55
624.97	1329.40
625.32	1322.78
625.66	1315.76
626.01	1308.53
626.35	1301.02
626.70	1293.25
627.04	1285.50
627.39	1277.78
627.73	1270.35
628.08	1263.47
628.43	1256.09
628.77	1248.70
629.12	1240.98
629.46	1233.83
629.81	1226.45
630.15	1219.22
630.50	1211.75
630.84	1203.73
631.19	1195.84
631.53	1188.28
631.88	1180.69
632.22	1173.08
632.57	1165.78
632.91	1158.33
633.26	1150.92
633.60	1143.70
633.95	1136.64
634.29	1129.68
634.64	1122.92
634.98	1115.53
635.32	1108.47
635.67	1102.02
636.01	1095.34
636.36	1088.64
636.70	1082.16
637.05	1075.53
637.39	1069.13
637.73	1062.67
638.08	1056.68
638.42	1050.69
638.77	1044.25
639.11	1037.62
639.45	1031.26
639.80	1024.57
640.14	1018.12
640.49	1011.65
640.83	1005.31
641.17	999.05
641.52	992.74
641.86	986.40
642.20	980.65
642.55	974.27
642.89	967.72
643.23	961.30
643.58	955.58
643.92	949.31
644.26	943.31
644.61	937.28
644.95	931.30
645.29	924.69
645.64	917.88
645.98	911.58
646.32	905.89
646.66	899.84
647.01	894.04
647.35	888.46
647.69	882.60
648.04	877.15
648.38	871.38
648.72	865.27
649.06	859.20
649.41	853.29
649.75	847.33
650.09	841.44
650.43	835.55
650.78	829.40
651.12	823.56
651.46	817.83
651.80	812.10
652.14	806.67
652.49	801.34
652.83	796.21
653.17	790.57
653.51	784.77
653.85	779.44
654.20	773.84
654.54	767.73
654.88	762.10
655.22	756.15
655.56	750.49
655.90	745.11
656.25	739.83
656.59	734.52
656.93	729.42
657.27	724.23
657.61	718.89
657.95	713.74
658.29	708.66
658.64	703.39
658.98	698.08
659.32	692.60
659.66	687.45
660.00	682.15
660.34	677.20
660.68	672.35
661.02	667.28
661.36	662.54
661.70	658.11
662.05	653.69
662.39	649.35
662.73	644.91
663.07	640.53
663.41	636.07
663.75	631.54
664.09	627.01
664.43	622.61
664.77	618.43
665.11	614.20
665.45	610.08
665.79	606.06
666.13	601.91
666.47	597.92
666.81	593.73
667.15	589.58
667.49	585.65
667.83	581.80
668.17	577.87
668.51	573.79
668.85	569.77
669.19	565.97
669.53	562.14
669.87	558.24
670.21	554.54
670.55	550.86
670.89	547.45
671.23	544.00
671.57	540.47
671.91	537.00
672.25	533.56
672.58	529.99
672.92	526.60
673.26	523.49
673.60	520.27
673.94	517.18
674.28	514.30
674.62	511.38
674.96	508.25
675.30	505.31
675.64	502.36
675.97	499.61
676.31	496.72
676.65	493.77
676.99	491.04
677.33	488.19
677.67	485.37
678.01	482.28
678.34	479.35
678.68	476.53
679.02	473.69
679.36	470.94
679.70	468.26
680.04	465.42
680.37	462.55
680.71	459.80
681.05	457.19
681.39	454.47
681.73	451.86
682.06	449.32
682.40	446.78
682.74	444.28
683.08	441.71
683.42	439.09
683.75	436.64
684.09	434.12
684.43	431.65
684.77	429.22
685.10	426.94
685.44	424.59
685.78	422.32
686.12	420.17
686.45	417.87
686.79	415.59
687.13	413.46
687.46	411.30
687.80	409.17
688.14	406.96
688.48	404.91
688.81	402.62
689.15	400.53
689.49	398.46
689.82	396.39
690.16	394.35
690.50	392.44
690.83	390.51
691.17	388.54
691.51	386.66
691.84	384.87
692.18	382.93
692.52	381.00
692.85	379.08
693.19	377.15
693.52	375.34
693.86	373.54
694.20	371.79
694.53	369.99
694.87	368.15
695.21	366.42
695.54	364.65
695.88	362.97
696.21	361.26
696.55	359.59
696.88	357.93
697.22	356.27
697.56	354.63
697.89	352.95
698.23	351.36
698.56	349.75
698.90	348.12
699.23	346.54
699.57	344.98
699.90	343.44
700.24	341.90
700.58	340.40
700.91	338.89
701.25	337.43
701.58	336.07
701.92	334.69
702.25	333.27
702.59	331.86
702.92	330.54
703.26	329.28
703.59	328.01
703.93	326.84
704.26	325.60
704.60	324.36
704.93	323.14
705.26	321.91
705.60	320.75
705.93	319.63
706.27	318.57
706.60	317.52
706.94	316.42
707.27	315.30
707.61	314.20
707.94	313.15
708.27	312.01
708.61	310.96
708.94	309.98
709.28	308.97
709.61	308.06
709.94	307.08
710.28	306.03
710.61	305.04
710.95	303.93
711.28	303.02
711.61	302.00
711.95	301.04
712.28	300.10
712.61	299.09
712.95	298.14
713.28	297.26
713.61	296.38
713.95	295.52
714.28	294.68
714.61	293.84
714.95	293.03
715.28	292.20
715.61	291.31
715.95	290.45
716.28	289.59
716.61	288.73
716.95	287.92
717.28	287.16
717.61	286.37
717.94	285.62
718.28	284.80
718.61	284.07
718.94	283.41
719.27	282.77
719.61	282.15
719.94	281.51
720.27	280.76
720.60	280.07
720.94	279.41
721.27	278.83
721.60	278.25
721.93	277.63
722.27	277.08
722.60	276.51
722.93	275.94
723.26	275.41
723.59	274.85
723.93	274.29
724.26	273.72
724.59	273.18
724.92	272.70
725.25	272.21
725.59	271.74
725.92	271.25
726.25	270.72
726.58	270.19
726.91	269.68
727.24	269.29
727.57	268.81
727.91	268.31
728.24	267.83
728.57	267.34
728.90	266.91
729.23	266.43
729.56	266.00
729.89	265.56
730.22	265.08
730.55	264.60
730.89	264.18
731.22	263.77
731.55	263.37
731.88	262.89
732.21	262.47
732.54	262.00
732.87	261.57
733.20	261.18
733.53	260.84
733.86	260.49
734.19	260.07
734.52	259.70
734.85	259.42
735.18	259.04
735.51	258.70
735.84	258.35
736.17	258.00
736.50	257.61
736.83	257.36
737.16	257.08
737.49	256.79
737.82	256.42
738.15	256.10
738.48	255.76
738.81	255.49
739.14	255.19
739.47	254.90
739.80	254.60
740.13	254.29
740.46	253.95
740.79	253.56
741.12	253.27
741.45	252.96
741.78	252.59
742.11	252.30
742.44	251.96
742.77	251.63
743.10	251.35
743.43	251.07
743.75	250.69
744.08	250.50
744.41	250.21
744.74	250.00
745.07	249.70
745.40	249.45
745.73	249.21
746.06	248.93
746.39	248.66
746.71	248.36
747.04	248.07
747.37	247.82
747.70	247.60
748.03	247.33
748.36	247.12
748.68	246.87
749.01	246.61
749.34	246.37
749.67	246.15
750.00	245.93
750.33	245.74
750.65	245.54
750.98	245.19
751.31	244.96
751.64	244.71
751.97	244.56
752.29	244.36
752.62	244.10
752.95	243.89
753.28	243.69
753.60	243.48
753.93	243.31
754.26	243.06
754.59	242.85
754.91	242.64
755.24	242.42
755.57	242.23
755.90	242.04
756.22	241.82
756.55	241.60
756.88	241.39
757.20	241.18
757.53	240.96
757.86	240.78
758.19	240.65
758.51	240.45
758.84	240.22
759.17	240.04
759.49	239.89
759.82	239.74
760.15	239.57
760.47	239.44
760.80	239.26
761.13	239.18
761.45	239.02
761.78	238.88
762.11	238.74
762.43	238.59
762.76	238.44
763.08	238.35
763.41	238.27
763.74	238.11
764.06	237.99
764.39	237.84
764.71	237.72
765.04	237.55
765.37	237.44
765.69	237.33
766.02	237.21
766.34	237.06
766.67	236.92
767.00	236.83
767.32	236.77
767.65	236.72
767.97	236.59
768.30	236.47
768.62	236.34
768.95	236.19
769.27	236.10
769.60	236.03
769.92	235.91
770.25	235.77
770.57	235.68
770.90	235.55
771.22	235.47
771.55	235.40
771.87	235.29
772.20	235.16
772.52	235.14
772.85	235.17
773.17	235.06
773.50	234.96
773.82	234.84
774.15	234.68
774.47	234.50
774.80	234.39
775.12	234.35
775.45	234.28
775.77	234.21
776.09	234.15
776.42	234.05
776.74	234.01
777.07	233.92
777.39	233.82
777.72	233.74
778.04	233.67
778.36	233.58
778.69	233.52
779.01	233.47
779.33	233.32
779.66	233.13
779.98	233.05
780.31	233.03
780.63	233.02
780.95	232.99
781.28	232.92
781.60	232.87
781.92	232.77
782.25	232.72
782.57	232.65
782.89	232.53
783.22	232.47
783.54	232.39
783.86	232.35
784.19	232.33
784.51	232.31
784.83	232.24
785.16	232.19
785.48	232.16
785.80	232.17
786.12	232.15
786.45	232.08
786.77	232.06
787.09	231.99
