SpectraSuite Data File
++++++++++++++++++++++++++++++++++++
Date: Fri Feb 01 16:06:49 EST 2013
User: group
Dark Spectrum Present: No
Reference Spectrum Present: No
Number of Sampled Component Spectra: 1
Spectrometers: USB2E7196
Integration Time (usec): 35000 (USB2E7196)
Spectra Averaged: 100 (USB2E7196)
Boxcar Smoothing: 10 (USB2E7196)
Correct for Electrical Dark: No (USB2E7196)
Strobe/Lamp Enabled: No (USB2E7196)
Correct for Detector Non-linearity: No (USB2E7196)
Correct for Stray Light: No (USB2E7196)
Number of Pixels in Processed Spectrum: 2048
>>>>>Begin Processed Spectral Data<<<<<
339.09	0.00
339.48	214.92
339.86	216.66
340.24	217.90
340.63	218.45
341.01	221.32
341.39	222.08
341.78	222.81
342.16	224.13
342.54	224.96
342.93	213.08
343.31	223.85
343.69	224.41
344.07	224.86
344.46	225.27
344.84	225.68
345.22	225.92
345.60	226.18
345.99	226.38
346.37	226.49
346.75	226.56
347.13	226.63
347.52	226.70
347.90	226.79
348.28	226.80
348.66	226.86
349.05	226.86
349.43	226.91
349.81	226.96
350.19	227.01
350.57	227.04
350.96	227.12
351.34	227.20
351.72	227.24
352.10	227.35
352.48	227.44
352.87	227.48
353.25	227.56
353.63	227.61
354.01	227.69
354.39	227.79
354.77	227.89
355.15	228.00
355.54	228.06
355.92	228.10
356.30	228.18
356.68	228.30
357.06	228.39
357.44	228.41
357.82	228.47
358.20	228.56
358.58	228.61
358.97	228.66
359.35	228.74
359.73	228.81
360.11	228.84
360.49	228.87
360.87	228.97
361.25	229.01
361.63	229.06
362.01	229.08
362.39	229.11
362.77	229.15
363.15	229.17
363.53	229.21
363.91	229.26
364.29	229.28
364.67	229.17
365.05	229.19
365.43	229.22
365.81	229.23
366.19	229.24
366.57	229.26
366.95	229.26
367.33	229.26
367.71	229.25
368.09	229.24
368.47	229.24
368.85	229.22
369.23	229.23
369.61	229.18
369.99	229.19
370.37	229.17
370.75	229.15
371.13	229.08
371.51	228.98
371.89	228.90
372.27	228.85
372.65	228.85
373.03	228.77
373.41	228.73
373.78	228.68
374.16	228.59
374.54	228.56
374.92	228.49
375.30	228.41
375.68	228.36
376.06	228.33
376.44	228.23
376.82	228.15
377.19	228.09
377.57	228.00
377.95	227.93
378.33	227.83
378.71	227.75
379.09	227.72
379.47	227.68
379.84	227.64
380.22	227.59
380.60	227.51
380.98	227.45
381.36	227.37
381.73	227.32
382.11	227.25
382.49	227.19
382.87	227.09
383.25	227.02
383.62	227.07
384.00	226.96
384.38	226.93
384.76	226.89
385.13	226.86
385.51	226.83
385.89	226.74
386.27	226.68
386.64	226.66
387.02	226.56
387.40	226.53
387.78	226.50
388.15	226.46
388.53	226.43
388.91	226.40
389.29	226.39
389.66	226.36
390.04	226.33
390.42	226.29
390.79	226.29
391.17	226.26
391.55	226.11
391.92	226.11
392.30	226.10
392.68	226.07
393.05	226.05
393.43	226.05
393.81	226.08
394.18	226.10
394.56	226.11
394.94	226.17
395.31	226.17
395.69	226.22
396.06	226.25
396.44	226.29
396.82	226.33
397.19	226.39
397.57	226.41
397.95	226.51
398.32	226.55
398.70	226.62
399.07	226.74
399.45	226.81
399.82	226.87
400.20	226.93
400.58	227.00
400.95	227.05
401.33	227.16
401.70	227.30
402.08	227.40
402.45	227.46
402.83	227.57
403.20	227.69
403.58	227.77
403.95	227.91
404.33	228.06
404.71	228.17
405.08	228.36
405.46	228.50
405.83	228.59
406.21	228.72
406.58	228.88
406.96	229.02
407.33	229.22
407.70	229.42
408.08	229.66
408.45	229.88
408.83	230.08
409.20	230.29
409.58	230.44
409.95	230.70
410.33	230.98
410.70	231.22
411.08	231.48
411.45	231.76
411.82	232.06
412.20	232.38
412.57	232.79
412.95	233.09
413.32	233.51
413.69	233.94
414.07	234.40
414.44	234.83
414.82	235.30
415.19	235.83
415.56	236.35
415.94	236.90
416.31	237.56
416.68	238.21
417.06	238.91
417.43	239.62
417.81	240.40
418.18	241.18
418.55	242.02
418.93	242.92
419.30	243.87
419.67	244.80
420.04	245.76
420.42	246.73
420.79	247.92
421.16	249.07
421.54	250.28
421.91	251.47
422.28	252.74
422.66	254.05
423.03	255.35
423.40	256.69
423.77	258.11
424.15	259.51
424.52	261.03
424.89	262.64
425.26	264.17
425.64	265.60
426.01	267.20
426.38	268.87
426.75	270.55
427.13	272.23
427.50	274.08
427.87	275.94
428.24	277.82
428.61	279.57
428.99	281.52
429.36	283.58
429.73	285.61
430.10	287.65
430.47	289.73
430.85	291.85
431.22	294.13
431.59	296.51
431.96	298.70
432.33	301.12
432.70	303.49
433.08	306.30
433.45	308.97
433.82	311.55
434.19	314.46
434.56	317.24
434.93	319.91
435.30	322.51
435.68	325.41
436.05	328.24
436.42	331.01
436.79	333.49
437.16	336.26
437.53	339.08
437.90	341.88
438.27	344.64
438.64	347.43
439.01	349.96
439.38	352.20
439.75	354.39
440.13	356.89
440.50	359.25
440.87	361.08
441.24	363.01
441.61	365.17
441.98	366.62
442.35	368.47
442.72	370.29
443.09	372.08
443.46	373.06
443.83	373.67
444.20	374.12
444.57	374.93
444.94	375.17
445.31	375.54
445.68	375.86
446.05	375.96
446.42	375.60
446.79	375.23
447.16	374.80
447.53	374.47
447.90	373.32
448.27	372.12
448.64	370.57
449.01	369.39
449.37	367.41
449.74	365.47
450.11	363.20
450.48	360.75
450.85	358.23
451.22	356.06
451.59	354.04
451.96	352.13
452.33	349.55
452.70	347.18
453.07	344.37
453.43	341.49
453.80	338.69
454.17	336.01
454.54	333.48
454.91	330.73
455.28	328.10
455.65	325.63
456.02	323.23
456.38	321.09
456.75	318.45
457.12	316.22
457.49	314.03
457.86	311.85
458.23	310.00
458.59	307.93
458.96	305.86
459.33	303.96
459.70	302.09
460.07	300.61
460.43	298.91
460.80	297.28
461.17	295.86
461.54	294.40
461.91	292.99
462.27	291.51
462.64	290.26
463.01	288.90
463.38	287.57
463.74	286.20
464.11	285.03
464.48	284.01
464.85	282.89
465.21	282.04
465.58	281.10
465.95	280.00
466.32	279.10
466.68	278.21
467.05	277.33
467.42	276.49
467.78	275.54
468.15	274.67
468.52	274.02
468.88	273.11
469.25	272.29
469.62	271.68
469.98	271.01
470.35	270.41
470.72	269.81
471.08	269.15
471.45	268.62
471.82	268.08
472.18	267.49
472.55	267.06
472.92	266.52
473.28	266.08
473.65	265.62
474.02	265.17
474.38	264.78
474.75	264.48
475.11	264.12
475.48	263.89
475.85	263.66
476.21	263.43
476.58	263.29
476.94	263.17
477.31	262.98
477.67	262.83
478.04	262.71
478.41	262.65
478.77	262.66
479.14	262.58
479.50	262.60
479.87	262.67
480.23	262.73
480.60	262.83
480.96	262.93
481.33	263.15
481.69	263.34
482.06	263.56
482.42	263.75
482.79	263.99
483.15	264.29
483.52	264.66
483.88	265.00
484.25	265.38
484.61	265.79
484.98	266.26
485.34	266.85
485.71	267.46
486.07	268.05
486.44	268.65
486.80	269.36
487.17	270.08
487.53	270.91
487.90	271.78
488.26	272.70
488.62	273.69
488.99	274.69
489.35	275.80
489.72	276.90
490.08	278.09
490.44	279.36
490.81	280.70
491.17	282.02
491.54	283.48
491.90	285.03
492.26	286.70
492.63	288.44
492.99	290.22
493.36	292.11
493.72	294.21
494.08	296.36
494.45	298.60
494.81	300.96
495.17	303.38
495.54	305.95
495.90	308.63
496.26	311.45
496.63	314.40
496.99	317.51
497.35	320.81
497.72	324.20
498.08	327.72
498.44	331.34
498.80	335.28
499.17	339.36
499.53	343.52
499.89	347.95
500.26	352.38
500.62	357.08
500.98	362.05
501.34	367.15
501.71	372.50
502.07	378.00
502.43	383.69
502.79	389.52
503.16	395.54
503.52	401.85
503.88	408.29
504.24	414.91
504.60	421.78
504.97	428.93
505.33	436.31
505.69	444.05
506.05	451.91
506.41	459.86
506.78	468.05
507.14	476.58
507.50	485.30
507.86	494.40
508.22	503.62
508.59	512.91
508.95	522.45
509.31	532.26
509.67	542.36
510.03	552.61
510.39	563.20
510.75	574.05
511.12	585.01
511.48	596.26
511.84	607.76
512.20	619.31
512.56	631.28
512.92	643.46
513.28	655.81
513.64	668.27
514.00	680.99
514.37	693.95
514.73	706.95
515.09	719.97
515.45	733.20
515.81	746.68
516.17	760.54
516.53	774.61
516.89	788.78
517.25	802.95
517.61	817.35
517.97	831.77
518.33	846.18
518.69	860.94
519.05	875.89
519.41	891.03
519.77	906.53
520.13	921.99
520.49	937.31
520.85	952.66
521.21	968.38
521.57	984.62
521.93	1000.35
522.29	1016.75
522.65	1032.99
523.01	1049.22
523.37	1065.34
523.73	1081.51
524.09	1097.71
524.45	1113.95
524.81	1130.51
525.17	1147.28
525.53	1164.10
525.89	1180.99
526.25	1197.76
526.61	1214.05
526.97	1230.80
527.33	1247.11
527.68	1263.57
528.04	1280.15
528.40	1296.72
528.76	1313.71
529.12	1330.19
529.48	1347.06
529.84	1362.98
530.20	1379.54
530.56	1396.48
530.91	1413.82
531.27	1430.49
531.63	1446.87
531.99	1463.44
532.35	1479.39
532.71	1495.27
533.07	1511.53
533.42	1527.30
533.78	1543.38
534.14	1559.72
534.50	1574.94
534.86	1590.88
535.21	1606.00
535.57	1621.87
535.93	1637.28
536.29	1651.98
536.65	1667.08
537.00	1681.75
537.36	1696.97
537.72	1711.27
538.08	1725.81
538.44	1739.50
538.79	1753.33
539.15	1766.87
539.51	1780.51
539.87	1794.91
540.22	1808.48
540.58	1822.04
540.94	1835.29
541.29	1848.02
541.65	1860.73
542.01	1873.87
542.37	1886.17
542.72	1898.55
543.08	1910.19
543.44	1922.44
543.79	1933.70
544.15	1944.50
544.51	1955.97
544.87	1966.93
545.22	1977.78
545.58	1987.89
545.94	1997.62
546.29	2007.55
546.65	2017.43
547.01	2026.61
547.36	2035.29
547.72	2043.86
548.07	2051.72
548.43	2059.90
548.79	2067.85
549.14	2075.34
549.50	2082.65
549.86	2090.30
550.21	2097.63
550.57	2104.70
550.92	2111.40
551.28	2118.48
551.64	2125.62
551.99	2132.11
552.35	2138.35
552.70	2144.55
553.06	2150.57
553.41	2156.95
553.77	2162.86
554.13	2168.86
554.48	2175.10
554.84	2180.42
555.19	2185.57
555.55	2190.76
555.90	2195.31
556.26	2200.19
556.61	2204.74
556.97	2209.18
557.32	2213.16
557.68	2217.19
558.03	2221.60
558.39	2225.30
558.74	2229.88
559.10	2233.75
559.45	2237.48
559.81	2241.68
560.16	2245.52
560.52	2248.52
560.87	2251.87
561.23	2254.69
561.58	2257.63
561.94	2260.10
562.29	2262.55
562.64	2265.36
563.00	2267.89
563.35	2271.37
563.71	2274.52
564.06	2277.91
564.42	2280.69
564.77	2283.35
565.12	2285.78
565.48	2287.70
565.83	2289.59
566.19	2290.88
566.54	2291.78
566.89	2292.86
567.25	2293.45
567.60	2294.67
567.96	2296.53
568.31	2297.35
568.66	2298.40
569.02	2299.15
569.37	2299.43
569.72	2300.24
570.08	2300.46
570.43	2300.58
570.78	2299.99
571.14	2298.48
571.49	2297.07
571.84	2296.87
572.20	2295.86
572.55	2294.82
572.90	2293.16
573.26	2291.77
573.61	2290.11
573.96	2288.28
574.31	2285.43
574.67	2282.46
575.02	2279.02
575.37	2275.63
575.72	2271.98
576.08	2268.59
576.43	2265.16
576.78	2261.54
577.13	2258.30
577.49	2255.14
577.84	2251.76
578.19	2248.12
578.54	2244.50
578.90	2240.38
579.25	2234.78
579.60	2229.78
579.95	2224.63
580.30	2219.66
580.66	2214.41
581.01	2209.36
581.36	2204.55
581.71	2200.39
582.06	2196.01
582.42	2191.58
582.77	2186.31
583.12	2181.76
583.47	2177.06
583.82	2172.07
584.17	2166.94
584.53	2161.58
584.88	2156.00
585.23	2150.29
585.58	2144.72
585.93	2139.28
586.28	2134.57
586.63	2129.41
586.98	2124.38
587.34	2119.88
587.69	2115.00
588.04	2109.93
588.39	2104.34
588.74	2097.95
589.09	2091.73
589.44	2085.01
589.79	2078.82
590.14	2073.27
590.49	2066.71
590.84	2060.28
591.19	2054.25
591.54	2047.77
591.89	2040.46
592.25	2033.68
592.60	2026.48
592.95	2019.02
593.30	2011.71
593.65	2004.00
594.00	1997.06
594.35	1989.76
594.70	1981.71
595.05	1974.52
595.40	1967.19
595.75	1959.77
596.10	1953.50
596.45	1946.83
596.80	1940.60
597.15	1934.17
597.50	1927.14
597.85	1920.61
598.19	1914.13
598.54	1907.06
598.89	1900.44
599.24	1894.59
599.59	1887.84
599.94	1881.57
600.29	1875.20
600.64	1868.57
600.99	1861.07
601.34	1854.20
601.69	1847.27
602.04	1840.36
602.39	1833.16
602.74	1826.24
603.08	1819.48
603.43	1812.86
603.78	1805.47
604.13	1798.22
604.48	1790.91
604.83	1783.91
605.18	1777.10
605.53	1769.00
605.87	1760.97
606.22	1753.76
606.57	1745.63
606.92	1738.30
607.27	1731.18
607.62	1724.29
607.96	1717.07
608.31	1710.51
608.66	1702.94
609.01	1695.35
609.36	1687.78
609.70	1679.65
610.05	1671.77
610.40	1664.04
610.75	1655.60
611.10	1647.99
611.44	1639.55
611.79	1631.55
612.14	1622.95
612.49	1613.77
612.83	1605.43
613.18	1597.31
613.53	1589.30
613.88	1580.87
614.22	1572.66
614.57	1564.04
614.92	1556.03
615.27	1548.50
615.61	1540.21
615.96	1532.21
616.31	1524.71
616.65	1517.31
617.00	1509.67
617.35	1501.95
617.70	1493.65
618.04	1485.20
618.39	1477.02
618.74	1469.52
619.08	1461.20
619.43	1453.62
619.78	1446.62
620.12	1439.48
620.47	1432.04
620.82	1423.80
621.16	1416.31
621.51	1408.64
621.85	1400.97
622.20	1392.42
622.55	1384.04
622.89	1376.25
623.24	1368.67
623.59	1361.20
623.93	1353.72
624.28	1346.61
624.62	1339.11
624.97	1331.91
625.32	1325.11
625.66	1318.00
626.01	1310.92
626.35	1303.54
626.70	1295.77
627.04	1288.14
627.39	1280.30
627.73	1272.92
628.08	1265.95
628.43	1258.74
628.77	1251.51
629.12	1244.00
629.46	1236.85
629.81	1229.41
630.15	1222.16
630.50	1214.67
630.84	1206.42
631.19	1198.48
631.53	1190.97
631.88	1183.41
632.22	1175.92
632.57	1168.68
632.91	1161.20
633.26	1153.69
633.60	1146.27
633.95	1139.16
634.29	1132.03
634.64	1125.25
634.98	1117.85
635.32	1110.72
635.67	1104.03
636.01	1097.32
636.36	1090.52
636.70	1083.98
637.05	1077.37
637.39	1070.91
637.73	1064.42
638.08	1058.49
638.42	1052.40
638.77	1045.92
639.11	1039.32
639.45	1032.78
639.80	1026.05
640.14	1019.65
640.49	1013.06
640.83	1006.71
641.17	1000.50
641.52	994.24
641.86	987.88
642.20	982.01
642.55	975.67
642.89	969.19
643.23	962.63
643.58	956.84
643.92	950.66
644.26	944.62
644.61	938.58
644.95	932.56
645.29	926.00
645.64	919.34
645.98	913.04
646.32	907.18
646.66	901.25
647.01	895.52
647.35	889.81
647.69	884.00
648.04	878.48
648.38	872.68
648.72	866.63
649.06	860.65
649.41	854.75
649.75	848.74
650.09	842.88
650.43	837.15
650.78	830.95
651.12	825.00
651.46	819.33
651.80	813.59
652.14	808.17
652.49	802.80
652.83	797.67
653.17	792.03
653.51	786.26
653.85	780.81
654.20	775.08
654.54	769.05
654.88	763.22
655.22	757.28
655.56	751.55
655.90	746.13
656.25	740.83
656.59	735.44
656.93	730.43
657.27	725.23
657.61	719.69
657.95	714.66
658.29	709.59
658.64	704.31
658.98	699.01
659.32	693.55
659.66	688.44
660.00	683.10
660.34	678.14
660.68	673.29
661.02	668.23
661.36	663.51
661.70	658.98
662.05	654.67
662.39	650.42
662.73	645.93
663.07	641.53
663.41	637.12
663.75	632.67
664.09	628.08
664.43	623.71
664.77	619.60
665.11	615.25
665.45	611.08
665.79	607.06
666.13	602.92
666.47	598.78
666.81	594.57
667.15	590.48
667.49	586.53
667.83	582.63
668.17	578.71
668.51	574.69
668.85	570.66
669.19	566.82
669.53	562.95
669.87	559.10
670.21	555.41
670.55	551.72
670.89	548.27
671.23	544.85
671.57	541.25
671.91	537.72
672.25	534.28
672.58	530.79
672.92	527.31
673.26	524.12
673.60	521.05
673.94	517.92
674.28	514.91
674.62	511.97
674.96	508.89
675.30	505.96
675.64	503.02
675.97	500.28
676.31	497.43
676.65	494.44
676.99	491.75
677.33	488.89
677.67	486.17
678.01	483.21
678.34	480.23
678.68	477.42
679.02	474.63
679.36	471.86
679.70	469.13
680.04	466.39
680.37	463.56
680.71	460.74
681.05	458.17
681.39	455.50
681.73	452.84
682.06	450.36
682.40	447.83
682.74	445.30
683.08	442.74
683.42	440.15
683.75	437.66
684.09	435.09
684.43	432.61
684.77	430.02
685.10	427.61
685.44	425.32
685.78	422.99
686.12	420.68
686.45	418.39
686.79	416.08
687.13	413.85
687.46	411.66
687.80	409.47
688.14	407.23
688.48	405.18
688.81	402.91
689.15	400.68
689.49	398.52
689.82	396.44
690.16	394.40
690.50	392.46
690.83	390.53
691.17	388.51
691.51	386.58
691.84	384.79
692.18	382.85
692.52	380.87
692.85	378.94
693.19	377.07
693.52	375.23
693.86	373.40
694.20	371.63
694.53	369.75
694.87	367.90
695.21	366.10
695.54	364.27
695.88	362.61
696.21	360.89
696.55	359.21
696.88	357.49
697.22	355.75
697.56	354.13
697.89	352.55
698.23	350.98
698.56	349.37
698.90	347.73
699.23	346.07
699.57	344.46
699.90	342.93
700.24	341.39
700.58	339.88
700.91	338.39
701.25	336.93
701.58	335.60
701.92	334.23
702.25	332.86
702.59	331.48
702.92	330.11
703.26	328.79
703.59	327.56
703.93	326.40
704.26	325.19
704.60	323.86
704.93	322.56
705.26	321.34
705.60	320.17
705.93	319.02
706.27	317.94
706.60	316.93
706.94	315.85
707.27	314.72
707.61	313.64
707.94	312.61
708.27	311.53
708.61	310.48
708.94	309.49
709.28	308.51
709.61	307.57
709.94	306.62
710.28	305.64
710.61	304.66
710.95	303.56
711.28	302.66
711.61	301.76
711.95	300.81
712.28	299.83
712.61	298.87
712.95	297.95
713.28	297.11
713.61	296.21
713.95	295.33
714.28	294.54
714.61	293.69
714.95	292.83
715.28	292.01
715.61	291.09
715.95	290.25
716.28	289.39
716.61	288.55
716.95	287.74
717.28	287.00
717.61	286.19
717.94	285.44
718.28	284.59
718.61	283.87
718.94	283.21
719.27	282.56
719.61	281.91
719.94	281.27
720.27	280.56
720.60	279.85
720.94	279.22
721.27	278.60
721.60	278.05
721.93	277.46
722.27	276.89
722.60	276.34
722.93	275.79
723.26	275.24
723.59	274.70
723.93	274.14
724.26	273.56
724.59	273.05
724.92	272.56
725.25	272.11
725.59	271.59
725.92	271.05
726.25	270.52
726.58	270.01
726.91	269.49
727.24	269.01
727.57	268.59
727.91	268.08
728.24	267.56
728.57	267.10
728.90	266.66
729.23	266.20
729.56	265.80
729.89	265.31
730.22	264.81
730.55	264.36
730.89	263.93
731.22	263.49
731.55	263.02
731.88	262.58
732.21	262.13
732.54	261.67
732.87	261.24
733.20	260.88
733.53	260.51
733.86	260.12
734.19	259.71
734.52	259.32
734.85	259.02
735.18	258.66
735.51	258.25
735.84	257.86
736.17	257.47
736.50	257.05
736.83	256.85
737.16	256.56
737.49	256.21
737.82	255.89
738.15	255.57
738.48	255.24
738.81	254.92
739.14	254.59
739.47	254.28
739.80	253.99
740.13	253.66
740.46	253.30
740.79	252.99
741.12	252.68
741.45	252.36
741.78	252.01
742.11	251.72
742.44	251.35
742.77	251.09
743.10	250.78
743.43	250.48
743.75	250.05
744.08	249.86
744.41	249.57
744.74	249.24
745.07	248.93
745.40	248.67
745.73	248.45
746.06	248.15
746.39	247.89
746.71	247.61
747.04	247.32
747.37	247.10
747.70	246.87
748.03	246.62
748.36	246.39
748.68	246.11
749.01	245.85
749.34	245.62
749.67	245.36
750.00	245.15
750.33	244.99
750.65	244.80
750.98	244.45
751.31	244.24
751.64	244.03
751.97	243.88
752.29	243.64
752.62	243.34
752.95	243.15
753.28	242.93
753.60	242.73
753.93	242.56
754.26	242.35
754.59	242.10
754.91	241.92
755.24	241.71
755.57	241.55
755.90	241.39
756.22	241.22
756.55	241.00
756.88	240.78
757.20	240.53
757.53	240.32
757.86	240.17
758.19	240.03
758.51	239.89
758.84	239.68
759.17	239.53
759.49	239.41
759.82	239.32
760.15	239.20
760.47	239.08
760.80	238.89
761.13	238.78
761.45	238.63
761.78	238.48
762.11	238.34
762.43	238.18
762.76	238.03
763.08	237.94
763.41	237.85
763.74	237.72
764.06	237.60
764.39	237.47
764.71	237.31
765.04	237.14
765.37	237.00
765.69	236.88
766.02	236.74
766.34	236.62
766.67	236.44
767.00	236.32
767.32	236.25
767.65	236.21
767.97	236.06
768.30	235.98
768.62	235.87
768.95	235.76
769.27	235.66
769.60	235.57
769.92	235.44
770.25	235.30
770.57	235.23
770.90	235.15
771.22	235.05
771.55	234.98
771.87	234.87
772.20	234.77
772.52	234.76
772.85	234.79
773.17	234.69
773.50	234.61
773.82	234.51
774.15	234.38
774.47	234.22
774.80	234.14
775.12	234.05
775.45	233.98
775.77	233.91
776.09	233.82
776.42	233.72
776.74	233.65
777.07	233.59
777.39	233.49
777.72	233.40
778.04	233.36
778.36	233.31
778.69	233.29
779.01	233.29
779.33	233.13
779.66	232.97
779.98	232.91
780.31	232.85
780.63	232.81
780.95	232.76
781.28	232.71
781.60	232.61
781.92	232.54
782.25	232.45
782.57	232.36
782.89	232.32
783.22	232.28
783.54	232.23
783.86	232.16
784.19	232.10
784.51	232.07
784.83	231.97
785.16	231.85
785.48	231.78
785.80	231.68
786.12	231.62
786.45	231.55
786.77	231.50
787.09	231.44
