SpectraSuite Data File
++++++++++++++++++++++++++++++++++++
Date: Fri Feb 01 15:54:05 EST 2013
User: group
Dark Spectrum Present: No
Reference Spectrum Present: No
Number of Sampled Component Spectra: 1
Spectrometers: USB2E7196
Integration Time (usec): 35000 (USB2E7196)
Spectra Averaged: 100 (USB2E7196)
Boxcar Smoothing: 10 (USB2E7196)
Correct for Electrical Dark: No (USB2E7196)
Strobe/Lamp Enabled: No (USB2E7196)
Correct for Detector Non-linearity: No (USB2E7196)
Correct for Stray Light: No (USB2E7196)
Number of Pixels in Processed Spectrum: 2048
>>>>>Begin Processed Spectral Data<<<<<
339.09	0.00
339.48	214.54
339.86	215.85
340.24	217.04
340.63	218.94
341.01	221.46
341.39	221.02
341.78	223.01
342.16	223.81
342.54	224.39
342.93	212.86
343.31	223.64
343.69	224.19
344.07	224.71
344.46	225.18
344.84	225.55
345.22	225.79
345.60	226.08
345.99	226.25
346.37	226.40
346.75	226.50
347.13	226.55
347.52	226.62
347.90	226.68
348.28	226.72
348.66	226.78
349.05	226.78
349.43	226.86
349.81	226.91
350.19	226.94
350.57	227.01
350.96	227.10
351.34	227.17
351.72	227.26
352.10	227.32
352.48	227.39
352.87	227.45
353.25	227.57
353.63	227.63
354.01	227.70
354.39	227.78
354.77	227.90
355.15	228.03
355.54	228.10
355.92	228.15
356.30	228.22
356.68	228.37
357.06	228.44
357.44	228.50
357.82	228.57
358.20	228.69
358.58	228.78
358.97	228.86
359.35	228.96
359.73	229.01
360.11	229.09
360.49	229.15
360.87	229.22
361.25	229.26
361.63	229.34
362.01	229.44
362.39	229.45
362.77	229.50
363.15	229.49
363.53	229.51
363.91	229.57
364.29	229.59
364.67	229.51
365.05	229.52
365.43	229.52
365.81	229.56
366.19	229.56
366.57	229.60
366.95	229.57
367.33	229.51
367.71	229.52
368.09	229.50
368.47	229.47
368.85	229.43
369.23	229.40
369.61	229.34
369.99	229.30
370.37	229.31
370.75	229.28
371.13	229.24
371.51	229.19
371.89	229.12
372.27	229.07
372.65	229.02
373.03	228.95
373.41	228.88
373.78	228.78
374.16	228.70
374.54	228.58
374.92	228.53
375.30	228.46
375.68	228.35
376.06	228.27
376.44	228.20
376.82	228.15
377.19	228.08
377.57	228.03
377.95	227.91
378.33	227.81
378.71	227.65
379.09	227.58
379.47	227.52
379.84	227.45
380.22	227.35
380.60	227.24
380.98	227.18
381.36	227.11
381.73	227.03
382.11	226.97
382.49	226.91
382.87	226.82
383.25	226.77
383.62	226.83
384.00	226.74
384.38	226.65
384.76	226.62
385.13	226.55
385.51	226.47
385.89	226.41
386.27	226.37
386.64	226.37
387.02	226.33
387.40	226.25
387.78	226.21
388.15	226.18
388.53	226.15
388.91	226.12
389.29	226.06
389.66	226.06
390.04	226.03
390.42	226.01
390.79	226.00
391.17	225.98
391.55	225.86
391.92	225.89
392.30	225.91
392.68	225.88
393.05	225.88
393.43	225.91
393.81	225.91
394.18	225.91
394.56	225.91
394.94	225.96
395.31	225.99
395.69	226.06
396.06	226.11
396.44	226.17
396.82	226.20
397.19	226.34
397.57	226.41
397.95	226.46
398.32	226.51
398.70	226.57
399.07	226.65
399.45	226.74
399.82	226.80
400.20	226.88
400.58	226.97
400.95	227.01
401.33	227.09
401.70	227.27
402.08	227.34
402.45	227.47
402.83	227.58
403.20	227.71
403.58	227.79
403.95	227.93
404.33	228.07
404.71	228.19
405.08	228.32
405.46	228.45
405.83	228.59
406.21	228.73
406.58	228.92
406.96	229.10
407.33	229.24
407.70	229.43
408.08	229.66
408.45	229.88
408.83	230.11
409.20	230.32
409.58	230.49
409.95	230.79
410.33	231.06
410.70	231.31
411.08	231.60
411.45	231.93
411.82	232.23
412.20	232.57
412.57	233.04
412.95	233.35
413.32	233.77
413.69	234.16
414.07	234.59
414.44	235.05
414.82	235.51
415.19	236.06
415.56	236.61
415.94	237.15
416.31	237.78
416.68	238.46
417.06	239.15
417.43	239.86
417.81	240.61
418.18	241.37
418.55	242.20
418.93	243.09
419.30	243.95
419.67	244.87
420.04	245.78
420.42	246.72
420.79	247.93
421.16	249.06
421.54	250.28
421.91	251.50
422.28	252.78
422.66	254.11
423.03	255.44
423.40	256.76
423.77	258.18
424.15	259.59
424.52	261.05
424.89	262.66
425.26	264.22
425.64	265.67
426.01	267.25
426.38	268.88
426.75	270.54
427.13	272.29
427.50	274.09
427.87	276.01
428.24	277.87
428.61	279.58
428.99	281.50
429.36	283.58
429.73	285.61
430.10	287.59
430.47	289.61
430.85	291.70
431.22	293.92
431.59	296.28
431.96	298.55
432.33	301.02
432.70	303.41
433.08	306.21
433.45	308.84
433.82	311.44
434.19	314.32
434.56	317.11
434.93	319.79
435.30	322.39
435.68	325.27
436.05	328.08
436.42	330.85
436.79	333.40
437.16	336.11
437.53	338.99
437.90	341.81
438.27	344.58
438.64	347.40
439.01	349.99
439.38	352.21
439.75	354.35
440.13	356.85
440.50	359.16
440.87	360.98
441.24	362.95
441.61	365.09
441.98	366.60
442.35	368.39
442.72	370.20
443.09	372.05
443.46	373.02
443.83	373.63
444.20	374.15
444.57	374.92
444.94	375.18
445.31	375.50
445.68	375.79
446.05	375.87
446.42	375.50
446.79	375.11
447.16	374.65
447.53	374.33
447.90	373.14
448.27	371.98
448.64	370.36
449.01	369.14
449.37	367.22
449.74	365.31
450.11	363.08
450.48	360.60
450.85	358.02
451.22	355.90
451.59	353.85
451.96	351.90
452.33	349.35
452.70	347.02
453.07	344.16
453.43	341.32
453.80	338.55
454.17	335.81
454.54	333.25
454.91	330.53
455.28	327.88
455.65	325.43
456.02	322.96
456.38	320.86
456.75	318.26
457.12	315.99
457.49	313.75
457.86	311.58
458.23	309.74
458.59	307.70
458.96	305.61
459.33	303.78
459.70	301.94
460.07	300.43
460.43	298.70
460.80	297.10
461.17	295.68
461.54	294.16
461.91	292.78
462.27	291.38
462.64	290.16
463.01	288.78
463.38	287.49
463.74	286.11
464.11	284.96
464.48	283.95
464.85	282.86
465.21	281.98
465.58	281.07
465.95	280.00
466.32	279.12
466.68	278.21
467.05	277.27
467.42	276.37
467.78	275.44
468.15	274.59
468.52	273.92
468.88	273.05
469.25	272.31
469.62	271.71
469.98	271.03
470.35	270.42
470.72	269.84
471.08	269.18
471.45	268.66
471.82	268.12
472.18	267.53
472.55	267.09
472.92	266.60
473.28	266.14
473.65	265.69
474.02	265.21
474.38	264.85
474.75	264.56
475.11	264.24
475.48	263.99
475.85	263.76
476.21	263.55
476.58	263.40
476.94	263.24
477.31	263.04
477.67	262.90
478.04	262.78
478.41	262.71
478.77	262.75
479.14	262.70
479.50	262.74
479.87	262.83
480.23	262.91
480.60	263.00
480.96	263.08
481.33	263.31
481.69	263.53
482.06	263.78
482.42	263.98
482.79	264.25
483.15	264.56
483.52	264.95
483.88	265.29
484.25	265.65
484.61	266.10
484.98	266.60
485.34	267.14
485.71	267.73
486.07	268.35
486.44	268.93
486.80	269.66
487.17	270.37
487.53	271.17
487.90	272.00
488.26	272.92
488.62	273.90
488.99	274.86
489.35	275.93
489.72	277.04
490.08	278.25
490.44	279.48
490.81	280.84
491.17	282.20
491.54	283.65
491.90	285.20
492.26	286.85
492.63	288.56
492.99	290.36
493.36	292.24
493.72	294.30
494.08	296.42
494.45	298.63
494.81	301.00
495.17	303.43
495.54	306.02
495.90	308.72
496.26	311.57
496.63	314.54
496.99	317.63
497.35	320.90
497.72	324.29
498.08	327.82
498.44	331.43
498.80	335.35
499.17	339.40
499.53	343.59
499.89	347.96
500.26	352.49
500.62	357.13
500.98	362.12
501.34	367.23
501.71	372.53
502.07	378.00
502.43	383.62
502.79	389.47
503.16	395.57
503.52	401.87
503.88	408.25
504.24	414.88
504.60	421.80
504.97	428.91
505.33	436.21
505.69	443.91
506.05	451.78
506.41	459.65
506.78	467.82
507.14	476.31
507.50	485.04
507.86	494.02
508.22	503.24
508.59	512.48
508.95	521.98
509.31	531.85
509.67	541.96
510.03	552.24
510.39	562.76
510.75	573.49
511.12	584.37
511.48	595.67
511.84	607.05
512.20	618.56
512.56	630.49
512.92	642.68
513.28	655.04
513.64	667.47
514.00	680.17
514.37	693.15
514.73	706.23
515.09	719.24
515.45	732.54
515.81	746.06
516.17	760.07
516.53	774.19
516.89	788.34
517.25	802.55
517.61	816.89
517.97	831.30
518.33	845.77
518.69	860.58
519.05	875.55
519.41	890.76
519.77	906.29
520.13	921.73
520.49	937.11
520.85	952.43
521.21	968.19
521.57	984.47
521.93	1000.23
522.29	1016.61
522.65	1032.83
523.01	1049.07
523.37	1065.12
523.73	1081.20
524.09	1097.20
524.45	1113.46
524.81	1129.99
525.17	1146.88
525.53	1163.72
525.89	1180.56
526.25	1197.30
526.61	1213.66
526.97	1230.40
527.33	1246.73
527.68	1263.36
528.04	1279.80
528.40	1296.42
528.76	1313.47
529.12	1330.00
529.48	1346.80
529.84	1362.68
530.20	1379.29
530.56	1396.23
530.91	1413.60
531.27	1430.31
531.63	1446.81
531.99	1463.44
532.35	1479.30
532.71	1495.15
533.07	1511.47
533.42	1527.29
533.78	1543.37
534.14	1559.68
534.50	1575.02
534.86	1590.97
535.21	1606.02
535.57	1622.00
535.93	1637.49
536.29	1652.16
536.65	1667.04
537.00	1681.86
537.36	1697.11
537.72	1711.66
538.08	1726.17
538.44	1739.88
538.79	1753.80
539.15	1767.40
539.51	1781.13
539.87	1795.63
540.22	1809.40
540.58	1823.17
540.94	1836.64
541.29	1849.49
541.65	1862.16
542.01	1875.44
542.37	1887.72
542.72	1900.22
543.08	1911.89
543.44	1924.29
543.79	1935.54
544.15	1946.69
544.51	1958.19
544.87	1969.24
545.22	1980.05
545.58	1990.18
545.94	2000.07
546.29	2010.02
546.65	2019.98
547.01	2029.17
547.36	2037.75
547.72	2046.17
548.07	2054.02
548.43	2062.17
548.79	2070.34
549.14	2077.72
549.50	2085.00
549.86	2092.61
550.21	2099.88
550.57	2107.02
550.92	2113.58
551.28	2120.62
551.64	2127.61
551.99	2134.23
552.35	2140.34
552.70	2146.56
553.06	2152.60
553.41	2158.81
553.77	2164.74
554.13	2170.91
554.48	2177.02
554.84	2182.42
555.19	2187.77
555.55	2192.80
555.90	2197.33
556.26	2202.10
556.61	2206.85
556.97	2211.09
557.32	2215.38
557.68	2219.48
558.03	2223.86
558.39	2227.46
558.74	2232.08
559.10	2236.04
559.45	2239.60
559.81	2243.91
560.16	2247.51
560.52	2250.59
560.87	2254.01
561.23	2256.61
561.58	2259.50
561.94	2261.85
562.29	2264.23
562.64	2266.77
563.00	2269.30
563.35	2272.63
563.71	2275.74
564.06	2279.10
564.42	2281.97
564.77	2284.37
565.12	2286.70
565.48	2288.64
565.83	2290.47
566.19	2291.74
566.54	2292.59
566.89	2293.64
567.25	2294.17
567.60	2295.60
567.96	2297.33
568.31	2298.23
568.66	2299.48
569.02	2299.94
569.37	2300.47
569.72	2301.37
570.08	2301.63
570.43	2301.73
570.78	2301.30
571.14	2299.74
571.49	2298.29
571.84	2297.98
572.20	2296.85
572.55	2295.86
572.90	2294.22
573.26	2292.84
573.61	2291.34
573.96	2289.56
574.31	2286.64
574.67	2283.62
575.02	2280.05
575.37	2276.64
575.72	2272.76
576.08	2269.34
576.43	2266.08
576.78	2262.37
577.13	2259.26
577.49	2256.16
577.84	2252.79
578.19	2248.90
578.54	2245.31
578.90	2241.12
579.25	2235.49
579.60	2230.51
579.95	2225.55
580.30	2220.58
580.66	2215.55
581.01	2210.45
581.36	2205.60
581.71	2201.57
582.06	2197.22
582.42	2192.62
582.77	2187.38
583.12	2182.88
583.47	2178.09
583.82	2173.02
584.17	2167.73
584.53	2162.21
584.88	2156.57
585.23	2150.79
585.58	2145.39
585.93	2139.90
586.28	2135.12
586.63	2130.08
586.98	2125.14
587.34	2120.22
587.69	2115.35
588.04	2109.98
588.39	2104.24
588.74	2097.91
589.09	2091.59
589.44	2084.84
589.79	2078.91
590.14	2073.30
590.49	2066.67
590.84	2060.36
591.19	2054.39
591.54	2047.96
591.89	2040.52
592.25	2033.63
592.60	2026.35
592.95	2018.78
593.30	2011.38
593.65	2003.81
594.00	1996.73
594.35	1989.38
594.70	1981.53
595.05	1974.26
595.40	1967.01
595.75	1959.56
596.10	1953.15
596.45	1946.41
596.80	1940.23
597.15	1933.64
597.50	1926.38
597.85	1920.01
598.19	1913.35
598.54	1906.21
598.89	1899.51
599.24	1893.67
599.59	1886.93
599.94	1880.84
600.29	1874.40
600.64	1867.94
600.99	1860.41
601.34	1853.78
601.69	1846.80
602.04	1839.80
602.39	1832.50
602.74	1825.74
603.08	1819.01
603.43	1812.17
603.78	1804.86
604.13	1797.57
604.48	1790.19
604.83	1783.57
605.18	1776.59
605.53	1768.59
605.87	1760.55
606.22	1753.38
606.57	1745.50
606.92	1738.24
607.27	1730.87
607.62	1724.03
607.96	1716.69
608.31	1710.08
608.66	1702.37
609.01	1694.72
609.36	1687.14
609.70	1679.06
610.05	1670.90
610.40	1663.21
610.75	1654.96
611.10	1647.31
611.44	1638.90
611.79	1630.91
612.14	1622.11
612.49	1612.94
612.83	1604.49
613.18	1596.31
613.53	1588.15
613.88	1579.56
614.22	1571.29
614.57	1562.80
614.92	1554.73
615.27	1547.17
615.61	1538.74
615.96	1530.66
616.31	1523.27
616.65	1515.95
617.00	1508.44
617.35	1500.87
617.70	1492.53
618.04	1484.09
618.39	1475.82
618.74	1468.28
619.08	1460.09
619.43	1452.49
619.78	1445.55
620.12	1438.31
620.47	1430.97
620.82	1422.81
621.16	1415.39
621.51	1407.81
621.85	1400.20
622.20	1391.57
622.55	1383.21
622.89	1375.53
623.24	1367.89
623.59	1360.49
623.93	1352.98
624.28	1345.78
624.62	1338.14
624.97	1330.90
625.32	1324.13
625.66	1317.10
626.01	1309.87
626.35	1302.29
626.70	1294.60
627.04	1286.91
627.39	1279.26
627.73	1271.78
628.08	1264.93
628.43	1257.61
628.77	1250.28
629.12	1242.74
629.46	1235.75
629.81	1228.41
630.15	1221.14
630.50	1213.76
630.84	1205.44
631.19	1197.53
631.53	1189.98
631.88	1182.51
632.22	1174.96
632.57	1167.64
632.91	1160.18
633.26	1152.80
633.60	1145.42
633.95	1138.35
634.29	1131.35
634.64	1124.72
634.98	1117.36
635.32	1110.28
635.67	1103.72
636.01	1097.03
636.36	1090.08
636.70	1083.50
637.05	1076.88
637.39	1070.48
637.73	1063.90
638.08	1058.08
638.42	1052.08
638.77	1045.70
639.11	1039.05
639.45	1032.62
639.80	1025.91
640.14	1019.54
640.49	1013.02
640.83	1006.73
641.17	1000.49
641.52	994.21
641.86	987.71
642.20	981.94
642.55	975.58
642.89	969.01
643.23	962.51
643.58	956.82
643.92	950.69
644.26	944.54
644.61	938.60
644.95	932.64
645.29	925.96
645.64	919.21
645.98	912.88
646.32	907.12
646.66	901.12
647.01	895.36
647.35	889.53
647.69	883.63
648.04	878.07
648.38	872.31
648.72	866.18
649.06	860.01
649.41	854.07
649.75	848.08
650.09	842.22
650.43	836.42
650.78	830.26
651.12	824.31
651.46	818.59
651.80	812.72
652.14	807.24
652.49	801.97
652.83	796.78
653.17	791.00
653.51	785.17
653.85	779.79
654.20	774.13
654.54	768.18
654.88	762.48
655.22	756.66
655.56	750.93
655.90	745.47
656.25	740.35
656.59	734.97
656.93	729.89
657.27	724.68
657.61	719.23
657.95	714.14
658.29	709.04
658.64	703.82
658.98	698.53
659.32	693.14
659.66	687.89
660.00	682.54
660.34	677.64
660.68	672.83
661.02	667.78
661.36	663.05
661.70	658.55
662.05	654.21
662.39	649.86
662.73	645.39
663.07	641.08
663.41	636.66
663.75	632.13
664.09	627.65
664.43	623.23
664.77	619.14
665.11	614.88
665.45	610.77
665.79	606.64
666.13	602.50
666.47	598.40
666.81	594.21
667.15	590.15
667.49	586.24
667.83	582.38
668.17	578.50
668.51	574.42
668.85	570.38
669.19	566.54
669.53	562.73
669.87	558.90
670.21	555.19
670.55	551.53
670.89	548.12
671.23	544.69
671.57	541.18
671.91	537.63
672.25	534.16
672.58	530.56
672.92	527.18
673.26	524.03
673.60	520.88
673.94	517.81
674.28	514.88
674.62	511.95
674.96	508.85
675.30	505.92
675.64	503.07
675.97	500.35
676.31	497.46
676.65	494.54
676.99	491.83
677.33	488.94
677.67	486.13
678.01	483.09
678.34	480.05
678.68	477.26
679.02	474.46
679.36	471.72
679.70	469.11
680.04	466.36
680.37	463.45
680.71	460.66
681.05	458.06
681.39	455.37
681.73	452.71
682.06	450.24
682.40	447.72
682.74	445.15
683.08	442.57
683.42	440.02
683.75	437.53
684.09	434.93
684.43	432.53
684.77	430.06
685.10	427.74
685.44	425.45
685.78	423.13
686.12	420.89
686.45	418.53
686.79	416.17
687.13	413.96
687.46	411.88
687.80	409.77
688.14	407.53
688.48	405.42
688.81	403.20
689.15	400.99
689.49	398.79
689.82	396.77
690.16	394.69
690.50	392.68
690.83	390.69
691.17	388.74
691.51	386.81
691.84	384.94
692.18	382.99
692.52	380.98
692.85	379.05
693.19	377.13
693.52	375.30
693.86	373.48
694.20	371.73
694.53	369.87
694.87	368.03
695.21	366.28
695.54	364.43
695.88	362.68
696.21	360.95
696.55	359.29
696.88	357.55
697.22	355.92
697.56	354.29
697.89	352.62
698.23	351.02
698.56	349.37
698.90	347.76
699.23	346.11
699.57	344.58
699.90	343.06
700.24	341.52
700.58	340.02
700.91	338.53
701.25	337.06
701.58	335.70
701.92	334.26
702.25	332.85
702.59	331.52
702.92	330.20
703.26	328.86
703.59	327.57
703.93	326.42
704.26	325.15
704.60	323.87
704.93	322.60
705.26	321.38
705.60	320.23
705.93	319.08
706.27	318.07
706.60	317.02
706.94	315.91
707.27	314.77
707.61	313.72
707.94	312.71
708.27	311.63
708.61	310.52
708.94	309.57
709.28	308.63
709.61	307.69
709.94	306.76
710.28	305.76
710.61	304.79
710.95	303.72
711.28	302.82
711.61	301.86
711.95	300.97
712.28	300.01
712.61	299.00
712.95	298.05
713.28	297.16
713.61	296.26
713.95	295.40
714.28	294.59
714.61	293.74
714.95	292.89
715.28	292.04
715.61	291.20
715.95	290.34
716.28	289.48
716.61	288.65
716.95	287.81
717.28	287.12
717.61	286.35
717.94	285.58
718.28	284.79
718.61	284.06
718.94	283.34
719.27	282.70
719.61	282.11
719.94	281.48
720.27	280.82
720.60	280.10
720.94	279.46
721.27	278.90
721.60	278.31
721.93	277.68
722.27	277.15
722.60	276.61
722.93	276.02
723.26	275.51
723.59	274.90
723.93	274.38
724.26	273.83
724.59	273.25
724.92	272.71
725.25	272.23
725.59	271.68
725.92	271.19
726.25	270.62
726.58	270.08
726.91	269.58
727.24	269.11
727.57	268.68
727.91	268.15
728.24	267.65
728.57	267.17
728.90	266.72
729.23	266.21
729.56	265.76
729.89	265.28
730.22	264.79
730.55	264.33
730.89	263.86
731.22	263.38
731.55	262.97
731.88	262.59
732.21	262.12
732.54	261.72
732.87	261.29
733.20	260.89
733.53	260.52
733.86	260.11
734.19	259.67
734.52	259.30
734.85	259.03
735.18	258.60
735.51	258.22
735.84	257.86
736.17	257.47
736.50	257.06
736.83	256.84
737.16	256.49
737.49	256.16
737.82	255.82
738.15	255.46
738.48	255.11
738.81	254.74
739.14	254.42
739.47	254.13
739.80	253.83
740.13	253.54
740.46	253.21
740.79	252.88
741.12	252.55
741.45	252.21
741.78	251.83
742.11	251.57
742.44	251.22
742.77	250.91
743.10	250.63
743.43	250.31
743.75	249.93
744.08	249.78
744.41	249.50
744.74	249.24
745.07	249.00
745.40	248.75
745.73	248.53
746.06	248.25
746.39	248.00
746.71	247.73
747.04	247.44
747.37	247.16
747.70	246.97
748.03	246.72
748.36	246.51
748.68	246.25
749.01	246.01
749.34	245.80
749.67	245.57
750.00	245.33
750.33	245.21
750.65	245.02
750.98	244.67
751.31	244.48
751.64	244.25
751.97	244.07
752.29	243.88
752.62	243.61
752.95	243.41
753.28	243.19
753.60	242.95
753.93	242.78
754.26	242.60
754.59	242.33
754.91	242.15
755.24	241.95
755.57	241.77
755.90	241.56
756.22	241.38
756.55	241.20
756.88	241.04
757.20	240.82
757.53	240.62
757.86	240.45
758.19	240.29
758.51	240.13
758.84	239.93
759.17	239.75
759.49	239.62
759.82	239.52
760.15	239.36
760.47	239.22
760.80	239.06
761.13	238.93
761.45	238.79
761.78	238.65
762.11	238.49
762.43	238.36
762.76	238.25
763.08	238.10
763.41	237.95
763.74	237.83
764.06	237.68
764.39	237.54
764.71	237.39
765.04	237.23
765.37	237.11
765.69	236.98
766.02	236.84
766.34	236.70
766.67	236.51
767.00	236.42
767.32	236.34
767.65	236.29
767.97	236.17
768.30	236.09
768.62	235.96
768.95	235.86
769.27	235.75
769.60	235.65
769.92	235.53
770.25	235.42
770.57	235.27
770.90	235.19
771.22	235.07
771.55	234.98
771.87	234.87
772.20	234.72
772.52	234.70
772.85	234.70
773.17	234.62
773.50	234.55
773.82	234.44
774.15	234.31
774.47	234.16
774.80	234.09
775.12	233.99
775.45	233.91
775.77	233.82
776.09	233.75
776.42	233.66
776.74	233.61
777.07	233.56
777.39	233.50
777.72	233.37
778.04	233.32
778.36	233.22
778.69	233.18
779.01	233.13
779.33	233.00
779.66	232.82
779.98	232.72
780.31	232.64
780.63	232.64
780.95	232.59
781.28	232.53
781.60	232.46
781.92	232.40
782.25	232.35
782.57	232.32
782.89	232.27
783.22	232.23
783.54	232.16
783.86	232.08
784.19	231.99
784.51	231.98
784.83	231.90
785.16	231.86
785.48	231.80
785.80	231.76
786.12	231.70
786.45	231.64
786.77	231.65
787.09	231.61
