SpectraSuite Data File
++++++++++++++++++++++++++++++++++++
Date: Fri Feb 01 15:39:59 EST 2013
User: group
Dark Spectrum Present: No
Reference Spectrum Present: No
Number of Sampled Component Spectra: 1
Spectrometers: USB2E7196
Integration Time (usec): 35000 (USB2E7196)
Spectra Averaged: 100 (USB2E7196)
Boxcar Smoothing: 10 (USB2E7196)
Correct for Electrical Dark: No (USB2E7196)
Strobe/Lamp Enabled: No (USB2E7196)
Correct for Detector Non-linearity: No (USB2E7196)
Correct for Stray Light: No (USB2E7196)
Number of Pixels in Processed Spectrum: 2048
>>>>>Begin Processed Spectral Data<<<<<
339.09	0.00
339.48	215.05
339.86	216.84
340.24	218.33
340.63	219.48
341.01	222.00
341.39	222.10
341.78	223.55
342.16	224.67
342.54	224.76
342.93	213.57
343.31	224.36
343.69	224.91
344.07	225.36
344.46	225.77
344.84	226.13
345.22	226.37
345.60	226.62
345.99	226.80
346.37	226.92
346.75	227.06
347.13	227.14
347.52	227.16
347.90	227.19
348.28	227.22
348.66	227.18
349.05	227.17
349.43	227.23
349.81	227.29
350.19	227.36
350.57	227.40
350.96	227.48
351.34	227.56
351.72	227.63
352.10	227.71
352.48	227.75
352.87	227.82
353.25	227.91
353.63	227.95
354.01	228.01
354.39	228.10
354.77	228.14
355.15	228.20
355.54	228.28
355.92	228.32
356.30	228.37
356.68	228.55
357.06	228.64
357.44	228.70
357.82	228.72
358.20	228.78
358.58	228.84
358.97	228.90
359.35	228.96
359.73	229.03
360.11	229.11
360.49	229.17
360.87	229.24
361.25	229.26
361.63	229.35
362.01	229.38
362.39	229.41
362.77	229.43
363.15	229.44
363.53	229.46
363.91	229.50
364.29	229.55
364.67	229.45
365.05	229.44
365.43	229.44
365.81	229.47
366.19	229.49
366.57	229.49
366.95	229.45
367.33	229.42
367.71	229.41
368.09	229.37
368.47	229.35
368.85	229.30
369.23	229.30
369.61	229.23
369.99	229.22
370.37	229.18
370.75	229.20
371.13	229.15
371.51	229.09
371.89	229.03
372.27	228.97
372.65	228.92
373.03	228.82
373.41	228.74
373.78	228.69
374.16	228.62
374.54	228.57
374.92	228.51
375.30	228.46
375.68	228.37
376.06	228.33
376.44	228.28
376.82	228.22
377.19	228.12
377.57	228.05
377.95	227.94
378.33	227.87
378.71	227.73
379.09	227.67
379.47	227.60
379.84	227.52
380.22	227.45
380.60	227.34
380.98	227.30
381.36	227.25
381.73	227.16
382.11	227.06
382.49	226.97
382.87	226.90
383.25	226.80
383.62	226.85
384.00	226.77
384.38	226.71
384.76	226.65
385.13	226.64
385.51	226.61
385.89	226.56
386.27	226.52
386.64	226.50
387.02	226.45
387.40	226.41
387.78	226.41
388.15	226.36
388.53	226.35
388.91	226.32
389.29	226.32
389.66	226.29
390.04	226.28
390.42	226.29
390.79	226.28
391.17	226.30
391.55	226.18
391.92	226.19
392.30	226.21
392.68	226.20
393.05	226.19
393.43	226.19
393.81	226.17
394.18	226.14
394.56	226.17
394.94	226.21
395.31	226.22
395.69	226.22
396.06	226.27
396.44	226.32
396.82	226.37
397.19	226.46
397.57	226.51
397.95	226.56
398.32	226.58
398.70	226.65
399.07	226.74
399.45	226.79
399.82	226.83
400.20	226.86
400.58	226.92
400.95	226.97
401.33	227.06
401.70	227.23
402.08	227.35
402.45	227.42
402.83	227.55
403.20	227.66
403.58	227.78
403.95	227.91
404.33	228.04
404.71	228.18
405.08	228.35
405.46	228.45
405.83	228.60
406.21	228.76
406.58	228.89
406.96	229.03
407.33	229.19
407.70	229.39
408.08	229.68
408.45	229.90
408.83	230.15
409.20	230.35
409.58	230.53
409.95	230.81
410.33	231.09
410.70	231.33
411.08	231.65
411.45	231.94
411.82	232.25
412.20	232.60
412.57	233.01
412.95	233.31
413.32	233.74
413.69	234.16
414.07	234.59
414.44	235.07
414.82	235.55
415.19	236.14
415.56	236.70
415.94	237.23
416.31	237.88
416.68	238.50
417.06	239.23
417.43	239.90
417.81	240.65
418.18	241.42
418.55	242.30
418.93	243.18
419.30	244.09
419.67	245.01
420.04	245.98
420.42	246.96
420.79	248.11
421.16	249.26
421.54	250.47
421.91	251.66
422.28	252.94
422.66	254.28
423.03	255.57
423.40	256.89
423.77	258.29
424.15	259.73
424.52	261.19
424.89	262.81
425.26	264.39
425.64	265.81
426.01	267.38
426.38	269.04
426.75	270.71
427.13	272.44
427.50	274.26
427.87	276.13
428.24	277.97
428.61	279.74
428.99	281.69
429.36	283.76
429.73	285.85
430.10	287.86
430.47	289.92
430.85	292.06
431.22	294.32
431.59	296.72
431.96	298.92
432.33	301.40
432.70	303.78
433.08	306.61
433.45	309.30
433.82	311.94
434.19	314.77
434.56	317.56
434.93	320.18
435.30	322.79
435.68	325.66
436.05	328.49
436.42	331.29
436.79	333.81
437.16	336.52
437.53	339.38
437.90	342.18
438.27	344.98
438.64	347.80
439.01	350.40
439.38	352.64
439.75	354.83
440.13	357.33
440.50	359.65
440.87	361.51
441.24	363.44
441.61	365.63
441.98	367.17
442.35	368.97
442.72	370.86
443.09	372.68
443.46	373.72
443.83	374.32
444.20	374.86
444.57	375.67
444.94	375.95
445.31	376.29
445.68	376.66
446.05	376.67
446.42	376.25
446.79	375.82
447.16	375.36
447.53	375.04
447.90	373.93
448.27	372.74
448.64	371.06
449.01	369.92
449.37	367.95
449.74	366.07
450.11	363.83
450.48	361.35
450.85	358.84
451.22	356.69
451.59	354.67
451.96	352.66
452.33	350.05
452.70	347.65
453.07	344.79
453.43	341.90
453.80	339.14
454.17	336.51
454.54	333.92
454.91	331.19
455.28	328.51
455.65	326.00
456.02	323.58
456.38	321.52
456.75	318.85
457.12	316.57
457.49	314.33
457.86	312.18
458.23	310.33
458.59	308.27
458.96	306.18
459.33	304.32
459.70	302.48
460.07	300.99
460.43	299.33
460.80	297.70
461.17	296.23
461.54	294.73
461.91	293.29
462.27	291.86
462.64	290.61
463.01	289.26
463.38	287.98
463.74	286.60
464.11	285.40
464.48	284.40
464.85	283.28
465.21	282.37
465.58	281.40
465.95	280.29
466.32	279.39
466.68	278.47
467.05	277.59
467.42	276.70
467.78	275.79
468.15	274.93
468.52	274.30
468.88	273.45
469.25	272.65
469.62	272.09
469.98	271.43
470.35	270.79
470.72	270.20
471.08	269.54
471.45	269.02
471.82	268.48
472.18	267.87
472.55	267.44
472.92	266.95
473.28	266.51
473.65	266.07
474.02	265.62
474.38	265.25
474.75	264.93
475.11	264.59
475.48	264.32
475.85	264.03
476.21	263.79
476.58	263.61
476.94	263.50
477.31	263.31
477.67	263.18
478.04	263.10
478.41	263.03
478.77	263.05
479.14	263.00
479.50	263.02
479.87	263.09
480.23	263.15
480.60	263.23
480.96	263.32
481.33	263.50
481.69	263.72
482.06	263.94
482.42	264.11
482.79	264.38
483.15	264.73
483.52	265.15
483.88	265.51
484.25	265.88
484.61	266.31
484.98	266.76
485.34	267.33
485.71	267.91
486.07	268.55
486.44	269.17
486.80	269.86
487.17	270.60
487.53	271.41
487.90	272.27
488.26	273.19
488.62	274.23
488.99	275.23
489.35	276.25
489.72	277.36
490.08	278.59
490.44	279.84
490.81	281.15
491.17	282.50
491.54	283.99
491.90	285.58
492.26	287.21
492.63	288.94
492.99	290.70
493.36	292.60
493.72	294.62
494.08	296.70
494.45	298.93
494.81	301.27
495.17	303.70
495.54	306.26
495.90	308.93
496.26	311.69
496.63	314.64
496.99	317.74
497.35	321.01
497.72	324.39
498.08	327.86
498.44	331.52
498.80	335.37
499.17	339.35
499.53	343.48
499.89	347.89
500.26	352.42
500.62	357.10
500.98	362.05
501.34	367.09
501.71	372.41
502.07	377.85
502.43	383.43
502.79	389.25
503.16	395.29
503.52	401.58
503.88	407.99
504.24	414.64
504.60	421.54
504.97	428.64
505.33	435.99
505.69	443.68
506.05	451.48
506.41	459.44
506.78	467.64
507.14	476.08
507.50	484.85
507.86	493.80
508.22	502.95
508.59	512.15
508.95	521.71
509.31	531.52
509.67	541.66
510.03	551.99
510.39	562.58
510.75	573.46
511.12	584.39
511.48	595.72
511.84	607.14
512.20	618.68
512.56	630.65
512.92	642.89
513.28	655.25
513.64	667.70
514.00	680.32
514.37	693.31
514.73	706.37
515.09	719.35
515.45	732.60
515.81	746.16
516.17	760.10
516.53	774.28
516.89	788.54
517.25	802.68
517.61	817.10
517.97	831.56
518.33	845.94
518.69	860.73
519.05	875.65
519.41	890.84
519.77	906.36
520.13	921.82
520.49	937.17
520.85	952.63
521.21	968.39
521.57	984.75
521.93	1000.50
522.29	1016.93
522.65	1033.19
523.01	1049.56
523.37	1065.63
523.73	1081.94
524.09	1098.07
524.45	1114.28
524.81	1130.93
525.17	1147.86
525.53	1164.78
525.89	1181.63
526.25	1198.52
526.61	1214.96
526.97	1231.62
527.33	1248.10
527.68	1264.69
528.04	1281.15
528.40	1297.80
528.76	1314.84
529.12	1331.51
529.48	1348.39
529.84	1364.40
530.20	1381.01
530.56	1397.98
530.91	1415.44
531.27	1432.18
531.63	1448.66
531.99	1465.26
532.35	1481.22
532.71	1497.01
533.07	1513.27
533.42	1529.22
533.78	1545.20
534.14	1561.45
534.50	1576.95
534.86	1592.97
535.21	1608.16
535.57	1624.14
535.93	1639.65
536.29	1654.43
536.65	1669.40
537.00	1684.08
537.36	1699.40
537.72	1714.03
538.08	1728.52
538.44	1742.34
538.79	1756.19
539.15	1769.88
539.51	1783.75
539.87	1798.22
540.22	1812.08
540.58	1825.85
540.94	1839.20
541.29	1852.20
541.65	1864.94
542.01	1878.20
542.37	1890.42
542.72	1903.02
543.08	1914.78
543.44	1927.09
543.79	1938.23
544.15	1949.27
544.51	1960.87
544.87	1971.85
545.22	1982.59
545.58	1992.78
545.94	2002.53
546.29	2012.33
546.65	2022.10
547.01	2031.30
547.36	2039.93
547.72	2048.37
548.07	2056.15
548.43	2064.27
548.79	2072.32
549.14	2079.84
549.50	2087.13
549.86	2094.93
550.21	2101.98
550.57	2109.21
550.92	2115.81
551.28	2122.91
551.64	2129.90
551.99	2136.59
552.35	2142.72
552.70	2148.76
553.06	2154.66
553.41	2161.04
553.77	2167.35
554.13	2173.52
554.48	2179.61
554.84	2184.99
555.19	2190.21
555.55	2195.32
555.90	2199.83
556.26	2204.73
556.61	2209.45
556.97	2213.68
557.32	2217.67
557.68	2221.98
558.03	2226.17
558.39	2229.97
558.74	2234.60
559.10	2238.48
559.45	2242.09
559.81	2246.48
560.16	2250.63
560.52	2253.95
560.87	2257.37
561.23	2259.82
561.58	2262.79
561.94	2265.33
562.29	2267.89
562.64	2270.53
563.00	2273.26
563.35	2276.84
563.71	2279.98
564.06	2283.21
564.42	2285.95
564.77	2288.50
565.12	2290.77
565.48	2292.76
565.83	2294.59
566.19	2295.89
566.54	2296.75
566.89	2297.78
567.25	2298.24
567.60	2299.42
567.96	2300.88
568.31	2301.68
568.66	2302.78
569.02	2303.19
569.37	2303.52
569.72	2304.26
570.08	2304.40
570.43	2304.36
570.78	2303.72
571.14	2302.03
571.49	2300.69
571.84	2300.52
572.20	2299.39
572.55	2298.21
572.90	2296.63
573.26	2295.11
573.61	2293.44
573.96	2291.69
574.31	2288.79
574.67	2285.73
575.02	2282.17
575.37	2278.90
575.72	2275.04
576.08	2271.81
576.43	2268.54
576.78	2264.81
577.13	2261.62
577.49	2258.58
577.84	2255.13
578.19	2251.47
578.54	2247.91
578.90	2243.60
579.25	2238.03
579.60	2232.87
579.95	2227.93
580.30	2222.83
580.66	2217.82
581.01	2212.85
581.36	2207.94
581.71	2203.69
582.06	2199.25
582.42	2194.56
582.77	2189.27
583.12	2184.69
583.47	2179.84
583.82	2174.72
584.17	2169.48
584.53	2163.85
584.88	2158.13
585.23	2152.24
585.58	2146.57
585.93	2140.94
586.28	2136.27
586.63	2131.07
586.98	2126.06
587.34	2121.31
587.69	2116.41
588.04	2110.92
588.39	2105.19
588.74	2098.69
589.09	2092.55
589.44	2085.75
589.79	2079.76
590.14	2074.16
590.49	2067.67
590.84	2061.31
591.19	2055.42
591.54	2048.85
591.89	2041.47
592.25	2034.62
592.60	2027.47
592.95	2019.96
593.30	2012.62
593.65	2004.85
594.00	1997.81
594.35	1990.66
594.70	1982.57
595.05	1975.20
595.40	1967.89
595.75	1960.38
596.10	1954.18
596.45	1947.38
596.80	1941.09
597.15	1934.37
597.50	1927.23
597.85	1920.61
598.19	1913.75
598.54	1906.49
598.89	1899.89
599.24	1894.02
599.59	1887.23
599.94	1880.95
600.29	1874.53
600.64	1867.96
600.99	1860.48
601.34	1853.71
601.69	1846.64
602.04	1839.69
602.39	1832.35
602.74	1825.58
603.08	1818.75
603.43	1811.95
603.78	1804.65
604.13	1797.42
604.48	1790.10
604.83	1783.25
605.18	1776.14
605.53	1768.22
605.87	1760.27
606.22	1752.95
606.57	1744.87
606.92	1737.66
607.27	1730.46
607.62	1723.55
607.96	1716.18
608.31	1709.57
608.66	1701.89
609.01	1694.27
609.36	1686.76
609.70	1678.78
610.05	1670.68
610.40	1663.02
610.75	1654.66
611.10	1646.95
611.44	1638.67
611.79	1630.71
612.14	1621.88
612.49	1612.87
612.83	1604.50
613.18	1596.28
613.53	1588.23
613.88	1579.74
614.22	1571.47
614.57	1562.90
614.92	1554.82
615.27	1547.29
615.61	1538.98
615.96	1530.92
616.31	1523.42
616.65	1516.03
617.00	1508.60
617.35	1501.01
617.70	1492.59
618.04	1484.07
618.39	1475.72
618.74	1468.14
619.08	1459.86
619.43	1452.37
619.78	1445.48
620.12	1438.22
620.47	1430.74
620.82	1422.60
621.16	1415.39
621.51	1407.78
621.85	1400.11
622.20	1391.56
622.55	1383.25
622.89	1375.45
623.24	1367.82
623.59	1360.49
623.93	1352.98
624.28	1345.66
624.62	1338.07
624.97	1331.02
625.32	1324.42
625.66	1317.53
626.01	1310.30
626.35	1302.77
626.70	1295.18
627.04	1287.44
627.39	1279.80
627.73	1272.39
628.08	1265.46
628.43	1257.99
628.77	1250.57
629.12	1243.07
629.46	1235.93
629.81	1228.53
630.15	1221.26
630.50	1213.87
630.84	1205.57
631.19	1197.66
631.53	1190.16
631.88	1182.54
632.22	1174.87
632.57	1167.45
632.91	1159.90
633.26	1152.41
633.60	1145.15
633.95	1137.89
634.29	1130.92
634.64	1124.13
634.98	1116.81
635.32	1109.65
635.67	1103.10
636.01	1096.38
636.36	1089.52
636.70	1083.00
637.05	1076.39
637.39	1069.89
637.73	1063.35
638.08	1057.41
638.42	1051.33
638.77	1044.86
639.11	1038.25
639.45	1031.88
639.80	1025.26
640.14	1018.80
640.49	1012.29
640.83	1006.04
641.17	999.74
641.52	993.27
641.86	986.89
642.20	981.05
642.55	974.77
642.89	968.26
643.23	961.85
643.58	956.06
643.92	949.90
644.26	943.84
644.61	937.95
644.95	931.89
645.29	925.29
645.64	918.63
645.98	912.38
646.32	906.58
646.66	900.56
647.01	894.71
647.35	888.95
647.69	883.22
648.04	877.59
648.38	871.90
648.72	865.89
649.06	859.79
649.41	853.92
649.75	847.92
650.09	841.92
650.43	836.06
650.78	829.94
651.12	823.96
651.46	818.23
651.80	812.39
652.14	807.00
652.49	801.65
652.83	796.48
653.17	790.73
653.51	785.04
653.85	779.67
654.20	774.01
654.54	768.11
654.88	762.31
655.22	756.51
655.56	750.77
655.90	745.38
656.25	740.12
656.59	734.74
656.93	729.60
657.27	724.46
657.61	719.09
657.95	714.00
658.29	708.93
658.64	703.68
658.98	698.37
659.32	692.99
659.66	687.76
660.00	682.38
660.34	677.49
660.68	672.62
661.02	667.61
661.36	662.97
661.70	658.47
662.05	654.12
662.39	649.72
662.73	645.33
663.07	640.92
663.41	636.52
663.75	632.05
664.09	627.59
664.43	623.24
664.77	619.16
665.11	614.92
665.45	610.84
665.79	606.77
666.13	602.70
666.47	598.56
666.81	594.45
667.15	590.43
667.49	586.52
667.83	582.73
668.17	578.76
668.51	574.64
668.85	570.65
669.19	566.82
669.53	562.99
669.87	559.12
670.21	555.43
670.55	551.77
670.89	548.40
671.23	545.02
671.57	541.53
671.91	537.93
672.25	534.44
672.58	530.91
672.92	527.51
673.26	524.29
673.60	521.22
673.94	518.12
674.28	515.17
674.62	512.21
674.96	509.04
675.30	506.09
675.64	503.21
675.97	500.39
676.31	497.53
676.65	494.55
676.99	491.83
677.33	489.01
677.67	486.18
678.01	483.03
678.34	479.98
678.68	477.11
679.02	474.32
679.36	471.57
679.70	468.85
680.04	466.16
680.37	463.33
680.71	460.48
681.05	457.89
681.39	455.15
681.73	452.49
682.06	450.00
682.40	447.47
682.74	444.91
683.08	442.38
683.42	439.74
683.75	437.29
684.09	434.71
684.43	432.24
684.77	429.82
685.10	427.49
685.44	425.20
685.78	422.92
686.12	420.65
686.45	418.33
686.79	416.03
687.13	413.84
687.46	411.63
687.80	409.49
688.14	407.27
688.48	405.21
688.81	402.99
689.15	400.80
689.49	398.67
689.82	396.61
690.16	394.55
690.50	392.61
690.83	390.66
691.17	388.69
691.51	386.74
691.84	384.89
692.18	382.94
692.52	380.97
692.85	379.07
693.19	377.16
693.52	375.35
693.86	373.54
694.20	371.71
694.53	369.91
694.87	368.09
695.21	366.30
695.54	364.47
695.88	362.70
696.21	361.00
696.55	359.33
696.88	357.65
697.22	355.98
697.56	354.37
697.89	352.70
698.23	351.05
698.56	349.46
698.90	347.84
699.23	346.20
699.57	344.62
699.90	343.06
700.24	341.53
700.58	339.99
700.91	338.50
701.25	337.03
701.58	335.69
701.92	334.32
702.25	332.96
702.59	331.61
702.92	330.30
703.26	328.97
703.59	327.69
703.93	326.52
704.26	325.29
704.60	323.98
704.93	322.73
705.26	321.54
705.60	320.38
705.93	319.25
706.27	318.23
706.60	317.19
706.94	316.12
707.27	314.98
707.61	313.91
707.94	312.89
708.27	311.82
708.61	310.73
708.94	309.72
709.28	308.75
709.61	307.82
709.94	306.89
710.28	305.86
710.61	304.90
710.95	303.83
711.28	302.93
711.61	302.02
711.95	301.11
712.28	300.14
712.61	299.14
712.95	298.21
713.28	297.33
713.61	296.43
713.95	295.54
714.28	294.72
714.61	293.86
714.95	293.01
715.28	292.15
715.61	291.27
715.95	290.41
716.28	289.55
716.61	288.67
716.95	287.85
717.28	287.13
717.61	286.33
717.94	285.59
718.28	284.81
718.61	284.08
718.94	283.39
719.27	282.75
719.61	282.12
719.94	281.46
720.27	280.75
720.60	280.06
720.94	279.42
721.27	278.81
721.60	278.22
721.93	277.62
722.27	277.04
722.60	276.50
722.93	275.89
723.26	275.29
723.59	274.76
723.93	274.22
724.26	273.68
724.59	273.14
724.92	272.60
725.25	272.05
725.59	271.48
725.92	270.99
726.25	270.47
726.58	269.97
726.91	269.46
727.24	269.00
727.57	268.56
727.91	268.05
728.24	267.60
728.57	267.13
728.90	266.67
729.23	266.22
729.56	265.80
729.89	265.35
730.22	264.91
730.55	264.40
730.89	263.93
731.22	263.48
731.55	263.04
731.88	262.57
732.21	262.18
732.54	261.73
732.87	261.27
733.20	260.87
733.53	260.49
733.86	260.11
734.19	259.68
734.52	259.24
734.85	258.91
735.18	258.50
735.51	258.13
735.84	257.72
736.17	257.32
736.50	256.90
736.83	256.62
737.16	256.27
737.49	255.98
737.82	255.63
738.15	255.28
738.48	254.96
738.81	254.67
739.14	254.29
739.47	254.03
739.80	253.72
740.13	253.42
740.46	253.06
740.79	252.73
741.12	252.41
741.45	252.15
741.78	251.79
742.11	251.49
742.44	251.16
742.77	250.88
743.10	250.57
743.43	250.27
743.75	249.94
744.08	249.81
744.41	249.51
744.74	249.24
745.07	248.98
745.40	248.73
745.73	248.51
746.06	248.29
746.39	248.01
746.71	247.74
747.04	247.43
747.37	247.17
747.70	246.93
748.03	246.71
748.36	246.49
748.68	246.27
749.01	246.02
749.34	245.82
749.67	245.59
750.00	245.39
750.33	245.27
750.65	245.06
750.98	244.72
751.31	244.53
751.64	244.34
751.97	244.18
752.29	243.97
752.62	243.71
752.95	243.51
753.28	243.27
753.60	243.08
753.93	242.95
754.26	242.78
754.59	242.56
754.91	242.35
755.24	242.15
755.57	241.96
755.90	241.81
756.22	241.61
756.55	241.45
756.88	241.26
757.20	241.01
757.53	240.81
757.86	240.64
758.19	240.47
758.51	240.30
758.84	240.08
759.17	239.91
759.49	239.77
759.82	239.67
760.15	239.60
760.47	239.46
760.80	239.30
761.13	239.18
761.45	239.04
761.78	238.91
762.11	238.79
762.43	238.66
762.76	238.51
763.08	238.39
763.41	238.24
763.74	238.14
764.06	238.00
764.39	237.87
764.71	237.71
765.04	237.60
765.37	237.46
765.69	237.35
766.02	237.26
766.34	237.13
766.67	236.92
767.00	236.80
767.32	236.72
767.65	236.66
767.97	236.53
768.30	236.42
768.62	236.29
768.95	236.16
769.27	236.07
769.60	235.98
769.92	235.83
770.25	235.72
770.57	235.58
770.90	235.49
771.22	235.38
771.55	235.29
771.87	235.21
772.20	235.10
772.52	235.09
772.85	235.09
773.17	234.95
773.50	234.85
773.82	234.71
774.15	234.53
774.47	234.37
774.80	234.26
775.12	234.17
775.45	234.10
775.77	233.95
776.09	233.85
776.42	233.75
776.74	233.69
777.07	233.58
777.39	233.51
777.72	233.42
778.04	233.36
778.36	233.28
778.69	233.17
779.01	233.11
779.33	232.89
779.66	232.67
779.98	232.62
780.31	232.54
780.63	232.50
780.95	232.48
781.28	232.42
781.60	232.34
781.92	232.25
782.25	232.18
782.57	232.14
782.89	232.06
783.22	232.00
783.54	231.92
783.86	231.89
784.19	231.81
784.51	231.78
784.83	231.70
785.16	231.64
785.48	231.56
785.80	231.52
786.12	231.49
786.45	231.46
786.77	231.39
787.09	231.36
