SpectraSuite Data File
++++++++++++++++++++++++++++++++++++
Date: Fri Feb 01 17:04:14 EST 2013
User: group
Dark Spectrum Present: No
Reference Spectrum Present: No
Number of Sampled Component Spectra: 1
Spectrometers: USB2E7196
Integration Time (usec): 35000 (USB2E7196)
Spectra Averaged: 100 (USB2E7196)
Boxcar Smoothing: 10 (USB2E7196)
Correct for Electrical Dark: No (USB2E7196)
Strobe/Lamp Enabled: No (USB2E7196)
Correct for Detector Non-linearity: No (USB2E7196)
Correct for Stray Light: No (USB2E7196)
Number of Pixels in Processed Spectrum: 2048
>>>>>Begin Processed Spectral Data<<<<<
339.09	0.00
339.48	213.19
339.86	215.16
340.24	216.32
340.63	217.33
341.01	220.12
341.39	220.40
341.78	221.35
342.16	223.04
342.54	223.28
342.93	211.67
343.31	222.37
343.69	222.92
344.07	223.38
344.46	223.80
344.84	224.18
345.22	224.43
345.60	224.64
345.99	224.82
346.37	224.93
346.75	225.06
347.13	225.15
347.52	225.21
347.90	225.28
348.28	225.32
348.66	225.38
349.05	225.35
349.43	225.41
349.81	225.46
350.19	225.54
350.57	225.60
350.96	225.63
351.34	225.72
351.72	225.82
352.10	225.88
352.48	225.97
352.87	226.02
353.25	226.10
353.63	226.19
354.01	226.29
354.39	226.34
354.77	226.39
355.15	226.47
355.54	226.52
355.92	226.56
356.30	226.65
356.68	226.79
357.06	226.88
357.44	226.94
357.82	227.01
358.20	227.08
358.58	227.12
358.97	227.19
359.35	227.30
359.73	227.38
360.11	227.46
360.49	227.50
360.87	227.56
361.25	227.63
361.63	227.72
362.01	227.77
362.39	227.82
362.77	227.87
363.15	227.92
363.53	227.97
363.91	227.99
364.29	228.02
364.67	227.93
365.05	227.93
365.43	227.96
365.81	227.97
366.19	228.00
366.57	228.07
366.95	228.07
367.33	228.03
367.71	227.97
368.09	227.97
368.47	227.97
368.85	227.95
369.23	227.93
369.61	227.87
369.99	227.87
370.37	227.87
370.75	227.87
371.13	227.80
371.51	227.74
371.89	227.71
372.27	227.67
372.65	227.67
373.03	227.66
373.41	227.62
373.78	227.58
374.16	227.47
374.54	227.39
374.92	227.36
375.30	227.33
375.68	227.27
376.06	227.21
376.44	227.13
376.82	227.05
377.19	227.00
377.57	226.94
377.95	226.82
378.33	226.75
378.71	226.65
379.09	226.62
379.47	226.58
379.84	226.53
380.22	226.43
380.60	226.31
380.98	226.22
381.36	226.15
381.73	226.07
382.11	226.05
382.49	225.98
382.87	225.91
383.25	225.83
383.62	225.91
384.00	225.83
384.38	225.79
384.76	225.79
385.13	225.76
385.51	225.71
385.89	225.70
386.27	225.67
386.64	225.63
387.02	225.58
387.40	225.54
387.78	225.47
388.15	225.45
388.53	225.41
388.91	225.37
389.29	225.32
389.66	225.31
390.04	225.29
390.42	225.30
390.79	225.29
391.17	225.26
391.55	225.11
391.92	225.09
392.30	225.08
392.68	225.04
393.05	225.00
393.43	224.99
393.81	224.99
394.18	224.97
394.56	224.96
394.94	224.96
395.31	224.96
395.69	225.04
396.06	225.07
396.44	225.13
396.82	225.16
397.19	225.24
397.57	225.25
397.95	225.28
398.32	225.29
398.70	225.34
399.07	225.41
399.45	225.47
399.82	225.55
400.20	225.63
400.58	225.71
400.95	225.79
401.33	225.87
401.70	226.01
402.08	226.11
402.45	226.20
402.83	226.32
403.20	226.41
403.58	226.47
403.95	226.57
404.33	226.67
404.71	226.77
405.08	226.98
405.46	227.10
405.83	227.24
406.21	227.38
406.58	227.53
406.96	227.65
407.33	227.86
407.70	228.05
408.08	228.30
408.45	228.51
408.83	228.71
409.20	228.90
409.58	229.08
409.95	229.30
410.33	229.57
410.70	229.81
411.08	230.15
411.45	230.44
411.82	230.77
412.20	231.14
412.57	231.59
412.95	231.86
413.32	232.26
413.69	232.69
414.07	233.12
414.44	233.55
414.82	234.04
415.19	234.57
415.56	235.07
415.94	235.58
416.31	236.18
416.68	236.80
417.06	237.52
417.43	238.19
417.81	238.96
418.18	239.74
418.55	240.57
418.93	241.42
419.30	242.32
419.67	243.24
420.04	244.16
420.42	245.09
420.79	246.30
421.16	247.45
421.54	248.62
421.91	249.82
422.28	251.04
422.66	252.36
423.03	253.67
423.40	255.00
423.77	256.37
424.15	257.80
424.52	259.29
424.89	260.90
425.26	262.41
425.64	263.86
426.01	265.41
426.38	267.06
426.75	268.71
427.13	270.40
427.50	272.19
427.87	274.06
428.24	275.91
428.61	277.57
428.99	279.48
429.36	281.55
429.73	283.57
430.10	285.60
430.47	287.68
430.85	289.75
431.22	292.02
431.59	294.41
431.96	296.66
432.33	299.13
432.70	301.48
433.08	304.27
433.45	306.87
433.82	309.42
434.19	312.29
434.56	315.07
434.93	317.70
435.30	320.30
435.68	323.18
436.05	325.99
436.42	328.79
436.79	331.27
437.16	333.95
437.53	336.79
437.90	339.58
438.27	342.27
438.64	345.11
439.01	347.66
439.38	349.89
439.75	352.05
440.13	354.50
440.50	356.80
440.87	358.64
441.24	360.58
441.61	362.77
441.98	364.21
442.35	366.00
442.72	367.82
443.09	369.60
443.46	370.58
443.83	371.15
444.20	371.69
444.57	372.55
444.94	372.89
445.31	373.23
445.68	373.63
446.05	373.68
446.42	373.30
446.79	372.92
447.16	372.50
447.53	372.18
447.90	371.05
448.27	369.94
448.64	368.40
449.01	367.28
449.37	365.33
449.74	363.49
450.11	361.30
450.48	358.90
450.85	356.45
451.22	354.36
451.59	352.42
451.96	350.51
452.33	347.95
452.70	345.60
453.07	342.79
453.43	339.89
453.80	337.16
454.17	334.55
454.54	331.99
454.91	329.26
455.28	326.58
455.65	324.11
456.02	321.68
456.38	319.53
456.75	316.91
457.12	314.65
457.49	312.45
457.86	310.27
458.23	308.42
458.59	306.39
458.96	304.29
459.33	302.40
459.70	300.53
460.07	299.02
460.43	297.29
460.80	295.68
461.17	294.27
461.54	292.80
461.91	291.33
462.27	289.90
462.64	288.68
463.01	287.34
463.38	286.03
463.74	284.68
464.11	283.56
464.48	282.55
464.85	281.48
465.21	280.64
465.58	279.73
465.95	278.65
466.32	277.72
466.68	276.81
467.05	275.96
467.42	275.06
467.78	274.16
468.15	273.28
468.52	272.64
468.88	271.76
469.25	271.01
469.62	270.41
469.98	269.76
470.35	269.11
470.72	268.54
471.08	267.93
471.45	267.41
471.82	266.84
472.18	266.23
472.55	265.79
472.92	265.32
473.28	264.86
473.65	264.45
474.02	264.04
474.38	263.73
474.75	263.43
475.11	263.12
475.48	262.88
475.85	262.66
476.21	262.45
476.58	262.28
476.94	262.13
477.31	261.95
477.67	261.79
478.04	261.72
478.41	261.66
478.77	261.70
479.14	261.63
479.50	261.66
479.87	261.76
480.23	261.87
480.60	261.91
480.96	261.98
481.33	262.19
481.69	262.38
482.06	262.59
482.42	262.80
482.79	263.05
483.15	263.35
483.52	263.75
483.88	264.10
484.25	264.49
484.61	264.96
484.98	265.44
485.34	266.01
485.71	266.62
486.07	267.21
486.44	267.76
486.80	268.48
487.17	269.22
487.53	270.01
487.90	270.83
488.26	271.77
488.62	272.74
488.99	273.70
489.35	274.73
489.72	275.82
490.08	277.02
490.44	278.22
490.81	279.52
491.17	280.84
491.54	282.31
491.90	283.84
492.26	285.48
492.63	287.18
492.99	288.96
493.36	290.87
493.72	292.95
494.08	295.11
494.45	297.31
494.81	299.69
495.17	302.11
495.54	304.69
495.90	307.34
496.26	310.12
496.63	313.09
496.99	316.25
497.35	319.48
497.72	322.88
498.08	326.42
498.44	330.12
498.80	334.00
499.17	338.04
499.53	342.20
499.89	346.56
500.26	351.08
500.62	355.72
500.98	360.60
501.34	365.63
501.71	370.88
502.07	376.28
502.43	381.88
502.79	387.67
503.16	393.67
503.52	399.94
503.88	406.28
504.24	412.86
504.60	419.62
504.97	426.70
505.33	433.88
505.69	441.51
506.05	449.16
506.41	457.01
506.78	464.99
507.14	473.34
507.50	481.90
507.86	490.81
508.22	499.95
508.59	509.05
508.95	518.52
509.31	528.18
509.67	538.18
510.03	548.31
510.39	558.70
510.75	569.34
511.12	580.07
511.48	591.24
511.84	602.54
512.20	613.88
512.56	625.70
512.92	637.75
513.28	649.91
513.64	662.18
514.00	674.67
514.37	687.49
514.73	700.26
515.09	713.10
515.45	726.16
515.81	739.53
516.17	753.34
516.53	767.16
516.89	781.15
517.25	795.04
517.61	809.22
517.97	823.43
518.33	837.61
518.69	852.13
519.05	866.78
519.41	881.65
519.77	896.90
520.13	912.01
520.49	927.21
520.85	942.26
521.21	957.68
521.57	973.53
521.93	988.93
522.29	1005.06
522.65	1021.03
523.01	1036.90
523.37	1052.49
523.73	1068.18
524.09	1083.96
524.45	1099.89
524.81	1116.21
525.17	1132.60
525.53	1149.11
525.89	1165.62
526.25	1182.09
526.61	1198.10
526.97	1214.49
527.33	1230.61
527.68	1246.81
528.04	1262.78
528.40	1278.92
528.76	1295.63
529.12	1311.89
529.48	1328.43
529.84	1343.99
530.20	1360.22
530.56	1376.90
530.91	1393.97
531.27	1410.47
531.63	1426.64
531.99	1442.86
532.35	1458.48
532.71	1474.03
533.07	1489.90
533.42	1505.46
533.78	1521.15
534.14	1537.13
534.50	1552.07
534.86	1567.65
535.21	1582.51
535.57	1598.11
535.93	1613.33
536.29	1627.83
536.65	1642.51
537.00	1656.94
537.36	1671.99
537.72	1686.05
538.08	1700.11
538.44	1713.61
538.79	1727.11
539.15	1740.29
539.51	1753.78
539.87	1767.76
540.22	1781.17
540.58	1794.56
540.94	1807.56
541.29	1820.17
541.65	1832.58
542.01	1845.53
542.37	1857.47
542.72	1869.57
543.08	1881.14
543.44	1893.21
543.79	1904.17
544.15	1914.99
544.51	1926.36
544.87	1937.01
545.22	1947.72
545.58	1957.72
545.94	1967.23
546.29	1976.87
546.65	1986.73
547.01	1995.69
547.36	2004.29
547.72	2012.63
548.07	2020.32
548.43	2028.34
548.79	2036.10
549.14	2043.43
549.50	2050.57
549.86	2058.14
550.21	2065.44
550.57	2072.46
550.92	2078.93
551.28	2085.97
551.64	2093.00
551.99	2099.36
552.35	2105.62
552.70	2111.73
553.06	2117.75
553.41	2124.11
553.77	2130.06
554.13	2135.87
554.48	2141.94
554.84	2147.50
555.19	2152.65
555.55	2158.10
555.90	2162.59
556.26	2167.63
556.61	2172.50
556.97	2177.05
557.32	2181.27
557.68	2185.37
558.03	2189.65
558.39	2193.40
558.74	2197.83
559.10	2201.65
559.45	2205.36
559.81	2209.49
560.16	2213.40
560.52	2216.68
560.87	2220.17
561.23	2223.02
561.58	2225.99
561.94	2228.70
562.29	2230.96
562.64	2233.89
563.00	2236.31
563.35	2239.85
563.71	2243.09
564.06	2246.28
564.42	2249.12
564.77	2251.61
565.12	2254.05
565.48	2256.14
565.83	2258.20
566.19	2259.77
566.54	2260.87
566.89	2262.28
567.25	2263.09
567.60	2264.39
567.96	2266.26
568.31	2267.23
568.66	2268.47
569.02	2269.40
569.37	2269.90
569.72	2271.07
570.08	2271.45
570.43	2271.73
570.78	2271.46
571.14	2270.12
571.49	2268.98
571.84	2268.81
572.20	2268.18
572.55	2267.40
572.90	2265.94
573.26	2264.87
573.61	2263.29
573.96	2261.90
574.31	2259.10
574.67	2256.47
575.02	2253.19
575.37	2250.04
575.72	2246.53
576.08	2243.27
576.43	2239.92
576.78	2236.57
577.13	2233.45
577.49	2230.42
577.84	2227.34
578.19	2223.79
578.54	2220.40
578.90	2216.39
579.25	2211.11
579.60	2206.26
579.95	2201.42
580.30	2196.66
580.66	2191.65
581.01	2187.02
581.36	2182.23
581.71	2178.43
582.06	2174.20
582.42	2169.94
582.77	2164.92
583.12	2160.55
583.47	2156.32
583.82	2151.73
584.17	2146.65
584.53	2141.45
584.88	2136.17
585.23	2130.58
585.58	2125.33
585.93	2119.97
586.28	2115.33
586.63	2110.56
586.98	2105.73
587.34	2101.13
587.69	2096.40
588.04	2091.43
588.39	2085.99
588.74	2079.62
589.09	2073.53
589.44	2066.95
589.79	2061.09
590.14	2055.54
590.49	2049.07
590.84	2042.73
591.19	2036.97
591.54	2030.63
591.89	2023.50
592.25	2016.99
592.60	2009.97
592.95	2002.58
593.30	1995.41
593.65	1988.14
594.00	1981.22
594.35	1974.16
594.70	1966.37
595.05	1959.56
595.40	1952.36
595.75	1944.96
596.10	1939.02
596.45	1932.72
596.80	1926.73
597.15	1920.44
597.50	1913.78
597.85	1907.47
598.19	1901.00
598.54	1894.09
598.89	1887.63
599.24	1881.87
599.59	1875.30
599.94	1869.03
600.29	1862.89
600.64	1856.53
600.99	1849.23
601.34	1842.62
601.69	1835.66
602.04	1829.07
602.39	1821.74
602.74	1815.05
603.08	1808.50
603.43	1801.84
603.78	1794.44
604.13	1787.31
604.48	1779.99
604.83	1773.05
605.18	1766.48
605.53	1758.68
605.87	1750.73
606.22	1743.53
606.57	1735.72
606.92	1728.46
607.27	1721.67
607.62	1714.79
607.96	1707.70
608.31	1701.30
608.66	1693.80
609.01	1686.46
609.36	1679.00
609.70	1671.09
610.05	1663.27
610.40	1655.78
610.75	1647.54
611.10	1639.86
611.44	1631.48
611.79	1623.56
612.14	1615.11
612.49	1605.84
612.83	1597.51
613.18	1589.49
613.53	1581.60
613.88	1573.02
614.22	1564.82
614.57	1556.01
614.92	1548.09
615.27	1540.55
615.61	1532.16
615.96	1524.12
616.31	1516.48
616.65	1509.10
617.00	1501.50
617.35	1493.89
617.70	1485.59
618.04	1477.29
618.39	1469.21
618.74	1461.80
619.08	1453.63
619.43	1445.99
619.78	1439.12
620.12	1432.05
620.47	1424.59
620.82	1416.40
621.16	1409.13
621.51	1401.55
621.85	1394.11
622.20	1385.62
622.55	1377.29
622.89	1369.53
623.24	1361.92
623.59	1354.59
623.93	1347.10
624.28	1340.09
624.62	1332.54
624.97	1325.39
625.32	1318.62
625.66	1311.60
626.01	1304.38
626.35	1297.00
626.70	1289.27
627.04	1281.63
627.39	1273.83
627.73	1266.43
628.08	1259.58
628.43	1252.36
628.77	1245.09
629.12	1237.58
629.46	1230.46
629.81	1223.06
630.15	1215.95
630.50	1208.54
630.84	1200.49
631.19	1192.57
631.53	1185.00
631.88	1177.58
632.22	1169.99
632.57	1162.65
632.91	1155.15
633.26	1147.73
633.60	1140.44
633.95	1133.33
634.29	1126.25
634.64	1119.54
634.98	1112.34
635.32	1105.15
635.67	1098.50
636.01	1091.87
636.36	1085.05
636.70	1078.54
637.05	1072.07
637.39	1065.60
637.73	1059.20
638.08	1053.26
638.42	1047.30
638.77	1041.00
639.11	1034.45
639.45	1028.14
639.80	1021.54
640.14	1015.26
640.49	1008.80
640.83	1002.48
641.17	996.31
641.52	990.05
641.86	983.64
642.20	977.79
642.55	971.47
642.89	965.06
643.23	958.47
643.58	952.80
643.92	946.64
644.26	940.60
644.61	934.55
644.95	928.61
645.29	922.06
645.64	915.31
645.98	908.90
646.32	902.95
646.66	896.90
647.01	891.07
647.35	885.32
647.69	879.51
648.04	874.00
648.38	868.27
648.72	862.40
649.06	856.42
649.41	850.45
649.75	844.58
650.09	838.67
650.43	832.92
650.78	826.81
651.12	820.88
651.46	815.17
651.80	809.50
652.14	804.03
652.49	798.75
652.83	793.62
653.17	787.98
653.51	782.34
653.85	776.96
654.20	771.45
654.54	765.46
654.88	759.69
655.22	753.76
655.56	748.06
655.90	742.52
656.25	737.35
656.59	732.05
656.93	726.98
657.27	721.85
657.61	716.45
657.95	711.31
658.29	706.24
658.64	700.96
658.98	695.64
659.32	690.25
659.66	685.02
660.00	679.86
660.34	674.94
660.68	670.09
661.02	665.09
661.36	660.39
661.70	655.89
662.05	651.63
662.39	647.40
662.73	642.92
663.07	638.61
663.41	634.16
663.75	629.75
664.09	625.22
664.43	620.86
664.77	616.76
665.11	612.57
665.45	608.44
665.79	604.44
666.13	600.33
666.47	596.27
666.81	592.19
667.15	588.02
667.49	584.15
667.83	580.22
668.17	576.30
668.51	572.22
668.85	568.28
669.19	564.36
669.53	560.55
669.87	556.79
670.21	553.12
670.55	549.45
670.89	546.02
671.23	542.61
671.57	539.10
671.91	535.60
672.25	532.09
672.58	528.63
672.92	525.16
673.26	522.04
673.60	518.88
673.94	515.74
674.28	512.80
674.62	509.85
674.96	506.82
675.30	503.99
675.64	501.10
675.97	498.30
676.31	495.47
676.65	492.52
676.99	489.80
677.33	486.95
677.67	484.20
678.01	481.22
678.34	478.27
678.68	475.41
679.02	472.66
679.36	469.84
679.70	467.10
680.04	464.42
680.37	461.60
680.71	458.81
681.05	456.18
681.39	453.51
681.73	450.87
682.06	448.35
682.40	445.74
682.74	443.24
683.08	440.68
683.42	438.14
683.75	435.67
684.09	433.06
684.43	430.55
684.77	428.10
685.10	425.64
685.44	423.36
685.78	421.09
686.12	418.77
686.45	416.51
686.79	414.23
687.13	412.02
687.46	409.88
687.80	407.72
688.14	405.49
688.48	403.42
688.81	401.16
689.15	399.00
689.49	396.86
689.82	394.76
690.16	392.68
690.50	390.73
690.83	388.79
691.17	386.84
691.51	384.97
691.84	383.15
692.18	381.30
692.52	379.32
692.85	377.36
693.19	375.50
693.52	373.72
693.86	371.90
694.20	370.10
694.53	368.30
694.87	366.47
695.21	364.72
695.54	362.87
695.88	361.16
696.21	359.45
696.55	357.78
696.88	356.10
697.22	354.46
697.56	352.79
697.89	351.12
698.23	349.52
698.56	347.89
698.90	346.31
699.23	344.69
699.57	343.13
699.90	341.65
700.24	340.15
700.58	338.60
700.91	337.15
701.25	335.70
701.58	334.32
701.92	332.90
702.25	331.52
702.59	330.18
702.92	328.88
703.26	327.57
703.59	326.32
703.93	325.09
704.26	323.81
704.60	322.54
704.93	321.31
705.26	320.05
705.60	318.86
705.93	317.67
706.27	316.64
706.60	315.59
706.94	314.49
707.27	313.32
707.61	312.32
707.94	311.26
708.27	310.21
708.61	309.11
708.94	308.16
709.28	307.20
709.61	306.25
709.94	305.28
710.28	304.29
710.61	303.30
710.95	302.25
711.28	301.34
711.61	300.39
711.95	299.49
712.28	298.58
712.61	297.65
712.95	296.68
713.28	295.77
713.61	294.89
713.95	294.05
714.28	293.22
714.61	292.32
714.95	291.50
715.28	290.65
715.61	289.77
715.95	288.92
716.28	288.04
716.61	287.16
716.95	286.35
717.28	285.58
717.61	284.81
717.94	284.09
718.28	283.33
718.61	282.63
718.94	281.94
719.27	281.27
719.61	280.61
719.94	280.01
720.27	279.29
720.60	278.59
720.94	277.90
721.27	277.31
721.60	276.70
721.93	276.09
722.27	275.55
722.60	274.98
722.93	274.41
723.26	273.87
723.59	273.31
723.93	272.78
724.26	272.21
724.59	271.65
724.92	271.11
725.25	270.57
725.59	270.01
725.92	269.46
726.25	268.97
726.58	268.46
726.91	267.92
727.24	267.46
727.57	267.00
727.91	266.51
728.24	266.05
728.57	265.64
728.90	265.18
729.23	264.68
729.56	264.26
729.89	263.77
730.22	263.30
730.55	262.88
730.89	262.40
731.22	261.97
731.55	261.54
731.88	261.11
732.21	260.70
732.54	260.31
732.87	259.91
733.20	259.49
733.53	259.11
733.86	258.74
734.19	258.33
734.52	257.95
734.85	257.65
735.18	257.22
735.51	256.80
735.84	256.45
736.17	256.07
736.50	255.68
736.83	255.48
737.16	255.14
737.49	254.81
737.82	254.49
738.15	254.17
738.48	253.83
738.81	253.54
739.14	253.21
739.47	252.88
739.80	252.55
740.13	252.22
740.46	251.91
740.79	251.61
741.12	251.32
741.45	251.05
741.78	250.72
742.11	250.46
742.44	250.15
742.77	249.86
743.10	249.57
743.43	249.27
743.75	248.89
744.08	248.76
744.41	248.48
744.74	248.24
745.07	247.94
745.40	247.72
745.73	247.46
746.06	247.16
746.39	246.92
746.71	246.69
747.04	246.42
747.37	246.18
747.70	245.92
748.03	245.65
748.36	245.39
748.68	245.16
749.01	244.87
749.34	244.65
749.67	244.42
750.00	244.21
750.33	244.05
750.65	243.81
750.98	243.44
751.31	243.23
751.64	242.98
751.97	242.81
752.29	242.58
752.62	242.31
752.95	242.12
753.28	241.91
753.60	241.69
753.93	241.50
754.26	241.30
754.59	241.06
754.91	240.83
755.24	240.65
755.57	240.40
755.90	240.22
756.22	240.00
756.55	239.82
756.88	239.61
757.20	239.38
757.53	239.21
757.86	239.09
758.19	238.91
758.51	238.76
758.84	238.57
759.17	238.37
759.49	238.22
759.82	238.11
760.15	237.92
760.47	237.74
760.80	237.61
761.13	237.43
761.45	237.29
761.78	237.15
762.11	236.96
762.43	236.85
762.76	236.73
763.08	236.65
763.41	236.47
763.74	236.34
764.06	236.20
764.39	236.03
764.71	235.83
765.04	235.66
765.37	235.50
765.69	235.35
766.02	235.24
766.34	235.11
766.67	234.94
767.00	234.84
767.32	234.79
767.65	234.69
767.97	234.58
768.30	234.46
768.62	234.35
768.95	234.24
769.27	234.16
769.60	234.07
769.92	233.93
770.25	233.81
770.57	233.69
770.90	233.60
771.22	233.49
771.55	233.42
771.87	233.33
772.20	233.25
772.52	233.23
772.85	233.26
773.17	233.15
773.50	233.10
773.82	232.99
774.15	232.85
774.47	232.70
774.80	232.62
775.12	232.55
775.45	232.47
775.77	232.38
776.09	232.30
776.42	232.21
776.74	232.12
777.07	232.04
777.39	232.00
777.72	231.90
778.04	231.85
778.36	231.77
778.69	231.70
779.01	231.64
779.33	231.52
779.66	231.36
779.98	231.31
780.31	231.22
780.63	231.21
780.95	231.16
781.28	231.11
781.60	231.03
781.92	230.96
782.25	230.91
782.57	230.88
782.89	230.78
783.22	230.71
783.54	230.65
783.86	230.60
784.19	230.53
784.51	230.51
784.83	230.44
785.16	230.40
785.48	230.41
785.80	230.35
786.12	230.28
786.45	230.22
786.77	230.16
787.09	230.08
