SpectraSuite Data File
++++++++++++++++++++++++++++++++++++
Date: Fri Feb 01 16:30:48 EST 2013
User: group
Dark Spectrum Present: No
Reference Spectrum Present: No
Number of Sampled Component Spectra: 1
Spectrometers: USB2E7196
Integration Time (usec): 35000 (USB2E7196)
Spectra Averaged: 100 (USB2E7196)
Boxcar Smoothing: 10 (USB2E7196)
Correct for Electrical Dark: No (USB2E7196)
Strobe/Lamp Enabled: No (USB2E7196)
Correct for Detector Non-linearity: No (USB2E7196)
Correct for Stray Light: No (USB2E7196)
Number of Pixels in Processed Spectrum: 2048
>>>>>Begin Processed Spectral Data<<<<<
339.09	0.00
339.48	214.61
339.86	215.90
340.24	216.42
340.63	217.96
341.01	221.33
341.39	221.30
341.78	222.32
342.16	222.98
342.54	223.95
342.93	212.38
343.31	223.12
343.69	223.61
344.07	224.04
344.46	224.52
344.84	224.89
345.22	225.12
345.60	225.36
345.99	225.53
346.37	225.68
346.75	225.79
347.13	225.87
347.52	225.96
347.90	226.04
348.28	226.07
348.66	226.12
349.05	226.11
349.43	226.12
349.81	226.17
350.19	226.21
350.57	226.24
350.96	226.33
351.34	226.39
351.72	226.47
352.10	226.59
352.48	226.59
352.87	226.66
353.25	226.73
353.63	226.79
354.01	226.85
354.39	226.93
354.77	227.04
355.15	227.15
355.54	227.19
355.92	227.21
356.30	227.28
356.68	227.44
357.06	227.50
357.44	227.60
357.82	227.69
358.20	227.78
358.58	227.86
358.97	227.92
359.35	228.03
359.73	228.13
360.11	228.15
360.49	228.23
360.87	228.32
361.25	228.39
361.63	228.44
362.01	228.52
362.39	228.53
362.77	228.55
363.15	228.58
363.53	228.61
363.91	228.68
364.29	228.73
364.67	228.63
365.05	228.64
365.43	228.65
365.81	228.65
366.19	228.71
366.57	228.80
366.95	228.80
367.33	228.74
367.71	228.76
368.09	228.79
368.47	228.78
368.85	228.73
369.23	228.68
369.61	228.67
369.99	228.66
370.37	228.67
370.75	228.70
371.13	228.65
371.51	228.63
371.89	228.53
372.27	228.51
372.65	228.50
373.03	228.51
373.41	228.45
373.78	228.39
374.16	228.26
374.54	228.11
374.92	228.05
375.30	228.03
375.68	227.95
376.06	227.90
376.44	227.81
376.82	227.74
377.19	227.70
377.57	227.62
377.95	227.50
378.33	227.44
378.71	227.31
379.09	227.23
379.47	227.17
379.84	227.13
380.22	227.00
380.60	226.91
380.98	226.77
381.36	226.69
381.73	226.64
382.11	226.59
382.49	226.57
382.87	226.49
383.25	226.42
383.62	226.44
384.00	226.33
384.38	226.31
384.76	226.28
385.13	226.25
385.51	226.16
385.89	226.12
386.27	226.06
386.64	225.99
387.02	225.95
387.40	225.88
387.78	225.84
388.15	225.83
388.53	225.80
388.91	225.78
389.29	225.74
389.66	225.73
390.04	225.71
390.42	225.68
390.79	225.65
391.17	225.62
391.55	225.50
391.92	225.53
392.30	225.53
392.68	225.54
393.05	225.53
393.43	225.54
393.81	225.59
394.18	225.58
394.56	225.62
394.94	225.63
395.31	225.63
395.69	225.68
396.06	225.72
396.44	225.76
396.82	225.78
397.19	225.89
397.57	225.88
397.95	225.95
398.32	225.93
398.70	226.02
399.07	226.10
399.45	226.18
399.82	226.24
400.20	226.31
400.58	226.35
400.95	226.39
401.33	226.50
401.70	226.61
402.08	226.67
402.45	226.78
402.83	226.93
403.20	227.06
403.58	227.16
403.95	227.30
404.33	227.42
404.71	227.57
405.08	227.75
405.46	227.90
405.83	228.03
406.21	228.23
406.58	228.37
406.96	228.52
407.33	228.71
407.70	228.90
408.08	229.18
408.45	229.39
408.83	229.64
409.20	229.88
409.58	230.06
409.95	230.35
410.33	230.59
410.70	230.83
411.08	231.13
411.45	231.43
411.82	231.72
412.20	232.06
412.57	232.48
412.95	232.74
413.32	233.12
413.69	233.52
414.07	233.94
414.44	234.40
414.82	234.90
415.19	235.44
415.56	235.99
415.94	236.51
416.31	237.14
416.68	237.74
417.06	238.43
417.43	239.11
417.81	239.86
418.18	240.66
418.55	241.49
418.93	242.34
419.30	243.23
419.67	244.15
420.04	245.13
420.42	246.13
420.79	247.30
421.16	248.48
421.54	249.66
421.91	250.88
422.28	252.13
422.66	253.42
423.03	254.70
423.40	256.03
423.77	257.39
424.15	258.79
424.52	260.32
424.89	261.91
425.26	263.45
425.64	264.89
426.01	266.46
426.38	268.10
426.75	269.78
427.13	271.52
427.50	273.29
427.87	275.15
428.24	276.98
428.61	278.74
428.99	280.63
429.36	282.72
429.73	284.76
430.10	286.78
430.47	288.86
430.85	290.97
431.22	293.19
431.59	295.57
431.96	297.80
432.33	300.24
432.70	302.64
433.08	305.43
433.45	308.02
433.82	310.57
434.19	313.43
434.56	316.19
434.93	318.81
435.30	321.44
435.68	324.28
436.05	327.08
436.42	329.82
436.79	332.36
437.16	335.09
437.53	337.88
437.90	340.67
438.27	343.42
438.64	346.25
439.01	348.82
439.38	351.05
439.75	353.23
440.13	355.69
440.50	358.02
440.87	359.89
441.24	361.89
441.61	364.09
441.98	365.57
442.35	367.38
442.72	369.17
443.09	370.97
443.46	371.98
443.83	372.59
444.20	373.14
444.57	374.02
444.94	374.28
445.31	374.60
445.68	374.91
446.05	374.94
446.42	374.55
446.79	374.15
447.16	373.69
447.53	373.35
447.90	372.22
448.27	371.04
448.64	369.47
449.01	368.29
449.37	366.31
449.74	364.44
450.11	362.22
450.48	359.80
450.85	357.32
451.22	355.20
451.59	353.14
451.96	351.21
452.33	348.57
452.70	346.21
453.07	343.43
453.43	340.60
453.80	337.89
454.17	335.23
454.54	332.70
454.91	330.04
455.28	327.38
455.65	324.90
456.02	322.50
456.38	320.33
456.75	317.71
457.12	315.47
457.49	313.30
457.86	311.10
458.23	309.25
458.59	307.23
458.96	305.14
459.33	303.34
459.70	301.48
460.07	300.01
460.43	298.35
460.80	296.78
461.17	295.29
461.54	293.77
461.91	292.36
462.27	290.92
462.64	289.66
463.01	288.34
463.38	287.07
463.74	285.69
464.11	284.53
464.48	283.51
464.85	282.44
465.21	281.53
465.58	280.62
465.95	279.58
466.32	278.62
466.68	277.71
467.05	276.77
467.42	275.86
467.78	274.90
468.15	274.04
468.52	273.35
468.88	272.51
469.25	271.77
469.62	271.10
469.98	270.39
470.35	269.77
470.72	269.16
471.08	268.51
471.45	267.92
471.82	267.40
472.18	266.81
472.55	266.35
472.92	265.85
473.28	265.43
473.65	264.97
474.02	264.54
474.38	264.20
474.75	263.91
475.11	263.59
475.48	263.34
475.85	263.06
476.21	262.84
476.58	262.71
476.94	262.59
477.31	262.46
477.67	262.35
478.04	262.25
478.41	262.16
478.77	262.17
479.14	262.15
479.50	262.16
479.87	262.24
480.23	262.32
480.60	262.41
480.96	262.47
481.33	262.65
481.69	262.85
482.06	263.04
482.42	263.27
482.79	263.52
483.15	263.85
483.52	264.22
483.88	264.57
484.25	264.94
484.61	265.32
484.98	265.77
485.34	266.33
485.71	266.87
486.07	267.52
486.44	268.11
486.80	268.78
487.17	269.50
487.53	270.33
487.90	271.18
488.26	272.08
488.62	273.09
488.99	274.09
489.35	275.13
489.72	276.27
490.08	277.46
490.44	278.73
490.81	280.02
491.17	281.40
491.54	282.90
491.90	284.44
492.26	286.13
492.63	287.88
492.99	289.69
493.36	291.61
493.72	293.65
494.08	295.76
494.45	298.05
494.81	300.42
495.17	302.83
495.54	305.39
495.90	308.10
496.26	310.87
496.63	313.84
496.99	316.96
497.35	320.21
497.72	323.62
498.08	327.11
498.44	330.85
498.80	334.77
499.17	338.82
499.53	342.95
499.89	347.27
500.26	351.73
500.62	356.35
500.98	361.33
501.34	366.40
501.71	371.75
502.07	377.18
502.43	382.83
502.79	388.69
503.16	394.79
503.52	401.05
503.88	407.51
504.24	414.16
504.60	421.07
504.97	428.25
505.33	435.62
505.69	443.39
506.05	451.19
506.41	459.10
506.78	467.21
507.14	475.76
507.50	484.57
507.86	493.64
508.22	502.89
508.59	512.10
508.95	521.71
509.31	531.58
509.67	541.70
510.03	551.99
510.39	562.53
510.75	573.32
511.12	584.24
511.48	595.52
511.84	606.97
512.20	618.45
512.56	630.36
512.92	642.52
513.28	654.80
513.64	667.21
514.00	679.87
514.37	692.83
514.73	705.90
515.09	718.90
515.45	732.21
515.81	745.78
516.17	759.80
516.53	773.87
516.89	788.02
517.25	802.08
517.61	816.40
517.97	830.87
518.33	845.26
518.69	860.04
519.05	874.98
519.41	890.00
519.77	905.54
520.13	920.81
520.49	936.09
520.85	951.47
521.21	967.16
521.57	983.34
521.93	999.06
522.29	1015.31
522.65	1031.46
523.01	1047.55
523.37	1063.44
523.73	1079.54
524.09	1095.57
524.45	1111.69
524.81	1128.40
525.17	1145.18
525.53	1162.00
525.89	1178.82
526.25	1195.55
526.61	1211.92
526.97	1228.70
527.33	1245.00
527.68	1261.67
528.04	1278.13
528.40	1294.61
528.76	1311.58
529.12	1328.06
529.48	1344.83
529.84	1360.73
530.20	1377.25
530.56	1394.21
530.91	1411.60
531.27	1428.07
531.63	1444.49
531.99	1461.03
532.35	1476.79
532.71	1492.62
533.07	1508.74
533.42	1524.59
533.78	1540.49
534.14	1556.56
534.50	1571.83
534.86	1587.65
535.21	1602.70
535.57	1618.45
535.93	1633.88
536.29	1648.68
536.65	1663.60
537.00	1678.22
537.36	1693.38
537.72	1707.84
538.08	1722.13
538.44	1735.78
538.79	1749.76
539.15	1763.41
539.51	1777.12
539.87	1791.38
540.22	1804.95
540.58	1818.51
540.94	1831.71
541.29	1844.60
541.65	1857.14
542.01	1870.18
542.37	1882.31
542.72	1894.81
543.08	1906.60
543.44	1918.83
543.79	1929.86
544.15	1940.90
544.51	1952.40
544.87	1963.32
545.22	1974.08
545.58	1984.23
545.94	1993.85
546.29	2003.45
546.65	2013.13
547.01	2022.26
547.36	2030.91
547.72	2039.24
548.07	2047.09
548.43	2055.05
548.79	2063.04
549.14	2070.57
549.50	2077.89
549.86	2085.49
550.21	2092.59
550.57	2099.56
550.92	2106.26
551.28	2113.22
551.64	2120.24
551.99	2126.74
552.35	2132.86
552.70	2138.90
553.06	2144.95
553.41	2151.42
553.77	2157.60
554.13	2163.59
554.48	2169.69
554.84	2175.17
555.19	2180.55
555.55	2185.74
555.90	2190.35
556.26	2195.21
556.61	2199.98
556.97	2204.25
557.32	2208.44
557.68	2212.55
558.03	2216.89
558.39	2220.45
558.74	2225.25
559.10	2228.96
559.45	2232.75
559.81	2237.11
560.16	2241.03
560.52	2244.22
560.87	2247.44
561.23	2250.09
561.58	2253.09
561.94	2255.64
562.29	2258.00
562.64	2260.74
563.00	2263.25
563.35	2266.81
563.71	2269.86
564.06	2273.01
564.42	2275.81
564.77	2278.42
565.12	2280.63
565.48	2282.62
565.83	2284.53
566.19	2285.74
566.54	2286.72
566.89	2287.77
567.25	2288.37
567.60	2289.67
567.96	2291.31
568.31	2292.28
568.66	2293.44
569.02	2294.02
569.37	2294.32
569.72	2295.19
570.08	2295.36
570.43	2295.45
570.78	2294.92
571.14	2293.47
571.49	2292.27
571.84	2292.08
572.20	2291.08
572.55	2290.30
572.90	2288.72
573.26	2287.45
573.61	2285.78
573.96	2284.18
574.31	2281.31
574.67	2278.41
575.02	2274.87
575.37	2271.61
575.72	2267.84
576.08	2264.58
576.43	2261.34
576.78	2257.76
577.13	2254.74
577.49	2251.72
577.84	2248.48
578.19	2244.82
578.54	2241.31
578.90	2237.10
579.25	2231.58
579.60	2226.62
579.95	2221.56
580.30	2216.78
580.66	2211.61
581.01	2206.83
581.36	2202.00
581.71	2197.85
582.06	2193.32
582.42	2188.86
582.77	2183.63
583.12	2179.16
583.47	2174.39
583.82	2169.49
584.17	2164.41
584.53	2158.97
584.88	2153.42
585.23	2147.68
585.58	2142.14
585.93	2136.68
586.28	2131.97
586.63	2127.01
586.98	2122.05
587.34	2117.47
587.69	2112.51
588.04	2107.34
588.39	2101.64
588.74	2095.17
589.09	2089.11
589.44	2082.41
589.79	2076.57
590.14	2071.14
590.49	2064.61
590.84	2058.34
591.19	2052.36
591.54	2046.04
591.89	2038.63
592.25	2031.89
592.60	2024.65
592.95	2017.25
593.30	2009.86
593.65	2002.40
594.00	1995.44
594.35	1988.16
594.70	1980.21
595.05	1973.06
595.40	1965.66
595.75	1958.31
596.10	1952.11
596.45	1945.46
596.80	1939.35
597.15	1932.75
597.50	1925.72
597.85	1919.33
598.19	1912.71
598.54	1905.59
598.89	1898.71
599.24	1892.95
599.59	1886.25
599.94	1880.16
600.29	1873.73
600.64	1867.29
600.99	1859.91
601.34	1853.08
601.69	1846.22
602.04	1839.34
602.39	1832.10
602.74	1825.52
603.08	1818.82
603.43	1812.09
603.78	1804.72
604.13	1797.72
604.48	1790.46
604.83	1783.57
605.18	1776.60
605.53	1768.73
605.87	1760.84
606.22	1753.68
606.57	1745.70
606.92	1738.48
607.27	1731.32
607.62	1724.45
607.96	1717.22
608.31	1710.57
608.66	1702.98
609.01	1695.54
609.36	1688.05
609.70	1680.06
610.05	1671.93
610.40	1664.15
610.75	1655.89
611.10	1648.27
611.44	1639.68
611.79	1631.76
612.14	1623.00
612.49	1613.94
612.83	1605.55
613.18	1597.39
613.53	1589.39
613.88	1580.86
614.22	1572.57
614.57	1563.90
614.92	1556.00
615.27	1548.40
615.61	1540.08
615.96	1532.07
616.31	1524.35
616.65	1516.91
617.00	1509.32
617.35	1501.67
617.70	1493.34
618.04	1484.83
618.39	1476.63
618.74	1469.06
619.08	1460.67
619.43	1452.98
619.78	1446.08
620.12	1438.89
620.47	1431.28
620.82	1423.15
621.16	1415.77
621.51	1408.14
621.85	1400.53
622.20	1391.86
622.55	1383.54
622.89	1375.68
623.24	1368.00
623.59	1360.61
623.93	1353.09
624.28	1345.89
624.62	1338.33
624.97	1331.16
625.32	1324.46
625.66	1317.40
626.01	1310.24
626.35	1302.74
626.70	1295.17
627.04	1287.34
627.39	1279.62
627.73	1272.32
628.08	1265.36
628.43	1258.02
628.77	1250.71
629.12	1243.21
629.46	1236.10
629.81	1228.72
630.15	1221.50
630.50	1214.22
630.84	1205.96
631.19	1198.01
631.53	1190.46
631.88	1183.01
632.22	1175.38
632.57	1168.05
632.91	1160.57
633.26	1153.11
633.60	1145.74
633.95	1138.61
634.29	1131.66
634.64	1124.92
634.98	1117.56
635.32	1110.37
635.67	1103.78
636.01	1097.11
636.36	1090.23
636.70	1083.62
637.05	1076.99
637.39	1070.51
637.73	1063.88
638.08	1058.04
638.42	1052.05
638.77	1045.53
639.11	1038.92
639.45	1032.53
639.80	1025.85
640.14	1019.46
640.49	1012.98
640.83	1006.66
641.17	1000.36
641.52	994.08
641.86	987.62
642.20	981.72
642.55	975.43
642.89	968.96
643.23	962.37
643.58	956.65
643.92	950.48
644.26	944.44
644.61	938.42
644.95	932.42
645.29	925.84
645.64	919.11
645.98	912.87
646.32	907.02
646.66	901.02
647.01	895.28
647.35	889.51
647.69	883.71
648.04	878.18
648.38	872.42
648.72	866.37
649.06	860.29
649.41	854.42
649.75	848.49
650.09	842.62
650.43	836.87
650.78	830.62
651.12	824.66
651.46	818.89
651.80	813.15
652.14	807.73
652.49	802.32
652.83	797.19
653.17	791.50
653.51	785.71
653.85	780.29
654.20	774.53
654.54	768.52
654.88	762.79
655.22	756.90
655.56	751.14
655.90	745.69
656.25	740.42
656.59	735.04
656.93	729.92
657.27	724.65
657.61	719.27
657.95	714.21
658.29	709.18
658.64	703.97
658.98	698.65
659.32	693.21
659.66	687.97
660.00	682.56
660.34	677.60
660.68	672.73
661.02	667.68
661.36	662.99
661.70	658.53
662.05	654.17
662.39	649.81
662.73	645.40
663.07	640.97
663.41	636.55
663.75	632.06
664.09	627.46
664.43	623.05
664.77	618.88
665.11	614.68
665.45	610.51
665.79	606.40
666.13	602.32
666.47	598.20
666.81	594.04
667.15	589.98
667.49	586.07
667.83	582.28
668.17	578.35
668.51	574.32
668.85	570.20
669.19	566.31
669.53	562.52
669.87	558.63
670.21	555.01
670.55	551.38
670.89	547.95
671.23	544.54
671.57	541.05
671.91	537.48
672.25	533.94
672.58	530.47
672.92	527.05
673.26	523.84
673.60	520.69
673.94	517.61
674.28	514.67
674.62	511.73
674.96	508.55
675.30	505.63
675.64	502.68
675.97	499.95
676.31	497.08
676.65	494.15
676.99	491.49
677.33	488.61
677.67	485.80
678.01	482.80
678.34	479.82
678.68	476.96
679.02	474.17
679.36	471.40
679.70	468.62
680.04	465.89
680.37	462.99
680.71	460.17
681.05	457.59
681.39	454.83
681.73	452.15
682.06	449.66
682.40	447.15
682.74	444.62
683.08	442.09
683.42	439.47
683.75	436.94
684.09	434.34
684.43	431.84
684.77	429.35
685.10	427.00
685.44	424.68
685.78	422.37
686.12	420.09
686.45	417.84
686.79	415.56
687.13	413.32
687.46	411.21
687.80	409.13
688.14	406.91
688.48	404.87
688.81	402.62
689.15	400.44
689.49	398.26
689.82	396.22
690.16	394.09
690.50	392.17
690.83	390.24
691.17	388.24
691.51	386.31
691.84	384.48
692.18	382.50
692.52	380.52
692.85	378.58
693.19	376.70
693.52	374.82
693.86	373.02
694.20	371.24
694.53	369.41
694.87	367.49
695.21	365.71
695.54	363.88
695.88	362.14
696.21	360.40
696.55	358.72
696.88	356.99
697.22	355.36
697.56	353.69
697.89	351.99
698.23	350.43
698.56	348.87
698.90	347.23
699.23	345.62
699.57	344.02
699.90	342.47
700.24	340.90
700.58	339.36
700.91	337.81
701.25	336.34
701.58	334.96
701.92	333.60
702.25	332.22
702.59	330.84
702.92	329.49
703.26	328.22
703.59	326.94
703.93	325.77
704.26	324.55
704.60	323.31
704.93	322.08
705.26	320.79
705.60	319.60
705.93	318.43
706.27	317.38
706.60	316.37
706.94	315.30
707.27	314.21
707.61	313.16
707.94	312.18
708.27	311.10
708.61	310.01
708.94	309.02
709.28	308.03
709.61	307.11
709.94	306.18
710.28	305.14
710.61	304.13
710.95	303.02
711.28	302.09
711.61	301.13
711.95	300.24
712.28	299.29
712.61	298.33
712.95	297.43
713.28	296.56
713.61	295.67
713.95	294.82
714.28	293.96
714.61	293.11
714.95	292.28
715.28	291.46
715.61	290.58
715.95	289.71
716.28	288.82
716.61	287.96
716.95	287.15
717.28	286.42
717.61	285.67
717.94	284.97
718.28	284.16
718.61	283.42
718.94	282.70
719.27	282.05
719.61	281.39
719.94	280.70
720.27	280.00
720.60	279.36
720.94	278.70
721.27	278.11
721.60	277.49
721.93	276.90
722.27	276.32
722.60	275.82
722.93	275.30
723.26	274.77
723.59	274.22
723.93	273.68
724.26	273.13
724.59	272.55
724.92	272.02
725.25	271.50
725.59	270.96
725.92	270.45
726.25	269.94
726.58	269.46
726.91	268.99
727.24	268.51
727.57	268.02
727.91	267.51
728.24	267.04
728.57	266.55
728.90	266.05
729.23	265.54
729.56	265.10
729.89	264.61
730.22	264.12
730.55	263.62
730.89	263.15
731.22	262.66
731.55	262.25
731.88	261.82
732.21	261.42
732.54	261.00
732.87	260.59
733.20	260.18
733.53	259.77
733.86	259.38
734.19	258.98
734.52	258.58
734.85	258.25
735.18	257.86
735.51	257.52
735.84	257.14
736.17	256.78
736.50	256.36
736.83	256.11
737.16	255.78
737.49	255.45
737.82	255.09
738.15	254.76
738.48	254.47
738.81	254.15
739.14	253.76
739.47	253.46
739.80	253.11
740.13	252.79
740.46	252.46
740.79	252.10
741.12	251.79
741.45	251.49
741.78	251.14
742.11	250.85
742.44	250.52
742.77	250.25
743.10	249.96
743.43	249.63
743.75	249.27
744.08	249.12
744.41	248.89
744.74	248.67
745.07	248.40
745.40	248.10
745.73	247.87
746.06	247.65
746.39	247.40
746.71	247.14
747.04	246.89
747.37	246.63
747.70	246.38
748.03	246.15
748.36	245.92
748.68	245.73
749.01	245.45
749.34	245.27
749.67	245.06
750.00	244.85
750.33	244.72
750.65	244.50
750.98	244.17
751.31	243.96
751.64	243.73
751.97	243.58
752.29	243.39
752.62	243.15
752.95	242.95
753.28	242.69
753.60	242.52
753.93	242.33
754.26	242.12
754.59	241.92
754.91	241.71
755.24	241.53
755.57	241.30
755.90	241.12
756.22	240.90
756.55	240.68
756.88	240.46
757.20	240.27
757.53	240.07
757.86	239.90
758.19	239.72
758.51	239.55
758.84	239.33
759.17	239.15
759.49	238.99
759.82	238.85
760.15	238.73
760.47	238.61
760.80	238.46
761.13	238.32
761.45	238.18
761.78	238.02
762.11	237.83
762.43	237.69
762.76	237.56
763.08	237.43
763.41	237.32
763.74	237.22
764.06	237.02
764.39	236.89
764.71	236.71
765.04	236.57
765.37	236.45
765.69	236.30
766.02	236.17
766.34	236.05
766.67	235.90
767.00	235.77
767.32	235.70
767.65	235.63
767.97	235.53
768.30	235.41
768.62	235.30
768.95	235.18
769.27	235.09
769.60	234.99
769.92	234.84
770.25	234.69
770.57	234.59
770.90	234.48
771.22	234.36
771.55	234.31
771.87	234.24
772.20	234.13
772.52	234.14
772.85	234.17
773.17	234.06
773.50	233.94
773.82	233.86
774.15	233.68
774.47	233.49
774.80	233.39
775.12	233.28
775.45	233.21
775.77	233.13
776.09	233.01
776.42	232.90
776.74	232.82
777.07	232.76
777.39	232.65
777.72	232.59
778.04	232.53
778.36	232.43
778.69	232.33
779.01	232.28
779.33	232.10
779.66	231.93
779.98	231.85
780.31	231.78
780.63	231.75
780.95	231.72
781.28	231.69
781.60	231.63
781.92	231.60
782.25	231.53
782.57	231.48
782.89	231.44
783.22	231.40
783.54	231.38
783.86	231.32
784.19	231.24
784.51	231.21
784.83	231.15
785.16	231.10
785.48	231.07
785.80	231.00
786.12	230.96
786.45	230.92
786.77	230.88
787.09	230.83
