SpectraSuite Data File
++++++++++++++++++++++++++++++++++++
Date: Fri Feb 01 16:00:09 EST 2013
User: group
Dark Spectrum Present: No
Reference Spectrum Present: No
Number of Sampled Component Spectra: 1
Spectrometers: USB2E7196
Integration Time (usec): 35000 (USB2E7196)
Spectra Averaged: 100 (USB2E7196)
Boxcar Smoothing: 10 (USB2E7196)
Correct for Electrical Dark: No (USB2E7196)
Strobe/Lamp Enabled: No (USB2E7196)
Correct for Detector Non-linearity: No (USB2E7196)
Correct for Stray Light: No (USB2E7196)
Number of Pixels in Processed Spectrum: 2048
>>>>>Begin Processed Spectral Data<<<<<
339.09	0.00
339.48	215.15
339.86	216.55
340.24	217.67
340.63	219.50
341.01	221.92
341.39	221.81
341.78	223.13
342.16	224.19
342.54	224.92
342.93	213.26
343.31	224.05
343.69	224.60
344.07	225.05
344.46	225.49
344.84	225.85
345.22	226.08
345.60	226.32
345.99	226.52
346.37	226.68
346.75	226.76
347.13	226.83
347.52	226.86
347.90	226.90
348.28	226.94
348.66	226.96
349.05	226.94
349.43	226.96
349.81	227.01
350.19	227.06
350.57	227.12
350.96	227.15
351.34	227.20
351.72	227.24
352.10	227.32
352.48	227.37
352.87	227.38
353.25	227.47
353.63	227.53
354.01	227.53
354.39	227.59
354.77	227.67
355.15	227.76
355.54	227.80
355.92	227.82
356.30	227.86
356.68	228.00
357.06	228.10
357.44	228.14
357.82	228.19
358.20	228.23
358.58	228.28
358.97	228.36
359.35	228.45
359.73	228.52
360.11	228.54
360.49	228.58
360.87	228.65
361.25	228.70
361.63	228.79
362.01	228.88
362.39	228.88
362.77	228.92
363.15	228.94
363.53	228.99
363.91	229.04
364.29	229.08
364.67	228.99
365.05	229.00
365.43	229.02
365.81	229.03
366.19	229.07
366.57	229.10
366.95	229.07
367.33	229.01
367.71	229.04
368.09	229.06
368.47	229.10
368.85	229.05
369.23	229.04
369.61	228.94
369.99	228.94
370.37	228.94
370.75	228.93
371.13	228.88
371.51	228.87
371.89	228.81
372.27	228.77
372.65	228.74
373.03	228.73
373.41	228.70
373.78	228.68
374.16	228.61
374.54	228.53
374.92	228.48
375.30	228.43
375.68	228.34
376.06	228.29
376.44	228.18
376.82	228.14
377.19	228.06
377.57	228.02
377.95	227.94
378.33	227.85
378.71	227.73
379.09	227.71
379.47	227.64
379.84	227.59
380.22	227.53
380.60	227.45
380.98	227.34
381.36	227.25
381.73	227.13
382.11	227.10
382.49	227.03
382.87	226.97
383.25	226.92
383.62	226.93
384.00	226.88
384.38	226.82
384.76	226.78
385.13	226.75
385.51	226.73
385.89	226.65
386.27	226.60
386.64	226.58
387.02	226.50
387.40	226.45
387.78	226.38
388.15	226.35
388.53	226.33
388.91	226.28
389.29	226.25
389.66	226.26
390.04	226.23
390.42	226.24
390.79	226.24
391.17	226.23
391.55	226.15
391.92	226.15
392.30	226.18
392.68	226.16
393.05	226.16
393.43	226.13
393.81	226.15
394.18	226.14
394.56	226.16
394.94	226.22
395.31	226.21
395.69	226.30
396.06	226.30
396.44	226.36
396.82	226.42
397.19	226.51
397.57	226.53
397.95	226.59
398.32	226.62
398.70	226.63
399.07	226.73
399.45	226.77
399.82	226.82
400.20	226.90
400.58	226.97
400.95	227.02
401.33	227.10
401.70	227.28
402.08	227.41
402.45	227.50
402.83	227.60
403.20	227.76
403.58	227.84
403.95	227.99
404.33	228.09
404.71	228.21
405.08	228.39
405.46	228.53
405.83	228.67
406.21	228.79
406.58	228.98
406.96	229.10
407.33	229.28
407.70	229.49
408.08	229.73
408.45	229.96
408.83	230.21
409.20	230.43
409.58	230.61
409.95	230.85
410.33	231.13
410.70	231.38
411.08	231.66
411.45	231.95
411.82	232.26
412.20	232.65
412.57	233.06
412.95	233.39
413.32	233.82
413.69	234.26
414.07	234.76
414.44	235.28
414.82	235.74
415.19	236.31
415.56	236.85
415.94	237.37
416.31	237.99
416.68	238.59
417.06	239.32
417.43	240.01
417.81	240.81
418.18	241.59
418.55	242.43
418.93	243.30
419.30	244.20
419.67	245.15
420.04	246.07
420.42	247.07
420.79	248.21
421.16	249.33
421.54	250.51
421.91	251.68
422.28	252.91
422.66	254.27
423.03	255.56
423.40	256.91
423.77	258.34
424.15	259.81
424.52	261.30
424.89	262.95
425.26	264.50
425.64	265.96
426.01	267.54
426.38	269.20
426.75	270.87
427.13	272.57
427.50	274.35
427.87	276.27
428.24	278.11
428.61	279.87
428.99	281.83
429.36	283.90
429.73	285.98
430.10	287.97
430.47	290.00
430.85	292.12
431.22	294.35
431.59	296.75
431.96	298.94
432.33	301.45
432.70	303.77
433.08	306.60
433.45	309.25
433.82	311.87
434.19	314.73
434.56	317.50
434.93	320.20
435.30	322.81
435.68	325.67
436.05	328.56
436.42	331.33
436.79	333.81
437.16	336.50
437.53	339.31
437.90	342.10
438.27	344.84
438.64	347.66
439.01	350.18
439.38	352.40
439.75	354.54
440.13	357.00
440.50	359.35
440.87	361.19
441.24	363.11
441.61	365.23
441.98	366.71
442.35	368.56
442.72	370.36
443.09	372.18
443.46	373.14
443.83	373.64
444.20	374.14
444.57	374.99
444.94	375.31
445.31	375.62
445.68	376.00
446.05	376.08
446.42	375.68
446.79	375.32
447.16	374.89
447.53	374.59
447.90	373.45
448.27	372.23
448.64	370.61
449.01	369.42
449.37	367.45
449.74	365.56
450.11	363.28
450.48	360.86
450.85	358.30
451.22	356.17
451.59	354.18
451.96	352.29
452.33	349.68
452.70	347.35
453.07	344.57
453.43	341.72
453.80	338.96
454.17	336.33
454.54	333.77
454.91	331.06
455.28	328.43
455.65	325.91
456.02	323.52
456.38	321.36
456.75	318.73
457.12	316.52
457.49	314.31
457.86	312.18
458.23	310.31
458.59	308.34
458.96	306.29
459.33	304.44
459.70	302.57
460.07	301.12
460.43	299.34
460.80	297.70
461.17	296.21
461.54	294.74
461.91	293.30
462.27	291.85
462.64	290.57
463.01	289.21
463.38	287.94
463.74	286.55
464.11	285.40
464.48	284.37
464.85	283.23
465.21	282.38
465.58	281.42
465.95	280.33
466.32	279.40
466.68	278.49
467.05	277.61
467.42	276.65
467.78	275.71
468.15	274.84
468.52	274.19
468.88	273.32
469.25	272.52
469.62	271.88
469.98	271.21
470.35	270.58
470.72	269.96
471.08	269.31
471.45	268.74
471.82	268.22
472.18	267.61
472.55	267.18
472.92	266.62
473.28	266.24
473.65	265.79
474.02	265.35
474.38	265.00
474.75	264.67
475.11	264.34
475.48	264.05
475.85	263.86
476.21	263.60
476.58	263.45
476.94	263.33
477.31	263.16
477.67	263.03
478.04	262.91
478.41	262.89
478.77	262.92
479.14	262.92
479.50	262.90
479.87	262.98
480.23	263.04
480.60	263.14
480.96	263.21
481.33	263.40
481.69	263.56
482.06	263.71
482.42	263.91
482.79	264.18
483.15	264.50
483.52	264.84
483.88	265.17
484.25	265.53
484.61	265.95
484.98	266.39
485.34	266.92
485.71	267.53
486.07	268.09
486.44	268.64
486.80	269.32
487.17	270.04
487.53	270.85
487.90	271.72
488.26	272.68
488.62	273.64
488.99	274.61
489.35	275.65
489.72	276.78
490.08	278.00
490.44	279.24
490.81	280.55
491.17	281.94
491.54	283.43
491.90	284.98
492.26	286.64
492.63	288.42
492.99	290.20
493.36	292.08
493.72	294.14
494.08	296.29
494.45	298.58
494.81	300.98
495.17	303.48
495.54	306.04
495.90	308.68
496.26	311.46
496.63	314.43
496.99	317.58
497.35	320.86
497.72	324.27
498.08	327.77
498.44	331.48
498.80	335.41
499.17	339.50
499.53	343.70
499.89	348.02
500.26	352.51
500.62	357.22
500.98	362.20
501.34	367.27
501.71	372.59
502.07	378.01
502.43	383.60
502.79	389.41
503.16	395.47
503.52	401.77
503.88	408.26
504.24	414.92
504.60	421.77
504.97	428.92
505.33	436.29
505.69	444.06
506.05	451.90
506.41	459.78
506.78	467.96
507.14	476.47
507.50	485.25
507.86	494.28
508.22	503.41
508.59	512.62
508.95	522.25
509.31	532.10
509.67	542.22
510.03	552.60
510.39	563.13
510.75	573.98
511.12	584.94
511.48	596.19
511.84	607.60
512.20	619.12
512.56	631.03
512.92	643.15
513.28	655.47
513.64	667.90
514.00	680.59
514.37	693.61
514.73	706.54
515.09	719.58
515.45	732.95
515.81	746.56
516.17	760.55
516.53	774.68
516.89	788.85
517.25	803.05
517.61	817.49
517.97	831.92
518.33	846.31
518.69	861.08
519.05	876.05
519.41	891.25
519.77	906.80
520.13	922.26
520.49	937.72
520.85	953.15
521.21	968.79
521.57	985.05
521.93	1000.66
522.29	1017.09
522.65	1033.30
523.01	1049.46
523.37	1065.46
523.73	1081.70
524.09	1097.69
524.45	1113.94
524.81	1130.53
525.17	1147.19
525.53	1164.08
525.89	1181.07
526.25	1197.84
526.61	1214.17
526.97	1230.87
527.33	1247.36
527.68	1263.98
528.04	1280.34
528.40	1296.92
528.76	1313.89
529.12	1330.48
529.48	1347.23
529.84	1363.26
530.20	1379.83
530.56	1396.82
530.91	1414.14
531.27	1430.80
531.63	1447.26
531.99	1463.78
532.35	1479.64
532.71	1495.71
533.07	1511.90
533.42	1527.56
533.78	1543.61
534.14	1559.84
534.50	1575.14
534.86	1591.01
535.21	1606.15
535.57	1622.04
535.93	1637.47
536.29	1652.46
536.65	1667.32
537.00	1682.29
537.36	1697.49
537.72	1711.93
538.08	1726.16
538.44	1740.00
538.79	1753.83
539.15	1767.61
539.51	1781.40
539.87	1795.84
540.22	1809.35
540.58	1823.16
540.94	1836.55
541.29	1849.48
541.65	1862.15
542.01	1875.37
542.37	1887.54
542.72	1899.92
543.08	1911.61
543.44	1923.99
543.79	1935.09
544.15	1946.09
544.51	1957.60
544.87	1968.60
545.22	1979.47
545.58	1989.78
545.94	1999.47
546.29	2009.26
546.65	2019.03
547.01	2028.21
547.36	2036.78
547.72	2045.20
548.07	2052.93
548.43	2061.12
548.79	2069.12
549.14	2076.60
549.50	2083.75
549.86	2091.45
550.21	2098.78
550.57	2105.97
550.92	2112.50
551.28	2119.60
551.64	2126.57
551.99	2133.08
552.35	2139.18
552.70	2145.42
553.06	2151.46
553.41	2157.90
553.77	2163.93
554.13	2170.01
554.48	2176.20
554.84	2181.80
555.19	2187.02
555.55	2192.21
555.90	2196.67
556.26	2201.51
556.61	2206.36
556.97	2210.81
557.32	2214.98
557.68	2219.13
558.03	2223.53
558.39	2227.27
558.74	2231.84
559.10	2235.88
559.45	2239.51
559.81	2243.85
560.16	2247.42
560.52	2250.58
560.87	2253.97
561.23	2256.70
561.58	2259.70
561.94	2262.17
562.29	2264.50
562.64	2267.31
563.00	2269.91
563.35	2273.44
563.71	2276.55
564.06	2279.75
564.42	2282.53
564.77	2285.11
565.12	2287.30
565.48	2289.18
565.83	2290.99
566.19	2292.19
566.54	2293.04
566.89	2294.24
567.25	2294.72
567.60	2296.27
567.96	2298.09
568.31	2298.93
568.66	2300.10
569.02	2300.47
569.37	2300.84
569.72	2301.56
570.08	2301.56
570.43	2301.67
570.78	2301.10
571.14	2299.58
571.49	2298.27
571.84	2297.98
572.20	2296.78
572.55	2295.83
572.90	2294.33
573.26	2293.07
573.61	2291.61
573.96	2289.83
574.31	2286.75
574.67	2283.84
575.02	2280.17
575.37	2276.77
575.72	2272.97
576.08	2269.66
576.43	2266.48
576.78	2262.73
577.13	2259.71
577.49	2256.65
577.84	2253.11
578.19	2249.47
578.54	2245.77
578.90	2241.47
579.25	2236.00
579.60	2231.00
579.95	2225.93
580.30	2220.83
580.66	2215.58
581.01	2210.45
581.36	2205.61
581.71	2201.46
582.06	2196.99
582.42	2192.40
582.77	2187.12
583.12	2182.53
583.47	2177.67
583.82	2172.62
584.17	2167.46
584.53	2161.84
584.88	2156.34
585.23	2150.58
585.58	2145.02
585.93	2139.67
586.28	2134.90
586.63	2129.91
586.98	2124.85
587.34	2120.22
587.69	2115.36
588.04	2110.02
588.39	2104.35
588.74	2098.05
589.09	2091.93
589.44	2085.21
589.79	2079.40
590.14	2073.93
590.49	2067.36
590.84	2061.06
591.19	2055.11
591.54	2048.64
591.89	2041.32
592.25	2034.59
592.60	2027.27
592.95	2019.69
593.30	2012.17
593.65	2004.63
594.00	1997.62
594.35	1990.53
594.70	1982.46
595.05	1975.15
595.40	1968.03
595.75	1960.60
596.10	1954.24
596.45	1947.48
596.80	1941.31
597.15	1934.58
597.50	1927.21
597.85	1920.86
598.19	1914.19
598.54	1906.98
598.89	1900.35
599.24	1894.48
599.59	1887.71
599.94	1881.74
600.29	1875.36
600.64	1868.92
600.99	1861.48
601.34	1854.50
601.69	1847.55
602.04	1840.68
602.39	1833.43
602.74	1826.67
603.08	1819.90
603.43	1813.16
603.78	1805.91
604.13	1798.71
604.48	1791.37
604.83	1784.69
605.18	1777.66
605.53	1769.53
605.87	1761.65
606.22	1754.40
606.57	1746.44
606.92	1739.19
607.27	1731.94
607.62	1725.03
607.96	1717.70
608.31	1711.05
608.66	1703.50
609.01	1695.85
609.36	1688.19
609.70	1680.13
610.05	1671.88
610.40	1664.18
610.75	1655.88
611.10	1648.25
611.44	1639.84
611.79	1631.89
612.14	1623.10
612.49	1613.92
612.83	1605.60
613.18	1597.33
613.53	1589.14
613.88	1580.61
614.22	1572.39
614.57	1563.77
614.92	1555.76
615.27	1548.24
615.61	1539.90
615.96	1531.78
616.31	1524.20
616.65	1516.92
617.00	1509.38
617.35	1501.80
617.70	1493.48
618.04	1484.94
618.39	1476.71
618.74	1469.11
619.08	1460.91
619.43	1453.37
619.78	1446.51
620.12	1439.41
620.47	1431.92
620.82	1423.85
621.16	1416.53
621.51	1408.82
621.85	1401.23
622.20	1392.63
622.55	1384.24
622.89	1376.34
623.24	1368.79
623.59	1361.20
623.93	1353.62
624.28	1346.53
624.62	1338.78
624.97	1331.55
625.32	1324.84
625.66	1317.80
626.01	1310.49
626.35	1302.97
626.70	1295.23
627.04	1287.47
627.39	1279.74
627.73	1272.48
628.08	1265.55
628.43	1258.17
628.77	1250.72
629.12	1243.10
629.46	1235.86
629.81	1228.60
630.15	1221.50
630.50	1214.17
630.84	1206.05
631.19	1198.19
631.53	1190.55
631.88	1183.21
632.22	1175.71
632.57	1168.35
632.91	1160.72
633.26	1153.32
633.60	1145.93
633.95	1138.86
634.29	1131.91
634.64	1125.13
634.98	1117.75
635.32	1110.59
635.67	1104.12
636.01	1097.54
636.36	1090.74
636.70	1084.39
637.05	1077.61
637.39	1071.10
637.73	1064.48
638.08	1058.74
638.42	1052.73
638.77	1046.25
639.11	1039.64
639.45	1033.25
639.80	1026.62
640.14	1020.27
640.49	1013.72
640.83	1007.49
641.17	1001.11
641.52	994.69
641.86	988.25
642.20	982.38
642.55	976.09
642.89	969.48
643.23	962.94
643.58	957.21
643.92	950.93
644.26	944.85
644.61	938.75
644.95	932.72
645.29	925.95
645.64	919.17
645.98	912.90
646.32	907.01
646.66	900.93
647.01	895.09
647.35	889.41
647.69	883.62
648.04	878.04
648.38	872.29
648.72	866.36
649.06	860.29
649.41	854.41
649.75	848.46
650.09	842.49
650.43	836.72
650.78	830.50
651.12	824.53
651.46	818.91
651.80	813.12
652.14	807.77
652.49	802.51
652.83	797.37
653.17	791.64
653.51	785.97
653.85	780.60
654.20	775.01
654.54	768.96
654.88	763.24
655.22	757.32
655.56	751.68
655.90	746.20
656.25	740.96
656.59	735.63
656.93	730.55
657.27	725.44
657.61	720.00
657.95	714.94
658.29	709.89
658.64	704.59
658.98	699.37
659.32	693.88
659.66	688.62
660.00	683.27
660.34	678.33
660.68	673.41
661.02	668.40
661.36	663.61
661.70	659.13
662.05	654.80
662.39	650.53
662.73	646.05
663.07	641.66
663.41	637.16
663.75	632.58
664.09	627.95
664.43	623.47
664.77	619.34
665.11	615.10
665.45	610.98
665.79	606.90
666.13	602.75
666.47	598.63
666.81	594.48
667.15	590.38
667.49	586.50
667.83	582.73
668.17	578.78
668.51	574.70
668.85	570.66
669.19	566.80
669.53	562.85
669.87	558.95
670.21	555.19
670.55	551.59
670.89	548.19
671.23	544.77
671.57	541.27
671.91	537.67
672.25	534.21
672.58	530.67
672.92	527.27
673.26	524.10
673.60	520.98
673.94	517.85
674.28	514.92
674.62	511.94
674.96	508.82
675.30	505.85
675.64	502.92
675.97	500.17
676.31	497.29
676.65	494.37
676.99	491.71
677.33	488.90
677.67	486.05
678.01	482.96
678.34	479.98
678.68	477.14
679.02	474.37
679.36	471.54
679.70	468.83
680.04	466.11
680.37	463.24
680.71	460.44
681.05	457.82
681.39	455.08
681.73	452.42
682.06	449.84
682.40	447.29
682.74	444.74
683.08	442.18
683.42	439.62
683.75	437.18
684.09	434.64
684.43	432.14
684.77	429.67
685.10	427.37
685.44	425.07
685.78	422.80
686.12	420.51
686.45	418.26
686.79	415.96
687.13	413.69
687.46	411.57
687.80	409.44
688.14	407.25
688.48	405.24
688.81	403.00
689.15	400.83
689.49	398.69
689.82	396.62
690.16	394.53
690.50	392.51
690.83	390.54
691.17	388.54
691.51	386.63
691.84	384.82
692.18	382.84
692.52	380.84
692.85	378.91
693.19	377.06
693.52	375.20
693.86	373.36
694.20	371.62
694.53	369.76
694.87	367.89
695.21	366.08
695.54	364.23
695.88	362.51
696.21	360.76
696.55	359.10
696.88	357.44
697.22	355.79
697.56	354.17
697.89	352.50
698.23	350.95
698.56	349.38
698.90	347.75
699.23	346.14
699.57	344.62
699.90	343.05
700.24	341.53
700.58	340.01
700.91	338.51
701.25	337.08
701.58	335.76
701.92	334.39
702.25	333.05
702.59	331.69
702.92	330.37
703.26	329.14
703.59	327.85
703.93	326.67
704.26	325.42
704.60	324.15
704.93	322.90
705.26	321.57
705.60	320.39
705.93	319.27
706.27	318.25
706.60	317.21
706.94	316.15
707.27	314.95
707.61	313.93
707.94	312.94
708.27	311.83
708.61	310.74
708.94	309.70
709.28	308.72
709.61	307.78
709.94	306.85
710.28	305.81
710.61	304.85
710.95	303.77
711.28	302.82
711.61	301.86
711.95	300.96
712.28	300.06
712.61	299.07
712.95	298.12
713.28	297.23
713.61	296.29
713.95	295.40
714.28	294.60
714.61	293.72
714.95	292.88
715.28	292.03
715.61	291.14
715.95	290.32
716.28	289.49
716.61	288.66
716.95	287.85
717.28	287.12
717.61	286.36
717.94	285.62
718.28	284.84
718.61	284.10
718.94	283.41
719.27	282.73
719.61	282.10
719.94	281.42
720.27	280.71
720.60	280.03
720.94	279.41
721.27	278.82
721.60	278.23
721.93	277.60
722.27	277.06
722.60	276.48
722.93	275.92
723.26	275.35
723.59	274.76
723.93	274.19
724.26	273.62
724.59	273.04
724.92	272.52
725.25	272.01
725.59	271.51
725.92	270.96
726.25	270.44
726.58	269.94
726.91	269.44
727.24	268.95
727.57	268.53
727.91	268.00
728.24	267.50
728.57	267.00
728.90	266.55
729.23	266.03
729.56	265.62
729.89	265.16
730.22	264.67
730.55	264.21
730.89	263.75
731.22	263.27
731.55	262.87
731.88	262.41
732.21	262.00
732.54	261.55
732.87	261.13
733.20	260.72
733.53	260.29
733.86	259.91
734.19	259.47
734.52	259.05
734.85	258.73
735.18	258.31
735.51	257.95
735.84	257.57
736.17	257.27
736.50	256.86
736.83	256.59
737.16	256.25
737.49	255.92
737.82	255.58
738.15	255.28
738.48	254.92
738.81	254.63
739.14	254.28
739.47	253.94
739.80	253.63
740.13	253.36
740.46	253.05
740.79	252.72
741.12	252.45
741.45	252.13
741.78	251.78
742.11	251.53
742.44	251.22
742.77	250.95
743.10	250.62
743.43	250.32
743.75	249.97
744.08	249.83
744.41	249.53
744.74	249.30
745.07	249.04
745.40	248.80
745.73	248.58
746.06	248.31
746.39	248.10
746.71	247.85
747.04	247.54
747.37	247.30
747.70	247.06
748.03	246.79
748.36	246.59
748.68	246.39
749.01	246.14
749.34	245.92
749.67	245.68
750.00	245.46
750.33	245.32
750.65	245.12
750.98	244.77
751.31	244.56
751.64	244.34
751.97	244.15
752.29	243.93
752.62	243.65
752.95	243.45
753.28	243.21
753.60	242.99
753.93	242.86
754.26	242.66
754.59	242.45
754.91	242.28
755.24	242.11
755.57	241.89
755.90	241.70
756.22	241.48
756.55	241.29
756.88	241.10
757.20	240.84
757.53	240.66
757.86	240.50
758.19	240.34
758.51	240.15
758.84	239.95
759.17	239.85
759.49	239.69
759.82	239.59
760.15	239.45
760.47	239.32
760.80	239.12
761.13	238.99
761.45	238.83
761.78	238.67
762.11	238.54
762.43	238.36
762.76	238.21
763.08	238.12
763.41	237.98
763.74	237.86
764.06	237.73
764.39	237.54
764.71	237.37
765.04	237.25
765.37	237.12
765.69	236.96
766.02	236.77
766.34	236.65
766.67	236.47
767.00	236.37
767.32	236.29
767.65	236.23
767.97	236.11
768.30	236.00
768.62	235.88
768.95	235.70
769.27	235.61
769.60	235.53
769.92	235.37
770.25	235.24
770.57	235.09
770.90	234.97
771.22	234.88
771.55	234.80
771.87	234.70
772.20	234.59
772.52	234.56
772.85	234.56
773.17	234.46
773.50	234.34
773.82	234.23
774.15	234.07
774.47	233.90
774.80	233.78
775.12	233.69
775.45	233.60
775.77	233.51
776.09	233.42
776.42	233.33
776.74	233.28
777.07	233.21
777.39	233.15
777.72	233.08
778.04	233.01
778.36	232.95
778.69	232.88
779.01	232.82
779.33	232.68
779.66	232.55
779.98	232.49
780.31	232.42
780.63	232.40
780.95	232.33
781.28	232.30
781.60	232.23
781.92	232.16
782.25	232.10
782.57	232.06
782.89	232.02
783.22	231.92
783.54	231.85
783.86	231.80
784.19	231.77
784.51	231.74
784.83	231.66
785.16	231.61
785.48	231.56
785.80	231.52
786.12	231.47
786.45	231.42
786.77	231.40
787.09	231.39
