SpectraSuite Data File
++++++++++++++++++++++++++++++++++++
Date: Fri Feb 01 16:39:13 EST 2013
User: group
Dark Spectrum Present: No
Reference Spectrum Present: No
Number of Sampled Component Spectra: 1
Spectrometers: USB2E7196
Integration Time (usec): 35000 (USB2E7196)
Spectra Averaged: 100 (USB2E7196)
Boxcar Smoothing: 10 (USB2E7196)
Correct for Electrical Dark: No (USB2E7196)
Strobe/Lamp Enabled: No (USB2E7196)
Correct for Detector Non-linearity: No (USB2E7196)
Correct for Stray Light: No (USB2E7196)
Number of Pixels in Processed Spectrum: 2048
>>>>>Begin Processed Spectral Data<<<<<
339.09	0.00
339.48	213.62
339.86	215.21
340.24	216.15
340.63	217.75
341.01	221.33
341.39	220.65
341.78	221.58
342.16	223.06
342.54	223.84
342.93	212.06
343.31	222.78
343.69	223.32
344.07	223.79
344.46	224.24
344.84	224.62
345.22	224.81
345.60	225.06
345.99	225.27
346.37	225.41
346.75	225.51
347.13	225.58
347.52	225.63
347.90	225.75
348.28	225.77
348.66	225.80
349.05	225.83
349.43	225.89
349.81	225.95
350.19	226.02
350.57	226.08
350.96	226.16
351.34	226.23
351.72	226.30
352.10	226.42
352.48	226.48
352.87	226.56
353.25	226.62
353.63	226.71
354.01	226.77
354.39	226.83
354.77	226.89
355.15	227.00
355.54	227.06
355.92	227.09
356.30	227.18
356.68	227.34
357.06	227.41
357.44	227.46
357.82	227.52
358.20	227.55
358.58	227.66
358.97	227.70
359.35	227.81
359.73	227.89
360.11	227.94
360.49	228.00
360.87	228.03
361.25	228.11
361.63	228.17
362.01	228.21
362.39	228.26
362.77	228.36
363.15	228.39
363.53	228.43
363.91	228.44
364.29	228.45
364.67	228.39
365.05	228.41
365.43	228.44
365.81	228.48
366.19	228.54
366.57	228.54
366.95	228.55
367.33	228.52
367.71	228.54
368.09	228.53
368.47	228.53
368.85	228.50
369.23	228.53
369.61	228.44
369.99	228.45
370.37	228.44
370.75	228.41
371.13	228.37
371.51	228.31
371.89	228.31
372.27	228.27
372.65	228.21
373.03	228.13
373.41	228.09
373.78	228.03
374.16	227.96
374.54	227.84
374.92	227.79
375.30	227.72
375.68	227.65
376.06	227.63
376.44	227.56
376.82	227.53
377.19	227.42
377.57	227.41
377.95	227.30
378.33	227.22
378.71	227.11
379.09	227.04
379.47	226.99
379.84	226.88
380.22	226.80
380.60	226.74
380.98	226.71
381.36	226.61
381.73	226.48
382.11	226.42
382.49	226.39
382.87	226.30
383.25	226.28
383.62	226.28
384.00	226.16
384.38	226.10
384.76	226.05
385.13	226.05
385.51	225.99
385.89	225.96
386.27	225.90
386.64	225.88
387.02	225.86
387.40	225.81
387.78	225.76
388.15	225.73
388.53	225.70
388.91	225.64
389.29	225.64
389.66	225.68
390.04	225.63
390.42	225.61
390.79	225.58
391.17	225.53
391.55	225.44
391.92	225.42
392.30	225.46
392.68	225.43
393.05	225.40
393.43	225.40
393.81	225.38
394.18	225.39
394.56	225.38
394.94	225.42
395.31	225.44
395.69	225.51
396.06	225.57
396.44	225.59
396.82	225.62
397.19	225.65
397.57	225.66
397.95	225.70
398.32	225.74
398.70	225.80
399.07	225.88
399.45	225.93
399.82	226.02
400.20	226.01
400.58	226.04
400.95	226.07
401.33	226.14
401.70	226.30
402.08	226.38
402.45	226.48
402.83	226.60
403.20	226.67
403.58	226.78
403.95	226.89
404.33	227.02
404.71	227.13
405.08	227.31
405.46	227.45
405.83	227.60
406.21	227.73
406.58	227.88
406.96	228.02
407.33	228.18
407.70	228.35
408.08	228.67
408.45	228.93
408.83	229.16
409.20	229.39
409.58	229.56
409.95	229.84
410.33	230.10
410.70	230.31
411.08	230.63
411.45	230.91
411.82	231.19
412.20	231.54
412.57	231.93
412.95	232.23
413.32	232.64
413.69	233.03
414.07	233.48
414.44	233.95
414.82	234.43
415.19	234.96
415.56	235.50
415.94	235.99
416.31	236.58
416.68	237.20
417.06	237.90
417.43	238.57
417.81	239.30
418.18	240.07
418.55	240.87
418.93	241.71
419.30	242.58
419.67	243.54
420.04	244.54
420.42	245.54
420.79	246.72
421.16	247.85
421.54	249.00
421.91	250.17
422.28	251.42
422.66	252.75
423.03	254.07
423.40	255.41
423.77	256.82
424.15	258.27
424.52	259.75
424.89	261.35
425.26	262.88
425.64	264.32
426.01	265.87
426.38	267.52
426.75	269.20
427.13	270.91
427.50	272.67
427.87	274.49
428.24	276.33
428.61	278.05
428.99	280.03
429.36	282.13
429.73	284.21
430.10	286.20
430.47	288.23
430.85	290.35
431.22	292.57
431.59	294.94
431.96	297.17
432.33	299.66
432.70	302.00
433.08	304.80
433.45	307.43
433.82	310.06
434.19	312.94
434.56	315.72
434.93	318.37
435.30	320.95
435.68	323.79
436.05	326.58
436.42	329.34
436.79	331.80
437.16	334.53
437.53	337.31
437.90	340.10
438.27	342.84
438.64	345.65
439.01	348.21
439.38	350.41
439.75	352.55
440.13	354.99
440.50	357.31
440.87	359.14
441.24	361.07
441.61	363.22
441.98	364.70
442.35	366.46
442.72	368.29
443.09	370.13
443.46	371.13
443.83	371.71
444.20	372.23
444.57	373.08
444.94	373.35
445.31	373.71
445.68	374.09
446.05	374.16
446.42	373.76
446.79	373.36
447.16	372.95
447.53	372.68
447.90	371.57
448.27	370.42
448.64	368.90
449.01	367.77
449.37	365.80
449.74	363.92
450.11	361.74
450.48	359.32
450.85	356.80
451.22	354.68
451.59	352.71
451.96	350.79
452.33	348.19
452.70	345.83
453.07	343.00
453.43	340.10
453.80	337.34
454.17	334.67
454.54	332.16
454.91	329.47
455.28	326.78
455.65	324.28
456.02	321.88
456.38	319.70
456.75	317.04
457.12	314.85
457.49	312.69
457.86	310.52
458.23	308.69
458.59	306.65
458.96	304.59
459.33	302.76
459.70	300.90
460.07	299.43
460.43	297.74
460.80	296.16
461.17	294.76
461.54	293.27
461.91	291.87
462.27	290.42
462.64	289.16
463.01	287.81
463.38	286.54
463.74	285.20
464.11	284.07
464.48	283.08
464.85	281.95
465.21	281.06
465.58	280.13
465.95	279.03
466.32	278.13
466.68	277.25
467.05	276.36
467.42	275.50
467.78	274.58
468.15	273.75
468.52	273.12
468.88	272.28
469.25	271.54
469.62	270.94
469.98	270.27
470.35	269.64
470.72	269.07
471.08	268.45
471.45	267.93
471.82	267.40
472.18	266.78
472.55	266.33
472.92	265.79
473.28	265.36
473.65	264.92
474.02	264.49
474.38	264.14
474.75	263.79
475.11	263.45
475.48	263.16
475.85	262.90
476.21	262.64
476.58	262.45
476.94	262.33
477.31	262.18
477.67	262.06
478.04	261.96
478.41	261.91
478.77	261.94
479.14	261.84
479.50	261.88
479.87	261.98
480.23	262.08
480.60	262.15
480.96	262.26
481.33	262.46
481.69	262.67
482.06	262.86
482.42	263.09
482.79	263.35
483.15	263.70
483.52	264.10
483.88	264.46
484.25	264.87
484.61	265.28
484.98	265.71
485.34	266.27
485.71	266.86
486.07	267.48
486.44	268.07
486.80	268.81
487.17	269.51
487.53	270.35
487.90	271.18
488.26	272.15
488.62	273.13
488.99	274.13
489.35	275.20
489.72	276.34
490.08	277.55
490.44	278.80
490.81	280.11
491.17	281.49
491.54	283.00
491.90	284.54
492.26	286.21
492.63	287.94
492.99	289.76
493.36	291.66
493.72	293.71
494.08	295.83
494.45	298.07
494.81	300.44
495.17	302.83
495.54	305.42
495.90	308.11
496.26	310.95
496.63	313.89
496.99	316.99
497.35	320.25
497.72	323.68
498.08	327.21
498.44	330.96
498.80	334.87
499.17	338.91
499.53	343.10
499.89	347.48
500.26	351.99
500.62	356.65
500.98	361.65
501.34	366.72
501.71	372.05
502.07	377.53
502.43	383.13
502.79	389.01
503.16	395.08
503.52	401.40
503.88	407.74
504.24	414.43
504.60	421.32
504.97	428.43
505.33	435.70
505.69	443.38
506.05	451.10
506.41	458.98
506.78	467.09
507.14	475.52
507.50	484.18
507.86	493.23
508.22	502.40
508.59	511.61
508.95	521.22
509.31	531.01
509.67	541.11
510.03	551.45
510.39	562.00
510.75	572.75
511.12	583.64
511.48	594.98
511.84	606.42
512.20	617.94
512.56	629.89
512.92	642.12
513.28	654.55
513.64	666.97
514.00	679.70
514.37	692.62
514.73	705.64
515.09	718.70
515.45	731.95
515.81	745.48
516.17	759.34
516.53	773.36
516.89	787.48
517.25	801.55
517.61	815.89
517.97	830.27
518.33	844.62
518.69	859.25
519.05	874.09
519.41	889.19
519.77	904.64
520.13	920.05
520.49	935.31
520.85	950.57
521.21	966.17
521.57	982.26
521.93	997.94
522.29	1014.21
522.65	1030.41
523.01	1046.46
523.37	1062.45
523.73	1078.55
524.09	1094.45
524.45	1110.61
524.81	1127.16
525.17	1143.74
525.53	1160.35
525.89	1177.08
526.25	1193.79
526.61	1210.15
526.97	1226.64
527.33	1243.13
527.68	1259.50
528.04	1275.82
528.40	1292.21
528.76	1309.22
529.12	1325.63
529.48	1342.33
529.84	1358.19
530.20	1374.67
530.56	1391.44
530.91	1408.64
531.27	1425.40
531.63	1441.87
531.99	1458.22
532.35	1474.15
532.71	1489.97
533.07	1506.29
533.42	1522.14
533.78	1538.21
534.14	1554.19
534.50	1569.51
534.86	1585.15
535.21	1600.31
535.57	1616.20
535.93	1631.57
536.29	1646.14
536.65	1661.09
537.00	1675.72
537.36	1690.99
537.72	1705.25
538.08	1719.72
538.44	1733.32
538.79	1746.90
539.15	1760.14
539.51	1773.85
539.87	1787.94
540.22	1801.53
540.58	1814.99
540.94	1828.07
541.29	1840.62
541.65	1853.22
542.01	1866.28
542.37	1878.48
542.72	1890.75
543.08	1902.32
543.44	1914.53
543.79	1925.82
544.15	1936.51
544.51	1948.01
544.87	1958.75
545.22	1969.45
545.58	1979.62
545.94	1989.38
546.29	1999.16
546.65	2009.32
547.01	2018.56
547.36	2027.19
547.72	2035.60
548.07	2043.59
548.43	2051.68
548.79	2059.48
549.14	2067.09
549.50	2074.28
549.86	2081.63
550.21	2088.86
550.57	2096.11
550.92	2102.70
551.28	2109.72
551.64	2116.75
551.99	2123.18
552.35	2129.39
552.70	2135.54
553.06	2141.29
553.41	2147.58
553.77	2153.44
554.13	2159.32
554.48	2165.38
554.84	2170.99
555.19	2176.22
555.55	2181.17
555.90	2185.69
556.26	2190.90
556.61	2195.57
556.97	2199.97
557.32	2204.26
557.68	2208.36
558.03	2212.55
558.39	2216.22
558.74	2220.63
559.10	2224.64
559.45	2228.30
559.81	2232.45
560.16	2236.31
560.52	2239.74
560.87	2243.06
561.23	2245.90
561.58	2248.59
561.94	2250.95
562.29	2253.10
562.64	2255.92
563.00	2258.54
563.35	2262.07
563.71	2265.05
564.06	2268.13
564.42	2271.04
564.77	2273.68
565.12	2276.10
565.48	2278.04
565.83	2279.93
566.19	2281.59
566.54	2282.47
566.89	2283.66
567.25	2284.42
567.60	2285.53
567.96	2287.38
568.31	2288.31
568.66	2289.34
569.02	2290.18
569.37	2290.69
569.72	2291.67
570.08	2291.88
570.43	2291.99
570.78	2291.43
571.14	2289.93
571.49	2288.66
571.84	2288.35
572.20	2287.25
572.55	2286.19
572.90	2284.64
573.26	2283.48
573.61	2281.52
573.96	2280.11
574.31	2277.32
574.67	2274.32
575.02	2270.86
575.37	2267.24
575.72	2263.45
576.08	2260.07
576.43	2256.69
576.78	2253.22
577.13	2250.06
577.49	2246.80
577.84	2243.44
578.19	2239.83
578.54	2236.46
578.90	2232.48
579.25	2227.09
579.60	2222.18
579.95	2217.40
580.30	2212.49
580.66	2207.24
581.01	2202.26
581.36	2197.14
581.71	2193.05
582.06	2188.85
582.42	2184.61
582.77	2179.49
583.12	2175.17
583.47	2170.86
583.82	2166.09
584.17	2160.78
584.53	2155.43
584.88	2149.83
585.23	2144.26
585.58	2138.82
585.93	2133.14
586.28	2128.15
586.63	2123.10
586.98	2118.03
587.34	2113.20
587.69	2108.35
588.04	2103.38
588.39	2098.04
588.74	2091.66
589.09	2085.45
589.44	2078.54
589.79	2072.35
590.14	2066.67
590.49	2060.07
590.84	2053.52
591.19	2047.63
591.54	2041.28
591.89	2034.06
592.25	2027.61
592.60	2020.38
592.95	2013.02
593.30	2005.89
593.65	1998.38
594.00	1991.28
594.35	1984.17
594.70	1976.05
595.05	1969.05
595.40	1961.68
595.75	1954.18
596.10	1948.23
596.45	1941.72
596.80	1935.68
597.15	1929.27
597.50	1922.63
597.85	1916.15
598.19	1909.67
598.54	1902.79
598.89	1896.13
599.24	1890.16
599.59	1883.62
599.94	1877.38
600.29	1870.97
600.64	1864.28
600.99	1857.05
601.34	1850.35
601.69	1843.30
602.04	1836.71
602.39	1829.32
602.74	1822.59
603.08	1815.98
603.43	1809.16
603.78	1801.94
604.13	1794.81
604.48	1787.70
604.83	1780.73
605.18	1774.08
605.53	1766.24
605.87	1758.14
606.22	1750.94
606.57	1743.04
606.92	1735.53
607.27	1728.50
607.62	1721.83
607.96	1714.83
608.31	1708.47
608.66	1700.94
609.01	1693.64
609.36	1686.18
609.70	1678.20
610.05	1670.15
610.40	1662.50
610.75	1654.33
611.10	1646.60
611.44	1638.26
611.79	1630.14
612.14	1621.50
612.49	1612.34
612.83	1603.75
613.18	1595.56
613.53	1587.55
613.88	1579.10
614.22	1570.86
614.57	1562.20
614.92	1553.99
615.27	1546.57
615.61	1538.20
615.96	1530.12
616.31	1522.32
616.65	1514.91
617.00	1507.40
617.35	1499.68
617.70	1491.37
618.04	1482.94
618.39	1474.67
618.74	1467.13
619.08	1458.89
619.43	1451.33
619.78	1444.35
620.12	1437.34
620.47	1429.83
620.82	1421.68
621.16	1414.17
621.51	1406.51
621.85	1398.85
622.20	1390.38
622.55	1381.97
622.89	1374.09
623.24	1366.54
623.59	1359.30
623.93	1351.73
624.28	1344.37
624.62	1337.03
624.97	1329.77
625.32	1322.82
625.66	1315.83
626.01	1308.63
626.35	1301.37
626.70	1293.61
627.04	1285.96
627.39	1278.19
627.73	1270.88
628.08	1263.99
628.43	1256.92
628.77	1249.71
629.12	1242.24
629.46	1235.18
629.81	1227.63
630.15	1220.34
630.50	1212.93
630.84	1204.77
631.19	1196.77
631.53	1189.36
631.88	1181.67
632.22	1174.07
632.57	1166.74
632.91	1159.17
633.26	1151.74
633.60	1144.25
633.95	1137.05
634.29	1129.83
634.64	1123.09
634.98	1115.74
635.32	1108.55
635.67	1101.74
636.01	1095.05
636.36	1088.36
636.70	1081.75
637.05	1075.19
637.39	1068.81
637.73	1062.35
638.08	1056.27
638.42	1050.34
638.77	1043.85
639.11	1037.43
639.45	1031.12
639.80	1024.54
640.14	1018.19
640.49	1011.61
640.83	1005.31
641.17	999.16
641.52	993.04
641.86	986.58
642.20	980.63
642.55	974.26
642.89	967.97
643.23	961.40
643.58	955.59
643.92	949.54
644.26	943.65
644.61	937.56
644.95	931.54
645.29	925.16
645.64	918.48
645.98	912.22
646.32	906.16
646.66	900.11
647.01	894.31
647.35	888.68
647.69	882.83
648.04	877.28
648.38	871.56
648.72	865.61
649.06	859.62
649.41	853.79
649.75	847.98
650.09	842.00
650.43	836.23
650.78	830.07
651.12	824.02
651.46	818.21
651.80	812.58
652.14	807.25
652.49	801.86
652.83	796.69
653.17	791.13
653.51	785.60
653.85	780.12
654.20	774.56
654.54	768.47
654.88	762.76
655.22	756.89
655.56	751.11
655.90	745.51
656.25	740.23
656.59	734.94
656.93	729.84
657.27	724.62
657.61	719.25
657.95	714.10
658.29	709.03
658.64	703.67
658.98	698.28
659.32	692.66
659.66	687.43
660.00	682.15
660.34	677.12
660.68	672.18
661.02	667.24
661.36	662.52
661.70	658.11
662.05	653.83
662.39	649.58
662.73	645.16
663.07	640.83
663.41	636.46
663.75	631.94
664.09	627.35
664.43	623.01
664.77	618.92
665.11	614.78
665.45	610.65
665.79	606.67
666.13	602.67
666.47	598.66
666.81	594.52
667.15	590.31
667.49	586.35
667.83	582.39
668.17	578.43
668.51	574.35
668.85	570.25
669.19	566.31
669.53	562.45
669.87	558.62
670.21	554.86
670.55	551.17
670.89	547.72
671.23	544.30
671.57	540.79
671.91	537.23
672.25	533.65
672.58	530.10
672.92	526.71
673.26	523.50
673.60	520.31
673.94	517.19
674.28	514.28
674.62	511.40
674.96	508.36
675.30	505.47
675.64	502.60
675.97	499.85
676.31	497.00
676.65	494.01
676.99	491.29
677.33	488.43
677.67	485.62
678.01	482.61
678.34	479.65
678.68	476.71
679.02	473.89
679.36	471.12
679.70	468.38
680.04	465.61
680.37	462.71
680.71	459.90
681.05	457.23
681.39	454.54
681.73	451.84
682.06	449.34
682.40	446.74
682.74	444.16
683.08	441.56
683.42	438.93
683.75	436.41
684.09	433.83
684.43	431.40
684.77	428.93
685.10	426.55
685.44	424.19
685.78	421.94
686.12	419.68
686.45	417.34
686.79	415.10
687.13	412.87
687.46	410.65
687.80	408.50
688.14	406.29
688.48	404.25
688.81	402.05
689.15	399.90
689.49	397.74
689.82	395.70
690.16	393.59
690.50	391.62
690.83	389.75
691.17	387.76
691.51	385.85
691.84	384.00
692.18	382.07
692.52	380.15
692.85	378.21
693.19	376.32
693.52	374.53
693.86	372.69
694.20	370.92
694.53	369.17
694.87	367.32
695.21	365.54
695.54	363.67
695.88	361.93
696.21	360.18
696.55	358.53
696.88	356.78
697.22	355.13
697.56	353.48
697.89	351.81
698.23	350.20
698.56	348.57
698.90	347.00
699.23	345.40
699.57	343.83
699.90	342.29
700.24	340.74
700.58	339.24
700.91	337.77
701.25	336.29
701.58	334.93
701.92	333.59
702.25	332.25
702.59	330.90
702.92	329.59
703.26	328.30
703.59	327.01
703.93	325.86
704.26	324.63
704.60	323.38
704.93	322.12
705.26	320.91
705.60	319.72
705.93	318.55
706.27	317.47
706.60	316.40
706.94	315.33
707.27	314.21
707.61	313.11
707.94	312.05
708.27	311.00
708.61	309.89
708.94	308.84
709.28	307.85
709.61	306.89
709.94	305.88
710.28	304.88
710.61	303.85
710.95	302.74
711.28	301.82
711.61	300.82
711.95	299.91
712.28	298.92
712.61	297.98
712.95	297.04
713.28	296.14
713.61	295.24
713.95	294.33
714.28	293.44
714.61	292.63
714.95	291.76
715.28	290.90
715.61	290.05
715.95	289.23
716.28	288.34
716.61	287.47
716.95	286.64
717.28	285.88
717.61	285.12
717.94	284.39
718.28	283.59
718.61	282.89
718.94	282.20
719.27	281.55
719.61	280.85
719.94	280.18
720.27	279.46
720.60	278.78
720.94	278.16
721.27	277.59
721.60	276.94
721.93	276.33
722.27	275.75
722.60	275.20
722.93	274.58
723.26	274.02
723.59	273.50
723.93	272.95
724.26	272.37
724.59	271.83
724.92	271.30
725.25	270.81
725.59	270.30
725.92	269.78
726.25	269.29
726.58	268.82
726.91	268.33
727.24	267.88
727.57	267.42
727.91	266.90
728.24	266.42
728.57	265.94
728.90	265.48
729.23	264.99
729.56	264.57
729.89	264.12
730.22	263.67
730.55	263.18
730.89	262.72
731.22	262.30
731.55	261.85
731.88	261.41
732.21	260.97
732.54	260.54
732.87	260.10
733.20	259.70
733.53	259.30
733.86	258.90
734.19	258.49
734.52	258.09
734.85	257.79
735.18	257.39
735.51	257.02
735.84	256.68
736.17	256.36
736.50	255.96
736.83	255.75
737.16	255.42
737.49	255.11
737.82	254.78
738.15	254.48
738.48	254.14
738.81	253.83
739.14	253.51
739.47	253.23
739.80	252.94
740.13	252.64
740.46	252.32
740.79	252.00
741.12	251.71
741.45	251.41
741.78	251.08
742.11	250.80
742.44	250.49
742.77	250.21
743.10	249.90
743.43	249.63
743.75	249.25
744.08	249.12
744.41	248.85
744.74	248.62
745.07	248.33
745.40	248.11
745.73	247.92
746.06	247.66
746.39	247.37
746.71	247.07
747.04	246.80
747.37	246.57
747.70	246.35
748.03	246.08
748.36	245.88
748.68	245.62
749.01	245.39
749.34	245.19
749.67	244.96
750.00	244.74
750.33	244.57
750.65	244.38
750.98	243.99
751.31	243.74
751.64	243.53
751.97	243.34
752.29	243.07
752.62	242.81
752.95	242.58
753.28	242.38
753.60	242.20
753.93	242.02
754.26	241.82
754.59	241.56
754.91	241.35
755.24	241.15
755.57	240.93
755.90	240.73
756.22	240.52
756.55	240.30
756.88	240.11
757.20	239.87
757.53	239.64
757.86	239.48
758.19	239.33
758.51	239.15
758.84	238.96
759.17	238.80
759.49	238.61
759.82	238.48
760.15	238.31
760.47	238.12
760.80	237.93
761.13	237.76
761.45	237.61
761.78	237.48
762.11	237.29
762.43	237.16
762.76	237.00
763.08	236.84
763.41	236.71
763.74	236.55
764.06	236.38
764.39	236.26
764.71	236.14
765.04	236.00
765.37	235.88
765.69	235.76
766.02	235.66
766.34	235.53
766.67	235.38
767.00	235.31
767.32	235.28
767.65	235.21
767.97	235.13
768.30	235.02
768.62	234.93
768.95	234.83
769.27	234.69
769.60	234.60
769.92	234.51
770.25	234.37
770.57	234.21
770.90	234.11
771.22	233.96
771.55	233.85
771.87	233.74
772.20	233.60
772.52	233.56
772.85	233.57
773.17	233.49
773.50	233.38
773.82	233.27
774.15	233.12
774.47	233.00
774.80	232.86
775.12	232.82
775.45	232.72
775.77	232.64
776.09	232.59
776.42	232.52
776.74	232.47
777.07	232.42
777.39	232.40
777.72	232.34
778.04	232.32
778.36	232.26
778.69	232.19
779.01	232.14
779.33	231.97
779.66	231.81
779.98	231.75
780.31	231.69
780.63	231.66
780.95	231.60
781.28	231.52
781.60	231.48
781.92	231.39
782.25	231.33
782.57	231.28
782.89	231.22
783.22	231.19
783.54	231.11
783.86	231.09
784.19	231.02
784.51	231.02
784.83	230.92
785.16	230.85
785.48	230.83
785.80	230.78
786.12	230.78
786.45	230.74
786.77	230.72
787.09	230.68
