SpectraSuite Data File
++++++++++++++++++++++++++++++++++++
Date: Fri Feb 01 16:36:49 EST 2013
User: group
Dark Spectrum Present: No
Reference Spectrum Present: No
Number of Sampled Component Spectra: 1
Spectrometers: USB2E7196
Integration Time (usec): 35000 (USB2E7196)
Spectra Averaged: 100 (USB2E7196)
Boxcar Smoothing: 10 (USB2E7196)
Correct for Electrical Dark: No (USB2E7196)
Strobe/Lamp Enabled: No (USB2E7196)
Correct for Detector Non-linearity: No (USB2E7196)
Correct for Stray Light: No (USB2E7196)
Number of Pixels in Processed Spectrum: 2048
>>>>>Begin Processed Spectral Data<<<<<
339.09	0.00
339.48	214.14
339.86	215.72
340.24	216.67
340.63	218.08
341.01	221.16
341.39	220.55
341.78	222.18
342.16	223.59
342.54	223.97
342.93	212.40
343.31	223.15
343.69	223.69
344.07	224.17
344.46	224.58
344.84	224.97
345.22	225.18
345.60	225.47
345.99	225.67
346.37	225.78
346.75	225.85
347.13	225.94
347.52	226.00
347.90	226.03
348.28	226.03
348.66	226.07
349.05	226.07
349.43	226.11
349.81	226.14
350.19	226.15
350.57	226.19
350.96	226.25
351.34	226.30
351.72	226.36
352.10	226.42
352.48	226.48
352.87	226.55
353.25	226.63
353.63	226.66
354.01	226.70
354.39	226.77
354.77	226.83
355.15	226.90
355.54	226.92
355.92	226.97
356.30	227.06
356.68	227.21
357.06	227.27
357.44	227.29
357.82	227.34
358.20	227.41
358.58	227.46
358.97	227.50
359.35	227.56
359.73	227.64
360.11	227.67
360.49	227.76
360.87	227.77
361.25	227.81
361.63	227.86
362.01	227.92
362.39	227.91
362.77	227.96
363.15	227.98
363.53	228.03
363.91	228.05
364.29	228.08
364.67	227.98
365.05	227.98
365.43	228.03
365.81	228.05
366.19	228.10
366.57	228.14
366.95	228.14
367.33	228.14
367.71	228.13
368.09	228.17
368.47	228.14
368.85	228.09
369.23	228.09
369.61	228.07
369.99	228.03
370.37	228.06
370.75	228.10
371.13	228.06
371.51	228.01
371.89	227.99
372.27	227.94
372.65	227.92
373.03	227.92
373.41	227.85
373.78	227.79
374.16	227.66
374.54	227.60
374.92	227.52
375.30	227.46
375.68	227.38
376.06	227.31
376.44	227.25
376.82	227.25
377.19	227.17
377.57	227.10
377.95	227.04
378.33	226.95
378.71	226.81
379.09	226.76
379.47	226.75
379.84	226.64
380.22	226.60
380.60	226.52
380.98	226.43
381.36	226.40
381.73	226.32
382.11	226.28
382.49	226.24
382.87	226.18
383.25	226.13
383.62	226.20
384.00	226.10
384.38	226.09
384.76	226.03
385.13	226.01
385.51	225.96
385.89	225.91
386.27	225.85
386.64	225.84
387.02	225.79
387.40	225.73
387.78	225.74
388.15	225.68
388.53	225.65
388.91	225.62
389.29	225.55
389.66	225.56
390.04	225.55
390.42	225.54
390.79	225.53
391.17	225.49
391.55	225.35
391.92	225.40
392.30	225.38
392.68	225.37
393.05	225.37
393.43	225.41
393.81	225.45
394.18	225.49
394.56	225.49
394.94	225.55
395.31	225.55
395.69	225.60
396.06	225.68
396.44	225.69
396.82	225.72
397.19	225.84
397.57	225.88
397.95	225.94
398.32	225.96
398.70	226.04
399.07	226.10
399.45	226.18
399.82	226.22
400.20	226.23
400.58	226.28
400.95	226.30
401.33	226.35
401.70	226.47
402.08	226.55
402.45	226.62
402.83	226.72
403.20	226.82
403.58	226.90
403.95	226.98
404.33	227.11
404.71	227.21
405.08	227.39
405.46	227.52
405.83	227.62
406.21	227.76
406.58	227.94
406.96	228.10
407.33	228.27
407.70	228.46
408.08	228.75
408.45	228.97
408.83	229.22
409.20	229.42
409.58	229.57
409.95	229.81
410.33	230.07
410.70	230.30
411.08	230.60
411.45	230.87
411.82	231.21
412.20	231.55
412.57	231.96
412.95	232.23
413.32	232.60
413.69	233.01
414.07	233.42
414.44	233.84
414.82	234.29
415.19	234.83
415.56	235.41
415.94	235.96
416.31	236.61
416.68	237.22
417.06	237.91
417.43	238.60
417.81	239.40
418.18	240.17
418.55	241.00
418.93	241.85
419.30	242.77
419.67	243.68
420.04	244.63
420.42	245.60
420.79	246.77
421.16	247.92
421.54	249.13
421.91	250.36
422.28	251.65
422.66	252.99
423.03	254.29
423.40	255.59
423.77	256.98
424.15	258.41
424.52	259.91
424.89	261.56
425.26	263.12
425.64	264.53
426.01	266.14
426.38	267.78
426.75	269.46
427.13	271.11
427.50	272.93
427.87	274.78
428.24	276.67
428.61	278.39
428.99	280.33
429.36	282.41
429.73	284.46
430.10	286.43
430.47	288.48
430.85	290.58
431.22	292.76
431.59	295.16
431.96	297.36
432.33	299.82
432.70	302.14
433.08	304.94
433.45	307.57
433.82	310.13
434.19	312.99
434.56	315.81
434.93	318.49
435.30	321.07
435.68	323.99
436.05	326.80
436.42	329.62
436.79	332.09
437.16	334.80
437.53	337.63
437.90	340.43
438.27	343.14
438.64	345.93
439.01	348.54
439.38	350.70
439.75	352.86
440.13	355.36
440.50	357.72
440.87	359.58
441.24	361.49
441.61	363.68
441.98	365.17
442.35	366.92
442.72	368.73
443.09	370.47
443.46	371.46
443.83	372.07
444.20	372.52
444.57	373.39
444.94	373.66
445.31	373.99
445.68	374.39
446.05	374.52
446.42	374.17
446.79	373.79
447.16	373.34
447.53	373.03
447.90	371.87
448.27	370.68
448.64	369.07
449.01	367.94
449.37	366.00
449.74	364.12
450.11	361.91
450.48	359.51
450.85	357.06
451.22	354.95
451.59	352.94
451.96	351.06
452.33	348.49
452.70	346.11
453.07	343.24
453.43	340.34
453.80	337.54
454.17	334.88
454.54	332.31
454.91	329.63
455.28	326.99
455.65	324.50
456.02	322.06
456.38	319.97
456.75	317.32
457.12	315.08
457.49	312.88
457.86	310.72
458.23	308.88
458.59	306.82
458.96	304.69
459.33	302.83
459.70	300.95
460.07	299.46
460.43	297.80
460.80	296.23
461.17	294.79
461.54	293.25
461.91	291.87
462.27	290.49
462.64	289.23
463.01	287.87
463.38	286.59
463.74	285.26
464.11	284.07
464.48	283.07
464.85	281.98
465.21	281.10
465.58	280.20
465.95	279.11
466.32	278.21
466.68	277.35
467.05	276.47
467.42	275.62
467.78	274.68
468.15	273.80
468.52	273.14
468.88	272.26
469.25	271.58
469.62	270.93
469.98	270.21
470.35	269.60
470.72	269.03
471.08	268.38
471.45	267.85
471.82	267.31
472.18	266.72
472.55	266.30
472.92	265.79
473.28	265.32
473.65	264.89
474.02	264.45
474.38	264.06
474.75	263.74
475.11	263.36
475.48	263.09
475.85	262.85
476.21	262.63
476.58	262.47
476.94	262.28
477.31	262.09
477.67	261.99
478.04	261.88
478.41	261.85
478.77	261.92
479.14	261.89
479.50	261.92
479.87	262.02
480.23	262.07
480.60	262.14
480.96	262.25
481.33	262.43
481.69	262.64
482.06	262.85
482.42	263.04
482.79	263.27
483.15	263.61
483.52	264.00
483.88	264.35
484.25	264.71
484.61	265.17
484.98	265.61
485.34	266.14
485.71	266.74
486.07	267.30
486.44	267.83
486.80	268.48
487.17	269.22
487.53	269.99
487.90	270.86
488.26	271.79
488.62	272.76
488.99	273.75
489.35	274.79
489.72	275.94
490.08	277.16
490.44	278.46
490.81	279.79
491.17	281.11
491.54	282.62
491.90	284.18
492.26	285.84
492.63	287.64
492.99	289.43
493.36	291.29
493.72	293.33
494.08	295.47
494.45	297.72
494.81	300.09
495.17	302.53
495.54	305.14
495.90	307.85
496.26	310.68
496.63	313.65
496.99	316.79
497.35	320.00
497.72	323.40
498.08	326.92
498.44	330.61
498.80	334.63
499.17	338.70
499.53	342.93
499.89	347.28
500.26	351.78
500.62	356.47
500.98	361.51
501.34	366.62
501.71	371.92
502.07	377.47
502.43	383.13
502.79	388.96
503.16	394.96
503.52	401.21
503.88	407.57
504.24	414.17
504.60	421.03
504.97	428.24
505.33	435.62
505.69	443.32
506.05	451.18
506.41	459.00
506.78	467.16
507.14	475.51
507.50	484.23
507.86	493.17
508.22	502.36
508.59	511.58
508.95	521.16
509.31	530.99
509.67	541.04
510.03	551.31
510.39	561.87
510.75	572.66
511.12	583.54
511.48	594.80
511.84	606.27
512.20	617.84
512.56	629.76
512.92	641.84
513.28	654.14
513.64	666.56
514.00	679.28
514.37	692.21
514.73	705.28
515.09	718.40
515.45	731.71
515.81	745.22
516.17	759.12
516.53	773.24
516.89	787.38
517.25	801.43
517.61	815.77
517.97	830.17
518.33	844.50
518.69	859.34
519.05	874.21
519.41	889.34
519.77	904.73
520.13	920.15
520.49	935.45
520.85	950.79
521.21	966.42
521.57	982.62
521.93	998.19
522.29	1014.52
522.65	1030.57
523.01	1046.76
523.37	1062.83
523.73	1078.97
524.09	1094.92
524.45	1111.11
524.81	1127.66
525.17	1144.30
525.53	1161.06
525.89	1177.91
526.25	1194.59
526.61	1210.99
526.97	1227.74
527.33	1244.27
527.68	1260.69
528.04	1277.18
528.40	1293.70
528.76	1310.63
529.12	1327.01
529.48	1343.86
529.84	1359.70
530.20	1376.31
530.56	1393.08
530.91	1410.44
531.27	1426.97
531.63	1443.31
531.99	1459.81
532.35	1475.73
532.71	1491.52
533.07	1507.75
533.42	1523.52
533.78	1539.54
534.14	1555.56
534.50	1570.67
534.86	1586.35
535.21	1601.45
535.57	1617.07
535.93	1632.42
536.29	1647.09
536.65	1662.01
537.00	1676.63
537.36	1691.79
537.72	1705.95
538.08	1720.28
538.44	1733.70
538.79	1747.36
539.15	1760.79
539.51	1774.34
539.87	1788.46
540.22	1801.98
540.58	1815.41
540.94	1828.52
541.29	1840.90
541.65	1853.44
542.01	1866.37
542.37	1878.39
542.72	1890.64
543.08	1902.35
543.44	1914.53
543.79	1925.57
544.15	1936.25
544.51	1947.65
544.87	1958.53
545.22	1969.41
545.58	1979.64
545.94	1989.38
546.29	1999.23
546.65	2009.10
547.01	2018.36
547.36	2027.01
547.72	2035.54
548.07	2043.51
548.43	2051.65
548.79	2059.72
549.14	2067.31
549.50	2074.72
549.86	2082.35
550.21	2089.71
550.57	2096.90
550.92	2103.44
551.28	2110.50
551.64	2117.74
551.99	2124.35
552.35	2130.47
552.70	2136.56
553.06	2142.43
553.41	2148.70
553.77	2154.69
554.13	2160.71
554.48	2166.68
554.84	2172.31
555.19	2177.40
555.55	2182.55
555.90	2187.17
556.26	2192.24
556.61	2196.92
556.97	2201.32
557.32	2205.60
557.68	2209.74
558.03	2214.11
558.39	2217.80
558.74	2222.57
559.10	2226.52
559.45	2230.09
559.81	2234.30
560.16	2238.18
560.52	2241.42
560.87	2244.97
561.23	2247.65
561.58	2250.59
561.94	2253.26
562.29	2255.50
562.64	2258.37
563.00	2260.92
563.35	2264.44
563.71	2267.54
564.06	2270.81
564.42	2273.65
564.77	2276.14
565.12	2278.44
565.48	2280.34
565.83	2282.48
566.19	2283.71
566.54	2284.47
566.89	2285.82
567.25	2286.61
567.60	2287.91
567.96	2289.71
568.31	2290.53
568.66	2291.69
569.02	2292.43
569.37	2292.85
569.72	2293.89
570.08	2294.14
570.43	2294.20
570.78	2293.55
571.14	2292.09
571.49	2290.82
571.84	2290.48
572.20	2289.46
572.55	2288.36
572.90	2286.68
573.26	2285.23
573.61	2283.56
573.96	2282.18
574.31	2279.13
574.67	2276.20
575.02	2272.67
575.37	2269.14
575.72	2265.46
576.08	2262.10
576.43	2258.75
576.78	2255.08
577.13	2251.74
577.49	2248.51
577.84	2245.13
578.19	2241.33
578.54	2237.90
578.90	2233.83
579.25	2228.44
579.60	2223.62
579.95	2218.79
580.30	2213.88
580.66	2208.78
581.01	2203.81
581.36	2198.71
581.71	2194.66
582.06	2190.30
582.42	2186.01
582.77	2180.92
583.12	2176.51
583.47	2172.03
583.82	2167.16
584.17	2162.01
584.53	2156.58
584.88	2151.13
585.23	2145.45
585.58	2140.09
585.93	2134.43
586.28	2129.45
586.63	2124.36
586.98	2119.19
587.34	2114.36
587.69	2109.42
588.04	2104.31
588.39	2098.75
588.74	2092.32
589.09	2086.35
589.44	2079.65
589.79	2073.45
590.14	2067.83
590.49	2061.05
590.84	2054.64
591.19	2048.52
591.54	2042.08
591.89	2035.01
592.25	2028.42
592.60	2021.33
592.95	2013.96
593.30	2006.81
593.65	1999.33
594.00	1992.48
594.35	1985.34
594.70	1977.32
595.05	1970.43
595.40	1963.16
595.75	1955.71
596.10	1949.65
596.45	1942.90
596.80	1936.90
597.15	1930.40
597.50	1923.68
597.85	1917.41
598.19	1910.85
598.54	1904.04
598.89	1897.54
599.24	1891.65
599.59	1885.16
599.94	1879.03
600.29	1872.67
600.64	1866.01
600.99	1858.75
601.34	1851.94
601.69	1845.05
602.04	1838.38
602.39	1831.06
602.74	1824.40
603.08	1817.65
603.43	1811.03
603.78	1803.79
604.13	1796.46
604.48	1789.31
604.83	1782.35
605.18	1775.66
605.53	1767.71
605.87	1759.66
606.22	1752.38
606.57	1744.24
606.92	1736.58
607.27	1729.31
607.62	1722.46
607.96	1715.35
608.31	1708.86
608.66	1701.14
609.01	1693.58
609.36	1686.14
609.70	1678.16
610.05	1670.07
610.40	1662.61
610.75	1654.20
611.10	1646.36
611.44	1637.87
611.79	1629.80
612.14	1621.17
612.49	1611.81
612.83	1603.43
613.18	1595.31
613.53	1587.27
613.88	1578.95
614.22	1570.75
614.57	1562.03
614.92	1554.11
615.27	1546.68
615.61	1538.36
615.96	1530.42
616.31	1522.78
616.65	1515.32
617.00	1507.78
617.35	1499.97
617.70	1491.59
618.04	1483.18
618.39	1475.15
618.74	1467.69
619.08	1459.43
619.43	1451.92
619.78	1444.94
620.12	1437.87
620.47	1430.40
620.82	1422.16
621.16	1414.57
621.51	1406.97
621.85	1399.50
622.20	1390.98
622.55	1382.51
622.89	1374.60
623.24	1366.99
623.59	1359.61
623.93	1352.07
624.28	1344.81
624.62	1337.38
624.97	1330.14
625.32	1323.26
625.66	1316.17
626.01	1309.02
626.35	1301.78
626.70	1293.96
627.04	1286.38
627.39	1278.55
627.73	1271.13
628.08	1264.26
628.43	1257.04
628.77	1249.80
629.12	1242.20
629.46	1234.94
629.81	1227.38
630.15	1220.20
630.50	1212.76
630.84	1204.58
631.19	1196.59
631.53	1188.98
631.88	1181.28
632.22	1173.75
632.57	1166.46
632.91	1158.84
633.26	1151.46
633.60	1143.93
633.95	1136.66
634.29	1129.48
634.64	1122.77
634.98	1115.38
635.32	1108.32
635.67	1101.64
636.01	1094.93
636.36	1088.28
636.70	1081.75
637.05	1075.33
637.39	1068.78
637.73	1062.39
638.08	1056.54
638.42	1050.59
638.77	1044.28
639.11	1037.98
639.45	1031.55
639.80	1024.95
640.14	1018.60
640.49	1012.05
640.83	1005.84
641.17	999.74
641.52	993.49
641.86	987.05
642.20	981.25
642.55	974.86
642.89	968.54
643.23	961.98
643.58	956.15
643.92	950.04
644.26	944.06
644.61	938.02
644.95	931.91
645.29	925.28
645.64	918.57
645.98	912.20
646.32	906.21
646.66	900.21
647.01	894.41
647.35	888.75
647.69	882.95
648.04	877.28
648.38	871.52
648.72	865.62
649.06	859.61
649.41	853.66
649.75	847.77
650.09	841.84
650.43	836.15
650.78	830.00
651.12	823.99
651.46	818.22
651.80	812.60
652.14	807.35
652.49	802.10
652.83	796.93
653.17	791.37
653.51	785.73
653.85	780.31
654.20	774.68
654.54	768.65
654.88	762.86
655.22	756.99
655.56	751.27
655.90	745.69
656.25	740.49
656.59	735.18
656.93	730.06
657.27	724.92
657.61	719.50
657.95	714.43
658.29	709.40
658.64	704.16
658.98	698.82
659.32	693.32
659.66	688.13
660.00	682.85
660.34	677.81
660.68	672.86
661.02	667.82
661.36	663.17
661.70	658.74
662.05	654.37
662.39	650.06
662.73	645.58
663.07	641.22
663.41	636.73
663.75	632.31
664.09	627.71
664.43	623.32
664.77	619.16
665.11	614.92
665.45	610.74
665.79	606.66
666.13	602.53
666.47	598.39
666.81	594.15
667.15	590.05
667.49	586.14
667.83	582.22
668.17	578.30
668.51	574.18
668.85	570.07
669.19	566.20
669.53	562.43
669.87	558.62
670.21	554.88
670.55	551.18
670.89	547.65
671.23	544.21
671.57	540.64
671.91	537.18
672.25	533.66
672.58	530.11
672.92	526.68
673.26	523.44
673.60	520.29
673.94	517.22
674.28	514.25
674.62	511.29
674.96	508.19
675.30	505.27
675.64	502.33
675.97	499.54
676.31	496.63
676.65	493.64
676.99	490.94
677.33	488.09
677.67	485.29
678.01	482.32
678.34	479.36
678.68	476.48
679.02	473.59
679.36	470.73
679.70	468.02
680.04	465.21
680.37	462.39
680.71	459.57
681.05	456.93
681.39	454.20
681.73	451.48
682.06	448.96
682.40	446.43
682.74	443.89
683.08	441.31
683.42	438.72
683.75	436.18
684.09	433.59
684.43	431.14
684.77	428.69
685.10	426.32
685.44	424.00
685.78	421.69
686.12	419.40
686.45	417.13
686.79	414.85
687.13	412.68
687.46	410.50
687.80	408.31
688.14	406.08
688.48	404.06
688.81	401.89
689.15	399.79
689.49	397.61
689.82	395.54
690.16	393.45
690.50	391.52
690.83	389.66
691.17	387.64
691.51	385.71
691.84	383.85
692.18	381.96
692.52	379.98
692.85	378.08
693.19	376.24
693.52	374.48
693.86	372.59
694.20	370.83
694.53	369.01
694.87	367.19
695.21	365.38
695.54	363.55
695.88	361.83
696.21	360.08
696.55	358.43
696.88	356.74
697.22	355.09
697.56	353.45
697.89	351.75
698.23	350.16
698.56	348.59
698.90	347.01
699.23	345.35
699.57	343.79
699.90	342.21
700.24	340.67
700.58	339.10
700.91	337.64
701.25	336.15
701.58	334.78
701.92	333.40
702.25	331.99
702.59	330.59
702.92	329.25
703.26	327.94
703.59	326.64
703.93	325.48
704.26	324.26
704.60	322.96
704.93	321.70
705.26	320.48
705.60	319.28
705.93	318.09
706.27	317.06
706.60	316.03
706.94	314.93
707.27	313.72
707.61	312.63
707.94	311.62
708.27	310.56
708.61	309.44
708.94	308.43
709.28	307.44
709.61	306.51
709.94	305.53
710.28	304.49
710.61	303.49
710.95	302.36
711.28	301.41
711.61	300.47
711.95	299.56
712.28	298.59
712.61	297.63
712.95	296.68
713.28	295.76
713.61	294.83
713.95	293.97
714.28	293.18
714.61	292.32
714.95	291.48
715.28	290.62
715.61	289.76
715.95	288.90
716.28	288.06
716.61	287.20
716.95	286.38
717.28	285.66
717.61	284.88
717.94	284.17
718.28	283.38
718.61	282.66
718.94	281.99
719.27	281.34
719.61	280.65
719.94	280.04
720.27	279.33
720.60	278.73
720.94	278.09
721.27	277.49
721.60	276.94
721.93	276.34
722.27	275.81
722.60	275.31
722.93	274.76
723.26	274.25
723.59	273.73
723.93	273.22
724.26	272.66
724.59	272.12
724.92	271.59
725.25	271.09
725.59	270.57
725.92	270.05
726.25	269.53
726.58	269.04
726.91	268.51
727.24	268.05
727.57	267.54
727.91	267.01
728.24	266.55
728.57	266.01
728.90	265.54
729.23	265.04
729.56	264.60
729.89	264.15
730.22	263.68
730.55	263.21
730.89	262.75
731.22	262.32
731.55	261.91
731.88	261.52
732.21	261.10
732.54	260.69
732.87	260.27
733.20	259.90
733.53	259.52
733.86	259.16
734.19	258.76
734.52	258.38
734.85	258.10
735.18	257.71
735.51	257.41
735.84	257.08
736.17	256.73
736.50	256.34
736.83	256.10
737.16	255.76
737.49	255.44
737.82	255.14
738.15	254.84
738.48	254.51
738.81	254.17
739.14	253.85
739.47	253.57
739.80	253.27
740.13	252.94
740.46	252.62
740.79	252.29
741.12	251.99
741.45	251.71
741.78	251.37
742.11	251.11
742.44	250.78
742.77	250.48
743.10	250.19
743.43	249.88
743.75	249.50
744.08	249.35
744.41	249.08
744.74	248.78
745.07	248.45
745.40	248.19
745.73	247.97
746.06	247.69
746.39	247.41
746.71	247.10
747.04	246.84
747.37	246.60
747.70	246.37
748.03	246.10
748.36	245.86
748.68	245.61
749.01	245.32
749.34	245.07
749.67	244.84
750.00	244.59
750.33	244.47
750.65	244.22
750.98	243.85
751.31	243.59
751.64	243.38
751.97	243.23
752.29	243.00
752.62	242.74
752.95	242.53
753.28	242.32
753.60	242.10
753.93	241.94
754.26	241.73
754.59	241.50
754.91	241.30
755.24	241.09
755.57	240.91
755.90	240.74
756.22	240.57
756.55	240.34
756.88	240.12
757.20	239.82
757.53	239.64
757.86	239.48
758.19	239.32
758.51	239.12
758.84	238.91
759.17	238.75
759.49	238.59
759.82	238.47
760.15	238.30
760.47	238.16
760.80	237.97
761.13	237.83
761.45	237.67
761.78	237.54
762.11	237.39
762.43	237.23
762.76	237.06
763.08	236.91
763.41	236.82
763.74	236.73
764.06	236.64
764.39	236.49
764.71	236.34
765.04	236.23
765.37	236.12
765.69	235.97
766.02	235.85
766.34	235.72
766.67	235.55
767.00	235.45
767.32	235.39
767.65	235.34
767.97	235.23
768.30	235.17
768.62	235.06
768.95	234.94
769.27	234.81
769.60	234.76
769.92	234.70
770.25	234.57
770.57	234.46
770.90	234.34
771.22	234.27
771.55	234.20
771.87	234.10
772.20	234.00
772.52	234.01
772.85	234.03
773.17	233.96
773.50	233.88
773.82	233.78
774.15	233.66
774.47	233.51
774.80	233.42
775.12	233.33
775.45	233.24
775.77	233.15
776.09	233.10
776.42	233.02
776.74	232.96
777.07	232.89
777.39	232.82
777.72	232.76
778.04	232.68
778.36	232.61
778.69	232.57
779.01	232.53
779.33	232.39
779.66	232.21
779.98	232.10
780.31	232.05
780.63	232.01
780.95	231.98
781.28	231.90
781.60	231.82
781.92	231.75
782.25	231.67
782.57	231.60
782.89	231.50
783.22	231.40
783.54	231.30
783.86	231.22
784.19	231.15
784.51	231.10
784.83	231.05
785.16	231.00
785.48	230.92
785.80	230.82
786.12	230.76
786.45	230.74
786.77	230.69
787.09	230.63
