SpectraSuite Data File
++++++++++++++++++++++++++++++++++++
Date: Fri Feb 01 15:29:56 EST 2013
User: group
Dark Spectrum Present: No
Reference Spectrum Present: No
Number of Sampled Component Spectra: 1
Spectrometers: USB2E7196
Integration Time (usec): 35000 (USB2E7196)
Spectra Averaged: 100 (USB2E7196)
Boxcar Smoothing: 10 (USB2E7196)
Correct for Electrical Dark: No (USB2E7196)
Strobe/Lamp Enabled: No (USB2E7196)
Correct for Detector Non-linearity: No (USB2E7196)
Correct for Stray Light: No (USB2E7196)
Number of Pixels in Processed Spectrum: 2048
>>>>>Begin Processed Spectral Data<<<<<
339.09	0.00
339.48	215.18
339.86	216.96
340.24	218.04
340.63	219.79
341.01	222.49
341.39	222.31
341.78	223.31
342.16	224.96
342.54	224.70
342.93	213.71
343.31	224.51
343.69	225.06
344.07	225.50
344.46	225.94
344.84	226.29
345.22	226.53
345.60	226.77
345.99	226.98
346.37	227.10
346.75	227.21
347.13	227.25
347.52	227.32
347.90	227.39
348.28	227.43
348.66	227.44
349.05	227.42
349.43	227.46
349.81	227.51
350.19	227.53
350.57	227.55
350.96	227.62
351.34	227.69
351.72	227.79
352.10	227.89
352.48	227.95
352.87	228.04
353.25	228.09
353.63	228.16
354.01	228.25
354.39	228.33
354.77	228.41
355.15	228.51
355.54	228.56
355.92	228.57
356.30	228.62
356.68	228.75
357.06	228.83
357.44	228.88
357.82	228.96
358.20	229.05
358.58	229.10
358.97	229.12
359.35	229.17
359.73	229.22
360.11	229.29
360.49	229.35
360.87	229.35
361.25	229.41
361.63	229.46
362.01	229.44
362.39	229.46
362.77	229.47
363.15	229.47
363.53	229.50
363.91	229.53
364.29	229.55
364.67	229.52
365.05	229.52
365.43	229.54
365.81	229.52
366.19	229.55
366.57	229.56
366.95	229.57
367.33	229.58
367.71	229.55
368.09	229.53
368.47	229.48
368.85	229.46
369.23	229.43
369.61	229.36
369.99	229.39
370.37	229.38
370.75	229.40
371.13	229.35
371.51	229.25
371.89	229.22
372.27	229.15
372.65	229.05
373.03	228.98
373.41	228.94
373.78	228.87
374.16	228.77
374.54	228.69
374.92	228.60
375.30	228.54
375.68	228.46
376.06	228.37
376.44	228.29
376.82	228.24
377.19	228.17
377.57	228.11
377.95	227.97
378.33	227.90
378.71	227.75
379.09	227.72
379.47	227.69
379.84	227.64
380.22	227.59
380.60	227.49
380.98	227.45
381.36	227.38
381.73	227.28
382.11	227.22
382.49	227.17
382.87	227.07
383.25	227.00
383.62	227.05
384.00	227.01
384.38	226.97
384.76	226.93
385.13	226.92
385.51	226.87
385.89	226.81
386.27	226.73
386.64	226.73
387.02	226.63
387.40	226.58
387.78	226.55
388.15	226.54
388.53	226.55
388.91	226.49
389.29	226.43
389.66	226.44
390.04	226.43
390.42	226.43
390.79	226.46
391.17	226.44
391.55	226.34
391.92	226.33
392.30	226.34
392.68	226.31
393.05	226.30
393.43	226.32
393.81	226.33
394.18	226.38
394.56	226.39
394.94	226.42
395.31	226.47
395.69	226.53
396.06	226.56
396.44	226.62
396.82	226.67
397.19	226.79
397.57	226.82
397.95	226.88
398.32	226.91
398.70	226.98
399.07	227.04
399.45	227.13
399.82	227.20
400.20	227.28
400.58	227.40
400.95	227.47
401.33	227.53
401.70	227.73
402.08	227.79
402.45	227.91
402.83	228.07
403.20	228.16
403.58	228.23
403.95	228.35
404.33	228.44
404.71	228.58
405.08	228.73
405.46	228.91
405.83	229.06
406.21	229.20
406.58	229.39
406.96	229.57
407.33	229.71
407.70	229.91
408.08	230.22
408.45	230.44
408.83	230.68
409.20	230.89
409.58	231.04
409.95	231.34
410.33	231.58
410.70	231.84
411.08	232.15
411.45	232.47
411.82	232.77
412.20	233.12
412.57	233.53
412.95	233.84
413.32	234.22
413.69	234.61
414.07	235.03
414.44	235.47
414.82	235.94
415.19	236.50
415.56	237.03
415.94	237.54
416.31	238.13
416.68	238.75
417.06	239.48
417.43	240.18
417.81	240.96
418.18	241.77
418.55	242.58
418.93	243.43
419.30	244.31
419.67	245.26
420.04	246.23
420.42	247.23
420.79	248.42
421.16	249.57
421.54	250.76
421.91	251.97
422.28	253.23
422.66	254.59
423.03	255.92
423.40	257.26
423.77	258.65
424.15	260.09
424.52	261.61
424.89	263.26
425.26	264.81
425.64	266.24
426.01	267.81
426.38	269.53
426.75	271.21
427.13	272.93
427.50	274.74
427.87	276.62
428.24	278.48
428.61	280.21
428.99	282.15
429.36	284.31
429.73	286.39
430.10	288.40
430.47	290.43
430.85	292.52
431.22	294.79
431.59	297.18
431.96	299.43
432.33	301.89
432.70	304.23
433.08	307.10
433.45	309.77
433.82	312.39
434.19	315.23
434.56	318.05
434.93	320.72
435.30	323.36
435.68	326.28
436.05	329.14
436.42	331.94
436.79	334.48
437.16	337.15
437.53	340.00
437.90	342.82
438.27	345.58
438.64	348.41
439.01	351.05
439.38	353.29
439.75	355.44
440.13	357.91
440.50	360.28
440.87	362.09
441.24	364.01
441.61	366.19
441.98	367.72
442.35	369.54
442.72	371.42
443.09	373.24
443.46	374.23
443.83	374.83
444.20	375.35
444.57	376.16
444.94	376.49
445.31	376.82
445.68	377.17
446.05	377.24
446.42	376.84
446.79	376.33
447.16	375.87
447.53	375.57
447.90	374.40
448.27	373.22
448.64	371.62
449.01	370.45
449.37	368.46
449.74	366.54
450.11	364.27
450.48	361.76
450.85	359.19
451.22	357.04
451.59	354.98
451.96	352.99
452.33	350.40
452.70	348.01
453.07	345.19
453.43	342.29
453.80	339.53
454.17	336.84
454.54	334.34
454.91	331.64
455.28	328.98
455.65	326.53
456.02	324.07
456.38	321.90
456.75	319.29
457.12	317.01
457.49	314.79
457.86	312.62
458.23	310.81
458.59	308.77
458.96	306.66
459.33	304.83
459.70	302.99
460.07	301.48
460.43	299.77
460.80	298.13
461.17	296.70
461.54	295.22
461.91	293.83
462.27	292.34
462.64	291.07
463.01	289.70
463.38	288.42
463.74	287.07
464.11	285.88
464.48	284.83
464.85	283.72
465.21	282.84
465.58	281.92
465.95	280.81
466.32	279.89
466.68	279.00
467.05	278.06
467.42	277.14
467.78	276.22
468.15	275.31
468.52	274.66
468.88	273.77
469.25	272.98
469.62	272.34
469.98	271.67
470.35	271.05
470.72	270.44
471.08	269.76
471.45	269.22
471.82	268.69
472.18	268.10
472.55	267.67
472.92	267.11
473.28	266.62
473.65	266.14
474.02	265.70
474.38	265.32
474.75	265.00
475.11	264.66
475.48	264.37
475.85	264.16
476.21	263.91
476.58	263.74
476.94	263.56
477.31	263.38
477.67	263.21
478.04	263.06
478.41	262.99
478.77	263.04
479.14	262.97
479.50	262.95
479.87	263.02
480.23	263.13
480.60	263.21
480.96	263.31
481.33	263.53
481.69	263.74
482.06	263.96
482.42	264.15
482.79	264.42
483.15	264.73
483.52	265.10
483.88	265.45
484.25	265.80
484.61	266.25
484.98	266.72
485.34	267.28
485.71	267.90
486.07	268.51
486.44	269.05
486.80	269.76
487.17	270.49
487.53	271.28
487.90	272.08
488.26	273.07
488.62	274.06
488.99	275.02
489.35	276.03
489.72	277.15
490.08	278.34
490.44	279.60
490.81	280.93
491.17	282.29
491.54	283.80
491.90	285.36
492.26	287.02
492.63	288.76
492.99	290.54
493.36	292.42
493.72	294.49
494.08	296.56
494.45	298.78
494.81	301.17
495.17	303.63
495.54	306.23
495.90	308.88
496.26	311.70
496.63	314.67
496.99	317.79
497.35	321.05
497.72	324.48
498.08	328.00
498.44	331.69
498.80	335.61
499.17	339.64
499.53	343.82
499.89	348.20
500.26	352.72
500.62	357.44
500.98	362.42
501.34	367.44
501.71	372.81
502.07	378.26
502.43	383.88
502.79	389.72
503.16	395.80
503.52	402.08
503.88	408.48
504.24	415.11
504.60	422.04
504.97	429.18
505.33	436.48
505.69	444.17
506.05	451.94
506.41	459.82
506.78	467.92
507.14	476.34
507.50	485.12
507.86	494.12
508.22	503.31
508.59	512.52
508.95	522.17
509.31	531.94
509.67	542.02
510.03	552.33
510.39	562.87
510.75	573.65
511.12	584.56
511.48	595.90
511.84	607.37
512.20	618.88
512.56	630.81
512.92	643.01
513.28	655.36
513.64	667.97
514.00	680.70
514.37	693.78
514.73	706.93
515.09	719.94
515.45	733.23
515.81	746.81
516.17	760.90
516.53	774.99
516.89	789.21
517.25	803.48
517.61	817.93
517.97	832.49
518.33	846.98
518.69	861.69
519.05	876.64
519.41	891.79
519.77	907.37
520.13	922.83
520.49	938.24
520.85	953.70
521.21	969.31
521.57	985.55
521.93	1001.30
522.29	1017.74
522.65	1034.00
523.01	1050.30
523.37	1066.30
523.73	1082.51
524.09	1098.74
524.45	1115.19
524.81	1131.83
525.17	1148.75
525.53	1165.73
525.89	1182.58
526.25	1199.45
526.61	1215.87
526.97	1232.68
527.33	1249.23
527.68	1265.87
528.04	1282.44
528.40	1299.16
528.76	1316.34
529.12	1333.09
529.48	1350.11
529.84	1366.16
530.20	1382.89
530.56	1399.96
530.91	1417.49
531.27	1434.21
531.63	1450.71
531.99	1467.37
532.35	1483.46
532.71	1499.31
533.07	1515.57
533.42	1531.56
533.78	1547.74
534.14	1563.98
534.50	1579.38
534.86	1595.35
535.21	1610.53
535.57	1626.54
535.93	1642.07
536.29	1656.88
536.65	1671.95
537.00	1686.77
537.36	1702.06
537.72	1716.70
538.08	1731.08
538.44	1744.96
538.79	1758.97
539.15	1772.72
539.51	1786.30
539.87	1800.66
540.22	1814.51
540.58	1828.27
540.94	1841.74
541.29	1854.73
541.65	1867.58
542.01	1880.98
542.37	1893.41
542.72	1905.97
543.08	1917.74
543.44	1930.08
543.79	1941.42
544.15	1952.39
544.51	1963.88
544.87	1974.95
545.22	1985.68
545.58	1995.91
545.94	2005.73
546.29	2015.60
546.65	2025.42
547.01	2034.89
547.36	2043.72
547.72	2052.20
548.07	2060.16
548.43	2068.31
548.79	2076.49
549.14	2084.10
549.50	2091.51
549.86	2099.19
550.21	2106.51
550.57	2113.92
550.92	2120.53
551.28	2127.56
551.64	2134.63
551.99	2141.35
552.35	2147.40
552.70	2153.58
553.06	2159.61
553.41	2166.00
553.77	2172.00
554.13	2178.22
554.48	2184.36
554.84	2189.70
555.19	2195.05
555.55	2200.12
555.90	2204.57
556.26	2209.42
556.61	2214.32
556.97	2218.42
557.32	2222.43
557.68	2226.58
558.03	2230.65
558.39	2234.47
558.74	2239.10
559.10	2242.95
559.45	2246.41
559.81	2250.84
560.16	2254.73
560.52	2258.00
560.87	2261.41
561.23	2264.17
561.58	2267.05
561.94	2269.51
562.29	2271.93
562.64	2274.69
563.00	2277.31
563.35	2280.84
563.71	2283.83
564.06	2286.82
564.42	2289.62
564.77	2292.18
565.12	2294.31
565.48	2296.24
565.83	2298.01
566.19	2299.35
566.54	2300.40
566.89	2301.63
567.25	2302.14
567.60	2303.44
567.96	2305.20
568.31	2305.85
568.66	2306.86
569.02	2307.33
569.37	2307.58
569.72	2308.28
570.08	2308.17
570.43	2308.17
570.78	2307.44
571.14	2305.90
571.49	2304.63
571.84	2304.32
572.20	2303.08
572.55	2302.11
572.90	2300.52
573.26	2299.13
573.61	2297.38
573.96	2295.46
574.31	2292.31
574.67	2289.29
575.02	2285.54
575.37	2282.01
575.72	2278.24
576.08	2274.85
576.43	2271.52
576.78	2267.86
577.13	2264.69
577.49	2261.67
577.84	2258.21
578.19	2254.47
578.54	2250.66
578.90	2246.21
579.25	2240.61
579.60	2235.55
579.95	2230.51
580.30	2225.40
580.66	2220.03
581.01	2215.02
581.36	2210.09
581.71	2205.83
582.06	2201.33
582.42	2196.83
582.77	2191.49
583.12	2186.90
583.47	2181.94
583.82	2176.58
584.17	2171.22
584.53	2165.63
584.88	2159.83
585.23	2153.85
585.58	2148.37
585.93	2142.92
586.28	2138.19
586.63	2133.04
586.98	2127.98
587.34	2123.29
587.69	2118.36
588.04	2113.16
588.39	2107.40
588.74	2100.71
589.09	2094.48
589.44	2087.45
589.79	2081.41
590.14	2075.70
590.49	2069.04
590.84	2062.74
591.19	2056.88
591.54	2050.45
591.89	2043.04
592.25	2036.24
592.60	2028.95
592.95	2021.17
593.30	2013.82
593.65	2006.15
594.00	1999.06
594.35	1991.74
594.70	1983.53
595.05	1976.18
595.40	1968.79
595.75	1961.06
596.10	1954.87
596.45	1948.10
596.80	1942.02
597.15	1935.27
597.50	1928.04
597.85	1921.66
598.19	1915.00
598.54	1907.83
598.89	1901.05
599.24	1895.23
599.59	1888.42
599.94	1882.23
600.29	1876.09
600.64	1869.38
600.99	1861.89
601.34	1854.91
601.69	1847.88
602.04	1840.97
602.39	1833.50
602.74	1826.60
603.08	1819.97
603.43	1813.29
603.78	1805.96
604.13	1798.72
604.48	1791.37
604.83	1784.61
605.18	1777.50
605.53	1769.32
605.87	1761.43
606.22	1754.22
606.57	1746.10
606.92	1738.90
607.27	1731.60
607.62	1724.46
607.96	1717.20
608.31	1710.51
608.66	1702.87
609.01	1695.27
609.36	1687.59
609.70	1679.65
610.05	1671.51
610.40	1663.69
610.75	1655.29
611.10	1647.59
611.44	1639.19
611.79	1631.25
612.14	1622.49
612.49	1613.26
612.83	1605.01
613.18	1596.72
613.53	1588.52
613.88	1580.12
614.22	1571.72
614.57	1563.23
614.92	1555.28
615.27	1547.71
615.61	1539.34
615.96	1531.42
616.31	1523.79
616.65	1516.47
617.00	1508.82
617.35	1501.22
617.70	1492.98
618.04	1484.45
618.39	1476.24
618.74	1468.60
619.08	1460.27
619.43	1452.67
619.78	1445.76
620.12	1438.53
620.47	1431.11
620.82	1422.88
621.16	1415.44
621.51	1407.83
621.85	1400.17
622.20	1391.65
622.55	1383.30
622.89	1375.51
623.24	1367.88
623.59	1360.47
623.93	1352.93
624.28	1345.81
624.62	1338.33
624.97	1331.09
625.32	1324.30
625.66	1317.21
626.01	1309.91
626.35	1302.39
626.70	1294.68
627.04	1286.98
627.39	1279.23
627.73	1271.73
628.08	1264.84
628.43	1257.39
628.77	1250.04
629.12	1242.36
629.46	1235.09
629.81	1227.65
630.15	1220.39
630.50	1212.94
630.84	1204.74
631.19	1196.86
631.53	1189.33
631.88	1181.68
632.22	1174.15
632.57	1166.98
632.91	1159.58
633.26	1152.22
633.60	1144.86
633.95	1137.82
634.29	1130.78
634.64	1124.09
634.98	1116.77
635.32	1109.77
635.67	1103.37
636.01	1096.63
636.36	1089.94
636.70	1083.48
637.05	1076.93
637.39	1070.45
637.73	1063.95
638.08	1058.13
638.42	1052.25
638.77	1045.78
639.11	1039.17
639.45	1032.88
639.80	1026.03
640.14	1019.52
640.49	1012.99
640.83	1006.70
641.17	1000.47
641.52	994.17
641.86	987.71
642.20	981.80
642.55	975.44
642.89	968.81
643.23	962.33
643.58	956.41
643.92	950.19
644.26	944.09
644.61	938.17
644.95	932.13
645.29	925.54
645.64	918.70
645.98	912.40
646.32	906.66
646.66	900.53
647.01	894.80
647.35	889.16
647.69	883.36
648.04	877.87
648.38	872.00
648.72	865.91
649.06	859.89
649.41	854.04
649.75	848.02
650.09	842.09
650.43	836.32
650.78	830.20
651.12	824.30
651.46	818.60
651.80	812.73
652.14	807.34
652.49	801.96
652.83	796.73
653.17	790.99
653.51	785.22
653.85	779.88
654.20	774.23
654.54	768.19
654.88	762.44
655.22	756.52
655.56	750.90
655.90	745.45
656.25	740.12
656.59	734.75
656.93	729.62
657.27	724.45
657.61	718.99
657.95	714.00
658.29	708.85
658.64	703.58
658.98	698.32
659.32	692.88
659.66	687.66
660.00	682.36
660.34	677.38
660.68	672.48
661.02	667.39
661.36	662.61
661.70	658.14
662.05	653.78
662.39	649.48
662.73	645.04
663.07	640.68
663.41	636.24
663.75	631.74
664.09	627.29
664.43	622.96
664.77	618.87
665.11	614.53
665.45	610.40
665.79	606.32
666.13	602.15
666.47	598.05
666.81	593.91
667.15	589.81
667.49	585.99
667.83	582.21
668.17	578.32
668.51	574.30
668.85	570.26
669.19	566.43
669.53	562.52
669.87	558.62
670.21	554.98
670.55	551.40
670.89	547.99
671.23	544.50
671.57	540.88
671.91	537.34
672.25	533.90
672.58	530.41
672.92	527.04
673.26	523.92
673.60	520.72
673.94	517.60
674.28	514.67
674.62	511.75
674.96	508.62
675.30	505.71
675.64	502.83
675.97	500.04
676.31	497.20
676.65	494.31
676.99	491.62
677.33	488.75
677.67	485.91
678.01	482.86
678.34	479.88
678.68	477.08
679.02	474.29
679.36	471.60
679.70	468.85
680.04	466.07
680.37	463.21
680.71	460.51
681.05	457.91
681.39	455.29
681.73	452.59
682.06	450.06
682.40	447.50
682.74	444.95
683.08	442.48
683.42	439.86
683.75	437.39
684.09	434.81
684.43	432.29
684.77	429.80
685.10	427.50
685.44	425.22
685.78	422.95
686.12	420.71
686.45	418.38
686.79	416.14
687.13	413.95
687.46	411.83
687.80	409.63
688.14	407.43
688.48	405.32
688.81	403.07
689.15	400.85
689.49	398.73
689.82	396.64
690.16	394.48
690.50	392.55
690.83	390.59
691.17	388.62
691.51	386.76
691.84	384.94
692.18	383.01
692.52	381.03
692.85	379.09
693.19	377.20
693.52	375.35
693.86	373.56
694.20	371.80
694.53	370.00
694.87	368.19
695.21	366.40
695.54	364.59
695.88	362.89
696.21	361.23
696.55	359.55
696.88	357.90
697.22	356.30
697.56	354.70
697.89	353.04
698.23	351.43
698.56	349.82
698.90	348.20
699.23	346.55
699.57	344.99
699.90	343.44
700.24	341.84
700.58	340.30
700.91	338.74
701.25	337.30
701.58	335.90
701.92	334.55
702.25	333.19
702.59	331.80
702.92	330.45
703.26	329.16
703.59	327.87
703.93	326.68
704.26	325.41
704.60	324.11
704.93	322.83
705.26	321.58
705.60	320.43
705.93	319.30
706.27	318.26
706.60	317.20
706.94	316.11
707.27	315.02
707.61	313.97
707.94	312.98
708.27	311.89
708.61	310.81
708.94	309.79
709.28	308.79
709.61	307.83
709.94	306.92
710.28	305.90
710.61	304.90
710.95	303.85
711.28	302.96
711.61	301.98
711.95	301.10
712.28	300.14
712.61	299.13
712.95	298.22
713.28	297.33
713.61	296.45
713.95	295.56
714.28	294.78
714.61	293.93
714.95	293.09
715.28	292.22
715.61	291.33
715.95	290.48
716.28	289.61
716.61	288.83
716.95	288.02
717.28	287.25
717.61	286.49
717.94	285.74
718.28	284.92
718.61	284.22
718.94	283.52
719.27	282.88
719.61	282.24
719.94	281.58
720.27	280.89
720.60	280.22
720.94	279.62
721.27	278.99
721.60	278.44
721.93	277.82
722.27	277.31
722.60	276.79
722.93	276.21
723.26	275.69
723.59	275.09
723.93	274.51
724.26	274.01
724.59	273.45
724.92	272.91
725.25	272.41
725.59	271.89
725.92	271.38
726.25	270.89
726.58	270.38
726.91	269.90
727.24	269.39
727.57	268.94
727.91	268.43
728.24	267.96
728.57	267.44
728.90	267.00
729.23	266.50
729.56	266.07
729.89	265.61
730.22	265.15
730.55	264.72
730.89	264.32
731.22	263.82
731.55	263.37
731.88	262.98
732.21	262.53
732.54	262.10
732.87	261.67
733.20	261.23
733.53	260.84
733.86	260.44
734.19	260.01
734.52	259.61
734.85	259.31
735.18	258.88
735.51	258.52
735.84	258.14
736.17	257.79
736.50	257.38
736.83	257.12
737.16	256.77
737.49	256.43
737.82	256.04
738.15	255.74
738.48	255.45
738.81	255.13
739.14	254.80
739.47	254.49
739.80	254.18
740.13	253.90
740.46	253.57
740.79	253.23
741.12	252.94
741.45	252.65
741.78	252.28
742.11	251.99
742.44	251.66
742.77	251.34
743.10	251.01
743.43	250.74
743.75	250.34
744.08	250.16
744.41	249.86
744.74	249.61
745.07	249.31
745.40	249.05
745.73	248.79
746.06	248.53
746.39	248.25
746.71	248.02
747.04	247.78
747.37	247.52
747.70	247.29
748.03	247.07
748.36	246.85
748.68	246.62
749.01	246.39
749.34	246.18
749.67	245.93
750.00	245.74
750.33	245.55
750.65	245.37
750.98	245.05
751.31	244.85
751.64	244.63
751.97	244.47
752.29	244.22
752.62	244.00
752.95	243.78
753.28	243.58
753.60	243.33
753.93	243.14
754.26	242.95
754.59	242.71
754.91	242.51
755.24	242.30
755.57	242.13
755.90	241.95
756.22	241.77
756.55	241.57
756.88	241.36
757.20	241.13
757.53	240.93
757.86	240.76
758.19	240.58
758.51	240.37
758.84	240.18
759.17	240.04
759.49	239.85
759.82	239.75
760.15	239.61
760.47	239.47
760.80	239.30
761.13	239.15
761.45	239.02
761.78	238.86
762.11	238.67
762.43	238.52
762.76	238.37
763.08	238.22
763.41	238.13
763.74	237.99
764.06	237.85
764.39	237.71
764.71	237.56
765.04	237.43
765.37	237.31
765.69	237.14
766.02	236.98
766.34	236.87
766.67	236.69
767.00	236.60
767.32	236.52
767.65	236.45
767.97	236.31
768.30	236.22
768.62	236.12
768.95	236.02
769.27	235.92
769.60	235.82
769.92	235.71
770.25	235.60
770.57	235.50
770.90	235.39
771.22	235.26
771.55	235.19
771.87	235.12
772.20	235.03
772.52	235.03
772.85	235.06
773.17	234.95
773.50	234.84
773.82	234.71
774.15	234.59
774.47	234.43
774.80	234.39
775.12	234.28
775.45	234.22
775.77	234.15
776.09	234.07
776.42	234.02
776.74	233.97
777.07	233.88
777.39	233.79
777.72	233.72
778.04	233.67
778.36	233.61
778.69	233.56
779.01	233.50
779.33	233.36
779.66	233.19
779.98	233.09
780.31	233.05
780.63	233.04
780.95	232.99
781.28	232.92
781.60	232.84
781.92	232.79
782.25	232.71
782.57	232.67
782.89	232.58
783.22	232.50
783.54	232.39
783.86	232.37
784.19	232.34
784.51	232.33
784.83	232.26
785.16	232.17
785.48	232.13
785.80	232.06
786.12	232.03
786.45	231.99
786.77	231.99
787.09	231.96
