SpectraSuite Data File
++++++++++++++++++++++++++++++++++++
Date: Fri Feb 01 16:41:46 EST 2013
User: group
Dark Spectrum Present: No
Reference Spectrum Present: No
Number of Sampled Component Spectra: 1
Spectrometers: USB2E7196
Integration Time (usec): 35000 (USB2E7196)
Spectra Averaged: 100 (USB2E7196)
Boxcar Smoothing: 10 (USB2E7196)
Correct for Electrical Dark: No (USB2E7196)
Strobe/Lamp Enabled: No (USB2E7196)
Correct for Detector Non-linearity: No (USB2E7196)
Correct for Stray Light: No (USB2E7196)
Number of Pixels in Processed Spectrum: 2048
>>>>>Begin Processed Spectral Data<<<<<
339.09	0.00
339.48	213.30
339.86	215.36
340.24	216.19
340.63	218.00
341.01	220.52
341.39	220.03
341.78	221.55
342.16	223.35
342.54	223.87
342.93	212.01
343.31	222.71
343.69	223.27
344.07	223.73
344.46	224.16
344.84	224.52
345.22	224.78
345.60	225.05
345.99	225.24
346.37	225.37
346.75	225.49
347.13	225.56
347.52	225.64
347.90	225.71
348.28	225.74
348.66	225.79
349.05	225.78
349.43	225.80
349.81	225.85
350.19	225.92
350.57	225.98
350.96	226.04
351.34	226.15
351.72	226.25
352.10	226.37
352.48	226.45
352.87	226.50
353.25	226.55
353.63	226.62
354.01	226.72
354.39	226.78
354.77	226.86
355.15	226.94
355.54	227.00
355.92	227.03
356.30	227.12
356.68	227.23
357.06	227.28
357.44	227.35
357.82	227.37
358.20	227.42
358.58	227.47
358.97	227.50
359.35	227.53
359.73	227.62
360.11	227.64
360.49	227.68
360.87	227.73
361.25	227.82
361.63	227.89
362.01	227.92
362.39	227.95
362.77	227.96
363.15	227.99
363.53	228.00
363.91	228.05
364.29	228.07
364.67	228.02
365.05	228.03
365.43	228.08
365.81	228.16
366.19	228.18
366.57	228.21
366.95	228.23
367.33	228.23
367.71	228.19
368.09	228.19
368.47	228.19
368.85	228.20
369.23	228.16
369.61	228.12
369.99	228.10
370.37	228.07
370.75	228.08
371.13	227.99
371.51	227.96
371.89	227.89
372.27	227.83
372.65	227.78
373.03	227.75
373.41	227.64
373.78	227.56
374.16	227.51
374.54	227.42
374.92	227.34
375.30	227.29
375.68	227.19
376.06	227.13
376.44	227.04
376.82	226.98
377.19	226.90
377.57	226.80
377.95	226.72
378.33	226.65
378.71	226.53
379.09	226.51
379.47	226.44
379.84	226.37
380.22	226.29
380.60	226.22
380.98	226.14
381.36	226.11
381.73	226.04
382.11	225.99
382.49	225.97
382.87	225.92
383.25	225.85
383.62	225.93
384.00	225.89
384.38	225.86
384.76	225.83
385.13	225.83
385.51	225.79
385.89	225.75
386.27	225.71
386.64	225.70
387.02	225.64
387.40	225.64
387.78	225.63
388.15	225.58
388.53	225.55
388.91	225.55
389.29	225.50
389.66	225.49
390.04	225.47
390.42	225.44
390.79	225.45
391.17	225.44
391.55	225.34
391.92	225.31
392.30	225.29
392.68	225.28
393.05	225.26
393.43	225.29
393.81	225.33
394.18	225.32
394.56	225.34
394.94	225.39
395.31	225.39
395.69	225.41
396.06	225.49
396.44	225.55
396.82	225.56
397.19	225.67
397.57	225.69
397.95	225.74
398.32	225.77
398.70	225.84
399.07	225.93
399.45	226.00
399.82	226.05
400.20	226.11
400.58	226.17
400.95	226.22
401.33	226.28
401.70	226.38
402.08	226.49
402.45	226.55
402.83	226.62
403.20	226.71
403.58	226.79
403.95	226.89
404.33	226.99
404.71	227.10
405.08	227.27
405.46	227.42
405.83	227.57
406.21	227.71
406.58	227.87
406.96	228.01
407.33	228.18
407.70	228.37
408.08	228.61
408.45	228.87
408.83	229.09
409.20	229.32
409.58	229.51
409.95	229.76
410.33	230.04
410.70	230.31
411.08	230.57
411.45	230.88
411.82	231.18
412.20	231.56
412.57	231.97
412.95	232.22
413.32	232.60
413.69	232.99
414.07	233.40
414.44	233.84
414.82	234.31
415.19	234.84
415.56	235.38
415.94	235.92
416.31	236.50
416.68	237.08
417.06	237.76
417.43	238.44
417.81	239.17
418.18	239.93
418.55	240.75
418.93	241.65
419.30	242.53
419.67	243.48
420.04	244.39
420.42	245.34
420.79	246.56
421.16	247.74
421.54	248.91
421.91	250.11
422.28	251.34
422.66	252.66
423.03	253.90
423.40	255.23
423.77	256.61
424.15	258.04
424.52	259.51
424.89	261.12
425.26	262.64
425.64	264.09
426.01	265.65
426.38	267.32
426.75	268.95
427.13	270.68
427.50	272.44
427.87	274.29
428.24	276.14
428.61	277.85
428.99	279.73
429.36	281.83
429.73	283.88
430.10	285.90
430.47	287.92
430.85	290.05
431.22	292.26
431.59	294.66
431.96	296.87
432.33	299.35
432.70	301.67
433.08	304.49
433.45	307.11
433.82	309.70
434.19	312.52
434.56	315.32
434.93	317.96
435.30	320.56
435.68	323.44
436.05	326.30
436.42	329.10
436.79	331.59
437.16	334.24
437.53	337.10
437.90	339.91
438.27	342.61
438.64	345.42
439.01	347.96
439.38	350.15
439.75	352.31
440.13	354.76
440.50	357.13
440.87	358.94
441.24	360.85
441.61	362.97
441.98	364.48
442.35	366.27
442.72	368.10
443.09	369.92
443.46	370.88
443.83	371.43
444.20	371.91
444.57	372.78
444.94	373.11
445.31	373.39
445.68	373.75
446.05	373.87
446.42	373.53
446.79	373.15
447.16	372.74
447.53	372.44
447.90	371.32
448.27	370.23
448.64	368.65
449.01	367.56
449.37	365.66
449.74	363.83
450.11	361.62
450.48	359.19
450.85	356.67
451.22	354.57
451.59	352.59
451.96	350.70
452.33	348.10
452.70	345.76
453.07	342.99
453.43	340.13
453.80	337.38
454.17	334.70
454.54	332.20
454.91	329.49
455.28	326.84
455.65	324.34
456.02	321.88
456.38	319.77
456.75	317.16
457.12	314.88
457.49	312.64
457.86	310.48
458.23	308.63
458.59	306.61
458.96	304.54
459.33	302.71
459.70	300.79
460.07	299.30
460.43	297.61
460.80	295.96
461.17	294.52
461.54	293.02
461.91	291.57
462.27	290.10
462.64	288.89
463.01	287.53
463.38	286.26
463.74	284.92
464.11	283.74
464.48	282.70
464.85	281.61
465.21	280.76
465.58	279.82
465.95	278.72
466.32	277.82
466.68	276.93
467.05	276.07
467.42	275.25
467.78	274.28
468.15	273.40
468.52	272.77
468.88	271.91
469.25	271.13
469.62	270.54
469.98	269.88
470.35	269.23
470.72	268.67
471.08	268.02
471.45	267.50
471.82	266.97
472.18	266.36
472.55	265.95
472.92	265.45
473.28	265.01
473.65	264.59
474.02	264.17
474.38	263.83
474.75	263.47
475.11	263.12
475.48	262.90
475.85	262.68
476.21	262.44
476.58	262.27
476.94	262.18
477.31	262.04
477.67	261.92
478.04	261.82
478.41	261.75
478.77	261.82
479.14	261.69
479.50	261.72
479.87	261.84
480.23	261.94
480.60	262.00
480.96	262.12
481.33	262.31
481.69	262.48
482.06	262.66
482.42	262.86
482.79	263.13
483.15	263.43
483.52	263.80
483.88	264.19
484.25	264.60
484.61	264.98
484.98	265.44
485.34	265.99
485.71	266.61
486.07	267.21
486.44	267.79
486.80	268.53
487.17	269.25
487.53	270.05
487.90	270.88
488.26	271.80
488.62	272.76
488.99	273.74
489.35	274.78
489.72	275.94
490.08	277.15
490.44	278.42
490.81	279.75
491.17	281.10
491.54	282.56
491.90	284.07
492.26	285.77
492.63	287.53
492.99	289.30
493.36	291.17
493.72	293.25
494.08	295.36
494.45	297.65
494.81	300.06
495.17	302.49
495.54	305.07
495.90	307.77
496.26	310.59
496.63	313.54
496.99	316.69
497.35	319.96
497.72	323.39
498.08	326.90
498.44	330.62
498.80	334.57
499.17	338.61
499.53	342.80
499.89	347.16
500.26	351.62
500.62	356.34
500.98	361.32
501.34	366.42
501.71	371.71
502.07	377.10
502.43	382.68
502.79	388.53
503.16	394.57
503.52	400.85
503.88	407.27
504.24	413.92
504.60	420.76
504.97	427.86
505.33	435.17
505.69	442.89
506.05	450.61
506.41	458.43
506.78	466.60
507.14	475.03
507.50	483.72
507.86	492.69
508.22	501.86
508.59	511.08
508.95	520.63
509.31	530.41
509.67	540.53
510.03	550.77
510.39	561.27
510.75	572.07
511.12	582.92
511.48	594.16
511.84	605.56
512.20	617.03
512.56	628.93
512.92	641.02
513.28	653.23
513.64	665.68
514.00	678.40
514.37	691.28
514.73	704.36
515.09	717.28
515.45	730.50
515.81	744.05
516.17	757.97
516.53	771.97
516.89	786.14
517.25	800.24
517.61	814.53
517.97	828.97
518.33	843.26
518.69	857.95
519.05	872.81
519.41	887.90
519.77	903.42
520.13	918.73
520.49	934.18
520.85	949.51
521.21	965.07
521.57	981.14
521.93	996.79
522.29	1012.93
522.65	1029.19
523.01	1045.29
523.37	1061.20
523.73	1077.23
524.09	1093.19
524.45	1109.29
524.81	1125.74
525.17	1142.41
525.53	1159.10
525.89	1175.93
526.25	1192.72
526.61	1209.06
526.97	1225.64
527.33	1241.96
527.68	1258.44
528.04	1274.70
528.40	1291.07
528.76	1308.05
529.12	1324.50
529.48	1341.29
529.84	1357.14
530.20	1373.58
530.56	1390.37
530.91	1407.64
531.27	1424.31
531.63	1440.64
531.99	1457.16
532.35	1473.09
532.71	1488.94
533.07	1505.11
533.42	1520.63
533.78	1536.58
534.14	1552.67
534.50	1567.96
534.86	1583.62
535.21	1598.71
535.57	1614.34
535.93	1629.62
536.29	1644.21
536.65	1659.00
537.00	1673.48
537.36	1688.67
537.72	1702.99
538.08	1717.33
538.44	1730.81
538.79	1744.45
539.15	1757.74
539.51	1771.13
539.87	1785.23
540.22	1798.69
540.58	1812.08
540.94	1825.25
541.29	1837.74
541.65	1850.14
542.01	1863.12
542.37	1875.41
542.72	1887.58
543.08	1899.37
543.44	1911.74
543.79	1922.89
544.15	1933.79
544.51	1945.29
544.87	1956.13
545.22	1966.94
545.58	1976.96
545.94	1986.76
546.29	1996.58
546.65	2006.54
547.01	2015.93
547.36	2024.54
547.72	2033.01
548.07	2041.03
548.43	2049.22
548.79	2057.09
549.14	2064.77
549.50	2071.93
549.86	2079.22
550.21	2086.55
550.57	2093.72
550.92	2100.15
551.28	2107.14
551.64	2114.14
551.99	2120.59
552.35	2126.57
552.70	2132.51
553.06	2138.60
553.41	2144.89
553.77	2150.80
554.13	2156.78
554.48	2162.77
554.84	2168.44
555.19	2173.57
555.55	2178.65
555.90	2183.16
556.26	2188.35
556.61	2192.98
556.97	2197.41
557.32	2201.73
557.68	2205.83
558.03	2210.00
558.39	2213.78
558.74	2218.38
559.10	2222.29
559.45	2225.88
559.81	2230.14
560.16	2233.97
560.52	2237.16
560.87	2240.53
561.23	2243.18
561.58	2246.04
561.94	2248.65
562.29	2250.80
562.64	2253.69
563.00	2256.17
563.35	2259.56
563.71	2262.60
564.06	2265.64
564.42	2268.62
564.77	2271.28
565.12	2273.77
565.48	2275.79
565.83	2277.81
566.19	2279.24
566.54	2280.17
566.89	2281.50
567.25	2282.35
567.60	2283.69
567.96	2285.49
568.31	2286.23
568.66	2287.53
569.02	2288.31
569.37	2288.62
569.72	2289.60
570.08	2289.93
570.43	2290.02
570.78	2289.72
571.14	2288.27
571.49	2287.12
571.84	2286.69
572.20	2285.53
572.55	2284.38
572.90	2282.70
573.26	2281.37
573.61	2279.52
573.96	2278.10
574.31	2275.17
574.67	2272.25
575.02	2268.76
575.37	2265.32
575.72	2261.79
576.08	2258.43
576.43	2255.03
576.78	2251.51
577.13	2248.36
577.49	2245.08
577.84	2241.85
578.19	2238.01
578.54	2234.67
578.90	2230.58
579.25	2225.09
579.60	2220.36
579.95	2215.52
580.30	2210.59
580.66	2205.37
581.01	2200.51
581.36	2195.45
581.71	2191.48
582.06	2187.18
582.42	2182.94
582.77	2177.93
583.12	2173.51
583.47	2168.99
583.82	2164.36
584.17	2159.35
584.53	2153.87
584.88	2148.39
585.23	2142.68
585.58	2137.38
585.93	2131.73
586.28	2126.81
586.63	2122.04
586.98	2116.89
587.34	2112.19
587.69	2107.39
588.04	2102.43
588.39	2096.92
588.74	2090.56
589.09	2084.50
589.44	2077.94
589.79	2071.69
590.14	2066.07
590.49	2059.51
590.84	2052.95
591.19	2046.93
591.54	2040.58
591.89	2033.45
592.25	2026.98
592.60	2019.86
592.95	2012.52
593.30	2005.39
593.65	1997.89
594.00	1990.69
594.35	1983.52
594.70	1975.44
595.05	1968.60
595.40	1961.28
595.75	1953.85
596.10	1947.82
596.45	1941.18
596.80	1934.95
597.15	1928.54
597.50	1921.73
597.85	1915.39
598.19	1908.96
598.54	1902.14
598.89	1895.39
599.24	1889.53
599.59	1882.97
599.94	1876.84
600.29	1870.47
600.64	1863.85
600.99	1856.75
601.34	1850.16
601.69	1843.18
602.04	1836.62
602.39	1829.17
602.74	1822.37
603.08	1815.87
603.43	1809.11
603.78	1801.84
604.13	1794.72
604.48	1787.60
604.83	1780.73
605.18	1774.00
605.53	1766.11
605.87	1757.83
606.22	1750.70
606.57	1742.83
606.92	1735.14
607.27	1727.94
607.62	1721.03
607.96	1713.89
608.31	1707.45
608.66	1699.91
609.01	1692.52
609.36	1684.87
609.70	1676.93
610.05	1669.11
610.40	1661.43
610.75	1653.16
611.10	1645.43
611.44	1636.85
611.79	1628.82
612.14	1620.13
612.49	1610.74
612.83	1602.26
613.18	1594.23
613.53	1586.06
613.88	1577.49
614.22	1569.35
614.57	1560.71
614.92	1552.74
615.27	1545.23
615.61	1536.83
615.96	1528.84
616.31	1521.13
616.65	1513.82
617.00	1506.24
617.35	1498.38
617.70	1490.08
618.04	1481.64
618.39	1473.48
618.74	1466.10
619.08	1457.82
619.43	1450.23
619.78	1443.39
620.12	1436.32
620.47	1428.92
620.82	1420.80
621.16	1413.33
621.51	1405.69
621.85	1398.17
622.20	1389.71
622.55	1381.30
622.89	1373.38
623.24	1365.58
623.59	1358.15
623.93	1350.65
624.28	1343.50
624.62	1336.14
624.97	1329.01
625.32	1322.23
625.66	1315.18
626.01	1307.95
626.35	1300.63
626.70	1292.91
627.04	1285.25
627.39	1277.62
627.73	1270.19
628.08	1263.36
628.43	1256.34
628.77	1249.20
629.12	1241.77
629.46	1234.69
629.81	1227.18
630.15	1220.10
630.50	1212.87
630.84	1204.85
631.19	1196.90
631.53	1189.35
631.88	1181.80
632.22	1174.17
632.57	1166.91
632.91	1159.45
633.26	1152.12
633.60	1144.65
633.95	1137.44
634.29	1130.36
634.64	1123.55
634.98	1116.24
635.32	1109.08
635.67	1102.28
636.01	1095.49
636.36	1088.70
636.70	1082.13
637.05	1075.64
637.39	1069.06
637.73	1062.59
638.08	1056.74
638.42	1050.82
638.77	1044.52
639.11	1037.99
639.45	1031.61
639.80	1024.92
640.14	1018.55
640.49	1012.00
640.83	1005.73
641.17	999.56
641.52	993.29
641.86	986.87
642.20	981.01
642.55	974.66
642.89	968.28
643.23	961.76
643.58	955.96
643.92	949.80
644.26	943.89
644.61	937.89
644.95	931.89
645.29	925.33
645.64	918.54
645.98	912.06
646.32	906.08
646.66	900.06
647.01	894.25
647.35	888.55
647.69	882.63
648.04	876.99
648.38	871.28
648.72	865.36
649.06	859.29
649.41	853.37
649.75	847.41
650.09	841.42
650.43	835.65
650.78	829.53
651.12	823.55
651.46	817.67
651.80	812.03
652.14	806.58
652.49	801.19
652.83	795.98
653.17	790.41
653.51	784.81
653.85	779.40
654.20	773.83
654.54	767.77
654.88	762.09
655.22	756.24
655.56	750.49
655.90	744.95
656.25	739.79
656.59	734.46
656.93	729.41
657.27	724.26
657.61	718.85
657.95	713.68
658.29	708.60
658.64	703.32
658.98	697.87
659.32	692.40
659.66	687.19
660.00	681.93
660.34	676.97
660.68	671.98
661.02	666.95
661.36	662.23
661.70	657.78
662.05	653.46
662.39	649.20
662.73	644.72
663.07	640.34
663.41	635.79
663.75	631.31
664.09	626.73
664.43	622.34
664.77	618.22
665.11	614.04
665.45	609.86
665.79	605.92
666.13	601.90
666.47	597.79
666.81	593.65
667.15	589.49
667.49	585.50
667.83	581.62
668.17	577.64
668.51	573.49
668.85	569.42
669.19	565.52
669.53	561.72
669.87	557.93
670.21	554.24
670.55	550.61
670.89	547.16
671.23	543.77
671.57	540.25
671.91	536.77
672.25	533.19
672.58	529.72
672.92	526.22
673.26	523.00
673.60	519.86
673.94	516.80
674.28	513.92
674.62	510.99
674.96	507.95
675.30	505.09
675.64	502.26
675.97	499.46
676.31	496.59
676.65	493.60
676.99	490.86
677.33	488.00
677.67	485.20
678.01	482.19
678.34	479.19
678.68	476.32
679.02	473.50
679.36	470.76
679.70	468.02
680.04	465.29
680.37	462.45
680.71	459.63
681.05	456.96
681.39	454.22
681.73	451.53
682.06	449.04
682.40	446.50
682.74	443.89
683.08	441.33
683.42	438.76
683.75	436.30
684.09	433.69
684.43	431.21
684.77	428.79
685.10	426.39
685.44	424.07
685.78	421.77
686.12	419.46
686.45	417.15
686.79	414.89
687.13	412.69
687.46	410.54
687.80	408.43
688.14	406.19
688.48	404.14
688.81	401.99
689.15	399.74
689.49	397.59
689.82	395.56
690.16	393.45
690.50	391.51
690.83	389.56
691.17	387.63
691.51	385.71
691.84	383.82
692.18	381.98
692.52	380.06
692.85	378.08
693.19	376.22
693.52	374.40
693.86	372.51
694.20	370.69
694.53	368.89
694.87	367.04
695.21	365.23
695.54	363.42
695.88	361.63
696.21	359.95
696.55	358.23
696.88	356.51
697.22	354.85
697.56	353.18
697.89	351.52
698.23	349.90
698.56	348.28
698.90	346.73
699.23	345.05
699.57	343.48
699.90	341.96
700.24	340.35
700.58	338.81
700.91	337.37
701.25	335.99
701.58	334.58
701.92	333.18
702.25	331.80
702.59	330.47
702.92	329.15
703.26	327.86
703.59	326.57
703.93	325.34
704.26	324.11
704.60	322.82
704.93	321.52
705.26	320.28
705.60	319.10
705.93	317.90
706.27	316.86
706.60	315.79
706.94	314.70
707.27	313.62
707.61	312.53
707.94	311.45
708.27	310.29
708.61	309.24
708.94	308.23
709.28	307.26
709.61	306.25
709.94	305.28
710.28	304.26
710.61	303.32
710.95	302.27
711.28	301.34
711.61	300.40
711.95	299.50
712.28	298.56
712.61	297.59
712.95	296.64
713.28	295.77
713.61	294.90
713.95	294.03
714.28	293.20
714.61	292.34
714.95	291.54
715.28	290.72
715.61	289.82
715.95	288.96
716.28	288.12
716.61	287.25
716.95	286.45
717.28	285.70
717.61	284.94
717.94	284.19
718.28	283.40
718.61	282.66
718.94	281.99
719.27	281.37
719.61	280.72
719.94	280.07
720.27	279.34
720.60	278.65
720.94	278.04
721.27	277.50
721.60	276.97
721.93	276.38
722.27	275.83
722.60	275.29
722.93	274.74
723.26	274.22
723.59	273.71
723.93	273.17
724.26	272.59
724.59	271.99
724.92	271.48
725.25	271.01
725.59	270.52
725.92	270.03
726.25	269.47
726.58	268.96
726.91	268.50
727.24	268.05
727.57	267.59
727.91	267.04
728.24	266.52
728.57	265.96
728.90	265.50
729.23	265.02
729.56	264.60
729.89	264.12
730.22	263.64
730.55	263.17
730.89	262.69
731.22	262.26
731.55	261.86
731.88	261.44
732.21	261.03
732.54	260.60
732.87	260.15
733.20	259.76
733.53	259.39
733.86	258.98
734.19	258.57
734.52	258.19
734.85	257.89
735.18	257.47
735.51	257.15
735.84	256.77
736.17	256.42
736.50	256.01
736.83	255.81
737.16	255.46
737.49	255.16
737.82	254.82
738.15	254.51
738.48	254.17
738.81	253.82
739.14	253.46
739.47	253.14
739.80	252.85
740.13	252.53
740.46	252.20
740.79	251.88
741.12	251.61
741.45	251.29
741.78	250.94
742.11	250.68
742.44	250.32
742.77	250.03
743.10	249.75
743.43	249.47
743.75	249.08
744.08	248.96
744.41	248.68
744.74	248.46
745.07	248.16
745.40	247.93
745.73	247.71
746.06	247.43
746.39	247.17
746.71	246.87
747.04	246.62
747.37	246.37
747.70	246.13
748.03	245.88
748.36	245.66
748.68	245.41
749.01	245.16
749.34	244.96
749.67	244.74
750.00	244.53
750.33	244.36
750.65	244.16
750.98	243.84
751.31	243.64
751.64	243.40
751.97	243.23
752.29	242.98
752.62	242.74
752.95	242.58
753.28	242.39
753.60	242.20
753.93	241.98
754.26	241.83
754.59	241.60
754.91	241.34
755.24	241.14
755.57	240.96
755.90	240.78
756.22	240.58
756.55	240.35
756.88	240.13
757.20	239.92
757.53	239.67
757.86	239.47
758.19	239.28
758.51	239.15
758.84	238.94
759.17	238.78
759.49	238.62
759.82	238.49
760.15	238.27
760.47	238.11
760.80	237.96
761.13	237.78
761.45	237.65
761.78	237.51
762.11	237.37
762.43	237.24
762.76	237.09
763.08	236.99
763.41	236.88
763.74	236.71
764.06	236.57
764.39	236.44
764.71	236.31
765.04	236.19
765.37	235.98
765.69	235.83
766.02	235.70
766.34	235.57
766.67	235.42
767.00	235.35
767.32	235.29
767.65	235.22
767.97	235.12
768.30	235.02
768.62	234.89
768.95	234.75
769.27	234.62
769.60	234.54
769.92	234.38
770.25	234.26
770.57	234.18
770.90	234.04
771.22	233.94
771.55	233.83
771.87	233.76
772.20	233.70
772.52	233.72
772.85	233.75
773.17	233.67
773.50	233.54
773.82	233.44
774.15	233.30
774.47	233.17
774.80	233.10
775.12	233.03
775.45	232.94
775.77	232.86
776.09	232.77
776.42	232.66
776.74	232.63
777.07	232.54
777.39	232.40
777.72	232.34
778.04	232.27
778.36	232.21
778.69	232.13
779.01	232.06
779.33	231.90
779.66	231.71
779.98	231.63
780.31	231.60
780.63	231.61
780.95	231.58
781.28	231.50
781.60	231.41
781.92	231.29
782.25	231.26
782.57	231.22
782.89	231.22
783.22	231.17
783.54	231.11
783.86	231.10
784.19	231.09
784.51	231.08
784.83	231.05
785.16	231.01
785.48	230.93
785.80	230.91
786.12	230.89
786.45	230.85
786.77	230.83
787.09	230.79
