SpectraSuite Data File
++++++++++++++++++++++++++++++++++++
Date: Fri Feb 01 16:10:01 EST 2013
User: group
Dark Spectrum Present: No
Reference Spectrum Present: No
Number of Sampled Component Spectra: 1
Spectrometers: USB2E7196
Integration Time (usec): 35000 (USB2E7196)
Spectra Averaged: 100 (USB2E7196)
Boxcar Smoothing: 10 (USB2E7196)
Correct for Electrical Dark: No (USB2E7196)
Strobe/Lamp Enabled: No (USB2E7196)
Correct for Detector Non-linearity: No (USB2E7196)
Correct for Stray Light: No (USB2E7196)
Number of Pixels in Processed Spectrum: 2048
>>>>>Begin Processed Spectral Data<<<<<
339.09	0.00
339.48	214.76
339.86	215.94
340.24	217.42
340.63	218.75
341.01	221.14
341.39	221.13
341.78	222.42
342.16	224.05
342.54	224.48
342.93	212.74
343.31	223.48
343.69	224.02
344.07	224.46
344.46	224.86
344.84	225.23
345.22	225.48
345.60	225.71
345.99	225.90
346.37	226.02
346.75	226.12
347.13	226.17
347.52	226.24
347.90	226.33
348.28	226.35
348.66	226.39
349.05	226.38
349.43	226.45
349.81	226.48
350.19	226.54
350.57	226.59
350.96	226.71
351.34	226.80
351.72	226.89
352.10	227.01
352.48	227.09
352.87	227.16
353.25	227.23
353.63	227.31
354.01	227.35
354.39	227.43
354.77	227.48
355.15	227.58
355.54	227.62
355.92	227.64
356.30	227.72
356.68	227.87
357.06	227.94
357.44	227.99
357.82	228.05
358.20	228.14
358.58	228.22
358.97	228.23
359.35	228.30
359.73	228.37
360.11	228.42
360.49	228.50
360.87	228.56
361.25	228.58
361.63	228.66
362.01	228.75
362.39	228.79
362.77	228.84
363.15	228.84
363.53	228.90
363.91	228.96
364.29	229.00
364.67	228.88
365.05	228.89
365.43	228.92
365.81	228.97
366.19	229.01
366.57	229.02
366.95	229.04
367.33	228.99
367.71	228.96
368.09	228.97
368.47	228.94
368.85	228.89
369.23	228.90
369.61	228.86
369.99	228.86
370.37	228.83
370.75	228.87
371.13	228.82
371.51	228.77
371.89	228.70
372.27	228.64
372.65	228.64
373.03	228.59
373.41	228.53
373.78	228.45
374.16	228.32
374.54	228.24
374.92	228.16
375.30	228.12
375.68	228.04
376.06	227.98
376.44	227.88
376.82	227.85
377.19	227.78
377.57	227.67
377.95	227.56
378.33	227.44
378.71	227.31
379.09	227.25
379.47	227.19
379.84	227.10
380.22	227.06
380.60	226.94
380.98	226.85
381.36	226.75
381.73	226.67
382.11	226.64
382.49	226.58
382.87	226.51
383.25	226.43
383.62	226.49
384.00	226.41
384.38	226.34
384.76	226.29
385.13	226.28
385.51	226.25
385.89	226.19
386.27	226.16
386.64	226.12
387.02	226.08
387.40	226.03
387.78	226.02
388.15	225.97
388.53	225.93
388.91	225.92
389.29	225.88
389.66	225.88
390.04	225.81
390.42	225.79
390.79	225.77
391.17	225.76
391.55	225.65
391.92	225.64
392.30	225.67
392.68	225.66
393.05	225.60
393.43	225.60
393.81	225.59
394.18	225.60
394.56	225.61
394.94	225.66
395.31	225.68
395.69	225.71
396.06	225.76
396.44	225.84
396.82	225.85
397.19	226.00
397.57	226.01
397.95	226.12
398.32	226.17
398.70	226.24
399.07	226.30
399.45	226.36
399.82	226.41
400.20	226.48
400.58	226.57
400.95	226.65
401.33	226.78
401.70	226.95
402.08	227.07
402.45	227.17
402.83	227.29
403.20	227.42
403.58	227.52
403.95	227.66
404.33	227.80
404.71	227.94
405.08	228.05
405.46	228.25
405.83	228.36
406.21	228.50
406.58	228.68
406.96	228.87
407.33	229.06
407.70	229.29
408.08	229.55
408.45	229.78
408.83	230.04
409.20	230.24
409.58	230.45
409.95	230.70
410.33	230.98
410.70	231.23
411.08	231.50
411.45	231.85
411.82	232.12
412.20	232.46
412.57	232.89
412.95	233.22
413.32	233.60
413.69	234.01
414.07	234.46
414.44	234.88
414.82	235.35
415.19	235.89
415.56	236.44
415.94	237.02
416.31	237.67
416.68	238.29
417.06	239.01
417.43	239.66
417.81	240.47
418.18	241.24
418.55	242.08
418.93	242.92
419.30	243.77
419.67	244.74
420.04	245.69
420.42	246.69
420.79	247.85
421.16	249.02
421.54	250.22
421.91	251.42
422.28	252.69
422.66	254.03
423.03	255.29
423.40	256.61
423.77	258.01
424.15	259.39
424.52	260.85
424.89	262.42
425.26	263.93
425.64	265.34
426.01	266.94
426.38	268.59
426.75	270.27
427.13	272.01
427.50	273.77
427.87	275.65
428.24	277.47
428.61	279.20
428.99	281.10
429.36	283.18
429.73	285.23
430.10	287.22
430.47	289.26
430.85	291.40
431.22	293.61
431.59	295.95
431.96	298.19
432.33	300.66
432.70	303.05
433.08	305.88
433.45	308.51
433.82	311.05
434.19	313.89
434.56	316.69
434.93	319.31
435.30	321.94
435.68	324.77
436.05	327.62
436.42	330.40
436.79	332.88
437.16	335.57
437.53	338.42
437.90	341.27
438.27	343.99
438.64	346.78
439.01	349.34
439.38	351.60
439.75	353.73
440.13	356.23
440.50	358.55
440.87	360.38
441.24	362.31
441.61	364.48
441.98	365.95
442.35	367.73
442.72	369.59
443.09	371.37
443.46	372.41
443.83	372.99
444.20	373.47
444.57	374.34
444.94	374.62
445.31	374.95
445.68	375.27
446.05	375.37
446.42	375.04
446.79	374.67
447.16	374.18
447.53	373.90
447.90	372.75
448.27	371.60
448.64	370.03
449.01	368.89
449.37	366.91
449.74	365.06
450.11	362.84
450.48	360.35
450.85	357.86
451.22	355.72
451.59	353.74
451.96	351.86
452.33	349.24
452.70	346.88
453.07	344.05
453.43	341.16
453.80	338.43
454.17	335.74
454.54	333.16
454.91	330.48
455.28	327.84
455.65	325.35
456.02	322.89
456.38	320.69
456.75	318.05
457.12	315.83
457.49	313.64
457.86	311.50
458.23	309.67
458.59	307.64
458.96	305.52
459.33	303.65
459.70	301.80
460.07	300.31
460.43	298.62
460.80	297.05
461.17	295.64
461.54	294.12
461.91	292.70
462.27	291.26
462.64	290.00
463.01	288.63
463.38	287.34
463.74	285.98
464.11	284.90
464.48	283.90
464.85	282.82
465.21	281.94
465.58	281.01
465.95	279.92
466.32	278.98
466.68	278.14
467.05	277.23
467.42	276.33
467.78	275.41
468.15	274.53
468.52	273.89
468.88	273.05
469.25	272.29
469.62	271.67
469.98	271.00
470.35	270.34
470.72	269.75
471.08	269.10
471.45	268.60
471.82	268.05
472.18	267.44
472.55	267.01
472.92	266.47
473.28	266.03
473.65	265.60
474.02	265.18
474.38	264.79
474.75	264.47
475.11	264.14
475.48	263.89
475.85	263.64
476.21	263.38
476.58	263.17
476.94	263.02
477.31	262.86
477.67	262.72
478.04	262.67
478.41	262.59
478.77	262.63
479.14	262.52
479.50	262.50
479.87	262.55
480.23	262.62
480.60	262.73
480.96	262.80
481.33	262.97
481.69	263.17
482.06	263.35
482.42	263.51
482.79	263.75
483.15	264.06
483.52	264.44
483.88	264.79
484.25	265.18
484.61	265.59
484.98	266.01
485.34	266.56
485.71	267.14
486.07	267.74
486.44	268.30
486.80	269.02
487.17	269.76
487.53	270.60
487.90	271.45
488.26	272.33
488.62	273.33
488.99	274.30
489.35	275.34
489.72	276.49
490.08	277.74
490.44	278.94
490.81	280.29
491.17	281.66
491.54	283.16
491.90	284.70
492.26	286.40
492.63	288.14
492.99	289.95
493.36	291.80
493.72	293.85
494.08	295.95
494.45	298.24
494.81	300.66
495.17	303.07
495.54	305.67
495.90	308.39
496.26	311.21
496.63	314.25
496.99	317.40
497.35	320.65
497.72	324.08
498.08	327.69
498.44	331.41
498.80	335.33
499.17	339.40
499.53	343.59
499.89	347.98
500.26	352.53
500.62	357.23
500.98	362.23
501.34	367.36
501.71	372.70
502.07	378.15
502.43	383.76
502.79	389.66
503.16	395.70
503.52	401.97
503.88	408.37
504.24	414.93
504.60	421.83
504.97	429.03
505.33	436.33
505.69	444.05
506.05	451.83
506.41	459.71
506.78	467.80
507.14	476.26
507.50	484.90
507.86	493.94
508.22	503.15
508.59	512.37
508.95	521.97
509.31	531.80
509.67	541.94
510.03	552.21
510.39	562.79
510.75	573.61
511.12	584.55
511.48	595.84
511.84	607.33
512.20	618.79
512.56	630.67
512.92	642.84
513.28	655.19
513.64	667.58
514.00	680.35
514.37	693.33
514.73	706.36
515.09	719.45
515.45	732.71
515.81	746.23
516.17	760.20
516.53	774.33
516.89	788.51
517.25	802.62
517.61	817.01
517.97	831.34
518.33	845.74
518.69	860.51
519.05	875.53
519.41	890.60
519.77	906.16
520.13	921.53
520.49	937.00
520.85	952.28
521.21	967.95
521.57	984.10
521.93	999.79
522.29	1016.22
522.65	1032.42
523.01	1048.61
523.37	1064.56
523.73	1080.76
524.09	1096.73
524.45	1113.03
524.81	1129.60
525.17	1146.40
525.53	1163.24
525.89	1180.05
526.25	1196.89
526.61	1213.18
526.97	1229.92
527.33	1246.39
527.68	1263.04
528.04	1279.34
528.40	1295.94
528.76	1313.03
529.12	1329.57
529.48	1346.45
529.84	1362.36
530.20	1379.00
530.56	1395.91
530.91	1413.29
531.27	1429.87
531.63	1446.37
531.99	1462.83
532.35	1478.81
532.71	1494.67
533.07	1510.88
533.42	1526.79
533.78	1542.76
534.14	1559.03
534.50	1574.37
534.86	1590.04
535.21	1605.12
535.57	1620.95
535.93	1636.41
536.29	1651.04
536.65	1666.12
537.00	1680.76
537.36	1696.07
537.72	1710.49
538.08	1724.89
538.44	1738.64
538.79	1752.51
539.15	1766.02
539.51	1779.86
539.87	1794.04
540.22	1807.63
540.58	1821.29
540.94	1834.46
541.29	1847.28
541.65	1859.86
542.01	1873.03
542.37	1885.40
542.72	1897.89
543.08	1909.79
543.44	1922.15
543.79	1933.48
544.15	1944.37
544.51	1956.03
544.87	1966.77
545.22	1977.59
545.58	1987.84
545.94	1997.59
546.29	2007.35
546.65	2017.27
547.01	2026.40
547.36	2035.20
547.72	2043.72
548.07	2051.71
548.43	2059.92
548.79	2067.68
549.14	2075.35
549.50	2082.64
549.86	2090.24
550.21	2097.43
550.57	2104.50
550.92	2111.10
551.28	2118.14
551.64	2125.21
551.99	2131.76
552.35	2138.14
552.70	2144.29
553.06	2150.19
553.41	2156.60
553.77	2162.70
554.13	2168.79
554.48	2174.95
554.84	2180.44
555.19	2185.79
555.55	2190.81
555.90	2195.30
556.26	2200.41
556.61	2205.05
556.97	2209.37
557.32	2213.53
557.68	2217.70
558.03	2222.05
558.39	2225.75
558.74	2230.27
559.10	2234.06
559.45	2237.62
559.81	2241.75
560.16	2245.53
560.52	2248.76
560.87	2252.14
561.23	2254.81
561.58	2257.58
561.94	2260.06
562.29	2262.34
562.64	2264.85
563.00	2267.51
563.35	2270.87
563.71	2274.01
564.06	2277.10
564.42	2280.09
564.77	2282.72
565.12	2285.08
565.48	2286.87
565.83	2288.62
566.19	2290.01
566.54	2290.87
566.89	2291.97
567.25	2292.69
567.60	2293.88
567.96	2295.63
568.31	2296.32
568.66	2297.42
569.02	2298.04
569.37	2298.39
569.72	2299.37
570.08	2299.64
570.43	2299.70
570.78	2299.18
571.14	2297.46
571.49	2296.31
571.84	2295.93
572.20	2294.74
572.55	2293.78
572.90	2292.12
573.26	2290.90
573.61	2289.26
573.96	2287.61
574.31	2284.67
574.67	2281.59
575.02	2278.03
575.37	2274.53
575.72	2270.87
576.08	2267.40
576.43	2264.01
576.78	2260.30
577.13	2256.98
577.49	2253.81
577.84	2250.33
578.19	2246.56
578.54	2243.04
578.90	2238.69
579.25	2233.05
579.60	2228.14
579.95	2223.02
580.30	2218.06
580.66	2212.75
581.01	2207.63
581.36	2202.75
581.71	2198.61
582.06	2194.23
582.42	2189.88
582.77	2184.82
583.12	2180.33
583.47	2175.79
583.82	2170.99
584.17	2165.86
584.53	2160.50
584.88	2154.92
585.23	2149.32
585.58	2143.97
585.93	2138.54
586.28	2133.76
586.63	2128.85
586.98	2123.72
587.34	2119.08
587.69	2114.26
588.04	2109.12
588.39	2103.62
588.74	2097.18
589.09	2091.13
589.44	2084.35
589.79	2078.25
590.14	2072.56
590.49	2066.00
590.84	2059.57
591.19	2053.54
591.54	2047.17
591.89	2039.94
592.25	2033.22
592.60	2025.88
592.95	2018.41
593.30	2011.21
593.65	2003.66
594.00	1996.56
594.35	1989.36
594.70	1981.31
595.05	1974.30
595.40	1967.12
595.75	1959.61
596.10	1953.44
596.45	1946.65
596.80	1940.53
597.15	1934.01
597.50	1927.12
597.85	1920.75
598.19	1914.13
598.54	1907.07
598.89	1900.36
599.24	1894.49
599.59	1887.88
599.94	1881.63
600.29	1875.27
600.64	1868.56
600.99	1861.31
601.34	1854.53
601.69	1847.64
602.04	1840.90
602.39	1833.45
602.74	1826.57
603.08	1819.85
603.43	1813.21
603.78	1805.86
604.13	1798.68
604.48	1791.52
604.83	1784.47
605.18	1777.54
605.53	1769.69
605.87	1761.55
606.22	1754.28
606.57	1746.21
606.92	1738.76
607.27	1731.81
607.62	1724.95
607.96	1717.72
608.31	1711.14
608.66	1703.45
609.01	1695.85
609.36	1688.20
609.70	1680.17
610.05	1672.20
610.40	1664.60
610.75	1656.18
611.10	1648.68
611.44	1640.23
611.79	1632.12
612.14	1623.45
612.49	1614.15
612.83	1605.69
613.18	1597.58
613.53	1589.51
613.88	1580.98
614.22	1572.80
614.57	1564.15
614.92	1556.14
615.27	1548.64
615.61	1540.25
615.96	1532.30
616.31	1524.73
616.65	1517.39
617.00	1509.92
617.35	1502.13
617.70	1493.80
618.04	1485.38
618.39	1477.08
618.74	1469.44
619.08	1461.09
619.43	1453.56
619.78	1446.71
620.12	1439.55
620.47	1432.24
620.82	1423.98
621.16	1416.52
621.51	1408.83
621.85	1401.14
622.20	1392.57
622.55	1384.27
622.89	1376.37
623.24	1368.69
623.59	1361.21
623.93	1353.63
624.28	1346.39
624.62	1338.93
624.97	1331.62
625.32	1324.74
625.66	1317.70
626.01	1310.52
626.35	1303.16
626.70	1295.38
627.04	1287.68
627.39	1279.85
627.73	1272.34
628.08	1265.49
628.43	1258.33
628.77	1251.02
629.12	1243.49
629.46	1236.37
629.81	1228.94
630.15	1221.68
630.50	1214.33
630.84	1206.15
631.19	1198.09
631.53	1190.59
631.88	1183.01
632.22	1175.44
632.57	1168.15
632.91	1160.60
633.26	1153.20
633.60	1145.76
633.95	1138.61
634.29	1131.45
634.64	1124.88
634.98	1117.64
635.32	1110.47
635.67	1103.80
636.01	1097.23
636.36	1090.37
636.70	1083.78
637.05	1077.18
637.39	1070.74
637.73	1064.17
638.08	1058.32
638.42	1052.49
638.77	1045.98
639.11	1039.48
639.45	1033.12
639.80	1026.47
640.14	1020.17
640.49	1013.73
640.83	1007.38
641.17	1001.25
641.52	995.00
641.86	988.48
642.20	982.44
642.55	976.14
642.89	969.70
643.23	962.95
643.58	957.28
643.92	951.13
644.26	945.13
644.61	939.09
644.95	933.08
645.29	926.53
645.64	919.62
645.98	913.27
646.32	907.33
646.66	901.28
647.01	895.48
647.35	889.66
647.69	883.77
648.04	878.29
648.38	872.46
648.72	866.45
649.06	860.33
649.41	854.51
649.75	848.58
650.09	842.59
650.43	836.85
650.78	830.58
651.12	824.58
651.46	818.68
651.80	812.96
652.14	807.53
652.49	802.13
652.83	797.04
653.17	791.40
653.51	785.70
653.85	780.27
654.20	774.60
654.54	768.60
654.88	762.85
655.22	756.96
655.56	751.25
655.90	745.81
656.25	740.58
656.59	735.21
656.93	730.05
657.27	724.83
657.61	719.40
657.95	714.32
658.29	709.21
658.64	704.03
658.98	698.68
659.32	693.27
659.66	688.02
660.00	682.72
660.34	677.74
660.68	672.86
661.02	667.88
661.36	663.20
661.70	658.72
662.05	654.33
662.39	649.99
662.73	645.47
663.07	641.08
663.41	636.64
663.75	632.12
664.09	627.60
664.43	623.25
664.77	619.19
665.11	614.88
665.45	610.80
665.79	606.75
666.13	602.60
666.47	598.44
666.81	594.25
667.15	590.16
667.49	586.25
667.83	582.35
668.17	578.35
668.51	574.28
668.85	570.27
669.19	566.45
669.53	562.64
669.87	558.84
670.21	555.15
670.55	551.50
670.89	548.12
671.23	544.70
671.57	541.18
671.91	537.58
672.25	534.17
672.58	530.65
672.92	527.20
673.26	524.05
673.60	520.93
673.94	517.89
674.28	514.97
674.62	512.02
674.96	508.94
675.30	506.06
675.64	503.13
675.97	500.32
676.31	497.46
676.65	494.53
676.99	491.85
677.33	488.95
677.67	486.16
678.01	483.12
678.34	480.07
678.68	477.17
679.02	474.41
679.36	471.62
679.70	468.89
680.04	466.14
680.37	463.33
680.71	460.53
681.05	457.89
681.39	455.13
681.73	452.43
682.06	449.90
682.40	447.37
682.74	444.81
683.08	442.23
683.42	439.60
683.75	437.09
684.09	434.52
684.43	432.04
684.77	429.59
685.10	427.19
685.44	424.96
685.78	422.72
686.12	420.42
686.45	418.09
686.79	415.75
687.13	413.57
687.46	411.28
687.80	409.14
688.14	406.88
688.48	404.88
688.81	402.72
689.15	400.55
689.49	398.38
689.82	396.32
690.16	394.25
690.50	392.28
690.83	390.31
691.17	388.26
691.51	386.39
691.84	384.50
692.18	382.58
692.52	380.55
692.85	378.61
693.19	376.69
693.52	374.86
693.86	373.06
694.20	371.26
694.53	369.52
694.87	367.62
695.21	365.78
695.54	363.94
695.88	362.13
696.21	360.42
696.55	358.70
696.88	356.95
697.22	355.28
697.56	353.64
697.89	352.02
698.23	350.45
698.56	348.84
698.90	347.28
699.23	345.62
699.57	344.08
699.90	342.50
700.24	340.98
700.58	339.46
700.91	337.95
701.25	336.47
701.58	335.12
701.92	333.79
702.25	332.49
702.59	331.12
702.92	329.83
703.26	328.48
703.59	327.20
703.93	326.01
704.26	324.73
704.60	323.43
704.93	322.16
705.26	320.90
705.60	319.70
705.93	318.53
706.27	317.51
706.60	316.44
706.94	315.36
707.27	314.27
707.61	313.22
707.94	312.20
708.27	311.14
708.61	310.05
708.94	309.04
709.28	308.04
709.61	307.04
709.94	306.10
710.28	305.13
710.61	304.18
710.95	303.16
711.28	302.30
711.61	301.39
711.95	300.51
712.28	299.55
712.61	298.60
712.95	297.68
713.28	296.79
713.61	295.92
713.95	295.09
714.28	294.19
714.61	293.35
714.95	292.52
715.28	291.65
715.61	290.80
715.95	289.94
716.28	289.10
716.61	288.29
716.95	287.45
717.28	286.69
717.61	285.90
717.94	285.16
718.28	284.33
718.61	283.58
718.94	282.89
719.27	282.25
719.61	281.59
719.94	280.94
720.27	280.21
720.60	279.56
720.94	278.93
721.27	278.37
721.60	277.76
721.93	277.17
722.27	276.65
722.60	276.14
722.93	275.59
723.26	275.06
723.59	274.50
723.93	274.00
724.26	273.44
724.59	272.90
724.92	272.37
725.25	271.89
725.59	271.39
725.92	270.90
726.25	270.39
726.58	269.93
726.91	269.42
727.24	268.98
727.57	268.52
727.91	268.00
728.24	267.57
728.57	267.07
728.90	266.63
729.23	266.11
729.56	265.66
729.89	265.19
730.22	264.69
730.55	264.25
730.89	263.80
731.22	263.37
731.55	262.96
731.88	262.54
732.21	262.15
732.54	261.73
732.87	261.26
733.20	260.83
733.53	260.42
733.86	260.03
734.19	259.62
734.52	259.21
734.85	258.89
735.18	258.45
735.51	258.08
735.84	257.70
736.17	257.37
736.50	256.93
736.83	256.69
737.16	256.35
737.49	256.01
737.82	255.63
738.15	255.31
738.48	254.98
738.81	254.61
739.14	254.25
739.47	253.92
739.80	253.60
740.13	253.32
740.46	253.00
740.79	252.68
741.12	252.37
741.45	252.07
741.78	251.74
742.11	251.48
742.44	251.16
742.77	250.87
743.10	250.53
743.43	250.25
743.75	249.86
744.08	249.75
744.41	249.45
744.74	249.23
745.07	248.94
745.40	248.66
745.73	248.45
746.06	248.16
746.39	247.92
746.71	247.66
747.04	247.38
747.37	247.10
747.70	246.84
748.03	246.59
748.36	246.37
748.68	246.12
749.01	245.87
749.34	245.65
749.67	245.41
750.00	245.19
750.33	245.05
750.65	244.84
750.98	244.48
751.31	244.27
751.64	244.05
751.97	243.88
752.29	243.68
752.62	243.44
752.95	243.24
753.28	243.02
753.60	242.83
753.93	242.65
754.26	242.44
754.59	242.26
754.91	242.03
755.24	241.84
755.57	241.68
755.90	241.49
756.22	241.33
756.55	241.13
756.88	240.90
757.20	240.66
757.53	240.47
757.86	240.28
758.19	240.15
758.51	239.99
758.84	239.78
759.17	239.62
759.49	239.48
759.82	239.35
760.15	239.22
760.47	239.09
760.80	238.93
761.13	238.83
761.45	238.66
761.78	238.55
762.11	238.41
762.43	238.24
762.76	238.10
763.08	237.97
763.41	237.83
763.74	237.73
764.06	237.58
764.39	237.45
764.71	237.35
765.04	237.19
765.37	237.05
765.69	236.93
766.02	236.78
766.34	236.64
766.67	236.50
767.00	236.39
767.32	236.29
767.65	236.21
767.97	236.07
768.30	235.97
768.62	235.87
768.95	235.73
769.27	235.64
769.60	235.54
769.92	235.40
770.25	235.29
770.57	235.19
770.90	235.08
771.22	234.99
771.55	234.89
771.87	234.77
772.20	234.64
772.52	234.63
772.85	234.64
773.17	234.56
773.50	234.47
773.82	234.35
774.15	234.22
774.47	234.09
774.80	234.03
775.12	233.94
775.45	233.83
775.77	233.75
776.09	233.64
776.42	233.57
776.74	233.52
777.07	233.46
777.39	233.39
777.72	233.31
778.04	233.22
778.36	233.13
778.69	233.10
779.01	233.05
779.33	232.90
779.66	232.71
779.98	232.63
780.31	232.53
780.63	232.51
780.95	232.47
781.28	232.41
781.60	232.31
781.92	232.22
782.25	232.14
782.57	232.09
782.89	232.01
783.22	231.92
783.54	231.86
783.86	231.79
784.19	231.71
784.51	231.68
784.83	231.62
785.16	231.53
785.48	231.41
785.80	231.35
786.12	231.29
786.45	231.22
786.77	231.18
787.09	231.14
