SpectraSuite Data File
++++++++++++++++++++++++++++++++++++
Date: Fri Feb 01 15:10:40 EST 2013
User: group
Dark Spectrum Present: No
Reference Spectrum Present: No
Number of Sampled Component Spectra: 1
Spectrometers: USB2E7196
Integration Time (usec): 35000 (USB2E7196)
Spectra Averaged: 100 (USB2E7196)
Boxcar Smoothing: 10 (USB2E7196)
Correct for Electrical Dark: No (USB2E7196)
Strobe/Lamp Enabled: No (USB2E7196)
Correct for Detector Non-linearity: No (USB2E7196)
Correct for Stray Light: No (USB2E7196)
Number of Pixels in Processed Spectrum: 2048
>>>>>Begin Processed Spectral Data<<<<<
339.09	0.00
339.48	214.82
339.86	217.06
340.24	218.13
340.63	219.21
341.01	222.08
341.39	221.94
341.78	223.51
342.16	224.43
342.54	224.63
342.93	213.39
343.31	224.18
343.69	224.73
344.07	225.18
344.46	225.61
344.84	225.96
345.22	226.21
345.60	226.46
345.99	226.65
346.37	226.77
346.75	226.88
347.13	226.92
347.52	227.00
347.90	227.10
348.28	227.11
348.66	227.17
349.05	227.13
349.43	227.16
349.81	227.20
350.19	227.26
350.57	227.32
350.96	227.42
351.34	227.49
351.72	227.57
352.10	227.67
352.48	227.73
352.87	227.84
353.25	227.88
353.63	227.94
354.01	228.02
354.39	228.12
354.77	228.22
355.15	228.32
355.54	228.37
355.92	228.40
356.30	228.48
356.68	228.61
357.06	228.69
357.44	228.77
357.82	228.83
358.20	228.89
358.58	228.96
358.97	229.03
359.35	229.10
359.73	229.18
360.11	229.21
360.49	229.27
360.87	229.29
361.25	229.34
361.63	229.38
362.01	229.41
362.39	229.41
362.77	229.40
363.15	229.44
363.53	229.48
363.91	229.49
364.29	229.52
364.67	229.43
365.05	229.44
365.43	229.44
365.81	229.45
366.19	229.47
366.57	229.48
366.95	229.43
367.33	229.41
367.71	229.38
368.09	229.39
368.47	229.36
368.85	229.31
369.23	229.33
369.61	229.30
369.99	229.27
370.37	229.28
370.75	229.30
371.13	229.24
371.51	229.19
371.89	229.19
372.27	229.16
372.65	229.11
373.03	229.03
373.41	228.97
373.78	228.92
374.16	228.82
374.54	228.72
374.92	228.67
375.30	228.63
375.68	228.55
376.06	228.49
376.44	228.41
376.82	228.39
377.19	228.29
377.57	228.22
377.95	228.11
378.33	228.04
378.71	227.92
379.09	227.88
379.47	227.81
379.84	227.70
380.22	227.59
380.60	227.50
380.98	227.46
381.36	227.39
381.73	227.29
382.11	227.24
382.49	227.19
382.87	227.13
383.25	227.02
383.62	227.06
384.00	226.98
384.38	226.95
384.76	226.89
385.13	226.89
385.51	226.80
385.89	226.77
386.27	226.70
386.64	226.68
387.02	226.61
387.40	226.57
387.78	226.53
388.15	226.51
388.53	226.45
388.91	226.38
389.29	226.36
389.66	226.36
390.04	226.35
390.42	226.32
390.79	226.31
391.17	226.30
391.55	226.17
391.92	226.16
392.30	226.12
392.68	226.10
393.05	226.07
393.43	226.10
393.81	226.11
394.18	226.11
394.56	226.11
394.94	226.16
395.31	226.16
395.69	226.19
396.06	226.22
396.44	226.32
396.82	226.37
397.19	226.46
397.57	226.51
397.95	226.58
398.32	226.60
398.70	226.70
399.07	226.80
399.45	226.86
399.82	226.97
400.20	227.09
400.58	227.16
400.95	227.24
401.33	227.36
401.70	227.54
402.08	227.65
402.45	227.75
402.83	227.85
403.20	227.97
403.58	228.11
403.95	228.26
404.33	228.40
404.71	228.55
405.08	228.72
405.46	228.84
405.83	228.98
406.21	229.17
406.58	229.32
406.96	229.50
407.33	229.69
407.70	229.86
408.08	230.12
408.45	230.35
408.83	230.59
409.20	230.82
409.58	231.00
409.95	231.24
410.33	231.54
410.70	231.79
411.08	232.09
411.45	232.40
411.82	232.74
412.20	233.08
412.57	233.50
412.95	233.75
413.32	234.16
413.69	234.58
414.07	235.05
414.44	235.51
414.82	235.99
415.19	236.56
415.56	237.12
415.94	237.65
416.31	238.31
416.68	238.92
417.06	239.62
417.43	240.34
417.81	241.14
418.18	241.91
418.55	242.76
418.93	243.64
419.30	244.55
419.67	245.50
420.04	246.47
420.42	247.46
420.79	248.70
421.16	249.90
421.54	251.10
421.91	252.31
422.28	253.57
422.66	254.92
423.03	256.22
423.40	257.56
423.77	258.94
424.15	260.38
424.52	261.87
424.89	263.47
425.26	264.97
425.64	266.45
426.01	268.03
426.38	269.68
426.75	271.38
427.13	273.09
427.50	274.88
427.87	276.74
428.24	278.58
428.61	280.33
428.99	282.28
429.36	284.36
429.73	286.41
430.10	288.48
430.47	290.50
430.85	292.64
431.22	294.89
431.59	297.32
431.96	299.56
432.33	302.07
432.70	304.46
433.08	307.30
433.45	309.95
433.82	312.58
434.19	315.47
434.56	318.26
434.93	320.94
435.30	323.57
435.68	326.47
436.05	329.34
436.42	332.09
436.79	334.61
437.16	337.32
437.53	340.20
437.90	342.98
438.27	345.74
438.64	348.59
439.01	351.14
439.38	353.40
439.75	355.55
440.13	358.03
440.50	360.38
440.87	362.28
441.24	364.17
441.61	366.31
441.98	367.79
442.35	369.57
442.72	371.38
443.09	373.14
443.46	374.14
443.83	374.71
444.20	375.24
444.57	376.05
444.94	376.35
445.31	376.68
445.68	377.02
446.05	377.12
446.42	376.67
446.79	376.30
447.16	375.85
447.53	375.54
447.90	374.39
448.27	373.24
448.64	371.60
449.01	370.48
449.37	368.51
449.74	366.64
450.11	364.43
450.48	361.99
450.85	359.50
451.22	357.34
451.59	355.33
451.96	353.37
452.33	350.77
452.70	348.38
453.07	345.51
453.43	342.63
453.80	339.84
454.17	337.17
454.54	334.60
454.91	331.86
455.28	329.15
455.65	326.64
456.02	324.15
456.38	321.99
456.75	319.31
457.12	317.05
457.49	314.82
457.86	312.60
458.23	310.74
458.59	308.66
458.96	306.54
459.33	304.69
459.70	302.80
460.07	301.28
460.43	299.57
460.80	297.99
461.17	296.54
461.54	295.02
461.91	293.59
462.27	292.15
462.64	290.88
463.01	289.52
463.38	288.24
463.74	286.89
464.11	285.75
464.48	284.74
464.85	283.63
465.21	282.77
465.58	281.85
465.95	280.72
466.32	279.85
466.68	279.02
467.05	278.09
467.42	277.21
467.78	276.25
468.15	275.38
468.52	274.68
468.88	273.78
469.25	273.01
469.62	272.41
469.98	271.72
470.35	271.13
470.72	270.56
471.08	269.88
471.45	269.33
471.82	268.77
472.18	268.20
472.55	267.74
472.92	267.21
473.28	266.74
473.65	266.35
474.02	265.85
474.38	265.45
474.75	265.17
475.11	264.80
475.48	264.57
475.85	264.34
476.21	264.11
476.58	263.96
476.94	263.80
477.31	263.63
477.67	263.47
478.04	263.31
478.41	263.22
478.77	263.27
479.14	263.20
479.50	263.22
479.87	263.23
480.23	263.33
480.60	263.40
480.96	263.48
481.33	263.67
481.69	263.90
482.06	264.09
482.42	264.23
482.79	264.53
483.15	264.83
483.52	265.19
483.88	265.53
484.25	265.92
484.61	266.35
484.98	266.78
485.34	267.34
485.71	267.90
486.07	268.54
486.44	269.08
486.80	269.80
487.17	270.50
487.53	271.37
487.90	272.18
488.26	273.11
488.62	274.11
488.99	275.06
489.35	276.07
489.72	277.17
490.08	278.36
490.44	279.57
490.81	280.90
491.17	282.25
491.54	283.71
491.90	285.22
492.26	286.85
492.63	288.53
492.99	290.29
493.36	292.16
493.72	294.14
494.08	296.23
494.45	298.41
494.81	300.72
495.17	303.10
495.54	305.66
495.90	308.33
496.26	311.11
496.63	314.04
496.99	317.12
497.35	320.34
497.72	323.76
498.08	327.25
498.44	330.91
498.80	334.78
499.17	338.81
499.53	342.95
499.89	347.30
500.26	351.81
500.62	356.49
500.98	361.51
501.34	366.58
501.71	371.92
502.07	377.38
502.43	382.99
502.79	388.81
503.16	394.84
503.52	401.12
503.88	407.50
504.24	414.10
504.60	421.02
504.97	428.13
505.33	435.42
505.69	443.13
506.05	450.84
506.41	458.71
506.78	466.82
507.14	475.21
507.50	483.91
507.86	492.90
508.22	502.00
508.59	511.12
508.95	520.69
509.31	530.48
509.67	540.57
510.03	550.87
510.39	561.39
510.75	572.21
511.12	583.13
511.48	594.47
511.84	605.91
512.20	617.47
512.56	629.46
512.92	641.67
513.28	653.95
513.64	666.49
514.00	679.21
514.37	692.23
514.73	705.31
515.09	718.44
515.45	731.75
515.81	745.38
516.17	759.47
516.53	773.59
516.89	787.76
517.25	802.03
517.61	816.50
517.97	831.01
518.33	845.51
518.69	860.35
519.05	875.39
519.41	890.59
519.77	906.21
520.13	921.65
520.49	937.10
520.85	952.61
521.21	968.40
521.57	984.74
521.93	1000.57
522.29	1017.03
522.65	1033.31
523.01	1049.68
523.37	1065.79
523.73	1081.92
524.09	1098.08
524.45	1114.46
524.81	1131.08
525.17	1147.99
525.53	1164.96
525.89	1181.78
526.25	1198.61
526.61	1215.12
526.97	1232.00
527.33	1248.42
527.68	1265.21
528.04	1281.69
528.40	1298.39
528.76	1315.52
529.12	1332.11
529.48	1349.01
529.84	1365.19
530.20	1381.85
530.56	1398.94
530.91	1416.49
531.27	1433.42
531.63	1450.04
531.99	1466.64
532.35	1482.74
532.71	1498.66
533.07	1514.95
533.42	1530.97
533.78	1547.08
534.14	1563.34
534.50	1578.71
534.86	1594.69
535.21	1609.89
535.57	1626.01
535.93	1641.47
536.29	1656.36
536.65	1671.58
537.00	1686.54
537.36	1702.01
537.72	1716.70
538.08	1731.06
538.44	1744.82
538.79	1758.85
539.15	1772.62
539.51	1786.63
539.87	1801.00
540.22	1814.76
540.58	1828.62
540.94	1842.16
541.29	1855.21
541.65	1867.99
542.01	1881.29
542.37	1893.69
542.72	1906.15
543.08	1917.78
543.44	1930.19
543.79	1941.39
544.15	1952.36
544.51	1963.90
544.87	1974.76
545.22	1985.49
545.58	1995.85
545.94	2005.67
546.29	2015.50
546.65	2025.21
547.01	2034.32
547.36	2043.14
547.72	2051.66
548.07	2059.50
548.43	2067.66
548.79	2075.65
549.14	2083.18
549.50	2090.56
549.86	2098.23
550.21	2105.64
550.57	2112.95
550.92	2119.62
551.28	2126.81
551.64	2133.94
551.99	2140.35
552.35	2146.49
552.70	2152.72
553.06	2158.54
553.41	2164.91
553.77	2170.96
554.13	2177.11
554.48	2183.21
554.84	2188.58
555.19	2193.96
555.55	2199.00
555.90	2203.38
556.26	2208.30
556.61	2212.99
556.97	2217.08
557.32	2221.24
557.68	2225.23
558.03	2229.61
558.39	2233.30
558.74	2237.74
559.10	2241.46
559.45	2245.22
559.81	2249.59
560.16	2253.34
560.52	2256.66
560.87	2260.16
561.23	2262.77
561.58	2265.62
561.94	2268.18
562.29	2270.63
562.64	2273.33
563.00	2276.06
563.35	2279.66
563.71	2282.70
564.06	2285.89
564.42	2288.84
564.77	2291.15
565.12	2293.35
565.48	2295.13
565.83	2296.89
566.19	2298.20
566.54	2299.24
566.89	2300.20
567.25	2300.60
567.60	2301.98
567.96	2303.53
568.31	2304.16
568.66	2305.04
569.02	2305.58
569.37	2305.70
569.72	2306.36
570.08	2306.26
570.43	2306.23
570.78	2305.43
571.14	2303.90
571.49	2302.53
571.84	2302.09
572.20	2300.87
572.55	2299.75
572.90	2298.12
573.26	2296.54
573.61	2294.79
573.96	2292.71
574.31	2289.69
574.67	2286.59
575.02	2282.76
575.37	2279.30
575.72	2275.42
576.08	2272.08
576.43	2268.76
576.78	2265.09
577.13	2261.94
577.49	2258.82
577.84	2255.19
578.19	2251.28
578.54	2247.26
578.90	2242.94
579.25	2237.32
579.60	2232.21
579.95	2227.12
580.30	2222.02
580.66	2216.95
581.01	2211.87
581.36	2206.95
581.71	2202.59
582.06	2198.13
582.42	2193.74
582.77	2188.47
583.12	2183.81
583.47	2178.85
583.82	2173.58
584.17	2168.24
584.53	2162.60
584.88	2156.76
585.23	2150.82
585.58	2145.48
585.93	2140.19
586.28	2135.24
586.63	2130.02
586.98	2124.90
587.34	2120.07
587.69	2114.97
588.04	2109.50
588.39	2103.67
588.74	2097.13
589.09	2090.94
589.44	2084.00
589.79	2077.74
590.14	2072.06
590.49	2065.42
590.84	2058.99
591.19	2052.92
591.54	2046.34
591.89	2038.70
592.25	2031.86
592.60	2024.57
592.95	2016.55
593.30	2009.06
593.65	2001.38
594.00	1994.19
594.35	1986.86
594.70	1978.78
595.05	1971.40
595.40	1964.06
595.75	1956.44
596.10	1950.07
596.45	1943.21
596.80	1936.97
597.15	1930.13
597.50	1922.78
597.85	1916.25
598.19	1909.54
598.54	1902.46
598.89	1895.85
599.24	1890.09
599.59	1883.27
599.94	1876.96
600.29	1870.79
600.64	1864.14
600.99	1856.69
601.34	1849.97
601.69	1843.03
602.04	1836.05
602.39	1828.81
602.74	1821.91
603.08	1815.24
603.43	1808.54
603.78	1801.26
604.13	1793.97
604.48	1786.63
604.83	1779.94
605.18	1772.89
605.53	1764.86
605.87	1756.78
606.22	1749.53
606.57	1741.48
606.92	1734.23
607.27	1727.00
607.62	1720.06
607.96	1712.68
608.31	1705.96
608.66	1698.14
609.01	1690.65
609.36	1683.11
609.70	1675.09
610.05	1666.96
610.40	1659.14
610.75	1650.78
611.10	1643.05
611.44	1634.83
611.79	1627.00
612.14	1618.14
612.49	1609.17
612.83	1600.77
613.18	1592.73
613.53	1584.61
613.88	1576.09
614.22	1567.97
614.57	1559.51
614.92	1551.43
615.27	1543.83
615.61	1535.50
615.96	1527.67
616.31	1520.03
616.65	1512.74
617.00	1505.12
617.35	1497.52
617.70	1489.22
618.04	1480.69
618.39	1472.65
618.74	1464.90
619.08	1456.53
619.43	1449.07
619.78	1441.99
620.12	1434.82
620.47	1427.23
620.82	1419.08
621.16	1411.68
621.51	1404.03
621.85	1396.39
622.20	1387.97
622.55	1379.84
622.89	1372.07
623.24	1364.46
623.59	1357.15
623.93	1349.63
624.28	1342.38
624.62	1334.89
624.97	1327.76
625.32	1321.06
625.66	1313.98
626.01	1306.79
626.35	1299.34
626.70	1291.68
627.04	1283.98
627.39	1276.41
627.73	1269.01
628.08	1262.12
628.43	1254.81
628.77	1247.33
629.12	1239.77
629.46	1232.45
629.81	1224.97
630.15	1217.78
630.50	1210.41
630.84	1202.20
631.19	1194.33
631.53	1186.92
631.88	1179.49
632.22	1171.92
632.57	1164.69
632.91	1157.26
633.26	1149.84
633.60	1142.56
633.95	1135.45
634.29	1128.53
634.64	1121.74
634.98	1114.41
635.32	1107.26
635.67	1100.73
636.01	1094.21
636.36	1087.48
636.70	1081.04
637.05	1074.49
637.39	1068.06
637.73	1061.48
638.08	1055.57
638.42	1049.46
638.77	1043.00
639.11	1036.28
639.45	1029.95
639.80	1023.31
640.14	1016.72
640.49	1010.32
640.83	1004.03
641.17	997.70
641.52	991.40
641.86	985.01
642.20	979.22
642.55	972.97
642.89	966.43
643.23	959.99
643.58	954.16
643.92	947.96
644.26	941.89
644.61	935.89
644.95	929.93
645.29	923.36
645.64	916.73
645.98	910.48
646.32	904.82
646.66	898.79
647.01	892.99
647.35	887.36
647.69	881.52
648.04	876.04
648.38	870.34
648.72	864.26
649.06	858.21
649.41	852.36
649.75	846.29
650.09	840.32
650.43	834.38
650.78	828.28
651.12	822.33
651.46	816.54
651.80	810.73
652.14	805.29
652.49	799.87
652.83	794.67
653.17	788.94
653.51	783.16
653.85	777.86
654.20	772.18
654.54	766.16
654.88	760.46
655.22	754.55
655.56	748.79
655.90	743.36
656.25	738.16
656.59	732.74
656.93	727.75
657.27	722.62
657.61	717.24
657.95	712.12
658.29	707.11
658.64	701.95
658.98	696.69
659.32	691.27
659.66	686.12
660.00	680.86
660.34	675.92
660.68	670.98
661.02	665.83
661.36	661.22
661.70	656.76
662.05	652.41
662.39	648.02
662.73	643.62
663.07	639.24
663.41	634.75
663.75	630.29
664.09	625.79
664.43	621.47
664.77	617.33
665.11	613.09
665.45	609.00
665.79	604.96
666.13	600.86
666.47	596.76
666.81	592.64
667.15	588.56
667.49	584.76
667.83	581.02
668.17	577.16
668.51	573.02
668.85	569.01
669.19	565.17
669.53	561.44
669.87	557.58
670.21	553.97
670.55	550.42
670.89	547.03
671.23	543.59
671.57	540.11
671.91	536.58
672.25	533.19
672.58	529.66
672.92	526.32
673.26	523.19
673.60	520.09
673.94	516.99
674.28	514.09
674.62	511.13
674.96	508.10
675.30	505.16
675.64	502.32
675.97	499.60
676.31	496.71
676.65	493.80
676.99	491.13
677.33	488.26
677.67	485.39
678.01	482.36
678.34	479.32
678.68	476.47
679.02	473.69
679.36	470.91
679.70	468.25
680.04	465.39
680.37	462.50
680.71	459.75
681.05	457.13
681.39	454.37
681.73	451.73
682.06	449.15
682.40	446.61
682.74	444.01
683.08	441.48
683.42	438.91
683.75	436.38
684.09	433.83
684.43	431.36
684.77	428.98
685.10	426.65
685.44	424.39
685.78	422.06
686.12	419.88
686.45	417.58
686.79	415.26
687.13	413.10
687.46	410.92
687.80	408.77
688.14	406.59
688.48	404.58
688.81	402.31
689.15	400.22
689.49	398.10
689.82	396.05
690.16	393.96
690.50	391.98
690.83	390.02
691.17	388.04
691.51	386.14
691.84	384.25
692.18	382.35
692.52	380.39
692.85	378.53
693.19	376.60
693.52	374.83
693.86	373.09
694.20	371.34
694.53	369.55
694.87	367.71
695.21	365.97
695.54	364.13
695.88	362.45
696.21	360.69
696.55	359.04
696.88	357.39
697.22	355.76
697.56	354.19
697.89	352.59
698.23	351.02
698.56	349.42
698.90	347.83
699.23	346.17
699.57	344.66
699.90	343.12
700.24	341.63
700.58	340.06
700.91	338.52
701.25	337.05
701.58	335.69
701.92	334.30
702.25	332.92
702.59	331.54
702.92	330.23
703.26	329.01
703.59	327.73
703.93	326.57
704.26	325.35
704.60	324.06
704.93	322.80
705.26	321.53
705.60	320.40
705.93	319.27
706.27	318.26
706.60	317.20
706.94	316.12
707.27	314.95
707.61	313.95
707.94	312.95
708.27	311.89
708.61	310.84
708.94	309.86
709.28	308.87
709.61	307.94
709.94	306.96
710.28	305.87
710.61	304.90
710.95	303.79
711.28	302.86
711.61	301.95
711.95	301.07
712.28	300.15
712.61	299.17
712.95	298.23
713.28	297.35
713.61	296.40
713.95	295.53
714.28	294.73
714.61	293.83
714.95	293.00
715.28	292.15
715.61	291.27
715.95	290.43
716.28	289.59
716.61	288.74
716.95	287.97
717.28	287.26
717.61	286.51
717.94	285.79
718.28	285.00
718.61	284.25
718.94	283.54
719.27	282.90
719.61	282.27
719.94	281.62
720.27	280.87
720.60	280.24
720.94	279.57
721.27	278.97
721.60	278.40
721.93	277.81
722.27	277.26
722.60	276.72
722.93	276.14
723.26	275.62
723.59	275.09
723.93	274.51
724.26	273.94
724.59	273.39
724.92	272.89
725.25	272.42
725.59	271.89
725.92	271.36
726.25	270.83
726.58	270.29
726.91	269.81
727.24	269.36
727.57	268.91
727.91	268.40
728.24	267.92
728.57	267.40
728.90	266.94
729.23	266.48
729.56	266.06
729.89	265.61
730.22	265.06
730.55	264.56
730.89	264.15
731.22	263.71
731.55	263.23
731.88	262.77
732.21	262.30
732.54	261.87
732.87	261.40
733.20	260.98
733.53	260.55
733.86	260.19
734.19	259.81
734.52	259.40
734.85	259.11
735.18	258.67
735.51	258.30
735.84	257.90
736.17	257.52
736.50	257.12
736.83	256.85
737.16	256.56
737.49	256.26
737.82	255.91
738.15	255.57
738.48	255.27
738.81	254.97
739.14	254.63
739.47	254.32
739.80	254.06
740.13	253.78
740.46	253.48
740.79	253.12
741.12	252.78
741.45	252.49
741.78	252.13
742.11	251.86
742.44	251.58
742.77	251.28
743.10	250.96
743.43	250.65
743.75	250.27
744.08	250.11
744.41	249.88
744.74	249.60
745.07	249.33
745.40	249.10
745.73	248.86
746.06	248.60
746.39	248.38
746.71	248.10
747.04	247.81
747.37	247.57
747.70	247.38
748.03	247.15
748.36	246.92
748.68	246.67
749.01	246.42
749.34	246.20
749.67	245.98
750.00	245.78
750.33	245.58
750.65	245.40
750.98	245.10
751.31	244.86
751.64	244.62
751.97	244.48
752.29	244.28
752.62	244.04
752.95	243.86
753.28	243.62
753.60	243.42
753.93	243.26
754.26	243.09
754.59	242.84
754.91	242.65
755.24	242.46
755.57	242.31
755.90	242.15
756.22	241.97
756.55	241.79
756.88	241.63
757.20	241.46
757.53	241.23
757.86	241.07
758.19	240.90
758.51	240.77
758.84	240.56
759.17	240.37
759.49	240.19
759.82	240.09
760.15	239.93
760.47	239.78
760.80	239.61
761.13	239.47
761.45	239.32
761.78	239.18
762.11	239.06
762.43	238.89
762.76	238.76
763.08	238.65
763.41	238.53
763.74	238.36
764.06	238.20
764.39	238.08
764.71	237.89
765.04	237.74
765.37	237.59
765.69	237.48
766.02	237.34
766.34	237.22
766.67	237.04
767.00	236.93
767.32	236.85
767.65	236.77
767.97	236.65
768.30	236.57
768.62	236.45
768.95	236.30
769.27	236.18
769.60	236.07
769.92	235.88
770.25	235.72
770.57	235.59
770.90	235.49
771.22	235.40
771.55	235.30
771.87	235.20
772.20	235.09
772.52	235.03
772.85	235.08
773.17	234.94
773.50	234.84
773.82	234.72
774.15	234.56
774.47	234.41
774.80	234.32
775.12	234.21
775.45	234.12
775.77	234.05
776.09	233.98
776.42	233.88
776.74	233.84
777.07	233.77
777.39	233.71
777.72	233.58
778.04	233.49
778.36	233.44
778.69	233.36
779.01	233.28
779.33	233.10
779.66	232.88
779.98	232.86
780.31	232.79
780.63	232.75
780.95	232.72
781.28	232.67
781.60	232.56
781.92	232.48
782.25	232.39
782.57	232.33
782.89	232.26
783.22	232.18
783.54	232.12
783.86	232.06
784.19	232.01
784.51	232.08
784.83	232.00
785.16	231.94
785.48	231.91
785.80	231.86
786.12	231.86
786.45	231.79
786.77	231.72
787.09	231.68
