SpectraSuite Data File
++++++++++++++++++++++++++++++++++++
Date: Fri Feb 01 17:26:57 EST 2013
User: group
Dark Spectrum Present: No
Reference Spectrum Present: No
Number of Sampled Component Spectra: 1
Spectrometers: USB2E7196
Integration Time (usec): 35000 (USB2E7196)
Spectra Averaged: 100 (USB2E7196)
Boxcar Smoothing: 10 (USB2E7196)
Correct for Electrical Dark: No (USB2E7196)
Strobe/Lamp Enabled: No (USB2E7196)
Correct for Detector Non-linearity: No (USB2E7196)
Correct for Stray Light: No (USB2E7196)
Number of Pixels in Processed Spectrum: 2048
>>>>>Begin Processed Spectral Data<<<<<
339.09	0.00
339.48	213.13
339.86	214.57
340.24	215.87
340.63	216.67
341.01	219.90
341.39	220.00
341.78	221.60
342.16	222.36
342.54	222.77
342.93	211.40
343.31	222.08
343.69	222.59
344.07	223.03
344.46	223.48
344.84	223.88
345.22	224.15
345.60	224.38
345.99	224.53
346.37	224.65
346.75	224.77
347.13	224.85
347.52	224.92
347.90	225.00
348.28	225.04
348.66	225.07
349.05	225.08
349.43	225.12
349.81	225.18
350.19	225.23
350.57	225.28
350.96	225.36
351.34	225.45
351.72	225.55
352.10	225.67
352.48	225.74
352.87	225.80
353.25	225.81
353.63	225.89
354.01	225.99
354.39	226.10
354.77	226.15
355.15	226.28
355.54	226.29
355.92	226.33
356.30	226.41
356.68	226.53
357.06	226.61
357.44	226.69
357.82	226.74
358.20	226.84
358.58	226.91
358.97	226.97
359.35	227.02
359.73	227.10
360.11	227.13
360.49	227.17
360.87	227.22
361.25	227.31
361.63	227.37
362.01	227.39
362.39	227.40
362.77	227.45
363.15	227.40
363.53	227.47
363.91	227.51
364.29	227.54
364.67	227.46
365.05	227.51
365.43	227.49
365.81	227.50
366.19	227.52
366.57	227.55
366.95	227.54
367.33	227.53
367.71	227.52
368.09	227.54
368.47	227.50
368.85	227.48
369.23	227.45
369.61	227.38
369.99	227.37
370.37	227.36
370.75	227.38
371.13	227.35
371.51	227.28
371.89	227.21
372.27	227.18
372.65	227.14
373.03	227.08
373.41	227.04
373.78	226.97
374.16	226.86
374.54	226.77
374.92	226.70
375.30	226.67
375.68	226.59
376.06	226.56
376.44	226.52
376.82	226.47
377.19	226.40
377.57	226.35
377.95	226.28
378.33	226.19
378.71	226.06
379.09	226.03
379.47	225.96
379.84	225.91
380.22	225.82
380.60	225.74
380.98	225.66
381.36	225.57
381.73	225.51
382.11	225.46
382.49	225.42
382.87	225.36
383.25	225.28
383.62	225.32
384.00	225.21
384.38	225.14
384.76	225.10
385.13	225.09
385.51	225.06
385.89	225.00
386.27	224.97
386.64	224.92
387.02	224.88
387.40	224.84
387.78	224.76
388.15	224.73
388.53	224.72
388.91	224.67
389.29	224.64
389.66	224.63
390.04	224.58
390.42	224.59
390.79	224.55
391.17	224.52
391.55	224.42
391.92	224.39
392.30	224.40
392.68	224.35
393.05	224.31
393.43	224.30
393.81	224.30
394.18	224.30
394.56	224.33
394.94	224.33
395.31	224.36
395.69	224.45
396.06	224.48
396.44	224.48
396.82	224.51
397.19	224.60
397.57	224.62
397.95	224.69
398.32	224.68
398.70	224.77
399.07	224.83
399.45	224.89
399.82	224.97
400.20	225.01
400.58	225.12
400.95	225.16
401.33	225.26
401.70	225.40
402.08	225.47
402.45	225.53
402.83	225.62
403.20	225.68
403.58	225.76
403.95	225.87
404.33	226.03
404.71	226.12
405.08	226.29
405.46	226.44
405.83	226.53
406.21	226.65
406.58	226.79
406.96	226.93
407.33	227.10
407.70	227.29
408.08	227.56
408.45	227.76
408.83	228.00
409.20	228.21
409.58	228.39
409.95	228.63
410.33	228.90
410.70	229.17
411.08	229.49
411.45	229.79
411.82	230.08
412.20	230.42
412.57	230.88
412.95	231.18
413.32	231.59
413.69	232.05
414.07	232.51
414.44	232.99
414.82	233.53
415.19	234.10
415.56	234.64
415.94	235.24
416.31	235.93
416.68	236.55
417.06	237.27
417.43	238.01
417.81	238.85
418.18	239.66
418.55	240.54
418.93	241.43
419.30	242.39
419.67	243.42
420.04	244.43
420.42	245.48
420.79	246.70
421.16	247.86
421.54	249.10
421.91	250.40
422.28	251.69
422.66	253.03
423.03	254.40
423.40	255.79
423.77	257.27
424.15	258.75
424.52	260.31
424.89	262.05
425.26	263.62
425.64	265.10
426.01	266.78
426.38	268.53
426.75	270.27
427.13	272.05
427.50	273.93
427.87	275.87
428.24	277.78
428.61	279.62
428.99	281.63
429.36	283.79
429.73	285.91
430.10	288.02
430.47	290.21
430.85	292.40
431.22	294.69
431.59	297.11
431.96	299.45
432.33	302.05
432.70	304.50
433.08	307.43
433.45	310.19
433.82	312.84
434.19	315.81
434.56	318.74
434.93	321.50
435.30	324.22
435.68	327.22
436.05	330.12
436.42	333.04
436.79	335.70
437.16	338.49
437.53	341.42
437.90	344.28
438.27	347.07
438.64	350.01
439.01	352.74
439.38	355.06
439.75	357.24
440.13	359.80
440.50	362.18
440.87	364.13
441.24	366.11
441.61	368.43
441.98	369.96
442.35	371.87
442.72	373.77
443.09	375.64
443.46	376.66
443.83	377.29
444.20	377.80
444.57	378.71
444.94	379.09
445.31	379.46
445.68	379.87
446.05	379.97
446.42	379.62
446.79	379.21
447.16	378.77
447.53	378.52
447.90	377.37
448.27	376.22
448.64	374.63
449.01	373.46
449.37	371.38
449.74	369.45
450.11	367.12
450.48	364.61
450.85	361.98
451.22	359.75
451.59	357.67
451.96	355.67
452.33	352.94
452.70	350.45
453.07	347.52
453.43	344.54
453.80	341.70
454.17	338.91
454.54	336.22
454.91	333.44
455.28	330.64
455.65	328.02
456.02	325.52
456.38	323.25
456.75	320.52
457.12	318.20
457.49	315.89
457.86	313.63
458.23	311.69
458.59	309.55
458.96	307.42
459.33	305.50
459.70	303.56
460.07	302.03
460.43	300.28
460.80	298.60
461.17	297.10
461.54	295.53
461.91	294.09
462.27	292.62
462.64	291.31
463.01	289.91
463.38	288.55
463.74	287.12
464.11	285.92
464.48	284.85
464.85	283.73
465.21	282.83
465.58	281.89
465.95	280.78
466.32	279.87
466.68	278.94
467.05	278.00
467.42	277.10
467.78	276.13
468.15	275.22
468.52	274.54
468.88	273.64
469.25	272.86
469.62	272.20
469.98	271.50
470.35	270.82
470.72	270.22
471.08	269.59
471.45	269.02
471.82	268.46
472.18	267.80
472.55	267.34
472.92	266.80
473.28	266.32
473.65	265.86
474.02	265.39
474.38	265.01
474.75	264.72
475.11	264.34
475.48	264.09
475.85	263.86
476.21	263.58
476.58	263.42
476.94	263.28
477.31	263.11
477.67	262.98
478.04	262.89
478.41	262.82
478.77	262.88
479.14	262.82
479.50	262.81
479.87	262.89
480.23	262.96
480.60	263.01
480.96	263.09
481.33	263.28
481.69	263.47
482.06	263.63
482.42	263.79
482.79	264.06
483.15	264.34
483.52	264.73
483.88	265.10
484.25	265.46
484.61	265.86
484.98	266.30
485.34	266.84
485.71	267.39
486.07	267.97
486.44	268.48
486.80	269.16
487.17	269.89
487.53	270.72
487.90	271.56
488.26	272.49
488.62	273.47
488.99	274.42
489.35	275.47
489.72	276.61
490.08	277.83
490.44	279.05
490.81	280.39
491.17	281.67
491.54	283.12
491.90	284.65
492.26	286.30
492.63	288.03
492.99	289.78
493.36	291.67
493.72	293.71
494.08	295.82
494.45	298.09
494.81	300.45
495.17	302.86
495.54	305.41
495.90	308.07
496.26	310.88
496.63	313.78
496.99	316.85
497.35	320.09
497.72	323.47
498.08	326.92
498.44	330.53
498.80	334.45
499.17	338.52
499.53	342.64
499.89	346.95
500.26	351.37
500.62	355.95
500.98	360.87
501.34	365.94
501.71	371.21
502.07	376.54
502.43	382.05
502.79	387.83
503.16	393.80
503.52	400.03
503.88	406.35
504.24	412.94
504.60	419.73
504.97	426.76
505.33	433.98
505.69	441.65
506.05	449.35
506.41	457.11
506.78	465.13
507.14	473.44
507.50	482.02
507.86	490.88
508.22	499.90
508.59	508.93
508.95	518.29
509.31	527.90
509.67	537.81
510.03	547.90
510.39	558.27
510.75	568.86
511.12	579.58
511.48	590.66
511.84	601.92
512.20	613.19
512.56	624.80
512.92	636.64
513.28	648.70
513.64	660.90
514.00	673.33
514.37	685.95
514.73	698.72
515.09	711.43
515.45	724.40
515.81	737.71
516.17	751.35
516.53	765.14
516.89	779.01
517.25	792.87
517.61	806.98
517.97	821.00
518.33	835.03
518.69	849.42
519.05	863.97
519.41	878.75
519.77	893.89
520.13	908.91
520.49	923.82
520.85	938.70
521.21	953.94
521.57	969.73
521.93	985.10
522.29	1001.04
522.65	1016.89
523.01	1032.66
523.37	1048.28
523.73	1063.98
524.09	1079.73
524.45	1095.57
524.81	1111.78
525.17	1127.99
525.53	1144.35
525.89	1160.86
526.25	1177.21
526.61	1193.08
526.97	1209.31
527.33	1225.38
527.68	1241.52
528.04	1257.69
528.40	1273.88
528.76	1290.48
529.12	1306.52
529.48	1322.93
529.84	1338.48
530.20	1354.70
530.56	1371.17
530.91	1388.11
531.27	1404.54
531.63	1420.35
531.99	1436.40
532.35	1452.01
532.71	1467.64
533.07	1483.64
533.42	1499.10
533.78	1514.74
534.14	1530.65
534.50	1545.56
534.86	1560.99
535.21	1575.93
535.57	1591.46
535.93	1606.53
536.29	1621.02
536.65	1635.88
537.00	1650.24
537.36	1665.36
537.72	1679.55
538.08	1693.81
538.44	1707.44
538.79	1721.05
539.15	1734.38
539.51	1747.87
539.87	1761.99
540.22	1775.48
540.58	1788.84
540.94	1801.91
541.29	1814.57
541.65	1827.15
542.01	1840.26
542.37	1852.54
542.72	1864.84
543.08	1876.65
543.44	1889.09
543.79	1900.25
544.15	1911.05
544.51	1922.73
544.87	1933.57
545.22	1944.45
545.58	1954.71
545.94	1964.49
546.29	1974.38
546.65	1984.57
547.01	1994.15
547.36	2002.90
547.72	2011.57
548.07	2019.79
548.43	2028.09
548.79	2036.09
549.14	2043.83
549.50	2051.16
549.86	2058.88
550.21	2066.39
550.57	2073.59
550.92	2080.42
551.28	2087.70
551.64	2095.08
551.99	2101.82
552.35	2108.25
552.70	2114.61
553.06	2120.95
553.41	2127.39
553.77	2133.66
554.13	2139.79
554.48	2146.00
554.84	2151.85
555.19	2157.29
555.55	2162.60
555.90	2167.54
556.26	2173.02
556.61	2177.98
556.97	2182.92
557.32	2187.48
557.68	2191.80
558.03	2196.35
558.39	2200.21
558.74	2205.14
559.10	2209.35
559.45	2213.29
559.81	2217.86
560.16	2222.04
560.52	2225.46
560.87	2229.24
561.23	2232.23
561.58	2235.64
561.94	2238.53
562.29	2241.02
562.64	2244.16
563.00	2247.18
563.35	2250.89
563.71	2254.33
564.06	2257.71
564.42	2261.00
564.77	2263.90
565.12	2266.87
565.48	2269.39
565.83	2271.84
566.19	2273.60
566.54	2274.85
566.89	2276.58
567.25	2277.76
567.60	2279.34
567.96	2281.62
568.31	2282.81
568.66	2284.41
569.02	2285.43
569.37	2286.14
569.72	2287.49
570.08	2288.11
570.43	2288.37
570.78	2288.39
571.14	2287.30
571.49	2286.45
571.84	2286.18
572.20	2285.47
572.55	2284.65
572.90	2283.22
573.26	2282.22
573.61	2280.78
573.96	2279.55
574.31	2276.79
574.67	2274.07
575.02	2270.92
575.37	2267.70
575.72	2264.39
576.08	2261.30
576.43	2258.27
576.78	2255.12
577.13	2252.13
577.49	2249.18
577.84	2246.30
578.19	2242.87
578.54	2239.64
578.90	2235.86
579.25	2230.89
579.60	2226.42
579.95	2221.73
580.30	2217.03
580.66	2212.06
581.01	2207.51
581.36	2202.91
581.71	2199.15
582.06	2195.15
582.42	2191.05
582.77	2186.06
583.12	2181.83
583.47	2177.58
583.82	2172.97
584.17	2168.01
584.53	2163.00
584.88	2157.76
585.23	2152.33
585.58	2146.92
585.93	2141.65
586.28	2137.02
586.63	2132.28
586.98	2127.34
587.34	2122.90
587.69	2118.40
588.04	2113.59
588.39	2108.29
588.74	2101.92
589.09	2095.93
589.44	2089.37
589.79	2083.43
590.14	2078.12
590.49	2071.69
590.84	2065.27
591.19	2059.48
591.54	2053.24
591.89	2046.20
592.25	2039.71
592.60	2032.53
592.95	2025.47
593.30	2018.34
593.65	2011.06
594.00	2004.07
594.35	1996.98
594.70	1988.96
595.05	1982.11
595.40	1974.88
595.75	1967.38
596.10	1961.47
596.45	1954.95
596.80	1948.79
597.15	1942.44
597.50	1935.74
597.85	1929.44
598.19	1923.14
598.54	1916.43
598.89	1909.85
599.24	1903.95
599.59	1897.48
599.94	1891.35
600.29	1884.98
600.64	1878.41
600.99	1871.11
601.34	1864.53
601.69	1857.59
602.04	1851.01
602.39	1843.67
602.74	1836.92
603.08	1830.37
603.43	1823.83
603.78	1816.66
604.13	1809.63
604.48	1802.43
604.83	1795.44
605.18	1788.80
605.53	1780.87
605.87	1772.61
606.22	1765.43
606.57	1757.52
606.92	1749.94
607.27	1742.90
607.62	1736.13
607.96	1729.08
608.31	1722.64
608.66	1715.13
609.01	1707.69
609.36	1700.26
609.70	1692.24
610.05	1684.25
610.40	1676.51
610.75	1668.05
611.10	1660.27
611.44	1651.65
611.79	1643.58
612.14	1634.91
612.49	1625.56
612.83	1617.00
613.18	1608.80
613.53	1600.59
613.88	1592.06
614.22	1583.92
614.57	1575.09
614.92	1566.89
615.27	1559.24
615.61	1550.83
615.96	1542.46
616.31	1534.63
616.65	1527.00
617.00	1519.21
617.35	1511.36
617.70	1503.06
618.04	1494.48
618.39	1486.15
618.74	1478.69
619.08	1470.22
619.43	1462.58
619.78	1455.56
620.12	1448.43
620.47	1440.92
620.82	1432.64
621.16	1425.03
621.51	1417.22
621.85	1409.52
622.20	1400.91
622.55	1392.46
622.89	1384.45
623.24	1376.80
623.59	1369.35
623.93	1361.78
624.28	1354.55
624.62	1347.11
624.97	1339.70
625.32	1332.76
625.66	1325.62
626.01	1318.38
626.35	1311.02
626.70	1303.14
627.04	1295.26
627.39	1287.38
627.73	1279.87
628.08	1272.92
628.43	1265.72
628.77	1258.38
629.12	1250.77
629.46	1243.50
629.81	1235.87
630.15	1228.50
630.50	1220.96
630.84	1212.73
631.19	1204.66
631.53	1196.99
631.88	1189.25
632.22	1181.69
632.57	1174.35
632.91	1166.67
633.26	1159.10
633.60	1151.58
633.95	1144.29
634.29	1137.16
634.64	1130.26
634.98	1122.85
635.32	1115.61
635.67	1108.82
636.01	1102.09
636.36	1095.34
636.70	1088.74
637.05	1082.12
637.39	1075.60
637.73	1069.12
638.08	1063.15
638.42	1057.16
638.77	1050.73
639.11	1044.22
639.45	1037.76
639.80	1031.03
640.14	1024.71
640.49	1018.11
640.83	1011.76
641.17	1005.56
641.52	999.24
641.86	992.86
642.20	987.01
642.55	980.57
642.89	974.09
643.23	967.48
643.58	961.66
643.92	955.53
644.26	949.57
644.61	943.49
644.95	937.44
645.29	930.89
645.64	924.12
645.98	917.76
646.32	911.73
646.66	905.66
647.01	899.88
647.35	894.16
647.69	888.26
648.04	882.65
648.38	876.83
648.72	870.90
649.06	864.80
649.41	858.83
649.75	852.98
650.09	847.01
650.43	841.16
650.78	834.93
651.12	828.86
651.46	823.09
651.80	817.42
652.14	811.99
652.49	806.58
652.83	801.37
653.17	795.71
653.51	790.09
653.85	784.58
654.20	778.88
654.54	772.79
654.88	767.01
655.22	761.09
655.56	755.31
655.90	749.74
656.25	744.45
656.59	739.04
656.93	733.90
657.27	728.76
657.61	723.33
657.95	718.24
658.29	713.14
658.64	707.80
658.98	702.41
659.32	696.89
659.66	691.63
660.00	686.34
660.34	681.36
660.68	676.32
661.02	671.26
661.36	666.54
661.70	662.01
662.05	657.69
662.39	653.30
662.73	648.85
663.07	644.41
663.41	639.95
663.75	635.46
664.09	630.89
664.43	626.46
664.77	622.34
665.11	618.08
665.45	613.88
665.79	609.75
666.13	605.61
666.47	601.46
666.81	597.25
667.15	593.09
667.49	589.09
667.83	585.23
668.17	581.28
668.51	577.17
668.85	573.05
669.19	569.10
669.53	565.31
669.87	561.50
670.21	557.81
670.55	554.16
670.89	550.68
671.23	547.24
671.57	543.66
671.91	540.18
672.25	536.60
672.58	533.14
672.92	529.66
673.26	526.43
673.60	523.27
673.94	520.21
674.28	517.27
674.62	514.31
674.96	511.21
675.30	508.33
675.64	505.46
675.97	502.70
676.31	499.81
676.65	496.84
676.99	494.11
677.33	491.21
677.67	488.33
678.01	485.38
678.34	482.30
678.68	479.45
679.02	476.51
679.36	473.66
679.70	470.82
680.04	468.12
680.37	465.27
680.71	462.40
681.05	459.69
681.39	456.96
681.73	454.29
682.06	451.73
682.40	449.17
682.74	446.55
683.08	443.95
683.42	441.34
683.75	438.83
684.09	436.15
684.43	433.67
684.77	431.18
685.10	428.73
685.44	426.41
685.78	424.07
686.12	421.81
686.45	419.55
686.79	417.32
687.13	415.08
687.46	412.83
687.80	410.72
688.14	408.49
688.48	406.42
688.81	404.20
689.15	402.03
689.49	399.80
689.82	397.71
690.16	395.64
690.50	393.67
690.83	391.74
691.17	389.77
691.51	387.82
691.84	385.98
692.18	384.03
692.52	382.09
692.85	380.09
693.19	378.21
693.52	376.37
693.86	374.54
694.20	372.74
694.53	370.95
694.87	369.08
695.21	367.27
695.54	365.40
695.88	363.62
696.21	361.89
696.55	360.22
696.88	358.51
697.22	356.83
697.56	355.17
697.89	353.48
698.23	351.83
698.56	350.18
698.90	348.55
699.23	346.91
699.57	345.30
699.90	343.74
700.24	342.16
700.58	340.58
700.91	339.00
701.25	337.53
701.58	336.15
701.92	334.76
702.25	333.40
702.59	332.02
702.92	330.65
703.26	329.31
703.59	327.98
703.93	326.75
704.26	325.48
704.60	324.16
704.93	322.88
705.26	321.61
705.60	320.43
705.93	319.26
706.27	318.19
706.60	317.12
706.94	316.03
707.27	314.86
707.61	313.79
707.94	312.76
708.27	311.59
708.61	310.50
708.94	309.43
709.28	308.39
709.61	307.40
709.94	306.42
710.28	305.38
710.61	304.39
710.95	303.30
711.28	302.33
711.61	301.36
711.95	300.37
712.28	299.43
712.61	298.47
712.95	297.49
713.28	296.57
713.61	295.59
713.95	294.70
714.28	293.83
714.61	292.94
714.95	292.05
715.28	291.18
715.61	290.25
715.95	289.39
716.28	288.51
716.61	287.64
716.95	286.82
717.28	286.05
717.61	285.23
717.94	284.46
718.28	283.65
718.61	282.92
718.94	282.20
719.27	281.54
719.61	280.84
719.94	280.18
720.27	279.46
720.60	278.81
720.94	278.16
721.27	277.53
721.60	276.94
721.93	276.33
722.27	275.79
722.60	275.22
722.93	274.67
723.26	274.13
723.59	273.54
723.93	272.96
724.26	272.39
724.59	271.85
724.92	271.31
725.25	270.80
725.59	270.30
725.92	269.84
726.25	269.30
726.58	268.79
726.91	268.27
727.24	267.79
727.57	267.28
727.91	266.79
728.24	266.33
728.57	265.85
728.90	265.45
729.23	264.94
729.56	264.52
729.89	264.02
730.22	263.52
730.55	263.05
730.89	262.57
731.22	262.13
731.55	261.69
731.88	261.24
732.21	260.84
732.54	260.40
732.87	259.90
733.20	259.52
733.53	259.14
733.86	258.77
734.19	258.35
734.52	258.01
734.85	257.72
735.18	257.32
735.51	256.90
735.84	256.47
736.17	256.15
736.50	255.74
736.83	255.53
737.16	255.19
737.49	254.86
737.82	254.52
738.15	254.19
738.48	253.83
738.81	253.55
739.14	253.22
739.47	252.85
739.80	252.57
740.13	252.22
740.46	251.90
740.79	251.57
741.12	251.28
741.45	250.92
741.78	250.52
742.11	250.24
742.44	249.90
742.77	249.67
743.10	249.35
743.43	249.00
743.75	248.59
744.08	248.43
744.41	248.17
744.74	247.89
745.07	247.56
745.40	247.32
745.73	247.07
746.06	246.76
746.39	246.49
746.71	246.22
747.04	245.97
747.37	245.72
747.70	245.45
748.03	245.19
748.36	245.02
748.68	244.77
749.01	244.51
749.34	244.33
749.67	244.05
750.00	243.78
750.33	243.65
750.65	243.46
750.98	243.15
751.31	242.93
751.64	242.70
751.97	242.59
752.29	242.35
752.62	242.09
752.95	241.89
753.28	241.72
753.60	241.50
753.93	241.31
754.26	241.08
754.59	240.84
754.91	240.65
755.24	240.40
755.57	240.23
755.90	240.02
756.22	239.81
756.55	239.63
756.88	239.47
757.20	239.20
757.53	238.94
757.86	238.77
758.19	238.61
758.51	238.48
758.84	238.25
759.17	238.08
759.49	237.91
759.82	237.81
760.15	237.63
760.47	237.49
760.80	237.33
761.13	237.20
761.45	237.06
761.78	236.93
762.11	236.79
762.43	236.61
762.76	236.49
763.08	236.37
763.41	236.19
763.74	236.04
764.06	235.93
764.39	235.84
764.71	235.69
765.04	235.56
765.37	235.39
765.69	235.28
766.02	235.18
766.34	235.05
766.67	234.90
767.00	234.78
767.32	234.70
767.65	234.66
767.97	234.53
768.30	234.45
768.62	234.32
768.95	234.21
769.27	234.13
769.60	234.02
769.92	233.88
770.25	233.80
770.57	233.67
770.90	233.57
771.22	233.47
771.55	233.36
771.87	233.25
772.20	233.15
772.52	233.14
772.85	233.17
773.17	233.10
773.50	232.97
773.82	232.85
774.15	232.73
774.47	232.55
774.80	232.48
775.12	232.36
775.45	232.28
775.77	232.20
776.09	232.12
776.42	232.03
776.74	231.99
777.07	231.90
777.39	231.86
777.72	231.79
778.04	231.73
778.36	231.63
778.69	231.58
779.01	231.52
779.33	231.32
779.66	231.15
779.98	231.08
780.31	231.06
780.63	231.03
780.95	230.96
781.28	230.87
781.60	230.80
781.92	230.76
782.25	230.68
782.57	230.59
782.89	230.51
783.22	230.44
783.54	230.37
783.86	230.32
784.19	230.24
784.51	230.19
784.83	230.13
785.16	230.07
785.48	229.99
785.80	229.94
786.12	229.92
786.45	229.82
786.77	229.78
787.09	229.69
