SpectraSuite Data File
++++++++++++++++++++++++++++++++++++
Date: Fri Feb 01 15:03:02 EST 2013
User: group
Dark Spectrum Present: No
Reference Spectrum Present: No
Number of Sampled Component Spectra: 1
Spectrometers: USB2E7196
Integration Time (usec): 35000 (USB2E7196)
Spectra Averaged: 100 (USB2E7196)
Boxcar Smoothing: 10 (USB2E7196)
Correct for Electrical Dark: No (USB2E7196)
Strobe/Lamp Enabled: No (USB2E7196)
Correct for Detector Non-linearity: No (USB2E7196)
Correct for Stray Light: No (USB2E7196)
Number of Pixels in Processed Spectrum: 2048
>>>>>Begin Processed Spectral Data<<<<<
339.09	0.00
339.48	215.22
339.86	216.48
340.24	218.43
340.63	219.61
341.01	222.69
341.39	222.45
341.78	223.41
342.16	224.53
342.54	225.03
342.93	213.69
343.31	224.47
343.69	225.00
344.07	225.48
344.46	225.87
344.84	226.27
345.22	226.50
345.60	226.72
345.99	226.92
346.37	227.06
346.75	227.17
347.13	227.24
347.52	227.28
347.90	227.37
348.28	227.39
348.66	227.42
349.05	227.40
349.43	227.46
349.81	227.47
350.19	227.48
350.57	227.54
350.96	227.63
351.34	227.73
351.72	227.84
352.10	227.94
352.48	228.02
352.87	228.06
353.25	228.10
353.63	228.20
354.01	228.23
354.39	228.31
354.77	228.40
355.15	228.50
355.54	228.57
355.92	228.60
356.30	228.66
356.68	228.82
357.06	228.90
357.44	228.93
357.82	228.99
358.20	229.08
358.58	229.13
358.97	229.17
359.35	229.23
359.73	229.32
360.11	229.36
360.49	229.42
360.87	229.47
361.25	229.55
361.63	229.59
362.01	229.68
362.39	229.68
362.77	229.72
363.15	229.72
363.53	229.76
363.91	229.78
364.29	229.82
364.67	229.71
365.05	229.71
365.43	229.73
365.81	229.73
366.19	229.78
366.57	229.81
366.95	229.81
367.33	229.78
367.71	229.72
368.09	229.68
368.47	229.65
368.85	229.58
369.23	229.57
369.61	229.53
369.99	229.51
370.37	229.51
370.75	229.51
371.13	229.45
371.51	229.35
371.89	229.32
372.27	229.25
372.65	229.21
373.03	229.16
373.41	229.09
373.78	229.06
374.16	228.91
374.54	228.82
374.92	228.74
375.30	228.64
375.68	228.57
376.06	228.53
376.44	228.43
376.82	228.35
377.19	228.26
377.57	228.17
377.95	228.06
378.33	227.97
378.71	227.80
379.09	227.76
379.47	227.70
379.84	227.60
380.22	227.54
380.60	227.45
380.98	227.37
381.36	227.30
381.73	227.18
382.11	227.17
382.49	227.10
382.87	227.01
383.25	226.97
383.62	227.02
384.00	226.94
384.38	226.90
384.76	226.90
385.13	226.88
385.51	226.82
385.89	226.77
386.27	226.70
386.64	226.69
387.02	226.64
387.40	226.60
387.78	226.58
388.15	226.55
388.53	226.54
388.91	226.50
389.29	226.45
389.66	226.44
390.04	226.39
390.42	226.39
390.79	226.36
391.17	226.35
391.55	226.22
391.92	226.24
392.30	226.25
392.68	226.21
393.05	226.22
393.43	226.24
393.81	226.24
394.18	226.25
394.56	226.27
394.94	226.30
395.31	226.32
395.69	226.35
396.06	226.40
396.44	226.44
396.82	226.49
397.19	226.63
397.57	226.74
397.95	226.82
398.32	226.85
398.70	226.94
399.07	227.02
399.45	227.09
399.82	227.17
400.20	227.25
400.58	227.37
400.95	227.41
401.33	227.54
401.70	227.70
402.08	227.84
402.45	227.91
402.83	228.03
403.20	228.17
403.58	228.30
403.95	228.42
404.33	228.58
404.71	228.74
405.08	228.89
405.46	229.00
405.83	229.15
406.21	229.34
406.58	229.51
406.96	229.69
407.33	229.90
407.70	230.10
408.08	230.38
408.45	230.57
408.83	230.79
409.20	230.98
409.58	231.18
409.95	231.43
410.33	231.75
410.70	232.00
411.08	232.32
411.45	232.62
411.82	232.95
412.20	233.28
412.57	233.66
412.95	233.96
413.32	234.40
413.69	234.79
414.07	235.21
414.44	235.70
414.82	236.17
415.19	236.69
415.56	237.24
415.94	237.79
416.31	238.44
416.68	239.09
417.06	239.80
417.43	240.49
417.81	241.27
418.18	242.04
418.55	242.90
418.93	243.77
419.30	244.68
419.67	245.61
420.04	246.56
420.42	247.53
420.79	248.73
421.16	249.87
421.54	251.08
421.91	252.33
422.28	253.60
422.66	254.93
423.03	256.25
423.40	257.59
423.77	258.93
424.15	260.35
424.52	261.85
424.89	263.48
425.26	265.03
425.64	266.46
426.01	268.04
426.38	269.68
426.75	271.33
427.13	273.03
427.50	274.82
427.87	276.70
428.24	278.58
428.61	280.28
428.99	282.21
429.36	284.32
429.73	286.33
430.10	288.34
430.47	290.40
430.85	292.49
431.22	294.70
431.59	297.12
431.96	299.38
432.33	301.84
432.70	304.19
433.08	306.99
433.45	309.59
433.82	312.20
434.19	315.11
434.56	317.98
434.93	320.62
435.30	323.29
435.68	326.17
436.05	329.02
436.42	331.87
436.79	334.41
437.16	337.08
437.53	339.95
437.90	342.76
438.27	345.55
438.64	348.44
439.01	351.07
439.38	353.31
439.75	355.52
440.13	358.04
440.50	360.42
440.87	362.28
441.24	364.32
441.61	366.51
441.98	368.02
442.35	369.83
442.72	371.78
443.09	373.59
443.46	374.60
443.83	375.16
444.20	375.64
444.57	376.50
444.94	376.77
445.31	377.10
445.68	377.46
446.05	377.49
446.42	377.11
446.79	376.65
447.16	376.24
447.53	375.86
447.90	374.68
448.27	373.42
448.64	371.84
449.01	370.62
449.37	368.61
449.74	366.67
450.11	364.36
450.48	361.82
450.85	359.23
451.22	357.11
451.59	355.10
451.96	353.17
452.33	350.49
452.70	348.15
453.07	345.27
453.43	342.31
453.80	339.51
454.17	336.79
454.54	334.28
454.91	331.51
455.28	328.84
455.65	326.33
456.02	323.97
456.38	321.78
456.75	319.13
457.12	316.89
457.49	314.69
457.86	312.52
458.23	310.63
458.59	308.59
458.96	306.49
459.33	304.59
459.70	302.71
460.07	301.24
460.43	299.51
460.80	297.90
461.17	296.48
461.54	295.00
461.91	293.59
462.27	292.13
462.64	290.88
463.01	289.55
463.38	288.28
463.74	286.89
464.11	285.77
464.48	284.75
464.85	283.66
465.21	282.77
465.58	281.84
465.95	280.74
466.32	279.84
466.68	278.92
467.05	278.01
467.42	277.11
467.78	276.15
468.15	275.27
468.52	274.59
468.88	273.72
469.25	272.98
469.62	272.34
469.98	271.60
470.35	270.96
470.72	270.33
471.08	269.66
471.45	269.11
471.82	268.55
472.18	267.94
472.55	267.47
472.92	266.93
473.28	266.45
473.65	266.01
474.02	265.55
474.38	265.19
474.75	264.90
475.11	264.54
475.48	264.25
475.85	264.01
476.21	263.79
476.58	263.63
476.94	263.44
477.31	263.28
477.67	263.15
478.04	263.02
478.41	262.94
478.77	262.94
479.14	262.86
479.50	262.86
479.87	262.93
480.23	263.03
480.60	263.11
480.96	263.19
481.33	263.39
481.69	263.60
482.06	263.79
482.42	263.99
482.79	264.27
483.15	264.62
483.52	265.01
483.88	265.34
484.25	265.69
484.61	266.12
484.98	266.60
485.34	267.18
485.71	267.78
486.07	268.43
486.44	269.01
486.80	269.69
487.17	270.37
487.53	271.19
487.90	272.00
488.26	272.93
488.62	273.91
488.99	274.88
489.35	275.91
489.72	277.03
490.08	278.23
490.44	279.49
490.81	280.77
491.17	282.08
491.54	283.57
491.90	285.09
492.26	286.72
492.63	288.39
492.99	290.13
493.36	291.99
493.72	294.01
494.08	296.10
494.45	298.35
494.81	300.76
495.17	303.13
495.54	305.64
495.90	308.30
496.26	311.11
496.63	314.06
496.99	317.16
497.35	320.39
497.72	323.75
498.08	327.26
498.44	330.95
498.80	334.86
499.17	338.86
499.53	343.06
499.89	347.41
500.26	351.92
500.62	356.52
500.98	361.46
501.34	366.48
501.71	371.76
502.07	377.14
502.43	382.73
502.79	388.59
503.16	394.71
503.52	400.94
503.88	407.37
504.24	413.99
504.60	420.88
504.97	427.99
505.33	435.30
505.69	442.95
506.05	450.69
506.41	458.54
506.78	466.68
507.14	475.08
507.50	483.76
507.86	492.73
508.22	501.93
508.59	511.09
508.95	520.71
509.31	530.56
509.67	540.68
510.03	550.92
510.39	561.44
510.75	572.22
511.12	583.21
511.48	594.44
511.84	605.90
512.20	617.42
512.56	629.38
512.92	641.63
513.28	653.92
513.64	666.40
514.00	679.20
514.37	692.17
514.73	705.26
515.09	718.38
515.45	731.74
515.81	745.39
516.17	759.42
516.53	773.51
516.89	787.72
517.25	801.92
517.61	816.38
517.97	830.85
518.33	845.27
518.69	860.03
519.05	875.06
519.41	890.23
519.77	905.84
520.13	921.34
520.49	936.74
520.85	952.23
521.21	968.04
521.57	984.32
521.93	1000.18
522.29	1016.62
522.65	1032.80
523.01	1049.14
523.37	1065.25
523.73	1081.50
524.09	1097.61
524.45	1113.99
524.81	1130.70
525.17	1147.61
525.53	1164.63
525.89	1181.63
526.25	1198.54
526.61	1215.00
526.97	1231.77
527.33	1248.20
527.68	1264.87
528.04	1281.35
528.40	1298.06
528.76	1315.18
529.12	1331.69
529.48	1348.64
529.84	1364.64
530.20	1381.51
530.56	1398.63
530.91	1415.95
531.27	1432.83
531.63	1449.38
531.99	1466.05
532.35	1482.09
532.71	1497.99
533.07	1514.19
533.42	1530.12
533.78	1546.19
534.14	1562.65
534.50	1578.08
534.86	1594.01
535.21	1609.21
535.57	1625.32
535.93	1640.91
536.29	1655.73
536.65	1670.99
537.00	1685.95
537.36	1701.30
537.72	1715.78
538.08	1730.28
538.44	1744.39
538.79	1758.30
539.15	1772.11
539.51	1785.96
539.87	1800.35
540.22	1814.29
540.58	1828.22
540.94	1841.69
541.29	1854.77
541.65	1867.49
542.01	1880.92
542.37	1893.29
542.72	1905.80
543.08	1917.64
543.44	1930.17
543.79	1941.45
544.15	1952.60
544.51	1963.93
544.87	1975.07
545.22	1986.02
545.58	1996.18
545.94	2005.85
546.29	2015.84
546.65	2025.78
547.01	2034.90
547.36	2043.77
547.72	2052.23
548.07	2060.11
548.43	2068.28
548.79	2076.36
549.14	2083.86
549.50	2091.34
549.86	2099.23
550.21	2106.47
550.57	2113.64
550.92	2120.20
551.28	2127.46
551.64	2134.49
551.99	2141.20
552.35	2147.32
552.70	2153.38
553.06	2159.46
553.41	2165.81
553.77	2171.94
554.13	2178.02
554.48	2184.13
554.84	2189.47
555.19	2194.89
555.55	2200.10
555.90	2204.55
556.26	2209.33
556.61	2213.95
556.97	2217.84
557.32	2222.03
557.68	2226.23
558.03	2230.48
558.39	2234.13
558.74	2238.62
559.10	2242.48
559.45	2246.16
559.81	2250.38
560.16	2254.02
560.52	2256.99
560.87	2260.34
561.23	2262.68
561.58	2265.50
561.94	2267.98
562.29	2270.41
562.64	2272.90
563.00	2275.40
563.35	2278.86
563.71	2281.90
564.06	2285.21
564.42	2288.04
564.77	2290.19
565.12	2292.34
565.48	2294.10
565.83	2295.78
566.19	2296.90
566.54	2297.69
566.89	2298.60
567.25	2299.04
567.60	2300.51
567.96	2302.06
568.31	2302.82
568.66	2303.83
569.02	2304.32
569.37	2304.60
569.72	2305.16
570.08	2305.14
570.43	2304.98
570.78	2304.17
571.14	2302.53
571.49	2301.07
571.84	2300.74
572.20	2299.55
572.55	2298.41
572.90	2296.78
573.26	2295.30
573.61	2293.45
573.96	2291.35
574.31	2288.24
574.67	2285.10
575.02	2281.31
575.37	2277.89
575.72	2273.82
576.08	2270.51
576.43	2267.09
576.78	2263.32
577.13	2260.05
577.49	2256.97
577.84	2253.42
578.19	2249.62
578.54	2245.75
578.90	2241.25
579.25	2235.57
579.60	2230.57
579.95	2225.40
580.30	2220.21
580.66	2214.94
581.01	2209.92
581.36	2204.99
581.71	2200.56
582.06	2195.99
582.42	2191.26
582.77	2185.89
583.12	2181.26
583.47	2176.32
583.82	2171.11
584.17	2165.71
584.53	2160.18
584.88	2154.25
585.23	2148.19
585.58	2142.64
585.93	2137.20
586.28	2132.43
586.63	2127.27
586.98	2121.84
587.34	2117.10
587.69	2112.13
588.04	2106.66
588.39	2100.85
588.74	2094.24
589.09	2088.06
589.44	2081.21
589.79	2075.15
590.14	2069.39
590.49	2062.73
590.84	2056.26
591.19	2050.06
591.54	2043.52
591.89	2035.90
592.25	2029.00
592.60	2021.78
592.95	2013.91
593.30	2006.49
593.65	1998.64
594.00	1991.51
594.35	1984.35
594.70	1976.21
595.05	1968.78
595.40	1961.46
595.75	1953.96
596.10	1947.63
596.45	1940.80
596.80	1934.56
597.15	1927.80
597.50	1920.52
597.85	1914.11
598.19	1907.33
598.54	1900.25
598.89	1893.58
599.24	1887.64
599.59	1880.78
599.94	1874.46
600.29	1868.14
600.64	1861.48
600.99	1854.09
601.34	1847.12
601.69	1840.10
602.04	1833.06
602.39	1825.78
602.74	1818.97
603.08	1812.15
603.43	1805.51
603.78	1798.26
604.13	1790.98
604.48	1783.65
604.83	1776.96
605.18	1769.90
605.53	1761.89
605.87	1753.87
606.22	1746.54
606.57	1738.62
606.92	1731.36
607.27	1724.21
607.62	1717.30
607.96	1709.89
608.31	1703.14
608.66	1695.42
609.01	1687.89
609.36	1680.35
609.70	1672.26
610.05	1664.03
610.40	1656.29
610.75	1647.88
611.10	1640.28
611.44	1631.93
611.79	1623.90
612.14	1615.15
612.49	1606.03
612.83	1597.71
613.18	1589.62
613.53	1581.43
613.88	1572.96
614.22	1564.79
614.57	1556.30
614.92	1548.44
615.27	1540.88
615.61	1532.63
615.96	1524.73
616.31	1517.19
616.65	1509.97
617.00	1502.48
617.35	1495.02
617.70	1486.64
618.04	1478.13
618.39	1469.87
618.74	1462.28
619.08	1454.20
619.43	1446.79
619.78	1439.89
620.12	1432.65
620.47	1425.16
620.82	1417.14
621.16	1409.77
621.51	1402.17
621.85	1394.59
622.20	1386.00
622.55	1377.72
622.89	1369.96
623.24	1362.36
623.59	1354.97
623.93	1347.39
624.28	1340.11
624.62	1332.61
624.97	1325.57
625.32	1318.87
625.66	1311.85
626.01	1304.62
626.35	1297.12
626.70	1289.25
627.04	1281.57
627.39	1273.90
627.73	1266.46
628.08	1259.48
628.43	1252.19
628.77	1244.78
629.12	1237.07
629.46	1229.83
629.81	1222.48
630.15	1215.25
630.50	1207.95
630.84	1199.69
631.19	1191.86
631.53	1184.48
631.88	1177.03
632.22	1169.47
632.57	1162.28
632.91	1154.84
633.26	1147.56
633.60	1140.30
633.95	1133.33
634.29	1126.29
634.64	1119.56
634.98	1112.31
635.32	1105.30
635.67	1098.74
636.01	1092.20
636.36	1085.53
636.70	1079.24
637.05	1072.78
637.39	1066.40
637.73	1059.89
638.08	1054.14
638.42	1048.13
638.77	1041.76
639.11	1035.05
639.45	1028.77
639.80	1022.14
640.14	1015.72
640.49	1009.22
640.83	1002.91
641.17	996.65
641.52	990.49
641.86	984.16
642.20	978.35
642.55	972.17
642.89	965.60
643.23	959.04
643.58	953.38
643.92	947.08
644.26	940.92
644.61	934.91
644.95	928.88
645.29	922.25
645.64	915.50
645.98	909.13
646.32	903.42
646.66	897.34
647.01	891.52
647.35	885.86
647.69	880.05
648.04	874.60
648.38	868.90
648.72	862.78
649.06	856.75
649.41	850.84
649.75	844.82
650.09	838.95
650.43	833.18
650.78	827.07
651.12	821.21
651.46	815.55
651.80	809.74
652.14	804.37
652.49	799.07
652.83	793.91
653.17	788.19
653.51	782.41
653.85	776.98
654.20	771.36
654.54	765.34
654.88	759.64
655.22	753.71
655.56	748.01
655.90	742.60
656.25	737.40
656.59	732.08
656.93	727.01
657.27	721.92
657.61	716.53
657.95	711.40
658.29	706.24
658.64	701.05
658.98	695.81
659.32	690.37
659.66	685.16
660.00	679.93
660.34	675.07
660.68	670.20
661.02	665.29
661.36	660.60
661.70	656.17
662.05	651.82
662.39	647.52
662.73	643.09
663.07	638.73
663.41	634.21
663.75	629.69
664.09	625.12
664.43	620.75
664.77	616.64
665.11	612.31
665.45	608.26
665.79	604.20
666.13	600.12
666.47	596.03
666.81	591.88
667.15	587.78
667.49	583.91
667.83	580.12
668.17	576.10
668.51	572.02
668.85	568.01
669.19	564.20
669.53	560.36
669.87	556.50
670.21	552.83
670.55	549.30
670.89	545.94
671.23	542.53
671.57	539.04
671.91	535.54
672.25	532.18
672.58	528.68
672.92	525.30
673.26	522.17
673.60	519.08
673.94	516.03
674.28	513.11
674.62	510.18
674.96	507.08
675.30	504.23
675.64	501.36
675.97	498.63
676.31	495.73
676.65	492.84
676.99	490.17
677.33	487.36
677.67	484.53
678.01	481.49
678.34	478.56
678.68	475.72
679.02	472.93
679.36	470.18
679.70	467.52
680.04	464.76
680.37	461.86
680.71	459.10
681.05	456.52
681.39	453.86
681.73	451.21
682.06	448.74
682.40	446.22
682.74	443.77
683.08	441.27
683.42	438.75
683.75	436.30
684.09	433.79
684.43	431.35
684.77	428.96
685.10	426.69
685.44	424.40
685.78	422.19
686.12	419.95
686.45	417.69
686.79	415.41
687.13	413.29
687.46	411.18
687.80	409.06
688.14	406.87
688.48	404.86
688.81	402.58
689.15	400.45
689.49	398.31
689.82	396.21
690.16	394.08
690.50	392.11
690.83	390.22
691.17	388.29
691.51	386.38
691.84	384.51
692.18	382.57
692.52	380.60
692.85	378.69
693.19	376.82
693.52	374.96
693.86	373.15
694.20	371.34
694.53	369.59
694.87	367.78
695.21	366.00
695.54	364.16
695.88	362.49
696.21	360.78
696.55	359.16
696.88	357.49
697.22	355.87
697.56	354.25
697.89	352.55
698.23	350.92
698.56	349.27
698.90	347.67
699.23	346.02
699.57	344.47
699.90	342.91
700.24	341.38
700.58	339.83
700.91	338.34
701.25	336.89
701.58	335.51
701.92	334.11
702.25	332.67
702.59	331.33
702.92	329.98
703.26	328.68
703.59	327.34
703.93	326.15
704.26	324.94
704.60	323.68
704.93	322.39
705.26	321.14
705.60	319.95
705.93	318.82
706.27	317.76
706.60	316.72
706.94	315.62
707.27	314.52
707.61	313.50
707.94	312.46
708.27	311.35
708.61	310.25
708.94	309.23
709.28	308.35
709.61	307.35
709.94	306.44
710.28	305.38
710.61	304.42
710.95	303.32
711.28	302.38
711.61	301.41
711.95	300.47
712.28	299.52
712.61	298.59
712.95	297.67
713.28	296.79
713.61	295.87
713.95	295.02
714.28	294.16
714.61	293.29
714.95	292.45
715.28	291.61
715.61	290.74
715.95	289.90
716.28	289.00
716.61	288.20
716.95	287.38
717.28	286.67
717.61	285.94
717.94	285.23
718.28	284.41
718.61	283.73
718.94	283.07
719.27	282.42
719.61	281.80
719.94	281.13
720.27	280.42
720.60	279.77
720.94	279.15
721.27	278.56
721.60	278.05
721.93	277.46
722.27	276.97
722.60	276.42
722.93	275.86
723.26	275.38
723.59	274.79
723.93	274.28
724.26	273.76
724.59	273.17
724.92	272.66
725.25	272.22
725.59	271.69
725.92	271.20
726.25	270.69
726.58	270.18
726.91	269.69
727.24	269.24
727.57	268.82
727.91	268.33
728.24	267.87
728.57	267.38
728.90	266.95
729.23	266.44
729.56	266.05
729.89	265.63
730.22	265.12
730.55	264.69
730.89	264.25
731.22	263.80
731.55	263.36
731.88	262.96
732.21	262.52
732.54	262.13
732.87	261.71
733.20	261.35
733.53	261.00
733.86	260.64
734.19	260.27
734.52	259.88
734.85	259.58
735.18	259.16
735.51	258.81
735.84	258.42
736.17	258.07
736.50	257.64
736.83	257.39
737.16	257.06
737.49	256.73
737.82	256.36
738.15	256.02
738.48	255.70
738.81	255.35
739.14	255.01
739.47	254.69
739.80	254.40
740.13	254.06
740.46	253.70
740.79	253.39
741.12	253.06
741.45	252.71
741.78	252.35
742.11	252.09
742.44	251.75
742.77	251.47
743.10	251.16
743.43	250.87
743.75	250.47
744.08	250.34
744.41	250.06
744.74	249.79
745.07	249.48
745.40	249.23
745.73	249.00
746.06	248.73
746.39	248.46
746.71	248.13
747.04	247.86
747.37	247.57
747.70	247.27
748.03	247.04
748.36	246.84
748.68	246.59
749.01	246.31
749.34	246.04
749.67	245.81
750.00	245.58
750.33	245.44
750.65	245.23
750.98	244.89
751.31	244.63
751.64	244.44
751.97	244.27
752.29	244.04
752.62	243.78
752.95	243.57
753.28	243.34
753.60	243.16
753.93	242.98
754.26	242.80
754.59	242.60
754.91	242.36
755.24	242.14
755.57	241.97
755.90	241.82
756.22	241.65
756.55	241.44
756.88	241.22
757.20	240.97
757.53	240.78
757.86	240.61
758.19	240.50
758.51	240.33
758.84	240.14
759.17	239.98
759.49	239.84
759.82	239.72
760.15	239.62
760.47	239.46
760.80	239.29
761.13	239.18
761.45	239.08
761.78	238.99
762.11	238.86
762.43	238.70
762.76	238.55
763.08	238.43
763.41	238.34
763.74	238.27
764.06	238.13
764.39	237.99
764.71	237.87
765.04	237.71
765.37	237.60
765.69	237.52
766.02	237.40
766.34	237.27
766.67	237.13
767.00	236.98
767.32	236.93
767.65	236.91
767.97	236.78
768.30	236.71
768.62	236.57
768.95	236.44
769.27	236.35
769.60	236.26
769.92	236.14
770.25	236.02
770.57	235.87
770.90	235.77
771.22	235.69
771.55	235.59
771.87	235.51
772.20	235.38
772.52	235.34
772.85	235.38
773.17	235.30
773.50	235.18
773.82	235.10
774.15	234.94
774.47	234.76
774.80	234.70
775.12	234.56
775.45	234.48
775.77	234.39
776.09	234.33
776.42	234.25
776.74	234.22
777.07	234.13
777.39	234.10
777.72	234.02
778.04	233.96
778.36	233.88
778.69	233.80
779.01	233.77
779.33	233.61
779.66	233.42
779.98	233.30
780.31	233.27
780.63	233.23
780.95	233.22
781.28	233.18
781.60	233.11
781.92	233.03
782.25	232.92
782.57	232.87
782.89	232.78
783.22	232.71
783.54	232.60
783.86	232.53
784.19	232.42
784.51	232.36
784.83	232.27
785.16	232.21
785.48	232.16
785.80	232.06
786.12	232.05
786.45	232.00
786.77	231.99
787.09	231.94
