SpectraSuite Data File
++++++++++++++++++++++++++++++++++++
Date: Fri Feb 01 15:26:56 EST 2013
User: group
Dark Spectrum Present: No
Reference Spectrum Present: No
Number of Sampled Component Spectra: 1
Spectrometers: USB2E7196
Integration Time (usec): 35000 (USB2E7196)
Spectra Averaged: 100 (USB2E7196)
Boxcar Smoothing: 10 (USB2E7196)
Correct for Electrical Dark: No (USB2E7196)
Strobe/Lamp Enabled: No (USB2E7196)
Correct for Detector Non-linearity: No (USB2E7196)
Correct for Stray Light: No (USB2E7196)
Number of Pixels in Processed Spectrum: 2048
>>>>>Begin Processed Spectral Data<<<<<
339.09	0.00
339.48	215.02
339.86	216.28
340.24	217.80
340.63	219.57
341.01	221.84
341.39	221.98
341.78	223.21
342.16	224.91
342.54	225.35
342.93	213.32
343.31	224.10
343.69	224.64
344.07	225.10
344.46	225.53
344.84	225.90
345.22	226.15
345.60	226.38
345.99	226.54
346.37	226.67
346.75	226.76
347.13	226.82
347.52	226.87
347.90	226.97
348.28	227.04
348.66	227.09
349.05	227.10
349.43	227.13
349.81	227.21
350.19	227.25
350.57	227.32
350.96	227.37
351.34	227.45
351.72	227.48
352.10	227.59
352.48	227.65
352.87	227.71
353.25	227.77
353.63	227.88
354.01	228.00
354.39	228.06
354.77	228.11
355.15	228.21
355.54	228.27
355.92	228.29
356.30	228.32
356.68	228.45
357.06	228.52
357.44	228.59
357.82	228.58
358.20	228.65
358.58	228.70
358.97	228.75
359.35	228.83
359.73	228.96
360.11	229.00
360.49	229.04
360.87	229.06
361.25	229.11
361.63	229.14
362.01	229.16
362.39	229.19
362.77	229.25
363.15	229.30
363.53	229.35
363.91	229.37
364.29	229.40
364.67	229.30
365.05	229.31
365.43	229.33
365.81	229.40
366.19	229.45
366.57	229.49
366.95	229.51
367.33	229.48
367.71	229.46
368.09	229.45
368.47	229.46
368.85	229.45
369.23	229.46
369.61	229.41
369.99	229.40
370.37	229.36
370.75	229.35
371.13	229.32
371.51	229.21
371.89	229.17
372.27	229.15
372.65	229.10
373.03	229.05
373.41	228.98
373.78	228.91
374.16	228.79
374.54	228.73
374.92	228.67
375.30	228.60
375.68	228.53
376.06	228.47
376.44	228.39
376.82	228.35
377.19	228.27
377.57	228.19
377.95	228.11
378.33	228.05
378.71	227.93
379.09	227.86
379.47	227.83
379.84	227.73
380.22	227.63
380.60	227.58
380.98	227.53
381.36	227.48
381.73	227.41
382.11	227.38
382.49	227.27
382.87	227.16
383.25	227.10
383.62	227.13
384.00	227.04
384.38	226.99
384.76	226.94
385.13	226.92
385.51	226.85
385.89	226.76
386.27	226.73
386.64	226.70
387.02	226.64
387.40	226.59
387.78	226.59
388.15	226.57
388.53	226.52
388.91	226.46
389.29	226.43
389.66	226.41
390.04	226.35
390.42	226.37
390.79	226.38
391.17	226.37
391.55	226.26
391.92	226.31
392.30	226.33
392.68	226.28
393.05	226.26
393.43	226.28
393.81	226.34
394.18	226.32
394.56	226.34
394.94	226.39
395.31	226.42
395.69	226.48
396.06	226.54
396.44	226.59
396.82	226.63
397.19	226.73
397.57	226.77
397.95	226.84
398.32	226.85
398.70	226.91
399.07	227.00
399.45	227.06
399.82	227.11
400.20	227.16
400.58	227.27
400.95	227.33
401.33	227.44
401.70	227.57
402.08	227.69
402.45	227.75
402.83	227.84
403.20	227.96
403.58	228.03
403.95	228.12
404.33	228.26
404.71	228.40
405.08	228.55
405.46	228.70
405.83	228.84
406.21	229.00
406.58	229.18
406.96	229.35
407.33	229.55
407.70	229.72
408.08	229.98
408.45	230.18
408.83	230.42
409.20	230.62
409.58	230.85
409.95	231.11
410.33	231.42
410.70	231.67
411.08	231.98
411.45	232.28
411.82	232.62
412.20	232.98
412.57	233.39
412.95	233.72
413.32	234.13
413.69	234.57
414.07	235.02
414.44	235.48
414.82	235.96
415.19	236.49
415.56	237.06
415.94	237.61
416.31	238.23
416.68	238.85
417.06	239.59
417.43	240.24
417.81	241.01
418.18	241.78
418.55	242.61
418.93	243.50
419.30	244.43
419.67	245.39
420.04	246.32
420.42	247.31
420.79	248.48
421.16	249.60
421.54	250.80
421.91	252.01
422.28	253.29
422.66	254.62
423.03	255.95
423.40	257.28
423.77	258.71
424.15	260.15
424.52	261.66
424.89	263.27
425.26	264.86
425.64	266.29
426.01	267.91
426.38	269.57
426.75	271.23
427.13	272.94
427.50	274.74
427.87	276.66
428.24	278.53
428.61	280.25
428.99	282.22
429.36	284.33
429.73	286.42
430.10	288.38
430.47	290.46
430.85	292.57
431.22	294.84
431.59	297.23
431.96	299.47
432.33	301.97
432.70	304.36
433.08	307.10
433.45	309.75
433.82	312.37
434.19	315.28
434.56	318.12
434.93	320.77
435.30	323.40
435.68	326.27
436.05	329.09
436.42	331.95
436.79	334.43
437.16	337.11
437.53	339.91
437.90	342.77
438.27	345.49
438.64	348.32
439.01	350.92
439.38	353.15
439.75	355.33
440.13	357.80
440.50	360.14
440.87	362.04
441.24	363.99
441.61	366.15
441.98	367.63
442.35	369.40
442.72	371.26
443.09	373.05
443.46	374.05
443.83	374.63
444.20	375.03
444.57	375.91
444.94	376.21
445.31	376.55
445.68	376.89
446.05	376.96
446.42	376.57
446.79	376.12
447.16	375.66
447.53	375.37
447.90	374.19
448.27	373.00
448.64	371.39
449.01	370.24
449.37	368.24
449.74	366.33
450.11	364.09
450.48	361.63
450.85	359.08
451.22	356.94
451.59	354.93
451.96	353.04
452.33	350.44
452.70	348.05
453.07	345.23
453.43	342.32
453.80	339.56
454.17	336.86
454.54	334.31
454.91	331.57
455.28	328.86
455.65	326.36
456.02	323.90
456.38	321.74
456.75	319.09
457.12	316.82
457.49	314.58
457.86	312.38
458.23	310.50
458.59	308.46
458.96	306.36
459.33	304.48
459.70	302.60
460.07	301.07
460.43	299.36
460.80	297.74
461.17	296.29
461.54	294.77
461.91	293.38
462.27	291.97
462.64	290.74
463.01	289.37
463.38	288.08
463.74	286.73
464.11	285.57
464.48	284.51
464.85	283.40
465.21	282.55
465.58	281.63
465.95	280.55
466.32	279.63
466.68	278.69
467.05	277.78
467.42	276.87
467.78	275.93
468.15	275.03
468.52	274.33
468.88	273.47
469.25	272.70
469.62	272.03
469.98	271.32
470.35	270.68
470.72	270.08
471.08	269.43
471.45	268.86
471.82	268.31
472.18	267.70
472.55	267.24
472.92	266.70
473.28	266.23
473.65	265.78
474.02	265.36
474.38	265.02
474.75	264.69
475.11	264.36
475.48	264.12
475.85	263.89
476.21	263.67
476.58	263.48
476.94	263.36
477.31	263.17
477.67	263.01
478.04	262.89
478.41	262.84
478.77	262.90
479.14	262.85
479.50	262.86
479.87	262.97
480.23	263.08
480.60	263.13
480.96	263.23
481.33	263.43
481.69	263.64
482.06	263.81
482.42	264.06
482.79	264.30
483.15	264.62
483.52	265.02
483.88	265.35
484.25	265.72
484.61	266.11
484.98	266.58
485.34	267.14
485.71	267.74
486.07	268.34
486.44	268.89
486.80	269.57
487.17	270.29
487.53	271.09
487.90	271.93
488.26	272.90
488.62	273.90
488.99	274.86
489.35	275.85
489.72	276.98
490.08	278.18
490.44	279.42
490.81	280.74
491.17	282.10
491.54	283.58
491.90	285.13
492.26	286.84
492.63	288.56
492.99	290.34
493.36	292.21
493.72	294.24
494.08	296.35
494.45	298.59
494.81	300.99
495.17	303.42
495.54	306.03
495.90	308.72
496.26	311.52
496.63	314.49
496.99	317.63
497.35	320.94
497.72	324.33
498.08	327.82
498.44	331.50
498.80	335.41
499.17	339.46
499.53	343.61
499.89	347.94
500.26	352.50
500.62	357.18
500.98	362.17
501.34	367.19
501.71	372.52
502.07	378.03
502.43	383.60
502.79	389.38
503.16	395.43
503.52	401.66
503.88	408.08
504.24	414.70
504.60	421.64
504.97	428.73
505.33	436.09
505.69	443.85
506.05	451.58
506.41	459.48
506.78	467.65
507.14	476.13
507.50	484.80
507.86	493.80
508.22	502.99
508.59	512.23
508.95	521.91
509.31	531.70
509.67	541.75
510.03	552.06
510.39	562.67
510.75	573.45
511.12	584.47
511.48	595.81
511.84	607.27
512.20	618.74
512.56	630.66
512.92	642.81
513.28	655.10
513.64	667.65
514.00	680.38
514.37	693.34
514.73	706.43
515.09	719.64
515.45	732.95
515.81	746.62
516.17	760.66
516.53	774.75
516.89	788.91
517.25	803.12
517.61	817.57
517.97	832.09
518.33	846.59
518.69	861.35
519.05	876.34
519.41	891.62
519.77	907.21
520.13	922.69
520.49	938.03
520.85	953.52
521.21	969.31
521.57	985.58
521.93	1001.42
522.29	1017.82
522.65	1034.00
523.01	1050.24
523.37	1066.25
523.73	1082.41
524.09	1098.60
524.45	1115.01
524.81	1131.70
525.17	1148.63
525.53	1165.56
525.89	1182.47
526.25	1199.35
526.61	1215.84
526.97	1232.46
527.33	1248.89
527.68	1265.62
528.04	1282.20
528.40	1298.91
528.76	1316.01
529.12	1332.67
529.48	1349.58
529.84	1365.73
530.20	1382.49
530.56	1399.68
530.91	1417.13
531.27	1433.97
531.63	1450.45
531.99	1467.11
532.35	1483.18
532.71	1499.01
533.07	1515.27
533.42	1531.24
533.78	1547.33
534.14	1563.69
534.50	1579.24
534.86	1595.20
535.21	1610.38
535.57	1626.37
535.93	1641.89
536.29	1656.65
536.65	1671.78
537.00	1686.60
537.36	1701.95
537.72	1716.47
538.08	1730.95
538.44	1744.88
538.79	1758.81
539.15	1772.63
539.51	1786.52
539.87	1800.81
540.22	1814.75
540.58	1828.68
540.94	1842.14
541.29	1855.25
541.65	1867.85
542.01	1881.18
542.37	1893.63
542.72	1906.18
543.08	1918.05
543.44	1930.51
543.79	1941.80
544.15	1952.75
544.51	1964.43
544.87	1975.47
545.22	1986.47
545.58	1996.59
545.94	2006.34
546.29	2016.23
546.65	2026.10
547.01	2035.29
547.36	2044.34
547.72	2052.85
548.07	2060.68
548.43	2068.83
548.79	2076.80
549.14	2084.37
549.50	2091.72
549.86	2099.55
550.21	2106.78
550.57	2114.09
550.92	2120.63
551.28	2127.84
551.64	2135.02
551.99	2141.49
552.35	2147.59
552.70	2153.62
553.06	2159.48
553.41	2165.78
553.77	2171.91
554.13	2178.02
554.48	2184.01
554.84	2189.21
555.19	2194.49
555.55	2199.63
555.90	2204.12
556.26	2208.95
556.61	2213.79
556.97	2217.87
557.32	2221.87
557.68	2225.99
558.03	2230.18
558.39	2233.99
558.74	2238.55
559.10	2242.30
559.45	2245.84
559.81	2250.23
560.16	2254.09
560.52	2257.39
560.87	2260.91
561.23	2263.44
561.58	2266.33
561.94	2268.98
562.29	2271.48
562.64	2274.23
563.00	2276.92
563.35	2280.43
563.71	2283.59
564.06	2286.77
564.42	2289.72
564.77	2292.29
565.12	2294.55
565.48	2296.35
565.83	2298.10
566.19	2299.34
566.54	2300.46
566.89	2301.65
567.25	2302.11
567.60	2303.28
567.96	2304.94
568.31	2305.84
568.66	2307.01
569.02	2307.56
569.37	2307.83
569.72	2308.53
570.08	2308.58
570.43	2308.44
570.78	2307.82
571.14	2306.23
571.49	2304.75
571.84	2304.40
572.20	2303.03
572.55	2302.01
572.90	2300.58
573.26	2299.19
573.61	2297.54
573.96	2295.63
574.31	2292.58
574.67	2289.50
575.02	2285.99
575.37	2282.61
575.72	2278.63
576.08	2275.25
576.43	2271.81
576.78	2268.03
577.13	2264.86
577.49	2261.56
577.84	2258.06
578.19	2254.11
578.54	2250.22
578.90	2246.07
579.25	2240.45
579.60	2235.38
579.95	2230.25
580.30	2225.04
580.66	2219.87
581.01	2214.78
581.36	2209.79
581.71	2205.59
582.06	2200.95
582.42	2196.41
582.77	2191.00
583.12	2186.22
583.47	2181.24
583.82	2176.10
584.17	2170.73
584.53	2165.25
584.88	2159.49
585.23	2153.63
585.58	2148.20
585.93	2142.72
586.28	2137.79
586.63	2132.53
586.98	2127.50
587.34	2122.64
587.69	2117.63
588.04	2112.29
588.39	2106.53
588.74	2100.07
589.09	2093.82
589.44	2086.98
589.79	2080.81
590.14	2075.13
590.49	2068.65
590.84	2062.13
591.19	2056.05
591.54	2049.68
591.89	2041.95
592.25	2035.16
592.60	2027.81
592.95	2020.08
593.30	2012.66
593.65	2005.00
594.00	1997.93
594.35	1990.69
594.70	1982.70
595.05	1975.27
595.40	1967.92
595.75	1960.28
596.10	1953.87
596.45	1946.95
596.80	1940.78
597.15	1934.08
597.50	1926.93
597.85	1920.44
598.19	1913.90
598.54	1906.79
598.89	1900.07
599.24	1894.27
599.59	1887.51
599.94	1881.31
600.29	1875.05
600.64	1868.49
600.99	1860.90
601.34	1854.09
601.69	1847.04
602.04	1839.99
602.39	1832.79
602.74	1825.81
603.08	1819.16
603.43	1812.36
603.78	1805.20
604.13	1798.01
604.48	1790.61
604.83	1783.79
605.18	1776.57
605.53	1768.34
605.87	1760.23
606.22	1752.89
606.57	1744.84
606.92	1737.49
607.27	1730.21
607.62	1723.26
607.96	1715.91
608.31	1709.35
608.66	1701.59
609.01	1694.00
609.36	1686.49
609.70	1678.38
610.05	1670.24
610.40	1662.49
610.75	1654.06
611.10	1646.35
611.44	1638.04
611.79	1630.16
612.14	1621.45
612.49	1612.55
612.83	1604.37
613.18	1596.37
613.53	1588.25
613.88	1579.81
614.22	1571.51
614.57	1563.06
614.92	1554.89
615.27	1547.28
615.61	1538.95
615.96	1531.03
616.31	1523.40
616.65	1516.09
617.00	1508.53
617.35	1500.93
617.70	1492.51
618.04	1484.02
618.39	1475.80
618.74	1468.00
619.08	1459.55
619.43	1451.99
619.78	1444.98
620.12	1437.70
620.47	1430.14
620.82	1422.01
621.16	1414.58
621.51	1407.06
621.85	1399.33
622.20	1390.87
622.55	1382.58
622.89	1374.78
623.24	1367.22
623.59	1359.87
623.93	1352.33
624.28	1345.13
624.62	1337.68
624.97	1330.51
625.32	1323.89
625.66	1316.74
626.01	1309.61
626.35	1302.21
626.70	1294.40
627.04	1286.68
627.39	1279.04
627.73	1271.60
628.08	1264.62
628.43	1257.20
628.77	1249.76
629.12	1242.10
629.46	1234.86
629.81	1227.51
630.15	1220.25
630.50	1212.77
630.84	1204.53
631.19	1196.67
631.53	1189.31
631.88	1181.66
632.22	1174.05
632.57	1166.68
632.91	1159.18
633.26	1151.73
633.60	1144.43
633.95	1137.32
634.29	1130.22
634.64	1123.48
634.98	1116.07
635.32	1109.00
635.67	1102.59
636.01	1095.93
636.36	1089.22
636.70	1082.77
637.05	1076.19
637.39	1069.75
637.73	1063.22
638.08	1057.31
638.42	1051.24
638.77	1044.60
639.11	1038.04
639.45	1031.71
639.80	1024.98
640.14	1018.66
640.49	1012.13
640.83	1005.75
641.17	999.55
641.52	993.25
641.86	986.86
642.20	981.03
642.55	974.78
642.89	968.20
643.23	961.70
643.58	955.93
643.92	949.71
644.26	943.62
644.61	937.49
644.95	931.56
645.29	924.95
645.64	918.23
645.98	911.94
646.32	906.06
646.66	900.00
647.01	894.26
647.35	888.52
647.69	882.72
648.04	877.24
648.38	871.46
648.72	865.39
649.06	859.30
649.41	853.48
649.75	847.41
650.09	841.49
650.43	835.62
650.78	829.52
651.12	823.56
651.46	817.81
651.80	812.07
652.14	806.59
652.49	801.26
652.83	796.10
653.17	790.37
653.51	784.64
653.85	779.24
654.20	773.68
654.54	767.74
654.88	762.06
655.22	756.26
655.56	750.54
655.90	745.18
656.25	739.93
656.59	734.56
656.93	729.58
657.27	724.40
657.61	719.04
657.95	713.85
658.29	708.80
658.64	703.60
658.98	698.38
659.32	692.92
659.66	687.71
660.00	682.37
660.34	677.53
660.68	672.68
661.02	667.71
661.36	662.97
661.70	658.47
662.05	654.08
662.39	649.72
662.73	645.32
663.07	640.95
663.41	636.52
663.75	632.01
664.09	627.42
664.43	623.07
664.77	618.97
665.11	614.76
665.45	610.60
665.79	606.46
666.13	602.32
666.47	598.27
666.81	594.17
667.15	590.13
667.49	586.28
667.83	582.50
668.17	578.52
668.51	574.40
668.85	570.36
669.19	566.54
669.53	562.65
669.87	558.71
670.21	554.98
670.55	551.36
670.89	547.96
671.23	544.53
671.57	541.01
671.91	537.44
672.25	534.00
672.58	530.52
672.92	527.22
673.26	524.05
673.60	520.91
673.94	517.76
674.28	514.83
674.62	511.85
674.96	508.72
675.30	505.81
675.64	502.86
675.97	500.13
676.31	497.27
676.65	494.36
676.99	491.68
677.33	488.82
677.67	485.92
678.01	482.91
678.34	479.90
678.68	477.06
679.02	474.27
679.36	471.46
679.70	468.74
680.04	465.85
680.37	463.00
680.71	460.17
681.05	457.56
681.39	454.78
681.73	452.08
682.06	449.59
682.40	447.00
682.74	444.56
683.08	441.98
683.42	439.38
683.75	436.88
684.09	434.40
684.43	431.95
684.77	429.52
685.10	427.13
685.44	424.81
685.78	422.53
686.12	420.29
686.45	418.02
686.79	415.71
687.13	413.57
687.46	411.42
687.80	409.30
688.14	407.10
688.48	405.07
688.81	402.84
689.15	400.67
689.49	398.55
689.82	396.44
690.16	394.34
690.50	392.36
690.83	390.41
691.17	388.42
691.51	386.55
691.84	384.73
692.18	382.83
692.52	380.88
692.85	379.00
693.19	377.11
693.52	375.29
693.86	373.53
694.20	371.80
694.53	370.02
694.87	368.14
695.21	366.35
695.54	364.57
695.88	362.85
696.21	361.16
696.55	359.48
696.88	357.81
697.22	356.18
697.56	354.63
697.89	352.99
698.23	351.37
698.56	349.77
698.90	348.14
699.23	346.48
699.57	344.96
699.90	343.40
700.24	341.84
700.58	340.30
700.91	338.77
701.25	337.33
701.58	335.94
701.92	334.64
702.25	333.31
702.59	331.93
702.92	330.61
703.26	329.28
703.59	328.02
703.93	326.85
704.26	325.63
704.60	324.28
704.93	323.05
705.26	321.81
705.60	320.62
705.93	319.49
706.27	318.46
706.60	317.37
706.94	316.29
707.27	315.19
707.61	314.17
707.94	313.15
708.27	312.03
708.61	310.97
708.94	309.90
709.28	308.89
709.61	307.90
709.94	306.94
710.28	305.95
710.61	304.94
710.95	303.87
711.28	302.95
711.61	302.02
711.95	301.04
712.28	300.07
712.61	299.09
712.95	298.14
713.28	297.25
713.61	296.38
713.95	295.46
714.28	294.60
714.61	293.71
714.95	292.86
715.28	292.01
715.61	291.12
715.95	290.28
716.28	289.44
716.61	288.61
716.95	287.84
717.28	287.09
717.61	286.35
717.94	285.61
718.28	284.80
718.61	284.06
718.94	283.40
719.27	282.73
719.61	282.08
719.94	281.43
720.27	280.73
720.60	280.05
720.94	279.42
721.27	278.81
721.60	278.24
721.93	277.62
722.27	277.03
722.60	276.47
722.93	275.91
723.26	275.34
723.59	274.80
723.93	274.25
724.26	273.70
724.59	273.13
724.92	272.59
725.25	272.08
725.59	271.54
725.92	271.01
726.25	270.48
726.58	270.01
726.91	269.51
727.24	269.03
727.57	268.59
727.91	268.07
728.24	267.62
728.57	267.12
728.90	266.68
729.23	266.22
729.56	265.80
729.89	265.32
730.22	264.83
730.55	264.37
730.89	263.89
731.22	263.41
731.55	262.98
731.88	262.56
732.21	262.10
732.54	261.68
732.87	261.28
733.20	260.91
733.53	260.52
733.86	260.14
734.19	259.74
734.52	259.33
734.85	259.04
735.18	258.60
735.51	258.26
735.84	257.94
736.17	257.58
736.50	257.17
736.83	256.94
737.16	256.63
737.49	256.30
737.82	255.98
738.15	255.67
738.48	255.33
738.81	254.99
739.14	254.68
739.47	254.35
739.80	254.03
740.13	253.75
740.46	253.44
740.79	253.11
741.12	252.83
741.45	252.55
741.78	252.22
742.11	251.97
742.44	251.64
742.77	251.27
743.10	250.96
743.43	250.68
743.75	250.31
744.08	250.17
744.41	249.88
744.74	249.59
745.07	249.32
745.40	249.10
745.73	248.90
746.06	248.67
746.39	248.45
746.71	248.18
747.04	247.89
747.37	247.62
747.70	247.37
748.03	247.14
748.36	246.90
748.68	246.63
749.01	246.41
749.34	246.19
749.67	245.98
750.00	245.77
750.33	245.61
750.65	245.39
750.98	245.06
751.31	244.88
751.64	244.69
751.97	244.53
752.29	244.30
752.62	244.03
752.95	243.82
753.28	243.59
753.60	243.37
753.93	243.16
754.26	242.96
754.59	242.78
754.91	242.58
755.24	242.39
755.57	242.22
755.90	242.02
756.22	241.83
756.55	241.65
756.88	241.47
757.20	241.24
757.53	241.05
757.86	240.90
758.19	240.72
758.51	240.55
758.84	240.33
759.17	240.15
759.49	239.99
759.82	239.87
760.15	239.73
760.47	239.65
760.80	239.48
761.13	239.33
761.45	239.13
761.78	239.00
762.11	238.84
762.43	238.67
762.76	238.54
763.08	238.39
763.41	238.28
763.74	238.16
764.06	238.01
764.39	237.90
764.71	237.74
765.04	237.58
765.37	237.44
765.69	237.34
766.02	237.21
766.34	237.09
766.67	236.92
767.00	236.82
767.32	236.71
767.65	236.66
767.97	236.54
768.30	236.47
768.62	236.30
768.95	236.21
769.27	236.11
769.60	236.01
769.92	235.91
770.25	235.78
770.57	235.66
770.90	235.58
771.22	235.45
771.55	235.37
771.87	235.29
772.20	235.19
772.52	235.17
772.85	235.19
773.17	235.10
773.50	235.00
773.82	234.89
774.15	234.74
774.47	234.58
774.80	234.48
775.12	234.39
775.45	234.30
775.77	234.22
776.09	234.15
776.42	234.05
776.74	234.01
777.07	233.94
777.39	233.86
777.72	233.78
778.04	233.69
778.36	233.62
778.69	233.54
779.01	233.47
779.33	233.29
779.66	233.14
779.98	233.04
780.31	232.96
780.63	232.97
780.95	232.95
781.28	232.88
781.60	232.83
781.92	232.76
782.25	232.69
782.57	232.62
782.89	232.56
783.22	232.48
783.54	232.38
783.86	232.31
784.19	232.28
784.51	232.24
784.83	232.20
785.16	232.11
785.48	232.08
785.80	232.02
786.12	231.99
786.45	231.91
786.77	231.87
787.09	231.82
