SpectraSuite Data File
++++++++++++++++++++++++++++++++++++
Date: Fri Feb 01 14:55:38 EST 2013
User: group
Dark Spectrum Present: No
Reference Spectrum Present: No
Number of Sampled Component Spectra: 1
Spectrometers: USB2E7196
Integration Time (usec): 35000 (USB2E7196)
Spectra Averaged: 100 (USB2E7196)
Boxcar Smoothing: 10 (USB2E7196)
Correct for Electrical Dark: No (USB2E7196)
Strobe/Lamp Enabled: No (USB2E7196)
Correct for Detector Non-linearity: No (USB2E7196)
Correct for Stray Light: No (USB2E7196)
Number of Pixels in Processed Spectrum: 2048
>>>>>Begin Processed Spectral Data<<<<<
339.09	0.00
339.48	215.28
339.86	216.74
340.24	218.32
340.63	219.49
341.01	222.26
341.39	222.18
341.78	224.00
342.16	224.65
342.54	225.93
342.93	213.76
343.31	224.54
343.69	225.09
344.07	225.54
344.46	225.99
344.84	226.37
345.22	226.63
345.60	226.88
345.99	227.06
346.37	227.17
346.75	227.27
347.13	227.34
347.52	227.38
347.90	227.47
348.28	227.47
348.66	227.48
349.05	227.48
349.43	227.52
349.81	227.59
350.19	227.62
350.57	227.67
350.96	227.73
351.34	227.84
351.72	227.94
352.10	228.05
352.48	228.10
352.87	228.14
353.25	228.20
353.63	228.24
354.01	228.29
354.39	228.39
354.77	228.44
355.15	228.52
355.54	228.59
355.92	228.60
356.30	228.72
356.68	228.90
357.06	228.98
357.44	229.05
357.82	229.09
358.20	229.19
358.58	229.25
358.97	229.32
359.35	229.39
359.73	229.48
360.11	229.54
360.49	229.57
360.87	229.66
361.25	229.71
361.63	229.81
362.01	229.87
362.39	229.88
362.77	229.92
363.15	229.95
363.53	229.97
363.91	229.99
364.29	229.99
364.67	229.88
365.05	229.89
365.43	229.90
365.81	229.90
366.19	229.91
366.57	229.96
366.95	229.95
367.33	229.91
367.71	229.88
368.09	229.88
368.47	229.86
368.85	229.81
369.23	229.79
369.61	229.69
369.99	229.69
370.37	229.67
370.75	229.66
371.13	229.61
371.51	229.53
371.89	229.50
372.27	229.45
372.65	229.38
373.03	229.31
373.41	229.25
373.78	229.17
374.16	229.07
374.54	228.95
374.92	228.87
375.30	228.77
375.68	228.65
376.06	228.57
376.44	228.46
376.82	228.42
377.19	228.33
377.57	228.29
377.95	228.16
378.33	228.05
378.71	227.93
379.09	227.86
379.47	227.83
379.84	227.77
380.22	227.69
380.60	227.63
380.98	227.55
381.36	227.46
381.73	227.42
382.11	227.32
382.49	227.26
382.87	227.17
383.25	227.10
383.62	227.14
384.00	227.05
384.38	227.01
384.76	226.96
385.13	226.94
385.51	226.87
385.89	226.80
386.27	226.81
386.64	226.77
387.02	226.74
387.40	226.64
387.78	226.58
388.15	226.52
388.53	226.48
388.91	226.47
389.29	226.47
389.66	226.40
390.04	226.39
390.42	226.39
390.79	226.38
391.17	226.40
391.55	226.30
391.92	226.27
392.30	226.30
392.68	226.31
393.05	226.32
393.43	226.30
393.81	226.34
394.18	226.30
394.56	226.31
394.94	226.34
395.31	226.42
395.69	226.47
396.06	226.53
396.44	226.58
396.82	226.60
397.19	226.70
397.57	226.78
397.95	226.88
398.32	226.94
398.70	227.04
399.07	227.12
399.45	227.20
399.82	227.30
400.20	227.36
400.58	227.42
400.95	227.48
401.33	227.64
401.70	227.85
402.08	227.98
402.45	228.09
402.83	228.22
403.20	228.35
403.58	228.48
403.95	228.66
404.33	228.79
404.71	228.94
405.08	229.11
405.46	229.25
405.83	229.43
406.21	229.59
406.58	229.75
406.96	229.93
407.33	230.11
407.70	230.35
408.08	230.65
408.45	230.86
408.83	231.09
409.20	231.29
409.58	231.45
409.95	231.73
410.33	232.02
410.70	232.27
411.08	232.55
411.45	232.85
411.82	233.11
412.20	233.45
412.57	233.89
412.95	234.17
413.32	234.58
413.69	234.95
414.07	235.38
414.44	235.83
414.82	236.33
415.19	236.89
415.56	237.37
415.94	237.91
416.31	238.54
416.68	239.14
417.06	239.86
417.43	240.51
417.81	241.24
418.18	241.99
418.55	242.83
418.93	243.70
419.30	244.59
419.67	245.57
420.04	246.56
420.42	247.53
420.79	248.72
421.16	249.87
421.54	251.07
421.91	252.29
422.28	253.57
422.66	254.87
423.03	256.17
423.40	257.56
423.77	258.94
424.15	260.36
424.52	261.88
424.89	263.43
425.26	265.00
425.64	266.47
426.01	268.09
426.38	269.73
426.75	271.39
427.13	273.11
427.50	274.90
427.87	276.73
428.24	278.62
428.61	280.35
428.99	282.26
429.36	284.34
429.73	286.41
430.10	288.39
430.47	290.42
430.85	292.49
431.22	294.71
431.59	297.08
431.96	299.36
432.33	301.79
432.70	304.24
433.08	307.06
433.45	309.70
433.82	312.28
434.19	315.16
434.56	317.99
434.93	320.62
435.30	323.23
435.68	326.16
436.05	328.98
436.42	331.78
436.79	334.33
437.16	337.04
437.53	339.86
437.90	342.71
438.27	345.50
438.64	348.38
439.01	350.97
439.38	353.22
439.75	355.39
440.13	357.91
440.50	360.23
440.87	362.08
441.24	364.01
441.61	366.18
441.98	367.71
442.35	369.56
442.72	371.46
443.09	373.31
443.46	374.29
443.83	374.85
444.20	375.35
444.57	376.19
444.94	376.49
445.31	376.82
445.68	377.17
446.05	377.24
446.42	376.83
446.79	376.44
447.16	375.99
447.53	375.70
447.90	374.59
448.27	373.43
448.64	371.86
449.01	370.77
449.37	368.82
449.74	366.93
450.11	364.65
450.48	362.15
450.85	359.59
451.22	357.46
451.59	355.46
451.96	353.52
452.33	350.93
452.70	348.52
453.07	345.72
453.43	342.80
453.80	340.03
454.17	337.40
454.54	334.84
454.91	332.15
455.28	329.45
455.65	326.96
456.02	324.53
456.38	322.36
456.75	319.67
457.12	317.45
457.49	315.21
457.86	313.04
458.23	311.21
458.59	309.13
458.96	307.00
459.33	305.15
459.70	303.26
460.07	301.74
460.43	300.05
460.80	298.43
461.17	297.00
461.54	295.52
461.91	294.04
462.27	292.57
462.64	291.30
463.01	289.92
463.38	288.62
463.74	287.19
464.11	286.03
464.48	285.00
464.85	283.84
465.21	282.94
465.58	281.95
465.95	280.85
466.32	279.94
466.68	279.01
467.05	278.11
467.42	277.27
467.78	276.29
468.15	275.38
468.52	274.69
468.88	273.77
469.25	272.95
469.62	272.30
469.98	271.63
470.35	270.97
470.72	270.33
471.08	269.64
471.45	269.06
471.82	268.48
472.18	267.86
472.55	267.38
472.92	266.86
473.28	266.40
473.65	265.88
474.02	265.43
474.38	265.05
474.75	264.67
475.11	264.27
475.48	264.02
475.85	263.80
476.21	263.53
476.58	263.35
476.94	263.22
477.31	263.05
477.67	262.86
478.04	262.72
478.41	262.68
478.77	262.66
479.14	262.64
479.50	262.59
479.87	262.67
480.23	262.74
480.60	262.76
480.96	262.86
481.33	263.08
481.69	263.27
482.06	263.48
482.42	263.72
482.79	263.98
483.15	264.27
483.52	264.66
483.88	265.04
484.25	265.44
484.61	265.86
484.98	266.29
485.34	266.86
485.71	267.49
486.07	268.10
486.44	268.72
486.80	269.40
487.17	270.16
487.53	270.95
487.90	271.79
488.26	272.74
488.62	273.73
488.99	274.69
489.35	275.70
489.72	276.81
490.08	278.00
490.44	279.22
490.81	280.56
491.17	281.89
491.54	283.34
491.90	284.92
492.26	286.52
492.63	288.27
492.99	290.04
493.36	291.91
493.72	293.96
494.08	296.01
494.45	298.24
494.81	300.62
495.17	303.03
495.54	305.62
495.90	308.31
496.26	311.08
496.63	314.02
496.99	317.14
497.35	320.42
497.72	323.80
498.08	327.34
498.44	330.99
498.80	334.90
499.17	338.92
499.53	343.05
499.89	347.47
500.26	351.97
500.62	356.65
500.98	361.55
501.34	366.58
501.71	371.93
502.07	377.34
502.43	382.95
502.79	388.77
503.16	394.82
503.52	401.06
503.88	407.43
504.24	414.11
504.60	420.99
504.97	428.03
505.33	435.31
505.69	442.94
506.05	450.67
506.41	458.49
506.78	466.63
507.14	475.02
507.50	483.65
507.86	492.57
508.22	501.71
508.59	510.89
508.95	520.45
509.31	530.23
509.67	540.30
510.03	550.54
510.39	561.05
510.75	571.81
511.12	582.66
511.48	593.93
511.84	605.29
512.20	616.74
512.56	628.70
512.92	640.87
513.28	653.20
513.64	665.67
514.00	678.41
514.37	691.30
514.73	704.34
515.09	717.46
515.45	730.85
515.81	744.48
516.17	758.42
516.53	772.49
516.89	786.61
517.25	800.82
517.61	815.28
517.97	829.76
518.33	844.21
518.69	859.08
519.05	874.11
519.41	889.37
519.77	904.99
520.13	920.43
520.49	935.83
520.85	951.26
521.21	967.03
521.57	983.23
521.93	999.17
522.29	1015.56
522.65	1031.78
523.01	1048.04
523.37	1064.05
523.73	1080.39
524.09	1096.64
524.45	1113.14
524.81	1129.81
525.17	1146.63
525.53	1163.60
525.89	1180.45
526.25	1197.34
526.61	1213.74
526.97	1230.52
527.33	1246.98
527.68	1263.71
528.04	1280.33
528.40	1296.98
528.76	1314.03
529.12	1330.68
529.48	1347.55
529.84	1363.75
530.20	1380.55
530.56	1397.66
530.91	1415.12
531.27	1431.82
531.63	1448.24
531.99	1464.88
532.35	1480.86
532.71	1496.92
533.07	1513.26
533.42	1529.32
533.78	1545.39
534.14	1561.83
534.50	1577.16
534.86	1593.14
535.21	1608.34
535.57	1624.46
535.93	1640.14
536.29	1655.17
536.65	1670.50
537.00	1685.41
537.36	1700.87
537.72	1715.48
538.08	1729.93
538.44	1744.03
538.79	1758.17
539.15	1771.93
539.51	1785.68
539.87	1800.29
540.22	1814.01
540.58	1827.93
540.94	1841.41
541.29	1854.44
541.65	1867.16
542.01	1880.66
542.37	1893.16
542.72	1905.76
543.08	1917.41
543.44	1929.83
543.79	1941.08
544.15	1952.00
544.51	1963.54
544.87	1974.55
545.22	1985.43
545.58	1995.70
545.94	2005.34
546.29	2015.19
546.65	2025.07
547.01	2034.47
547.36	2043.14
547.72	2051.65
548.07	2059.47
548.43	2067.71
548.79	2075.83
549.14	2083.40
549.50	2090.64
549.86	2098.31
550.21	2105.56
550.57	2112.84
550.92	2119.36
551.28	2126.43
551.64	2133.55
551.99	2140.08
552.35	2146.17
552.70	2152.14
553.06	2157.97
553.41	2164.23
553.77	2170.20
554.13	2176.35
554.48	2182.41
554.84	2187.71
555.19	2193.09
555.55	2198.14
555.90	2202.42
556.26	2207.11
556.61	2211.84
556.97	2215.91
557.32	2219.87
557.68	2223.97
558.03	2228.17
558.39	2231.93
558.74	2236.45
559.10	2240.30
559.45	2243.84
559.81	2248.01
560.16	2251.69
560.52	2254.96
560.87	2258.38
561.23	2260.91
561.58	2263.74
561.94	2266.04
562.29	2268.65
562.64	2271.23
563.00	2273.78
563.35	2277.21
563.71	2280.31
564.06	2283.30
564.42	2286.23
564.77	2288.62
565.12	2290.70
565.48	2292.32
565.83	2293.85
566.19	2294.91
566.54	2295.69
566.89	2296.69
567.25	2297.15
567.60	2298.40
567.96	2299.85
568.31	2300.58
568.66	2301.66
569.02	2302.11
569.37	2302.25
569.72	2302.67
570.08	2302.55
570.43	2302.34
570.78	2301.37
571.14	2299.70
571.49	2298.21
571.84	2297.65
572.20	2296.29
572.55	2295.08
572.90	2293.41
573.26	2291.85
573.61	2290.02
573.96	2287.93
574.31	2284.81
574.67	2281.55
575.02	2277.75
575.37	2274.25
575.72	2270.29
576.08	2266.70
576.43	2263.06
576.78	2259.23
577.13	2255.93
577.49	2252.82
577.84	2249.23
578.19	2245.57
578.54	2241.71
578.90	2237.29
579.25	2231.56
579.60	2226.49
579.95	2221.38
580.30	2216.32
580.66	2211.13
581.01	2206.11
581.36	2201.11
581.71	2196.71
582.06	2192.22
582.42	2187.68
582.77	2182.39
583.12	2177.65
583.47	2172.78
583.82	2167.68
584.17	2162.40
584.53	2156.85
584.88	2150.92
585.23	2144.87
585.58	2139.29
585.93	2133.77
586.28	2129.02
586.63	2123.88
586.98	2118.81
587.34	2114.07
587.69	2109.09
588.04	2103.71
588.39	2097.82
588.74	2091.29
589.09	2085.16
589.44	2078.26
589.79	2072.13
590.14	2066.28
590.49	2059.56
590.84	2053.07
591.19	2047.01
591.54	2040.31
591.89	2032.53
592.25	2025.59
592.60	2018.31
592.95	2010.50
593.30	2003.00
593.65	1995.14
594.00	1987.99
594.35	1980.71
594.70	1972.49
595.05	1965.03
595.40	1957.72
595.75	1950.15
596.10	1943.68
596.45	1936.74
596.80	1930.41
597.15	1923.54
597.50	1916.35
597.85	1909.84
598.19	1903.13
598.54	1895.82
598.89	1889.21
599.24	1883.47
599.59	1876.72
599.94	1870.57
600.29	1864.24
600.64	1857.64
600.99	1850.22
601.34	1843.33
601.69	1836.15
602.04	1829.11
602.39	1821.79
602.74	1814.81
603.08	1808.18
603.43	1801.48
603.78	1794.20
604.13	1786.88
604.48	1779.55
604.83	1772.71
605.18	1765.62
605.53	1757.50
605.87	1749.67
606.22	1742.39
606.57	1734.39
606.92	1727.08
607.27	1719.72
607.62	1712.80
607.96	1705.43
608.31	1698.68
608.66	1691.01
609.01	1683.48
609.36	1675.95
609.70	1668.00
610.05	1659.97
610.40	1652.21
610.75	1643.91
611.10	1636.16
611.44	1627.91
611.79	1620.05
612.14	1611.32
612.49	1602.31
612.83	1594.10
613.18	1585.88
613.53	1577.86
613.88	1569.42
614.22	1561.16
614.57	1552.73
614.92	1544.74
615.27	1537.19
615.61	1528.92
615.96	1521.02
616.31	1513.46
616.65	1506.10
617.00	1498.41
617.35	1490.85
617.70	1482.53
618.04	1473.97
618.39	1465.87
618.74	1458.41
619.08	1450.18
619.43	1442.78
619.78	1435.97
620.12	1428.76
620.47	1421.36
620.82	1413.20
621.16	1405.89
621.51	1398.37
621.85	1390.83
622.20	1382.46
622.55	1374.27
622.89	1366.66
623.24	1359.11
623.59	1351.87
623.93	1344.54
624.28	1337.50
624.62	1330.02
624.97	1322.93
625.32	1316.40
625.66	1309.51
626.01	1302.23
626.35	1294.79
626.70	1287.08
627.04	1279.38
627.39	1271.71
627.73	1264.28
628.08	1257.46
628.43	1250.13
628.77	1242.85
629.12	1235.31
629.46	1228.14
629.81	1220.78
630.15	1213.61
630.50	1206.26
630.84	1198.11
631.19	1190.19
631.53	1182.74
631.88	1175.20
632.22	1167.64
632.57	1160.42
632.91	1152.94
633.26	1145.59
633.60	1138.39
633.95	1131.47
634.29	1124.42
634.64	1117.79
634.98	1110.55
635.32	1103.51
635.67	1097.08
636.01	1090.51
636.36	1083.88
636.70	1077.44
637.05	1070.94
637.39	1064.49
637.73	1058.06
638.08	1052.28
638.42	1046.40
638.77	1040.03
639.11	1033.46
639.45	1027.19
639.80	1020.50
640.14	1014.13
640.49	1007.64
640.83	1001.28
641.17	994.91
641.52	988.64
641.86	982.33
642.20	976.56
642.55	970.36
642.89	963.83
643.23	957.29
643.58	951.49
643.92	945.24
644.26	939.21
644.61	933.24
644.95	927.17
645.29	920.60
645.64	913.84
645.98	907.51
646.32	901.80
646.66	895.74
647.01	889.95
647.35	884.19
647.69	878.47
648.04	873.05
648.38	867.33
648.72	861.39
649.06	855.28
649.41	849.36
649.75	843.30
650.09	837.36
650.43	831.63
650.78	825.45
651.12	819.61
651.46	813.88
651.80	808.05
652.14	802.68
652.49	797.22
652.83	792.04
653.17	786.35
653.51	780.57
653.85	775.18
654.20	769.59
654.54	763.71
654.88	757.98
655.22	752.09
655.56	746.39
655.90	740.87
656.25	735.62
656.59	730.33
656.93	725.31
657.27	720.23
657.61	714.80
657.95	709.79
658.29	704.69
658.64	699.56
658.98	694.35
659.32	688.89
659.66	683.78
660.00	678.55
660.34	673.68
660.68	668.85
661.02	663.90
661.36	659.20
661.70	654.72
662.05	650.41
662.39	646.14
662.73	641.78
663.07	637.54
663.41	633.14
663.75	628.73
664.09	624.20
664.43	619.85
664.77	615.76
665.11	611.54
665.45	607.43
665.79	603.37
666.13	599.33
666.47	595.34
666.81	591.20
667.15	587.11
667.49	583.26
667.83	579.49
668.17	575.57
668.51	571.57
668.85	567.64
669.19	563.88
669.53	560.09
669.87	556.24
670.21	552.59
670.55	549.06
670.89	545.59
671.23	542.25
671.57	538.82
671.91	535.31
672.25	531.90
672.58	528.42
672.92	525.08
673.26	521.94
673.60	518.83
673.94	515.77
674.28	512.93
674.62	510.03
674.96	507.01
675.30	504.11
675.64	501.22
675.97	498.50
676.31	495.63
676.65	492.71
676.99	490.10
677.33	487.29
677.67	484.45
678.01	481.46
678.34	478.50
678.68	475.61
679.02	472.81
679.36	470.03
679.70	467.42
680.04	464.61
680.37	461.71
680.71	458.96
681.05	456.35
681.39	453.63
681.73	451.03
682.06	448.50
682.40	446.01
682.74	443.53
683.08	440.96
683.42	438.37
683.75	435.90
684.09	433.30
684.43	430.87
684.77	428.44
685.10	426.12
685.44	423.87
685.78	421.61
686.12	419.42
686.45	417.18
686.79	414.84
687.13	412.71
687.46	410.59
687.80	408.46
688.14	406.32
688.48	404.27
688.81	401.97
689.15	399.83
689.49	397.67
689.82	395.57
690.16	393.47
690.50	391.54
690.83	389.59
691.17	387.64
691.51	385.70
691.84	383.86
692.18	381.94
692.52	379.89
692.85	377.97
693.19	376.09
693.52	374.27
693.86	372.54
694.20	370.75
694.53	369.00
694.87	367.17
695.21	365.38
695.54	363.57
695.88	361.90
696.21	360.19
696.55	358.52
696.88	356.86
697.22	355.23
697.56	353.62
697.89	351.97
698.23	350.38
698.56	348.77
698.90	347.16
699.23	345.53
699.57	344.01
699.90	342.44
700.24	340.91
700.58	339.32
700.91	337.79
701.25	336.33
701.58	334.94
701.92	333.54
702.25	332.13
702.59	330.79
702.92	329.46
703.26	328.18
703.59	326.91
703.93	325.74
704.26	324.50
704.60	323.24
704.93	321.98
705.26	320.77
705.60	319.64
705.93	318.53
706.27	317.54
706.60	316.51
706.94	315.50
707.27	314.39
707.61	313.40
707.94	312.38
708.27	311.32
708.61	310.25
708.94	309.27
709.28	308.36
709.61	307.46
709.94	306.53
710.28	305.50
710.61	304.59
710.95	303.55
711.28	302.69
711.61	301.72
711.95	300.83
712.28	299.88
712.61	298.94
712.95	298.02
713.28	297.15
713.61	296.28
713.95	295.38
714.28	294.58
714.61	293.72
714.95	292.92
715.28	292.09
715.61	291.28
715.95	290.50
716.28	289.66
716.61	288.82
716.95	288.04
717.28	287.33
717.61	286.60
717.94	285.84
718.28	285.04
718.61	284.35
718.94	283.66
719.27	283.03
719.61	282.41
719.94	281.80
720.27	281.07
720.60	280.43
720.94	279.84
721.27	279.23
721.60	278.68
721.93	278.10
722.27	277.58
722.60	277.06
722.93	276.50
723.26	275.98
723.59	275.43
723.93	274.92
724.26	274.39
724.59	273.84
724.92	273.33
725.25	272.84
725.59	272.33
725.92	271.85
726.25	271.35
726.58	270.84
726.91	270.36
727.24	269.88
727.57	269.42
727.91	268.90
728.24	268.43
728.57	267.93
728.90	267.44
729.23	266.90
729.56	266.41
729.89	265.95
730.22	265.43
730.55	264.94
730.89	264.47
731.22	264.02
731.55	263.57
731.88	263.15
732.21	262.68
732.54	262.23
732.87	261.79
733.20	261.38
733.53	260.95
733.86	260.55
734.19	260.13
734.52	259.75
734.85	259.42
735.18	259.04
735.51	258.67
735.84	258.34
736.17	258.01
736.50	257.59
736.83	257.29
737.16	256.96
737.49	256.63
737.82	256.28
738.15	255.93
738.48	255.55
738.81	255.21
739.14	254.89
739.47	254.57
739.80	254.23
740.13	253.92
740.46	253.60
740.79	253.29
741.12	252.98
741.45	252.62
741.78	252.24
742.11	251.92
742.44	251.61
742.77	251.31
743.10	250.99
743.43	250.70
743.75	250.35
744.08	250.19
744.41	249.92
744.74	249.67
745.07	249.38
745.40	249.13
745.73	248.89
746.06	248.63
746.39	248.40
746.71	248.14
747.04	247.87
747.37	247.62
747.70	247.31
748.03	247.11
748.36	246.94
748.68	246.71
749.01	246.48
749.34	246.26
749.67	246.03
750.00	245.80
750.33	245.66
750.65	245.43
750.98	245.06
751.31	244.85
751.64	244.65
751.97	244.48
752.29	244.30
752.62	244.08
752.95	243.90
753.28	243.69
753.60	243.51
753.93	243.33
754.26	243.17
754.59	243.01
754.91	242.76
755.24	242.54
755.57	242.38
755.90	242.22
756.22	242.02
756.55	241.81
756.88	241.65
757.20	241.46
757.53	241.30
757.86	241.15
758.19	240.99
758.51	240.82
758.84	240.65
759.17	240.46
759.49	240.31
759.82	240.19
760.15	240.06
760.47	239.88
760.80	239.73
761.13	239.58
761.45	239.42
761.78	239.31
762.11	239.19
762.43	239.03
762.76	238.88
763.08	238.78
763.41	238.68
763.74	238.53
764.06	238.36
764.39	238.21
764.71	238.08
765.04	237.97
765.37	237.83
765.69	237.71
766.02	237.61
766.34	237.46
766.67	237.31
767.00	237.18
767.32	237.15
767.65	237.09
767.97	236.98
768.30	236.87
768.62	236.79
768.95	236.66
769.27	236.55
769.60	236.42
769.92	236.28
770.25	236.16
770.57	236.04
770.90	235.94
771.22	235.82
771.55	235.74
771.87	235.59
772.20	235.51
772.52	235.46
772.85	235.43
773.17	235.33
773.50	235.22
773.82	235.09
774.15	234.93
774.47	234.76
774.80	234.65
775.12	234.57
775.45	234.44
775.77	234.35
776.09	234.25
776.42	234.15
776.74	234.08
777.07	233.95
777.39	233.88
777.72	233.77
778.04	233.71
778.36	233.62
778.69	233.56
779.01	233.46
779.33	233.33
779.66	233.16
779.98	233.06
780.31	233.02
780.63	232.97
780.95	232.90
781.28	232.84
781.60	232.76
781.92	232.67
782.25	232.57
782.57	232.51
782.89	232.46
783.22	232.44
783.54	232.36
783.86	232.34
784.19	232.29
784.51	232.29
784.83	232.21
785.16	232.16
785.48	232.12
785.80	232.07
786.12	231.99
786.45	231.96
786.77	231.91
787.09	231.83
