SpectraSuite Data File
++++++++++++++++++++++++++++++++++++
Date: Fri Feb 01 15:36:21 EST 2013
User: group
Dark Spectrum Present: No
Reference Spectrum Present: No
Number of Sampled Component Spectra: 1
Spectrometers: USB2E7196
Integration Time (usec): 35000 (USB2E7196)
Spectra Averaged: 100 (USB2E7196)
Boxcar Smoothing: 10 (USB2E7196)
Correct for Electrical Dark: No (USB2E7196)
Strobe/Lamp Enabled: No (USB2E7196)
Correct for Detector Non-linearity: No (USB2E7196)
Correct for Stray Light: No (USB2E7196)
Number of Pixels in Processed Spectrum: 2048
>>>>>Begin Processed Spectral Data<<<<<
339.09	0.00
339.48	215.07
339.86	215.75
340.24	217.91
340.63	218.79
341.01	221.38
341.39	221.60
341.78	222.72
342.16	224.52
342.54	224.79
342.93	213.04
343.31	223.80
343.69	224.31
344.07	224.79
344.46	225.21
344.84	225.59
345.22	225.86
345.60	226.13
345.99	226.31
346.37	226.42
346.75	226.50
347.13	226.59
347.52	226.66
347.90	226.71
348.28	226.77
348.66	226.84
349.05	226.82
349.43	226.88
349.81	226.93
350.19	226.96
350.57	227.00
350.96	227.11
351.34	227.22
351.72	227.31
352.10	227.42
352.48	227.48
352.87	227.53
353.25	227.61
353.63	227.66
354.01	227.74
354.39	227.83
354.77	227.95
355.15	228.06
355.54	228.13
355.92	228.20
356.30	228.23
356.68	228.37
357.06	228.47
357.44	228.54
357.82	228.59
358.20	228.72
358.58	228.77
358.97	228.80
359.35	228.86
359.73	228.94
360.11	228.98
360.49	229.04
360.87	229.09
361.25	229.13
361.63	229.19
362.01	229.27
362.39	229.30
362.77	229.33
363.15	229.34
363.53	229.37
363.91	229.39
364.29	229.46
364.67	229.39
365.05	229.42
365.43	229.41
365.81	229.42
366.19	229.43
366.57	229.49
366.95	229.55
367.33	229.53
367.71	229.52
368.09	229.56
368.47	229.51
368.85	229.52
369.23	229.53
369.61	229.50
369.99	229.51
370.37	229.50
370.75	229.50
371.13	229.46
371.51	229.38
371.89	229.37
372.27	229.29
372.65	229.24
373.03	229.19
373.41	229.18
373.78	229.13
374.16	229.02
374.54	228.94
374.92	228.81
375.30	228.75
375.68	228.68
376.06	228.60
376.44	228.56
376.82	228.45
377.19	228.37
377.57	228.25
377.95	228.11
378.33	228.03
378.71	227.92
379.09	227.86
379.47	227.84
379.84	227.71
380.22	227.64
380.60	227.54
380.98	227.47
381.36	227.35
381.73	227.26
382.11	227.22
382.49	227.13
382.87	227.06
383.25	227.02
383.62	227.03
384.00	226.94
384.38	226.90
384.76	226.89
385.13	226.86
385.51	226.81
385.89	226.77
386.27	226.68
386.64	226.61
387.02	226.51
387.40	226.42
387.78	226.40
388.15	226.36
388.53	226.35
388.91	226.30
389.29	226.29
389.66	226.32
390.04	226.28
390.42	226.26
390.79	226.26
391.17	226.22
391.55	226.16
391.92	226.13
392.30	226.11
392.68	226.09
393.05	226.09
393.43	226.13
393.81	226.13
394.18	226.15
394.56	226.19
394.94	226.28
395.31	226.33
395.69	226.37
396.06	226.40
396.44	226.43
396.82	226.47
397.19	226.55
397.57	226.53
397.95	226.58
398.32	226.62
398.70	226.70
399.07	226.77
399.45	226.82
399.82	226.91
400.20	226.97
400.58	227.07
400.95	227.12
401.33	227.23
401.70	227.39
402.08	227.50
402.45	227.60
402.83	227.73
403.20	227.80
403.58	227.92
403.95	228.05
404.33	228.16
404.71	228.31
405.08	228.52
405.46	228.65
405.83	228.81
406.21	228.96
406.58	229.13
406.96	229.28
407.33	229.44
407.70	229.67
408.08	229.94
408.45	230.14
408.83	230.37
409.20	230.54
409.58	230.73
409.95	230.98
410.33	231.26
410.70	231.50
411.08	231.83
411.45	232.10
411.82	232.42
412.20	232.80
412.57	233.20
412.95	233.47
413.32	233.90
413.69	234.29
414.07	234.71
414.44	235.16
414.82	235.67
415.19	236.20
415.56	236.72
415.94	237.26
416.31	237.91
416.68	238.54
417.06	239.27
417.43	239.92
417.81	240.71
418.18	241.49
418.55	242.31
418.93	243.16
419.30	244.10
419.67	245.02
420.04	245.96
420.42	246.96
420.79	248.14
421.16	249.29
421.54	250.49
421.91	251.72
422.28	253.00
422.66	254.31
423.03	255.62
423.40	256.95
423.77	258.36
424.15	259.79
424.52	261.25
424.89	262.88
425.26	264.43
425.64	265.87
426.01	267.44
426.38	269.09
426.75	270.79
427.13	272.52
427.50	274.35
427.87	276.25
428.24	278.09
428.61	279.84
428.99	281.81
429.36	283.91
429.73	285.99
430.10	288.01
430.47	290.09
430.85	292.24
431.22	294.50
431.59	296.90
431.96	299.15
432.33	301.69
432.70	304.05
433.08	306.89
433.45	309.55
433.82	312.16
434.19	315.06
434.56	317.90
434.93	320.58
435.30	323.21
435.68	326.12
436.05	328.98
436.42	331.81
436.79	334.32
437.16	337.03
437.53	339.82
437.90	342.65
438.27	345.35
438.64	348.20
439.01	350.81
439.38	353.03
439.75	355.17
440.13	357.67
440.50	360.03
440.87	361.86
441.24	363.80
441.61	366.01
441.98	367.52
442.35	369.25
442.72	371.10
443.09	372.89
443.46	373.86
443.83	374.46
444.20	374.95
444.57	375.79
444.94	376.08
445.31	376.45
445.68	376.79
446.05	376.88
446.42	376.48
446.79	376.08
447.16	375.64
447.53	375.38
447.90	374.17
448.27	373.02
448.64	371.44
449.01	370.31
449.37	368.31
449.74	366.43
450.11	364.23
450.48	361.74
450.85	359.20
451.22	357.10
451.59	355.06
451.96	353.14
452.33	350.55
452.70	348.22
453.07	345.41
453.43	342.50
453.80	339.76
454.17	337.05
454.54	334.45
454.91	331.75
455.28	329.03
455.65	326.57
456.02	324.07
456.38	321.89
456.75	319.23
457.12	316.97
457.49	314.70
457.86	312.47
458.23	310.56
458.59	308.47
458.96	306.33
459.33	304.43
459.70	302.53
460.07	301.00
460.43	299.22
460.80	297.55
461.17	296.11
461.54	294.59
461.91	293.20
462.27	291.76
462.64	290.50
463.01	289.15
463.38	287.86
463.74	286.52
464.11	285.39
464.48	284.31
464.85	283.20
465.21	282.29
465.58	281.41
465.95	280.32
466.32	279.44
466.68	278.54
467.05	277.65
467.42	276.78
467.78	275.83
468.15	274.98
468.52	274.33
468.88	273.45
469.25	272.68
469.62	272.01
469.98	271.31
470.35	270.61
470.72	269.99
471.08	269.30
471.45	268.74
471.82	268.17
472.18	267.61
472.55	267.13
472.92	266.63
473.28	266.16
473.65	265.70
474.02	265.24
474.38	264.85
474.75	264.53
475.11	264.15
475.48	263.91
475.85	263.65
476.21	263.41
476.58	263.22
476.94	263.08
477.31	262.93
477.67	262.80
478.04	262.73
478.41	262.67
478.77	262.74
479.14	262.71
479.50	262.72
479.87	262.79
480.23	262.95
480.60	262.98
480.96	263.09
481.33	263.33
481.69	263.51
482.06	263.72
482.42	263.94
482.79	264.20
483.15	264.51
483.52	264.90
483.88	265.28
484.25	265.69
484.61	266.11
484.98	266.59
485.34	267.16
485.71	267.76
486.07	268.36
486.44	268.91
486.80	269.61
487.17	270.36
487.53	271.19
487.90	272.02
488.26	273.04
488.62	274.01
488.99	274.99
489.35	276.06
489.72	277.18
490.08	278.37
490.44	279.63
490.81	280.98
491.17	282.38
491.54	283.88
491.90	285.44
492.26	287.07
492.63	288.79
492.99	290.57
493.36	292.44
493.72	294.49
494.08	296.64
494.45	298.88
494.81	301.27
495.17	303.66
495.54	306.20
495.90	308.88
496.26	311.66
496.63	314.63
496.99	317.73
497.35	321.02
497.72	324.43
498.08	327.93
498.44	331.60
498.80	335.49
499.17	339.53
499.53	343.66
499.89	348.06
500.26	352.58
500.62	357.23
500.98	362.21
501.34	367.27
501.71	372.57
502.07	378.02
502.43	383.59
502.79	389.47
503.16	395.56
503.52	401.77
503.88	408.21
504.24	414.82
504.60	421.71
504.97	428.86
505.33	436.19
505.69	443.88
506.05	451.66
506.41	459.51
506.78	467.62
507.14	476.10
507.50	484.75
507.86	493.76
508.22	503.00
508.59	512.14
508.95	521.73
509.31	531.51
509.67	541.58
510.03	551.89
510.39	562.44
510.75	573.20
511.12	584.18
511.48	595.43
511.84	606.91
512.20	618.47
512.56	630.41
512.92	642.57
513.28	654.91
513.64	667.39
514.00	680.12
514.37	693.01
514.73	706.03
515.09	719.15
515.45	732.46
515.81	746.07
516.17	760.14
516.53	774.26
516.89	788.55
517.25	802.70
517.61	817.03
517.97	831.46
518.33	845.91
518.69	860.73
519.05	875.72
519.41	890.88
519.77	906.35
520.13	921.79
520.49	937.19
520.85	952.71
521.21	968.43
521.57	984.65
521.93	1000.53
522.29	1017.01
522.65	1033.28
523.01	1049.53
523.37	1065.55
523.73	1081.65
524.09	1097.81
524.45	1114.05
524.81	1130.73
525.17	1147.76
525.53	1164.75
525.89	1181.69
526.25	1198.55
526.61	1215.03
526.97	1231.78
527.33	1248.43
527.68	1265.13
528.04	1281.60
528.40	1298.22
528.76	1315.36
529.12	1331.91
529.48	1348.84
529.84	1364.90
530.20	1381.58
530.56	1398.56
530.91	1415.98
531.27	1432.93
531.63	1449.40
531.99	1466.09
532.35	1482.17
532.71	1498.03
533.07	1514.21
533.42	1530.09
533.78	1546.11
534.14	1562.39
534.50	1577.82
534.86	1593.78
535.21	1608.99
535.57	1625.00
535.93	1640.42
536.29	1655.32
536.65	1670.52
537.00	1685.42
537.36	1700.62
537.72	1715.11
538.08	1729.62
538.44	1743.35
538.79	1757.22
539.15	1770.95
539.51	1784.60
539.87	1798.94
540.22	1812.65
540.58	1826.49
540.94	1839.91
541.29	1852.85
541.65	1865.51
542.01	1878.64
542.37	1890.90
542.72	1903.31
543.08	1915.18
543.44	1927.56
543.79	1938.67
544.15	1949.70
544.51	1961.16
544.87	1972.32
545.22	1983.13
545.58	1993.35
545.94	2003.18
546.29	2013.08
546.65	2022.95
547.01	2032.16
547.36	2040.84
547.72	2049.29
548.07	2057.15
548.43	2065.31
548.79	2073.36
549.14	2081.03
549.50	2088.51
549.86	2096.20
550.21	2103.43
550.57	2110.52
550.92	2117.23
551.28	2124.36
551.64	2131.41
551.99	2138.00
552.35	2144.11
552.70	2150.37
553.06	2156.29
553.41	2162.76
553.77	2168.78
554.13	2174.87
554.48	2181.14
554.84	2186.59
555.19	2192.09
555.55	2197.30
555.90	2201.71
556.26	2206.56
556.61	2211.31
556.97	2215.55
557.32	2219.62
557.68	2223.79
558.03	2228.13
558.39	2231.90
558.74	2236.52
559.10	2240.35
559.45	2243.90
559.81	2248.24
560.16	2252.01
560.52	2255.29
560.87	2258.74
561.23	2261.33
561.58	2264.26
561.94	2266.77
562.29	2269.22
562.64	2271.69
563.00	2274.09
563.35	2277.54
563.71	2280.73
564.06	2283.90
564.42	2286.62
564.77	2289.13
565.12	2291.43
565.48	2293.20
565.83	2295.03
566.19	2296.26
566.54	2297.20
566.89	2298.40
567.25	2298.86
567.60	2300.13
567.96	2301.77
568.31	2302.34
568.66	2303.42
569.02	2303.95
569.37	2304.13
569.72	2304.93
570.08	2305.07
570.43	2305.32
570.78	2304.81
571.14	2303.16
571.49	2301.69
571.84	2301.55
572.20	2300.34
572.55	2299.40
572.90	2297.88
573.26	2296.31
573.61	2294.55
573.96	2292.65
574.31	2289.65
574.67	2286.60
575.02	2282.98
575.37	2279.63
575.72	2275.79
576.08	2272.45
576.43	2269.15
576.78	2265.41
577.13	2262.32
577.49	2259.23
577.84	2255.53
578.19	2251.79
578.54	2248.08
578.90	2243.86
579.25	2238.22
579.60	2233.21
579.95	2228.04
580.30	2222.94
580.66	2217.78
581.01	2212.84
581.36	2207.88
581.71	2203.63
582.06	2199.13
582.42	2194.52
582.77	2189.13
583.12	2184.65
583.47	2179.93
583.82	2174.87
584.17	2169.60
584.53	2164.04
584.88	2158.32
585.23	2152.58
585.58	2146.98
585.93	2141.57
586.28	2136.81
586.63	2131.66
586.98	2126.48
587.34	2121.71
587.69	2116.91
588.04	2111.62
588.39	2105.91
588.74	2099.47
589.09	2093.14
589.44	2086.35
589.79	2080.42
590.14	2074.82
590.49	2068.13
590.84	2061.70
591.19	2055.66
591.54	2049.17
591.89	2041.63
592.25	2034.70
592.60	2027.49
592.95	2020.00
593.30	2012.60
593.65	2004.90
594.00	1997.87
594.35	1990.58
594.70	1982.47
595.05	1975.09
595.40	1967.81
595.75	1960.27
596.10	1953.89
596.45	1947.21
596.80	1941.01
597.15	1934.31
597.50	1927.03
597.85	1920.60
598.19	1913.92
598.54	1906.58
598.89	1900.05
599.24	1894.17
599.59	1887.47
599.94	1881.18
600.29	1874.71
600.64	1868.16
600.99	1860.62
601.34	1853.78
601.69	1846.91
602.04	1840.01
602.39	1832.62
602.74	1825.72
603.08	1819.03
603.43	1812.38
603.78	1805.05
604.13	1797.74
604.48	1790.38
604.83	1783.63
605.18	1776.64
605.53	1768.50
605.87	1760.52
606.22	1753.10
606.57	1745.07
606.92	1737.73
607.27	1730.48
607.62	1723.47
607.96	1716.01
608.31	1709.54
608.66	1701.85
609.01	1694.18
609.36	1686.68
609.70	1678.60
610.05	1670.45
610.40	1662.63
610.75	1654.26
611.10	1646.60
611.44	1638.29
611.79	1630.39
612.14	1621.69
612.49	1612.52
612.83	1604.20
613.18	1595.99
613.53	1588.12
613.88	1579.57
614.22	1571.32
614.57	1562.80
614.92	1554.81
615.27	1547.29
615.61	1538.78
615.96	1530.71
616.31	1523.07
616.65	1515.65
617.00	1508.19
617.35	1500.59
617.70	1492.26
618.04	1483.70
618.39	1475.47
618.74	1467.77
619.08	1459.45
619.43	1451.82
619.78	1444.98
620.12	1437.90
620.47	1430.55
620.82	1422.30
621.16	1414.97
621.51	1407.42
621.85	1399.87
622.20	1391.41
622.55	1383.13
622.89	1375.33
623.24	1367.82
623.59	1360.57
623.93	1353.05
624.28	1345.81
624.62	1338.26
624.97	1331.20
625.32	1324.52
625.66	1317.54
626.01	1310.23
626.35	1302.76
626.70	1295.08
627.04	1287.25
627.39	1279.30
627.73	1271.87
628.08	1264.89
628.43	1257.50
628.77	1250.09
629.12	1242.44
629.46	1235.16
629.81	1227.84
630.15	1220.64
630.50	1213.13
630.84	1204.85
631.19	1196.94
631.53	1189.39
631.88	1181.88
632.22	1174.03
632.57	1166.68
632.91	1159.16
633.26	1151.97
633.60	1144.54
633.95	1137.48
634.29	1130.52
634.64	1123.92
634.98	1116.53
635.32	1109.39
635.67	1102.86
636.01	1096.33
636.36	1089.57
636.70	1083.12
637.05	1076.43
637.39	1069.92
637.73	1063.45
638.08	1057.63
638.42	1051.63
638.77	1045.20
639.11	1038.55
639.45	1032.24
639.80	1025.56
640.14	1019.06
640.49	1012.49
640.83	1006.22
641.17	999.89
641.52	993.54
641.86	987.05
642.20	981.24
642.55	974.94
642.89	968.40
643.23	961.72
643.58	955.89
643.92	949.71
644.26	943.70
644.61	937.79
644.95	931.72
645.29	925.09
645.64	918.40
645.98	912.12
646.32	906.25
646.66	900.26
647.01	894.50
647.35	888.83
647.69	882.99
648.04	877.46
648.38	871.67
648.72	865.58
649.06	859.58
649.41	853.63
649.75	847.62
650.09	841.72
650.43	835.99
650.78	829.87
651.12	823.88
651.46	818.09
651.80	812.21
652.14	806.84
652.49	801.44
652.83	796.24
653.17	790.52
653.51	784.80
653.85	779.53
654.20	773.92
654.54	767.82
654.88	762.08
655.22	756.22
655.56	750.46
655.90	745.07
656.25	739.82
656.59	734.52
656.93	729.44
657.27	724.23
657.61	718.77
657.95	713.62
658.29	708.54
658.64	703.32
658.98	698.05
659.32	692.54
659.66	687.32
660.00	681.95
660.34	676.96
660.68	672.15
661.02	667.03
661.36	662.29
661.70	657.91
662.05	653.56
662.39	649.19
662.73	644.81
663.07	640.48
663.41	636.06
663.75	631.56
664.09	627.02
664.43	622.71
664.77	618.55
665.11	614.32
665.45	610.16
665.79	606.01
666.13	601.92
666.47	597.90
666.81	593.75
667.15	589.68
667.49	585.85
667.83	582.02
668.17	578.11
668.51	574.07
668.85	570.02
669.19	566.22
669.53	562.47
669.87	558.59
670.21	554.92
670.55	551.27
670.89	547.86
671.23	544.42
671.57	540.92
671.91	537.42
672.25	533.94
672.58	530.48
672.92	527.11
673.26	523.92
673.60	520.70
673.94	517.61
674.28	514.66
674.62	511.74
674.96	508.63
675.30	505.75
675.64	502.78
675.97	499.99
676.31	497.11
676.65	494.12
676.99	491.42
677.33	488.48
677.67	485.60
678.01	482.58
678.34	479.63
678.68	476.75
679.02	473.93
679.36	471.15
679.70	468.41
680.04	465.66
680.37	462.81
680.71	460.11
681.05	457.51
681.39	454.82
681.73	452.18
682.06	449.64
682.40	447.06
682.74	444.54
683.08	442.05
683.42	439.45
683.75	436.95
684.09	434.43
684.43	431.93
684.77	429.50
685.10	427.14
685.44	424.87
685.78	422.52
686.12	420.30
686.45	418.01
686.79	415.75
687.13	413.61
687.46	411.46
687.80	409.29
688.14	407.10
688.48	405.04
688.81	402.72
689.15	400.56
689.49	398.42
689.82	396.35
690.16	394.32
690.50	392.40
690.83	390.46
691.17	388.47
691.51	386.61
691.84	384.80
692.18	382.83
692.52	380.84
692.85	378.97
693.19	377.07
693.52	375.29
693.86	373.44
694.20	371.66
694.53	369.90
694.87	368.08
695.21	366.27
695.54	364.48
695.88	362.79
696.21	361.10
696.55	359.45
696.88	357.79
697.22	356.05
697.56	354.39
697.89	352.72
698.23	351.10
698.56	349.52
698.90	347.87
699.23	346.28
699.57	344.74
699.90	343.18
700.24	341.68
700.58	340.13
700.91	338.64
701.25	337.16
701.58	335.76
701.92	334.41
702.25	333.08
702.59	331.71
702.92	330.39
703.26	329.10
703.59	327.80
703.93	326.61
704.26	325.38
704.60	324.08
704.93	322.82
705.26	321.60
705.60	320.41
705.93	319.29
706.27	318.28
706.60	317.21
706.94	316.12
707.27	314.99
707.61	313.93
707.94	312.95
708.27	311.90
708.61	310.82
708.94	309.80
709.28	308.78
709.61	307.83
709.94	306.90
710.28	305.84
710.61	304.88
710.95	303.83
711.28	302.98
711.61	302.07
711.95	301.17
712.28	300.24
712.61	299.24
712.95	298.32
713.28	297.43
713.61	296.57
713.95	295.72
714.28	294.88
714.61	294.04
714.95	293.21
715.28	292.33
715.61	291.45
715.95	290.62
716.28	289.79
716.61	288.96
716.95	288.11
717.28	287.42
717.61	286.65
717.94	285.91
718.28	285.03
718.61	284.27
718.94	283.57
719.27	282.91
719.61	282.27
719.94	281.61
720.27	280.90
720.60	280.23
720.94	279.59
721.27	278.96
721.60	278.34
721.93	277.70
722.27	277.17
722.60	276.63
722.93	276.01
723.26	275.49
723.59	274.92
723.93	274.37
724.26	273.77
724.59	273.19
724.92	272.68
725.25	272.22
725.59	271.71
725.92	271.19
726.25	270.67
726.58	270.15
726.91	269.65
727.24	269.15
727.57	268.65
727.91	268.13
728.24	267.70
728.57	267.24
728.90	266.77
729.23	266.28
729.56	265.83
729.89	265.39
730.22	264.86
730.55	264.37
730.89	263.92
731.22	263.46
731.55	263.04
731.88	262.58
732.21	262.10
732.54	261.63
732.87	261.21
733.20	260.81
733.53	260.44
733.86	260.06
734.19	259.66
734.52	259.28
734.85	258.98
735.18	258.53
735.51	258.16
735.84	257.81
736.17	257.45
736.50	257.04
736.83	256.79
737.16	256.46
737.49	256.15
737.82	255.79
738.15	255.48
738.48	255.16
738.81	254.82
739.14	254.49
739.47	254.22
739.80	253.90
740.13	253.57
740.46	253.22
740.79	252.87
741.12	252.56
741.45	252.23
741.78	251.86
742.11	251.57
742.44	251.24
742.77	250.96
743.10	250.67
743.43	250.37
743.75	249.99
744.08	249.88
744.41	249.57
744.74	249.31
745.07	249.02
745.40	248.73
745.73	248.50
746.06	248.26
746.39	248.02
746.71	247.75
747.04	247.51
747.37	247.30
747.70	247.04
748.03	246.79
748.36	246.58
748.68	246.33
749.01	246.12
749.34	245.92
749.67	245.68
750.00	245.43
750.33	245.29
750.65	245.08
750.98	244.73
751.31	244.54
751.64	244.34
751.97	244.20
752.29	244.02
752.62	243.77
752.95	243.59
753.28	243.35
753.60	243.15
753.93	242.97
754.26	242.76
754.59	242.60
754.91	242.38
755.24	242.20
755.57	242.05
755.90	241.88
756.22	241.66
756.55	241.47
756.88	241.32
757.20	241.07
757.53	240.85
757.86	240.69
758.19	240.55
758.51	240.39
758.84	240.17
759.17	239.99
759.49	239.86
759.82	239.74
760.15	239.57
760.47	239.41
760.80	239.23
761.13	239.10
761.45	238.94
761.78	238.83
762.11	238.66
762.43	238.50
762.76	238.35
763.08	238.22
763.41	238.09
763.74	237.96
764.06	237.84
764.39	237.71
764.71	237.57
765.04	237.39
765.37	237.25
765.69	237.10
766.02	237.00
766.34	236.85
766.67	236.67
767.00	236.59
767.32	236.54
767.65	236.45
767.97	236.36
768.30	236.23
768.62	236.11
768.95	236.03
769.27	235.92
769.60	235.83
769.92	235.70
770.25	235.59
770.57	235.47
770.90	235.35
771.22	235.27
771.55	235.17
771.87	235.11
772.20	234.99
772.52	235.01
772.85	235.02
773.17	234.93
773.50	234.82
773.82	234.72
774.15	234.55
774.47	234.42
774.80	234.31
775.12	234.23
775.45	234.12
775.77	234.02
776.09	233.93
776.42	233.81
776.74	233.77
777.07	233.67
777.39	233.63
777.72	233.55
778.04	233.44
778.36	233.35
778.69	233.27
779.01	233.21
779.33	233.03
779.66	232.88
779.98	232.82
780.31	232.78
780.63	232.74
780.95	232.73
781.28	232.68
781.60	232.60
781.92	232.52
782.25	232.48
782.57	232.43
782.89	232.39
783.22	232.34
783.54	232.25
783.86	232.23
784.19	232.11
784.51	232.07
784.83	232.02
785.16	231.97
785.48	231.91
785.80	231.91
786.12	231.87
786.45	231.80
786.77	231.78
787.09	231.71
