SpectraSuite Data File
++++++++++++++++++++++++++++++++++++
Date: Fri Feb 01 17:56:21 EST 2013
User: group
Dark Spectrum Present: No
Reference Spectrum Present: No
Number of Sampled Component Spectra: 1
Spectrometers: USB2E7196
Integration Time (usec): 35000 (USB2E7196)
Spectra Averaged: 100 (USB2E7196)
Boxcar Smoothing: 10 (USB2E7196)
Correct for Electrical Dark: No (USB2E7196)
Strobe/Lamp Enabled: No (USB2E7196)
Correct for Detector Non-linearity: No (USB2E7196)
Correct for Stray Light: No (USB2E7196)
Number of Pixels in Processed Spectrum: 2048
>>>>>Begin Processed Spectral Data<<<<<
339.09	0.00
339.48	212.60
339.86	213.46
340.24	215.81
340.63	217.32
341.01	219.36
341.39	219.81
341.78	220.97
342.16	222.08
342.54	222.09
342.93	210.94
343.31	221.61
343.69	222.16
344.07	222.64
344.46	223.07
344.84	223.43
345.22	223.67
345.60	223.90
345.99	224.06
346.37	224.21
346.75	224.37
347.13	224.46
347.52	224.54
347.90	224.62
348.28	224.66
348.66	224.71
349.05	224.74
349.43	224.77
349.81	224.83
350.19	224.89
350.57	224.96
350.96	225.07
351.34	225.13
351.72	225.20
352.10	225.31
352.48	225.34
352.87	225.38
353.25	225.45
353.63	225.52
354.01	225.60
354.39	225.64
354.77	225.70
355.15	225.76
355.54	225.83
355.92	225.88
356.30	225.98
356.68	226.11
357.06	226.19
357.44	226.26
357.82	226.34
358.20	226.40
358.58	226.48
358.97	226.51
359.35	226.63
359.73	226.70
360.11	226.75
360.49	226.81
360.87	226.89
361.25	226.99
361.63	227.08
362.01	227.14
362.39	227.17
362.77	227.21
363.15	227.27
363.53	227.30
363.91	227.33
364.29	227.34
364.67	227.29
365.05	227.32
365.43	227.35
365.81	227.34
366.19	227.37
366.57	227.41
366.95	227.41
367.33	227.37
367.71	227.38
368.09	227.41
368.47	227.44
368.85	227.42
369.23	227.41
369.61	227.34
369.99	227.33
370.37	227.33
370.75	227.33
371.13	227.26
371.51	227.23
371.89	227.23
372.27	227.18
372.65	227.15
373.03	227.12
373.41	227.07
373.78	227.06
374.16	226.96
374.54	226.87
374.92	226.82
375.30	226.75
375.68	226.68
376.06	226.63
376.44	226.55
376.82	226.50
377.19	226.41
377.57	226.38
377.95	226.33
378.33	226.26
378.71	226.18
379.09	226.13
379.47	226.07
379.84	225.97
380.22	225.89
380.60	225.80
380.98	225.69
381.36	225.64
381.73	225.54
382.11	225.52
382.49	225.48
382.87	225.41
383.25	225.35
383.62	225.39
384.00	225.29
384.38	225.25
384.76	225.20
385.13	225.19
385.51	225.12
385.89	225.03
386.27	224.98
386.64	224.94
387.02	224.87
387.40	224.81
387.78	224.79
388.15	224.73
388.53	224.70
388.91	224.67
389.29	224.61
389.66	224.59
390.04	224.55
390.42	224.55
390.79	224.55
391.17	224.55
391.55	224.44
391.92	224.45
392.30	224.44
392.68	224.43
393.05	224.41
393.43	224.41
393.81	224.41
394.18	224.41
394.56	224.40
394.94	224.44
395.31	224.45
395.69	224.53
396.06	224.57
396.44	224.59
396.82	224.63
397.19	224.72
397.57	224.76
397.95	224.81
398.32	224.80
398.70	224.81
399.07	224.86
399.45	224.88
399.82	224.93
400.20	225.00
400.58	225.07
400.95	225.13
401.33	225.22
401.70	225.37
402.08	225.48
402.45	225.57
402.83	225.72
403.20	225.83
403.58	225.89
403.95	226.06
404.33	226.20
404.71	226.33
405.08	226.50
405.46	226.66
405.83	226.81
406.21	226.97
406.58	227.19
406.96	227.40
407.33	227.65
407.70	227.89
408.08	228.18
408.45	228.43
408.83	228.72
409.20	229.01
409.58	229.27
409.95	229.60
410.33	229.94
410.70	230.24
411.08	230.62
411.45	231.01
411.82	231.40
412.20	231.86
412.57	232.37
412.95	232.83
413.32	233.35
413.69	233.88
414.07	234.52
414.44	235.12
414.82	235.77
415.19	236.47
415.56	237.21
415.94	237.96
416.31	238.82
416.68	239.65
417.06	240.59
417.43	241.49
417.81	242.50
418.18	243.58
418.55	244.66
418.93	245.86
419.30	247.06
419.67	248.30
420.04	249.60
420.42	250.93
420.79	252.46
421.16	254.01
421.54	255.58
421.91	257.18
422.28	258.88
422.66	260.65
423.03	262.41
423.40	264.17
423.77	266.05
424.15	267.95
424.52	269.93
424.89	272.08
425.26	274.15
425.64	276.06
426.01	278.18
426.38	280.42
426.75	282.61
427.13	284.92
427.50	287.36
427.87	289.87
428.24	292.37
428.61	294.68
428.99	297.29
429.36	300.17
429.73	302.91
430.10	305.63
430.47	308.42
430.85	311.25
431.22	314.22
431.59	317.40
431.96	320.33
432.33	323.64
432.70	326.81
433.08	330.57
433.45	334.15
433.82	337.64
434.19	341.46
434.56	345.21
434.93	348.76
435.30	352.30
435.68	356.11
436.05	359.91
436.42	363.72
436.79	367.07
437.16	370.68
437.53	374.49
437.90	378.26
438.27	381.92
438.64	385.72
439.01	389.21
439.38	392.23
439.75	395.23
440.13	398.62
440.50	401.77
440.87	404.26
441.24	406.83
441.61	409.76
441.98	411.86
442.35	414.30
442.72	416.76
443.09	419.16
443.46	420.56
443.83	421.30
444.20	422.00
444.57	423.12
444.94	423.48
445.31	423.91
445.68	424.36
446.05	424.47
446.42	424.02
446.79	423.51
447.16	422.90
447.53	422.44
447.90	420.89
448.27	419.29
448.64	417.16
449.01	415.66
449.37	412.97
449.74	410.39
450.11	407.38
450.48	404.11
450.85	400.76
451.22	397.91
451.59	395.26
451.96	392.65
452.33	389.18
452.70	386.05
453.07	382.31
453.43	378.45
453.80	374.68
454.17	371.05
454.54	367.58
454.91	363.94
455.28	360.37
455.65	357.04
456.02	353.72
456.38	350.83
456.75	347.24
457.12	344.24
457.49	341.26
457.86	338.34
458.23	335.82
458.59	333.04
458.96	330.20
459.33	327.70
459.70	325.12
460.07	323.08
460.43	320.72
460.80	318.48
461.17	316.48
461.54	314.49
461.91	312.57
462.27	310.64
462.64	308.98
463.01	307.16
463.38	305.38
463.74	303.60
464.11	302.03
464.48	300.70
464.85	299.18
465.21	297.97
465.58	296.73
465.95	295.30
466.32	294.04
466.68	292.82
467.05	291.63
467.42	290.45
467.78	289.23
468.15	288.05
468.52	287.20
468.88	286.10
469.25	285.06
469.62	284.18
469.98	283.25
470.35	282.39
470.72	281.57
471.08	280.70
471.45	279.97
471.82	279.20
472.18	278.35
472.55	277.74
472.92	277.03
473.28	276.41
473.65	275.75
474.02	275.17
474.38	274.63
474.75	274.18
475.11	273.71
475.48	273.31
475.85	272.97
476.21	272.61
476.58	272.32
476.94	272.11
477.31	271.83
477.67	271.57
478.04	271.34
478.41	271.20
478.77	271.13
479.14	271.00
479.50	270.95
479.87	270.94
480.23	271.01
480.60	271.00
480.96	271.04
481.33	271.20
481.69	271.33
482.06	271.47
482.42	271.58
482.79	271.76
483.15	272.06
483.52	272.42
483.88	272.70
484.25	273.07
484.61	273.43
484.98	273.88
485.34	274.46
485.71	275.04
486.07	275.64
486.44	276.22
486.80	276.90
487.17	277.58
487.53	278.43
487.90	279.24
488.26	280.22
488.62	281.20
488.99	282.21
489.35	283.31
489.72	284.47
490.08	285.70
490.44	287.01
490.81	288.35
491.17	289.76
491.54	291.31
491.90	292.87
492.26	294.58
492.63	296.42
492.99	298.25
493.36	300.21
493.72	302.37
494.08	304.55
494.45	306.88
494.81	309.45
495.17	312.03
495.54	314.76
495.90	317.57
496.26	320.51
496.63	323.64
496.99	326.91
497.35	330.34
497.72	333.95
498.08	337.61
498.44	341.48
498.80	345.60
499.17	349.87
499.53	354.34
499.89	358.95
500.26	363.69
500.62	368.63
500.98	373.91
501.34	379.27
501.71	384.94
502.07	390.74
502.43	396.62
502.79	402.75
503.16	409.19
503.52	415.78
503.88	422.58
504.24	429.57
504.60	436.86
504.97	444.40
505.33	452.21
505.69	460.45
506.05	468.80
506.41	477.26
506.78	485.92
507.14	494.91
507.50	504.22
507.86	513.85
508.22	523.63
508.59	533.43
508.95	543.64
509.31	554.09
509.67	564.85
510.03	575.87
510.39	587.13
510.75	598.62
511.12	610.35
511.48	622.49
511.84	634.76
512.20	647.06
512.56	659.86
512.92	672.84
513.28	686.09
513.64	699.40
514.00	712.96
514.37	726.89
514.73	740.93
515.09	754.93
515.45	769.19
515.81	783.81
516.17	798.86
516.53	813.99
516.89	829.31
517.25	844.59
517.61	860.17
517.97	875.81
518.33	891.40
518.69	907.45
519.05	923.65
519.41	940.20
519.77	957.12
520.13	973.84
520.49	990.66
520.85	1007.29
521.21	1024.36
521.57	1042.05
521.93	1059.22
522.29	1076.96
522.65	1094.78
523.01	1112.48
523.37	1130.04
523.73	1147.71
524.09	1165.48
524.45	1183.31
524.81	1201.56
525.17	1219.95
525.53	1238.49
525.89	1257.11
526.25	1275.57
526.61	1293.59
526.97	1311.93
527.33	1330.16
527.68	1348.57
528.04	1366.70
528.40	1385.09
528.76	1403.95
529.12	1422.37
529.48	1441.10
529.84	1458.90
530.20	1477.27
530.56	1496.30
530.91	1515.71
531.27	1534.39
531.63	1552.63
531.99	1571.07
532.35	1588.98
532.71	1606.94
533.07	1625.23
533.42	1642.99
533.78	1661.16
534.14	1679.52
534.50	1696.95
534.86	1714.80
535.21	1732.02
535.57	1750.04
535.93	1767.55
536.29	1784.40
536.65	1801.38
537.00	1818.26
537.36	1835.87
537.72	1852.42
538.08	1868.88
538.44	1884.73
538.79	1900.91
539.15	1916.75
539.51	1932.75
539.87	1949.17
540.22	1964.90
540.58	1980.75
540.94	1996.27
541.29	2011.21
541.65	2025.94
542.01	2041.41
542.37	2055.94
542.72	2070.42
543.08	2084.31
543.44	2099.02
543.79	2112.50
544.15	2125.84
544.51	2139.53
544.87	2152.67
545.22	2165.81
545.58	2178.10
545.94	2190.01
546.29	2201.94
546.65	2213.94
547.01	2225.38
547.36	2236.19
547.72	2246.73
548.07	2256.65
548.43	2266.90
548.79	2276.81
549.14	2286.41
549.50	2295.50
549.86	2305.01
550.21	2314.50
550.57	2323.98
550.92	2332.47
551.28	2341.45
551.64	2350.38
551.99	2358.85
552.35	2366.72
552.70	2374.67
553.06	2382.61
553.41	2390.81
553.77	2398.64
554.13	2406.49
554.48	2414.53
554.84	2422.01
555.19	2428.99
555.55	2436.09
555.90	2442.24
556.26	2449.10
556.61	2455.49
556.97	2461.65
557.32	2467.52
557.68	2473.08
558.03	2478.77
558.39	2483.94
558.74	2490.14
559.10	2495.60
559.45	2500.69
559.81	2506.51
560.16	2511.84
560.52	2516.55
560.87	2521.23
561.23	2525.14
561.58	2529.47
561.94	2533.15
562.29	2536.63
562.64	2540.77
563.00	2544.47
563.35	2549.40
563.71	2553.73
564.06	2558.16
564.42	2562.27
564.77	2566.16
565.12	2569.77
565.48	2572.91
565.83	2575.97
566.19	2578.43
566.54	2580.19
566.89	2582.45
567.25	2584.02
567.60	2586.41
567.96	2589.10
568.31	2591.13
568.66	2593.29
569.02	2594.76
569.37	2595.93
569.72	2597.63
570.08	2598.46
570.43	2599.18
570.78	2599.33
571.14	2598.37
571.49	2597.58
571.84	2597.76
572.20	2597.17
572.55	2596.55
572.90	2595.22
573.26	2594.50
573.61	2593.06
573.96	2591.94
574.31	2589.33
574.67	2586.73
575.02	2583.12
575.37	2579.75
575.72	2576.08
576.08	2572.77
576.43	2569.49
576.78	2565.94
577.13	2562.85
577.49	2559.89
577.84	2556.51
578.19	2552.64
578.54	2549.21
578.90	2545.14
579.25	2539.28
579.60	2534.06
579.95	2528.90
580.30	2523.75
580.66	2518.15
581.01	2512.95
581.36	2507.68
581.71	2503.27
582.06	2498.50
582.42	2493.92
582.77	2488.44
583.12	2483.41
583.47	2478.51
583.82	2473.28
584.17	2467.62
584.53	2461.66
584.88	2455.47
585.23	2449.29
585.58	2443.19
585.93	2436.98
586.28	2431.51
586.63	2426.11
586.98	2420.48
587.34	2415.34
587.69	2409.90
588.04	2404.31
588.39	2398.18
588.74	2390.96
589.09	2384.09
589.44	2376.57
589.79	2369.63
590.14	2363.45
590.49	2356.15
590.84	2348.96
591.19	2342.14
591.54	2334.93
591.89	2326.87
592.25	2319.47
592.60	2311.28
592.95	2303.00
593.30	2294.82
593.65	2286.33
594.00	2278.33
594.35	2270.31
594.70	2261.16
595.05	2253.18
595.40	2244.76
595.75	2236.21
596.10	2229.29
596.45	2221.68
596.80	2214.87
597.15	2207.48
597.50	2199.50
597.85	2192.19
598.19	2184.55
598.54	2176.63
598.89	2168.92
599.24	2162.11
599.59	2154.55
599.94	2147.50
600.29	2140.17
600.64	2132.45
600.99	2123.93
601.34	2116.23
601.69	2108.02
602.04	2100.19
602.39	2091.62
602.74	2083.81
603.08	2075.94
603.43	2067.87
603.78	2059.44
604.13	2050.97
604.48	2042.65
604.83	2034.61
605.18	2026.60
605.53	2017.44
605.87	2008.05
606.22	1999.71
606.57	1990.51
606.92	1981.70
607.27	1973.48
607.62	1965.47
607.96	1957.20
608.31	1949.66
608.66	1940.71
609.01	1932.13
609.36	1923.26
609.70	1913.94
610.05	1904.46
610.40	1895.57
610.75	1886.03
611.10	1877.19
611.44	1867.30
611.79	1857.85
612.14	1847.64
612.49	1836.83
612.83	1826.91
613.18	1817.44
613.53	1807.99
613.88	1798.04
614.22	1788.37
614.57	1778.08
614.92	1768.60
615.27	1759.69
615.61	1749.88
615.96	1740.50
616.31	1731.38
616.65	1722.84
617.00	1713.99
617.35	1705.04
617.70	1695.37
618.04	1685.45
618.39	1675.53
618.74	1666.71
619.08	1657.00
619.43	1648.03
619.78	1639.97
620.12	1631.64
620.47	1622.69
620.82	1613.07
621.16	1604.19
621.51	1595.28
621.85	1586.36
622.20	1576.36
622.55	1566.55
622.89	1557.29
623.24	1548.22
623.59	1539.42
623.93	1530.50
624.28	1521.92
624.62	1513.11
624.97	1504.58
625.32	1496.63
625.66	1488.47
626.01	1480.02
626.35	1471.52
626.70	1462.48
627.04	1453.35
627.39	1444.16
627.73	1435.55
628.08	1427.46
628.43	1419.04
628.77	1410.51
629.12	1401.72
629.46	1393.41
629.81	1384.56
630.15	1376.18
630.50	1367.54
630.84	1358.13
631.19	1348.81
631.53	1340.00
631.88	1331.13
632.22	1322.34
632.57	1313.74
632.91	1304.82
633.26	1296.13
633.60	1287.21
633.95	1278.82
634.29	1270.53
634.64	1262.65
634.98	1254.14
635.32	1245.70
635.67	1237.89
636.01	1230.16
636.36	1222.17
636.70	1214.44
637.05	1206.94
637.39	1199.21
637.73	1191.62
638.08	1184.62
638.42	1177.57
638.77	1170.15
639.11	1162.45
639.45	1154.86
639.80	1147.06
640.14	1139.86
640.49	1132.31
640.83	1125.06
641.17	1117.97
641.52	1110.72
641.86	1103.31
642.20	1096.47
642.55	1089.14
642.89	1081.61
643.23	1073.87
643.58	1067.24
643.92	1060.15
644.26	1053.19
644.61	1046.23
644.95	1039.34
645.29	1031.87
645.64	1024.13
645.98	1016.76
646.32	1009.89
646.66	1002.94
647.01	996.29
647.35	989.53
647.69	982.62
648.04	976.16
648.38	969.45
648.72	962.59
649.06	955.54
649.41	948.70
649.75	941.91
650.09	935.13
650.43	928.50
650.78	921.37
651.12	914.48
651.46	907.78
651.80	901.26
652.14	894.98
652.49	888.76
652.83	882.81
653.17	876.21
653.51	869.80
653.85	863.54
654.20	857.06
654.54	850.21
654.88	843.59
655.22	836.81
655.56	830.17
655.90	823.78
656.25	817.73
656.59	811.57
656.93	805.67
657.27	799.76
657.61	793.51
657.95	787.63
658.29	781.72
658.64	775.65
658.98	769.45
659.32	763.12
659.66	757.06
660.00	750.99
660.34	745.35
660.68	739.62
661.02	733.86
661.36	728.40
661.70	723.19
662.05	718.24
662.39	713.34
662.73	708.16
663.07	703.17
663.41	698.09
663.75	692.93
664.09	687.67
664.43	682.54
664.77	677.78
665.11	672.90
665.45	668.10
665.79	663.38
666.13	658.68
666.47	654.00
666.81	649.25
667.15	644.51
667.49	639.99
667.83	635.51
668.17	630.93
668.51	626.23
668.85	621.52
669.19	617.06
669.53	612.60
669.87	608.26
670.21	603.92
670.55	599.67
670.89	595.70
671.23	591.71
671.57	587.63
671.91	583.61
672.25	579.50
672.58	575.50
672.92	571.56
673.26	567.89
673.60	564.23
673.94	560.64
674.28	557.23
674.62	553.84
674.96	550.27
675.30	547.02
675.64	543.66
675.97	540.47
676.31	537.17
676.65	533.80
676.99	530.60
677.33	527.34
677.67	524.14
678.01	520.65
678.34	517.27
678.68	513.91
679.02	510.66
679.36	507.52
679.70	504.36
680.04	501.28
680.37	498.02
680.71	494.80
681.05	491.76
681.39	488.69
681.73	485.60
682.06	482.82
682.40	479.86
682.74	476.97
683.08	474.04
683.42	471.09
683.75	468.24
684.09	465.32
684.43	462.50
684.77	459.71
685.10	456.98
685.44	454.32
685.78	451.78
686.12	449.12
686.45	446.50
686.79	443.90
687.13	441.32
687.46	438.75
687.80	436.27
688.14	433.73
688.48	431.30
688.81	428.76
689.15	426.15
689.49	423.65
689.82	421.23
690.16	418.80
690.50	416.46
690.83	414.21
691.17	411.89
691.51	409.69
691.84	407.57
692.18	405.42
692.52	403.15
692.85	400.90
693.19	398.81
693.52	396.66
693.86	394.52
694.20	392.43
694.53	390.35
694.87	388.23
695.21	386.13
695.54	384.01
695.88	381.98
696.21	380.04
696.55	378.17
696.88	376.24
697.22	374.33
697.56	372.46
697.89	370.51
698.23	368.69
698.56	366.82
698.90	364.92
699.23	362.95
699.57	361.13
699.90	359.35
700.24	357.52
700.58	355.75
700.91	354.06
701.25	352.38
701.58	350.81
701.92	349.21
702.25	347.70
702.59	346.16
702.92	344.65
703.26	343.13
703.59	341.62
703.93	340.22
704.26	338.85
704.60	337.36
704.93	335.91
705.26	334.47
705.60	333.10
705.93	331.75
706.27	330.56
706.60	329.35
706.94	328.09
707.27	326.76
707.61	325.49
707.94	324.23
708.27	322.96
708.61	321.70
708.94	320.53
709.28	319.36
709.61	318.23
709.94	317.12
710.28	315.95
710.61	314.76
710.95	313.50
711.28	312.39
711.61	311.30
711.95	310.26
712.28	309.15
712.61	308.00
712.95	306.95
713.28	305.93
713.61	304.88
713.95	303.87
714.28	302.96
714.61	301.99
714.95	301.07
715.28	300.08
715.61	299.10
715.95	298.12
716.28	297.09
716.61	296.09
716.95	295.10
717.28	294.21
717.61	293.34
717.94	292.48
718.28	291.55
718.61	290.69
718.94	289.87
719.27	289.12
719.61	288.37
719.94	287.61
720.27	286.78
720.60	286.01
720.94	285.25
721.27	284.49
721.60	283.83
721.93	283.15
722.27	282.51
722.60	281.82
722.93	281.16
723.26	280.54
723.59	279.93
723.93	279.32
724.26	278.66
724.59	278.01
724.92	277.42
725.25	276.86
725.59	276.25
725.92	275.64
726.25	275.03
726.58	274.45
726.91	273.86
727.24	273.29
727.57	272.75
727.91	272.16
728.24	271.64
728.57	271.04
728.90	270.46
729.23	269.89
729.56	269.40
729.89	268.83
730.22	268.27
730.55	267.74
730.89	267.23
731.22	266.76
731.55	266.25
731.88	265.74
732.21	265.21
732.54	264.71
732.87	264.24
733.20	263.80
733.53	263.35
733.86	262.91
734.19	262.46
734.52	262.01
734.85	261.64
735.18	261.15
735.51	260.73
735.84	260.30
736.17	259.89
736.50	259.42
736.83	259.15
737.16	258.75
737.49	258.33
737.82	257.93
738.15	257.55
738.48	257.14
738.81	256.77
739.14	256.41
739.47	256.06
739.80	255.73
740.13	255.36
740.46	255.01
740.79	254.60
741.12	254.24
741.45	253.91
741.78	253.51
742.11	253.19
742.44	252.82
742.77	252.50
743.10	252.16
743.43	251.82
743.75	251.39
744.08	251.22
744.41	250.95
744.74	250.62
745.07	250.30
745.40	250.04
745.73	249.76
746.06	249.48
746.39	249.18
746.71	248.83
747.04	248.51
747.37	248.19
747.70	247.95
748.03	247.68
748.36	247.39
748.68	247.13
749.01	246.89
749.34	246.65
749.67	246.41
750.00	246.15
750.33	245.99
750.65	245.75
750.98	245.36
751.31	245.11
751.64	244.89
751.97	244.69
752.29	244.44
752.62	244.19
752.95	243.92
753.28	243.68
753.60	243.44
753.93	243.23
754.26	242.99
754.59	242.73
754.91	242.47
755.24	242.22
755.57	241.99
755.90	241.73
756.22	241.49
756.55	241.24
756.88	241.02
757.20	240.74
757.53	240.50
757.86	240.32
758.19	240.11
758.51	239.91
758.84	239.65
759.17	239.46
759.49	239.25
759.82	239.06
760.15	238.87
760.47	238.70
760.80	238.48
761.13	238.36
761.45	238.18
761.78	238.03
762.11	237.88
762.43	237.71
762.76	237.56
763.08	237.44
763.41	237.29
763.74	237.14
764.06	236.99
764.39	236.82
764.71	236.62
765.04	236.43
765.37	236.25
765.69	236.12
766.02	235.96
766.34	235.82
766.67	235.69
767.00	235.58
767.32	235.52
767.65	235.44
767.97	235.30
768.30	235.18
768.62	235.03
768.95	234.90
769.27	234.76
769.60	234.63
769.92	234.49
770.25	234.32
770.57	234.22
770.90	234.09
771.22	234.01
771.55	233.94
771.87	233.86
772.20	233.77
772.52	233.76
772.85	233.79
773.17	233.68
773.50	233.53
773.82	233.41
774.15	233.25
774.47	233.12
774.80	232.98
775.12	232.86
775.45	232.77
775.77	232.67
776.09	232.58
776.42	232.50
776.74	232.43
777.07	232.39
777.39	232.28
777.72	232.20
778.04	232.12
778.36	232.02
778.69	231.95
779.01	231.88
779.33	231.72
779.66	231.51
779.98	231.41
780.31	231.37
780.63	231.30
780.95	231.25
781.28	231.15
781.60	231.07
781.92	231.00
782.25	230.94
782.57	230.89
782.89	230.84
783.22	230.74
783.54	230.67
783.86	230.58
784.19	230.55
784.51	230.52
784.83	230.44
785.16	230.37
785.48	230.29
785.80	230.25
786.12	230.20
786.45	230.14
