SpectraSuite Data File
++++++++++++++++++++++++++++++++++++
Date: Fri Feb 01 14:53:31 EST 2013
User: group
Dark Spectrum Present: No
Reference Spectrum Present: No
Number of Sampled Component Spectra: 1
Spectrometers: USB2E7196
Integration Time (usec): 35000 (USB2E7196)
Spectra Averaged: 100 (USB2E7196)
Boxcar Smoothing: 10 (USB2E7196)
Correct for Electrical Dark: No (USB2E7196)
Strobe/Lamp Enabled: No (USB2E7196)
Correct for Detector Non-linearity: No (USB2E7196)
Correct for Stray Light: No (USB2E7196)
Number of Pixels in Processed Spectrum: 2048
>>>>>Begin Processed Spectral Data<<<<<
339.09	0.00
339.48	215.32
339.86	216.94
340.24	218.25
340.63	219.67
341.01	222.72
341.39	222.05
341.78	223.56
342.16	224.99
342.54	225.22
342.93	213.74
343.31	224.54
343.69	225.07
344.07	225.55
344.46	225.98
344.84	226.37
345.22	226.60
345.60	226.85
345.99	227.05
346.37	227.15
346.75	227.25
347.13	227.28
347.52	227.32
347.90	227.37
348.28	227.36
348.66	227.38
349.05	227.37
349.43	227.43
349.81	227.48
350.19	227.53
350.57	227.59
350.96	227.67
351.34	227.75
351.72	227.84
352.10	227.92
352.48	227.99
352.87	228.01
353.25	228.06
353.63	228.11
354.01	228.16
354.39	228.27
354.77	228.35
355.15	228.46
355.54	228.52
355.92	228.55
356.30	228.65
356.68	228.79
357.06	228.84
357.44	228.91
357.82	228.98
358.20	229.04
358.58	229.09
358.97	229.14
359.35	229.22
359.73	229.30
360.11	229.33
360.49	229.38
360.87	229.43
361.25	229.51
361.63	229.58
362.01	229.62
362.39	229.65
362.77	229.69
363.15	229.73
363.53	229.76
363.91	229.79
364.29	229.80
364.67	229.75
365.05	229.80
365.43	229.79
365.81	229.79
366.19	229.84
366.57	229.88
366.95	229.90
367.33	229.85
367.71	229.85
368.09	229.84
368.47	229.81
368.85	229.83
369.23	229.80
369.61	229.74
369.99	229.75
370.37	229.71
370.75	229.71
371.13	229.63
371.51	229.58
371.89	229.54
372.27	229.49
372.65	229.43
373.03	229.38
373.41	229.33
373.78	229.28
374.16	229.14
374.54	229.08
374.92	229.00
375.30	228.93
375.68	228.82
376.06	228.77
376.44	228.69
376.82	228.57
377.19	228.48
377.57	228.44
377.95	228.30
378.33	228.19
378.71	228.08
379.09	228.04
379.47	228.01
379.84	227.95
380.22	227.86
380.60	227.75
380.98	227.69
381.36	227.61
381.73	227.52
382.11	227.48
382.49	227.37
382.87	227.26
383.25	227.22
383.62	227.24
384.00	227.15
384.38	227.10
384.76	227.09
385.13	227.09
385.51	227.00
385.89	226.93
386.27	226.91
386.64	226.85
387.02	226.79
387.40	226.69
387.78	226.63
388.15	226.59
388.53	226.59
388.91	226.53
389.29	226.48
389.66	226.48
390.04	226.44
390.42	226.46
390.79	226.43
391.17	226.40
391.55	226.32
391.92	226.31
392.30	226.31
392.68	226.29
393.05	226.30
393.43	226.32
393.81	226.37
394.18	226.36
394.56	226.37
394.94	226.41
395.31	226.45
395.69	226.48
396.06	226.54
396.44	226.54
396.82	226.57
397.19	226.69
397.57	226.72
397.95	226.80
398.32	226.82
398.70	226.93
399.07	227.03
399.45	227.08
399.82	227.19
400.20	227.29
400.58	227.33
400.95	227.36
401.33	227.50
401.70	227.63
402.08	227.74
402.45	227.85
402.83	228.01
403.20	228.15
403.58	228.27
403.95	228.40
404.33	228.56
404.71	228.73
405.08	228.91
405.46	229.05
405.83	229.22
406.21	229.41
406.58	229.56
406.96	229.71
407.33	229.93
407.70	230.12
408.08	230.39
408.45	230.66
408.83	230.91
409.20	231.09
409.58	231.32
409.95	231.59
410.33	231.88
410.70	232.14
411.08	232.44
411.45	232.79
411.82	233.10
412.20	233.47
412.57	233.89
412.95	234.17
413.32	234.60
413.69	235.00
414.07	235.45
414.44	235.97
414.82	236.47
415.19	237.00
415.56	237.56
415.94	238.12
416.31	238.75
416.68	239.38
417.06	240.13
417.43	240.80
417.81	241.57
418.18	242.34
418.55	243.15
418.93	244.02
419.30	244.89
419.67	245.82
420.04	246.77
420.42	247.77
420.79	248.98
421.16	250.13
421.54	251.33
421.91	252.50
422.28	253.72
422.66	255.02
423.03	256.31
423.40	257.61
423.77	259.01
424.15	260.45
424.52	261.91
424.89	263.50
425.26	265.06
425.64	266.49
426.01	268.08
426.38	269.71
426.75	271.36
427.13	273.07
427.50	274.85
427.87	276.70
428.24	278.52
428.61	280.23
428.99	282.15
429.36	284.27
429.73	286.31
430.10	288.32
430.47	290.38
430.85	292.49
431.22	294.74
431.59	297.11
431.96	299.34
432.33	301.84
432.70	304.21
433.08	306.99
433.45	309.63
433.82	312.22
434.19	315.09
434.56	317.92
434.93	320.56
435.30	323.19
435.68	326.07
436.05	328.87
436.42	331.63
436.79	334.15
437.16	336.79
437.53	339.61
437.90	342.44
438.27	345.19
438.64	348.02
439.01	350.57
439.38	352.78
439.75	354.98
440.13	357.41
440.50	359.72
440.87	361.61
441.24	363.56
441.61	365.70
441.98	367.21
442.35	368.94
442.72	370.82
443.09	372.64
443.46	373.68
443.83	374.28
444.20	374.84
444.57	375.69
444.94	375.99
445.31	376.35
445.68	376.67
446.05	376.72
446.42	376.35
446.79	375.94
447.16	375.50
447.53	375.15
447.90	374.07
448.27	372.89
448.64	371.28
449.01	370.14
449.37	368.23
449.74	366.38
450.11	364.20
450.48	361.73
450.85	359.21
451.22	357.11
451.59	355.09
451.96	353.17
452.33	350.59
452.70	348.26
453.07	345.48
453.43	342.63
453.80	339.86
454.17	337.20
454.54	334.68
454.91	331.99
455.28	329.35
455.65	326.84
456.02	324.43
456.38	322.31
456.75	319.68
457.12	317.41
457.49	315.17
457.86	313.01
458.23	311.15
458.59	309.15
458.96	307.03
459.33	305.20
459.70	303.33
460.07	301.78
460.43	300.08
460.80	298.44
461.17	297.00
461.54	295.56
461.91	294.15
462.27	292.69
462.64	291.45
463.01	290.06
463.38	288.80
463.74	287.42
464.11	286.23
464.48	285.20
464.85	284.10
465.21	283.24
465.58	282.28
465.95	281.22
466.32	280.30
466.68	279.38
467.05	278.48
467.42	277.54
467.78	276.64
468.15	275.77
468.52	275.11
468.88	274.23
469.25	273.41
469.62	272.77
469.98	272.08
470.35	271.45
470.72	270.85
471.08	270.21
471.45	269.65
471.82	269.10
472.18	268.47
472.55	268.04
472.92	267.48
473.28	267.02
473.65	266.53
474.02	266.07
474.38	265.68
474.75	265.33
475.11	265.02
475.48	264.69
475.85	264.42
476.21	264.17
476.58	263.98
476.94	263.81
477.31	263.62
477.67	263.47
478.04	263.29
478.41	263.24
478.77	263.23
479.14	263.18
479.50	263.17
479.87	263.22
480.23	263.23
480.60	263.29
480.96	263.35
481.33	263.55
481.69	263.73
482.06	263.89
482.42	264.09
482.79	264.29
483.15	264.66
483.52	265.01
483.88	265.30
484.25	265.67
484.61	266.10
484.98	266.52
485.34	267.04
485.71	267.61
486.07	268.21
486.44	268.76
486.80	269.45
487.17	270.17
487.53	270.99
487.90	271.84
488.26	272.78
488.62	273.77
488.99	274.71
489.35	275.74
489.72	276.87
490.08	278.01
490.44	279.22
490.81	280.51
491.17	281.83
491.54	283.33
491.90	284.83
492.26	286.44
492.63	288.19
492.99	289.97
493.36	291.86
493.72	293.82
494.08	295.90
494.45	298.10
494.81	300.42
495.17	302.78
495.54	305.28
495.90	307.93
496.26	310.71
496.63	313.69
496.99	316.80
497.35	320.03
497.72	323.42
498.08	326.96
498.44	330.57
498.80	334.46
499.17	338.43
499.53	342.55
499.89	346.93
500.26	351.38
500.62	355.93
500.98	360.86
501.34	365.95
501.71	371.23
502.07	376.65
502.43	382.23
502.79	388.01
503.16	394.08
503.52	400.32
503.88	406.69
504.24	413.23
504.60	420.05
504.97	427.15
505.33	434.45
505.69	442.08
506.05	449.80
506.41	457.64
506.78	465.80
507.14	474.27
507.50	482.94
507.86	491.97
508.22	501.18
508.59	510.41
508.95	519.95
509.31	529.75
509.67	539.81
510.03	550.08
510.39	560.60
510.75	571.41
511.12	582.30
511.48	593.54
511.84	605.00
512.20	616.55
512.56	628.48
512.92	640.59
513.28	652.96
513.64	665.52
514.00	678.29
514.37	691.23
514.73	704.19
515.09	717.22
515.45	730.54
515.81	744.14
516.17	758.04
516.53	772.11
516.89	786.30
517.25	800.44
517.61	814.87
517.97	829.34
518.33	843.71
518.69	858.48
519.05	873.47
519.41	888.63
519.77	904.15
520.13	919.67
520.49	934.99
520.85	950.44
521.21	966.14
521.57	982.35
521.93	998.18
522.29	1014.66
522.65	1030.91
523.01	1047.02
523.37	1063.13
523.73	1079.43
524.09	1095.62
524.45	1112.00
524.81	1128.74
525.17	1145.70
525.53	1162.67
525.89	1179.59
526.25	1196.48
526.61	1212.99
526.97	1229.85
527.33	1246.31
527.68	1263.04
528.04	1279.72
528.40	1296.39
528.76	1313.43
529.12	1329.96
529.48	1346.82
529.84	1362.92
530.20	1379.64
530.56	1396.89
530.91	1414.30
531.27	1431.11
531.63	1447.71
531.99	1464.36
532.35	1480.45
532.71	1496.27
533.07	1512.72
533.42	1528.69
533.78	1544.81
534.14	1561.01
534.50	1576.34
534.86	1592.34
535.21	1607.50
535.57	1623.49
535.93	1639.02
536.29	1654.02
536.65	1669.38
537.00	1684.28
537.36	1699.67
537.72	1714.35
538.08	1728.76
538.44	1742.75
538.79	1756.74
539.15	1770.49
539.51	1784.31
539.87	1798.73
540.22	1812.58
540.58	1826.36
540.94	1839.77
541.29	1852.77
541.65	1865.65
542.01	1879.03
542.37	1891.43
542.72	1903.86
543.08	1915.71
543.44	1928.13
543.79	1939.42
544.15	1950.42
544.51	1961.99
544.87	1972.95
545.22	1983.76
545.58	1994.08
545.94	2003.71
546.29	2013.70
546.65	2023.56
547.01	2032.87
547.36	2041.68
547.72	2050.21
548.07	2058.00
548.43	2066.40
548.79	2074.43
549.14	2081.95
549.50	2089.32
549.86	2097.07
550.21	2104.27
550.57	2111.53
550.92	2118.21
551.28	2125.23
551.64	2132.33
551.99	2138.86
552.35	2145.16
552.70	2151.12
553.06	2156.97
553.41	2163.33
553.77	2169.25
554.13	2175.19
554.48	2181.16
554.84	2186.45
555.19	2191.68
555.55	2196.86
555.90	2201.16
556.26	2205.82
556.61	2210.55
556.97	2214.72
557.32	2218.78
557.68	2223.00
558.03	2227.10
558.39	2230.67
558.74	2235.12
559.10	2238.80
559.45	2242.31
559.81	2246.42
560.16	2250.24
560.52	2253.33
560.87	2256.73
561.23	2259.08
561.58	2261.92
561.94	2264.45
562.29	2266.75
562.64	2269.33
563.00	2271.87
563.35	2275.29
563.71	2278.36
564.06	2281.30
564.42	2284.02
564.77	2286.24
565.12	2288.44
565.48	2290.18
565.83	2291.87
566.19	2293.04
566.54	2293.95
566.89	2295.09
567.25	2295.49
567.60	2296.60
567.96	2298.19
568.31	2298.77
568.66	2299.66
569.02	2300.04
569.37	2300.11
569.72	2300.73
570.08	2300.60
570.43	2300.19
570.78	2299.20
571.14	2297.41
571.49	2295.94
571.84	2295.32
572.20	2293.85
572.55	2292.38
572.90	2290.53
573.26	2288.79
573.61	2286.97
573.96	2284.85
574.31	2281.53
574.67	2278.28
575.02	2274.44
575.37	2270.77
575.72	2266.73
576.08	2263.26
576.43	2259.81
576.78	2255.95
577.13	2252.62
577.49	2249.33
577.84	2245.81
578.19	2241.93
578.54	2238.22
578.90	2233.81
579.25	2228.15
579.60	2223.13
579.95	2218.02
580.30	2212.98
580.66	2207.61
581.01	2202.39
581.36	2197.33
581.71	2193.06
582.06	2188.59
582.42	2184.02
582.77	2178.57
583.12	2173.82
583.47	2168.99
583.82	2163.74
584.17	2158.43
584.53	2152.75
584.88	2147.00
585.23	2141.02
585.58	2135.39
585.93	2129.77
586.28	2124.94
586.63	2119.73
586.98	2114.58
587.34	2109.74
587.69	2104.69
588.04	2099.38
588.39	2093.57
588.74	2087.03
589.09	2080.71
589.44	2073.66
589.79	2067.49
590.14	2061.82
590.49	2055.24
590.84	2048.54
591.19	2042.45
591.54	2035.72
591.89	2028.03
592.25	2021.11
592.60	2013.85
592.95	2006.11
593.30	1998.65
593.65	1990.81
594.00	1983.61
594.35	1976.34
594.70	1968.27
595.05	1960.89
595.40	1953.61
595.75	1946.09
596.10	1939.63
596.45	1932.71
596.80	1926.37
597.15	1919.73
597.50	1912.57
597.85	1906.10
598.19	1899.62
598.54	1892.52
598.89	1885.86
599.24	1880.03
599.59	1873.36
599.94	1867.04
600.29	1860.74
600.64	1854.15
600.99	1846.62
601.34	1839.67
601.69	1832.63
602.04	1825.70
602.39	1818.38
602.74	1811.45
603.08	1804.74
603.43	1798.06
603.78	1790.89
604.13	1783.74
604.48	1776.44
604.83	1769.56
605.18	1762.53
605.53	1754.56
605.87	1746.50
606.22	1739.40
606.57	1731.44
606.92	1724.17
607.27	1717.02
607.62	1710.10
607.96	1702.78
608.31	1696.30
608.66	1688.76
609.01	1681.32
609.36	1673.74
609.70	1665.84
610.05	1657.93
610.40	1650.31
610.75	1642.01
611.10	1634.20
611.44	1625.91
611.79	1618.04
612.14	1609.42
612.49	1600.29
612.83	1591.91
613.18	1583.67
613.53	1575.52
613.88	1567.12
614.22	1558.82
614.57	1550.31
614.92	1542.53
615.27	1535.14
615.61	1526.84
615.96	1519.01
616.31	1511.24
616.65	1503.92
617.00	1496.36
617.35	1488.71
617.70	1480.28
618.04	1471.80
618.39	1463.75
618.74	1456.28
619.08	1448.02
619.43	1440.56
619.78	1433.70
620.12	1426.57
620.47	1419.23
620.82	1411.10
621.16	1403.82
621.51	1396.27
621.85	1388.75
622.20	1380.26
622.55	1371.92
622.89	1364.20
623.24	1356.61
623.59	1349.46
623.93	1341.97
624.28	1334.79
624.62	1327.37
624.97	1320.28
625.32	1313.65
625.66	1306.63
626.01	1299.45
626.35	1292.05
626.70	1284.40
627.04	1276.77
627.39	1269.09
627.73	1261.75
628.08	1254.95
628.43	1247.65
628.77	1240.36
629.12	1232.84
629.46	1225.68
629.81	1218.39
630.15	1211.26
630.50	1203.92
630.84	1195.67
631.19	1187.91
631.53	1180.43
631.88	1172.99
632.22	1165.49
632.57	1158.34
632.91	1151.02
633.26	1143.63
633.60	1136.27
633.95	1129.25
634.29	1122.28
634.64	1115.66
634.98	1108.44
635.32	1101.32
635.67	1094.85
636.01	1088.25
636.36	1081.59
636.70	1075.14
637.05	1068.67
637.39	1062.21
637.73	1055.87
638.08	1050.17
638.42	1044.31
638.77	1038.02
639.11	1031.46
639.45	1025.20
639.80	1018.53
640.14	1012.17
640.49	1005.75
640.83	999.62
641.17	993.54
641.52	987.32
641.86	980.97
642.20	975.30
642.55	969.15
642.89	962.79
643.23	956.38
643.58	950.71
643.92	944.57
644.26	938.51
644.61	932.65
644.95	926.67
645.29	920.08
645.64	913.32
645.98	907.07
646.32	901.32
646.66	895.35
647.01	889.63
647.35	883.89
647.69	878.12
648.04	872.61
648.38	866.80
648.72	860.91
649.06	854.93
649.41	848.96
649.75	842.93
650.09	836.97
650.43	831.12
650.78	824.92
651.12	819.00
651.46	813.33
651.80	807.52
652.14	802.13
652.49	796.86
652.83	791.75
653.17	786.07
653.51	780.30
653.85	774.87
654.20	769.20
654.54	763.28
654.88	757.59
655.22	751.61
655.56	745.93
655.90	740.42
656.25	735.23
656.59	729.95
656.93	724.96
657.27	719.89
657.61	714.56
657.95	709.48
658.29	704.43
658.64	699.21
658.98	693.93
659.32	688.50
659.66	683.27
660.00	678.03
660.34	673.09
660.68	668.26
661.02	663.36
661.36	658.80
661.70	654.36
662.05	650.03
662.39	645.78
662.73	641.34
663.07	637.09
663.41	632.69
663.75	628.22
664.09	623.72
664.43	619.35
664.77	615.28
665.11	611.13
665.45	607.07
665.79	603.05
666.13	598.99
666.47	594.87
666.81	590.72
667.15	586.64
667.49	582.80
667.83	578.98
668.17	575.01
668.51	570.91
668.85	566.94
669.19	563.12
669.53	559.39
669.87	555.61
670.21	551.93
670.55	548.25
670.89	544.91
671.23	541.52
671.57	538.06
671.91	534.56
672.25	531.12
672.58	527.68
672.92	524.31
673.26	521.22
673.60	518.18
673.94	515.19
674.28	512.32
674.62	509.41
674.96	506.38
675.30	503.55
675.64	500.68
675.97	497.98
676.31	495.20
676.65	492.28
676.99	489.62
677.33	486.76
677.67	483.98
678.01	480.97
678.34	477.98
678.68	475.13
679.02	472.35
679.36	469.60
679.70	466.86
680.04	464.13
680.37	461.27
680.71	458.54
681.05	455.92
681.39	453.29
681.73	450.67
682.06	448.21
682.40	445.67
682.74	443.18
683.08	440.64
683.42	438.05
683.75	435.62
684.09	433.05
684.43	430.67
684.77	428.25
685.10	425.93
685.44	423.71
685.78	421.47
686.12	419.32
686.45	417.11
686.79	414.89
687.13	412.75
687.46	410.62
687.80	408.49
688.14	406.30
688.48	404.22
688.81	402.04
689.15	399.90
689.49	397.84
689.82	395.78
690.16	393.67
690.50	391.73
690.83	389.76
691.17	387.84
691.51	385.90
691.84	384.10
692.18	382.17
692.52	380.20
692.85	378.29
693.19	376.38
693.52	374.53
693.86	372.73
694.20	370.96
694.53	369.14
694.87	367.29
695.21	365.52
695.54	363.74
695.88	362.04
696.21	360.35
696.55	358.60
696.88	356.93
697.22	355.33
697.56	353.67
697.89	352.05
698.23	350.45
698.56	348.85
698.90	347.23
699.23	345.62
699.57	344.10
699.90	342.54
700.24	340.97
700.58	339.42
700.91	337.95
701.25	336.52
701.58	335.18
701.92	333.83
702.25	332.50
702.59	331.13
702.92	329.82
703.26	328.50
703.59	327.26
703.93	326.07
704.26	324.80
704.60	323.57
704.93	322.31
705.26	321.07
705.60	319.93
705.93	318.83
706.27	317.80
706.60	316.71
706.94	315.65
707.27	314.55
707.61	313.52
707.94	312.52
708.27	311.44
708.61	310.36
708.94	309.35
709.28	308.36
709.61	307.39
709.94	306.43
710.28	305.43
710.61	304.41
710.95	303.38
711.28	302.51
711.61	301.57
711.95	300.67
712.28	299.74
712.61	298.82
712.95	297.86
713.28	296.99
713.61	296.12
713.95	295.26
714.28	294.44
714.61	293.54
714.95	292.68
715.28	291.82
715.61	290.98
715.95	290.18
716.28	289.39
716.61	288.57
716.95	287.82
717.28	287.10
717.61	286.38
717.94	285.62
718.28	284.84
718.61	284.13
718.94	283.45
719.27	282.80
719.61	282.15
719.94	281.52
720.27	280.81
720.60	280.15
720.94	279.55
721.27	278.95
721.60	278.45
721.93	277.86
722.27	277.34
722.60	276.80
722.93	276.27
723.26	275.72
723.59	275.19
723.93	274.63
724.26	274.09
724.59	273.56
724.92	273.07
725.25	272.57
725.59	272.12
725.92	271.60
726.25	271.10
726.58	270.61
726.91	270.15
727.24	269.66
727.57	269.23
727.91	268.72
728.24	268.27
728.57	267.77
728.90	267.34
729.23	266.87
729.56	266.46
729.89	265.98
730.22	265.52
730.55	265.07
730.89	264.61
731.22	264.18
731.55	263.74
731.88	263.33
732.21	262.91
732.54	262.44
732.87	262.02
733.20	261.62
733.53	261.21
733.86	260.82
734.19	260.47
734.52	260.09
734.85	259.78
735.18	259.37
735.51	259.00
735.84	258.59
736.17	258.21
736.50	257.79
736.83	257.49
737.16	257.17
737.49	256.79
737.82	256.44
738.15	256.10
738.48	255.79
738.81	255.45
739.14	255.12
739.47	254.81
739.80	254.49
740.13	254.17
740.46	253.82
740.79	253.51
741.12	253.16
741.45	252.85
741.78	252.43
742.11	252.14
742.44	251.82
742.77	251.55
743.10	251.25
743.43	250.99
743.75	250.59
744.08	250.40
744.41	250.12
744.74	249.81
745.07	249.47
745.40	249.18
745.73	248.92
746.06	248.63
746.39	248.35
746.71	248.10
747.04	247.84
747.37	247.58
747.70	247.30
748.03	247.05
748.36	246.81
748.68	246.61
749.01	246.32
749.34	246.08
749.67	245.87
750.00	245.64
750.33	245.45
750.65	245.28
750.98	244.92
751.31	244.70
751.64	244.51
751.97	244.37
752.29	244.14
752.62	243.88
752.95	243.70
753.28	243.50
753.60	243.27
753.93	243.11
754.26	242.92
754.59	242.72
754.91	242.52
755.24	242.30
755.57	242.08
755.90	241.95
756.22	241.74
756.55	241.52
756.88	241.31
757.20	241.09
757.53	240.91
757.86	240.76
758.19	240.63
758.51	240.49
758.84	240.29
759.17	240.11
759.49	239.95
759.82	239.83
760.15	239.70
760.47	239.57
760.80	239.40
761.13	239.29
761.45	239.15
761.78	239.01
762.11	238.87
762.43	238.74
762.76	238.62
763.08	238.53
763.41	238.42
763.74	238.34
764.06	238.20
764.39	238.07
764.71	237.96
765.04	237.83
765.37	237.67
765.69	237.58
766.02	237.48
766.34	237.40
766.67	237.24
767.00	237.11
767.32	237.04
767.65	236.98
767.97	236.84
768.30	236.74
768.62	236.64
768.95	236.51
769.27	236.45
769.60	236.35
769.92	236.25
770.25	236.11
770.57	235.99
770.90	235.89
771.22	235.78
771.55	235.67
771.87	235.62
772.20	235.55
772.52	235.53
772.85	235.56
773.17	235.48
773.50	235.38
773.82	235.27
774.15	235.18
774.47	235.03
774.80	234.96
775.12	234.84
775.45	234.77
775.77	234.73
776.09	234.63
776.42	234.50
776.74	234.45
777.07	234.37
777.39	234.29
777.72	234.22
778.04	234.15
778.36	234.07
778.69	233.98
779.01	233.89
779.33	233.73
779.66	233.58
779.98	233.50
780.31	233.46
780.63	233.46
780.95	233.40
781.28	233.33
781.60	233.23
781.92	233.19
782.25	233.10
782.57	233.04
782.89	232.98
783.22	232.92
783.54	232.85
783.86	232.79
784.19	232.72
784.51	232.69
784.83	232.62
785.16	232.55
785.48	232.46
785.80	232.43
786.12	232.38
786.45	232.29
786.77	232.23
787.09	232.15
