SpectraSuite Data File
++++++++++++++++++++++++++++++++++++
Date: Fri Feb 01 15:41:59 EST 2013
User: group
Dark Spectrum Present: No
Reference Spectrum Present: No
Number of Sampled Component Spectra: 1
Spectrometers: USB2E7196
Integration Time (usec): 35000 (USB2E7196)
Spectra Averaged: 100 (USB2E7196)
Boxcar Smoothing: 10 (USB2E7196)
Correct for Electrical Dark: No (USB2E7196)
Strobe/Lamp Enabled: No (USB2E7196)
Correct for Detector Non-linearity: No (USB2E7196)
Correct for Stray Light: No (USB2E7196)
Number of Pixels in Processed Spectrum: 2048
>>>>>Begin Processed Spectral Data<<<<<
339.09	0.00
339.48	214.97
339.86	215.64
340.24	217.53
340.63	219.59
341.01	221.74
341.39	222.18
341.78	223.38
342.16	224.27
342.54	225.13
342.93	213.39
343.31	224.16
343.69	224.71
344.07	225.23
344.46	225.67
344.84	226.05
345.22	226.30
345.60	226.57
345.99	226.76
346.37	226.92
346.75	227.01
347.13	227.05
347.52	227.07
347.90	227.14
348.28	227.15
348.66	227.17
349.05	227.20
349.43	227.23
349.81	227.30
350.19	227.32
350.57	227.39
350.96	227.46
351.34	227.57
351.72	227.67
352.10	227.74
352.48	227.83
352.87	227.85
353.25	227.89
353.63	227.95
354.01	227.99
354.39	228.05
354.77	228.16
355.15	228.26
355.54	228.36
355.92	228.40
356.30	228.48
356.68	228.64
357.06	228.71
357.44	228.76
357.82	228.82
358.20	228.93
358.58	229.01
358.97	229.09
359.35	229.18
359.73	229.23
360.11	229.29
360.49	229.30
360.87	229.35
361.25	229.43
361.63	229.50
362.01	229.58
362.39	229.60
362.77	229.64
363.15	229.65
363.53	229.69
363.91	229.69
364.29	229.70
364.67	229.59
365.05	229.58
365.43	229.61
365.81	229.60
366.19	229.57
366.57	229.60
366.95	229.59
367.33	229.51
367.71	229.52
368.09	229.53
368.47	229.53
368.85	229.54
369.23	229.54
369.61	229.44
369.99	229.43
370.37	229.39
370.75	229.37
371.13	229.32
371.51	229.23
371.89	229.21
372.27	229.18
372.65	229.16
373.03	229.12
373.41	229.02
373.78	228.96
374.16	228.86
374.54	228.74
374.92	228.67
375.30	228.60
375.68	228.54
376.06	228.45
376.44	228.35
376.82	228.27
377.19	228.19
377.57	228.17
377.95	228.06
378.33	227.96
378.71	227.83
379.09	227.74
379.47	227.68
379.84	227.60
380.22	227.50
380.60	227.41
380.98	227.33
381.36	227.27
381.73	227.24
382.11	227.20
382.49	227.15
382.87	227.07
383.25	226.99
383.62	227.02
384.00	226.96
384.38	226.90
384.76	226.87
385.13	226.84
385.51	226.76
385.89	226.71
386.27	226.72
386.64	226.67
387.02	226.65
387.40	226.60
387.78	226.57
388.15	226.58
388.53	226.52
388.91	226.50
389.29	226.47
389.66	226.41
390.04	226.36
390.42	226.33
390.79	226.35
391.17	226.35
391.55	226.21
391.92	226.21
392.30	226.23
392.68	226.19
393.05	226.16
393.43	226.16
393.81	226.16
394.18	226.14
394.56	226.15
394.94	226.19
395.31	226.22
395.69	226.27
396.06	226.30
396.44	226.34
396.82	226.39
397.19	226.48
397.57	226.54
397.95	226.61
398.32	226.64
398.70	226.68
399.07	226.77
399.45	226.83
399.82	226.89
400.20	226.98
400.58	227.09
400.95	227.14
401.33	227.26
401.70	227.42
402.08	227.54
402.45	227.65
402.83	227.76
403.20	227.87
403.58	227.96
403.95	228.11
404.33	228.26
404.71	228.38
405.08	228.53
405.46	228.66
405.83	228.85
406.21	229.02
406.58	229.21
406.96	229.37
407.33	229.59
407.70	229.77
408.08	230.04
408.45	230.20
408.83	230.46
409.20	230.64
409.58	230.81
409.95	231.05
410.33	231.32
410.70	231.55
411.08	231.87
411.45	232.17
411.82	232.44
412.20	232.77
412.57	233.18
412.95	233.48
413.32	233.89
413.69	234.26
414.07	234.69
414.44	235.14
414.82	235.64
415.19	236.14
415.56	236.72
415.94	237.28
416.31	237.97
416.68	238.58
417.06	239.31
417.43	239.99
417.81	240.78
418.18	241.57
418.55	242.44
418.93	243.30
419.30	244.22
419.67	245.14
420.04	246.10
420.42	247.11
420.79	248.30
421.16	249.47
421.54	250.67
421.91	251.88
422.28	253.11
422.66	254.38
423.03	255.69
423.40	256.97
423.77	258.35
424.15	259.74
424.52	261.25
424.89	262.89
425.26	264.44
425.64	265.86
426.01	267.46
426.38	269.12
426.75	270.78
427.13	272.51
427.50	274.33
427.87	276.25
428.24	278.09
428.61	279.81
428.99	281.74
429.36	283.86
429.73	285.97
430.10	287.99
430.47	290.09
430.85	292.18
431.22	294.47
431.59	296.83
431.96	299.07
432.33	301.58
432.70	303.96
433.08	306.78
433.45	309.42
433.82	312.04
434.19	314.90
434.56	317.72
434.93	320.37
435.30	323.04
435.68	325.88
436.05	328.67
436.42	331.44
436.79	333.95
437.16	336.62
437.53	339.45
437.90	342.29
438.27	345.05
438.64	347.92
439.01	350.49
439.38	352.76
439.75	354.97
440.13	357.42
440.50	359.68
440.87	361.52
441.24	363.49
441.61	365.60
441.98	367.09
442.35	368.90
442.72	370.74
443.09	372.50
443.46	373.51
443.83	374.14
444.20	374.66
444.57	375.54
444.94	375.82
445.31	376.15
445.68	376.51
446.05	376.54
446.42	376.11
446.79	375.71
447.16	375.29
447.53	374.95
447.90	373.77
448.27	372.67
448.64	371.08
449.01	369.91
449.37	367.96
449.74	366.03
450.11	363.77
450.48	361.33
450.85	358.77
451.22	356.65
451.59	354.63
451.96	352.73
452.33	350.12
452.70	347.80
453.07	344.94
453.43	342.02
453.80	339.27
454.17	336.64
454.54	334.10
454.91	331.34
455.28	328.64
455.65	326.15
456.02	323.70
456.38	321.56
456.75	318.91
457.12	316.67
457.49	314.49
457.86	312.35
458.23	310.48
458.59	308.49
458.96	306.39
459.33	304.55
459.70	302.68
460.07	301.12
460.43	299.40
460.80	297.81
461.17	296.36
461.54	294.89
461.91	293.49
462.27	292.06
462.64	290.81
463.01	289.47
463.38	288.18
463.74	286.81
464.11	285.63
464.48	284.62
464.85	283.52
465.21	282.66
465.58	281.73
465.95	280.67
466.32	279.72
466.68	278.80
467.05	277.89
467.42	277.02
467.78	276.15
468.15	275.25
468.52	274.60
468.88	273.75
469.25	272.98
469.62	272.32
469.98	271.63
470.35	271.00
470.72	270.40
471.08	269.72
471.45	269.21
471.82	268.70
472.18	268.09
472.55	267.63
472.92	267.12
473.28	266.65
473.65	266.22
474.02	265.80
474.38	265.44
474.75	265.13
475.11	264.78
475.48	264.51
475.85	264.28
476.21	264.04
476.58	263.86
476.94	263.71
477.31	263.57
477.67	263.46
478.04	263.37
478.41	263.35
478.77	263.41
479.14	263.34
479.50	263.37
479.87	263.47
480.23	263.56
480.60	263.58
480.96	263.64
481.33	263.84
481.69	264.06
482.06	264.26
482.42	264.43
482.79	264.64
483.15	264.95
483.52	265.33
483.88	265.66
484.25	266.05
484.61	266.46
484.98	266.90
485.34	267.39
485.71	267.97
486.07	268.53
486.44	269.10
486.80	269.78
487.17	270.49
487.53	271.28
487.90	272.13
488.26	273.08
488.62	274.08
488.99	275.02
489.35	276.04
489.72	277.18
490.08	278.40
490.44	279.65
490.81	280.96
491.17	282.29
491.54	283.72
491.90	285.24
492.26	286.86
492.63	288.56
492.99	290.33
493.36	292.21
493.72	294.23
494.08	296.31
494.45	298.54
494.81	300.87
495.17	303.24
495.54	305.76
495.90	308.45
496.26	311.29
496.63	314.23
496.99	317.29
497.35	320.53
497.72	323.90
498.08	327.40
498.44	331.06
498.80	334.97
499.17	339.04
499.53	343.20
499.89	347.55
500.26	352.06
500.62	356.75
500.98	361.67
501.34	366.79
501.71	372.14
502.07	377.56
502.43	383.21
502.79	389.06
503.16	395.17
503.52	401.43
503.88	407.80
504.24	414.44
504.60	421.38
504.97	428.47
505.33	435.78
505.69	443.53
506.05	451.34
506.41	459.26
506.78	467.41
507.14	475.87
507.50	484.66
507.86	493.69
508.22	502.93
508.59	512.14
508.95	521.74
509.31	531.56
509.67	541.70
510.03	552.00
510.39	562.58
510.75	573.40
511.12	584.33
511.48	595.67
511.84	607.17
512.20	618.63
512.56	630.61
512.92	642.88
513.28	655.17
513.64	667.73
514.00	680.49
514.37	693.44
514.73	706.56
515.09	719.57
515.45	732.94
515.81	746.53
516.17	760.60
516.53	774.64
516.89	788.79
517.25	802.97
517.61	817.44
517.97	831.86
518.33	846.32
518.69	861.12
519.05	876.07
519.41	891.26
519.77	906.85
520.13	922.34
520.49	937.63
520.85	953.11
521.21	968.84
521.57	985.07
521.93	1000.91
522.29	1017.28
522.65	1033.44
523.01	1049.71
523.37	1065.77
523.73	1081.88
524.09	1098.00
524.45	1114.36
524.81	1131.03
525.17	1147.84
525.53	1164.85
525.89	1181.71
526.25	1198.56
526.61	1214.96
526.97	1231.70
527.33	1248.24
527.68	1264.66
528.04	1281.25
528.40	1297.80
528.76	1314.84
529.12	1331.39
529.48	1348.26
529.84	1364.28
530.20	1380.96
530.56	1397.90
530.91	1415.25
531.27	1432.08
531.63	1448.66
531.99	1465.30
532.35	1481.16
532.71	1496.99
533.07	1513.25
533.42	1529.08
533.78	1545.07
534.14	1561.30
534.50	1576.66
534.86	1592.46
535.21	1607.87
535.57	1623.73
535.93	1639.37
536.29	1654.08
536.65	1669.22
537.00	1683.91
537.36	1699.10
537.72	1713.78
538.08	1728.11
538.44	1742.00
538.79	1755.79
539.15	1769.47
539.51	1783.15
539.87	1797.51
540.22	1811.24
540.58	1824.95
540.94	1838.30
541.29	1851.28
541.65	1864.08
542.01	1877.31
542.37	1889.59
542.72	1901.95
543.08	1913.77
543.44	1926.15
543.79	1937.46
544.15	1948.46
544.51	1960.05
544.87	1971.12
545.22	1981.80
545.58	1992.06
545.94	2001.83
546.29	2011.78
546.65	2021.58
547.01	2030.86
547.36	2039.58
547.72	2048.01
548.07	2055.82
548.43	2064.08
548.79	2072.16
549.14	2079.67
549.50	2087.08
549.86	2094.89
550.21	2102.26
550.57	2109.45
550.92	2115.93
551.28	2122.90
551.64	2129.93
551.99	2136.42
552.35	2142.60
552.70	2148.75
553.06	2154.79
553.41	2160.92
553.77	2166.92
554.13	2173.05
554.48	2179.07
554.84	2184.56
555.19	2189.98
555.55	2195.17
555.90	2199.66
556.26	2204.41
556.61	2209.19
556.97	2213.44
557.32	2217.47
557.68	2221.69
558.03	2225.86
558.39	2229.50
558.74	2234.20
559.10	2238.14
559.45	2241.94
559.81	2246.25
560.16	2250.17
560.52	2253.32
560.87	2256.87
561.23	2259.67
561.58	2262.64
561.94	2265.24
562.29	2267.69
562.64	2270.33
563.00	2272.94
563.35	2276.40
563.71	2279.60
564.06	2282.82
564.42	2285.62
564.77	2288.28
565.12	2290.45
565.48	2292.44
565.83	2294.41
566.19	2295.62
566.54	2296.48
566.89	2297.44
567.25	2297.84
567.60	2299.11
567.96	2300.89
568.31	2301.83
568.66	2302.83
569.02	2303.32
569.37	2303.59
569.72	2304.33
570.08	2304.51
570.43	2304.52
570.78	2303.76
571.14	2302.15
571.49	2300.76
571.84	2300.41
572.20	2299.15
572.55	2298.00
572.90	2296.45
573.26	2295.01
573.61	2293.44
573.96	2291.65
574.31	2288.74
574.67	2285.79
575.02	2282.17
575.37	2278.60
575.72	2274.73
576.08	2271.38
576.43	2268.15
576.78	2264.38
577.13	2261.20
577.49	2258.06
577.84	2254.58
578.19	2251.08
578.54	2247.44
578.90	2243.17
579.25	2237.66
579.60	2232.66
579.95	2227.67
580.30	2222.47
580.66	2217.39
581.01	2212.38
581.36	2207.37
581.71	2203.10
582.06	2198.69
582.42	2194.19
582.77	2189.01
583.12	2184.35
583.47	2179.49
583.82	2174.41
584.17	2169.29
584.53	2163.90
584.88	2158.18
585.23	2152.29
585.58	2146.67
585.93	2141.18
586.28	2136.48
586.63	2131.26
586.98	2126.22
587.34	2121.54
587.69	2116.81
588.04	2111.48
588.39	2105.66
588.74	2099.30
589.09	2093.14
589.44	2086.23
589.79	2080.20
590.14	2074.58
590.49	2067.94
590.84	2061.69
591.19	2055.56
591.54	2049.00
591.89	2041.54
592.25	2034.77
592.60	2027.60
592.95	2020.06
593.30	2012.71
593.65	2004.89
594.00	1997.87
594.35	1990.61
594.70	1982.52
595.05	1975.11
595.40	1967.77
595.75	1960.32
596.10	1953.96
596.45	1947.18
596.80	1941.07
597.15	1934.32
597.50	1927.12
597.85	1920.76
598.19	1914.00
598.54	1906.91
598.89	1900.39
599.24	1894.47
599.59	1887.76
599.94	1881.52
600.29	1875.10
600.64	1868.53
600.99	1861.21
601.34	1854.34
601.69	1847.28
602.04	1840.37
602.39	1833.09
602.74	1826.20
603.08	1819.34
603.43	1812.64
603.78	1805.36
604.13	1798.15
604.48	1790.87
604.83	1784.00
605.18	1776.95
605.53	1768.97
605.87	1760.88
606.22	1753.58
606.57	1745.55
606.92	1738.22
607.27	1731.01
607.62	1724.02
607.96	1716.62
608.31	1709.94
608.66	1702.34
609.01	1694.73
609.36	1687.11
609.70	1679.06
610.05	1670.99
610.40	1663.29
610.75	1654.95
611.10	1647.28
611.44	1638.88
611.79	1630.89
612.14	1622.27
612.49	1613.18
612.83	1604.72
613.18	1596.67
613.53	1588.40
613.88	1579.92
614.22	1571.62
614.57	1563.13
614.92	1555.08
615.27	1547.61
615.61	1539.29
615.96	1531.25
616.31	1523.74
616.65	1516.38
617.00	1508.94
617.35	1501.40
617.70	1493.11
618.04	1484.59
618.39	1476.40
618.74	1468.78
619.08	1460.48
619.43	1452.99
619.78	1446.04
620.12	1438.98
620.47	1431.45
620.82	1423.45
621.16	1416.05
621.51	1408.43
621.85	1400.72
622.20	1392.28
622.55	1383.87
622.89	1376.03
623.24	1368.49
623.59	1360.99
623.93	1353.44
624.28	1346.14
624.62	1338.45
624.97	1331.28
625.32	1324.47
625.66	1317.43
626.01	1310.20
626.35	1302.68
626.70	1294.79
627.04	1286.99
627.39	1279.18
627.73	1271.75
628.08	1264.75
628.43	1257.36
628.77	1249.86
629.12	1242.35
629.46	1235.17
629.81	1227.76
630.15	1220.49
630.50	1213.01
630.84	1204.85
631.19	1197.04
631.53	1189.44
631.88	1181.93
632.22	1174.36
632.57	1167.17
632.91	1159.65
633.26	1152.23
633.60	1144.99
633.95	1137.92
634.29	1130.97
634.64	1124.28
634.98	1116.88
635.32	1109.74
635.67	1103.15
636.01	1096.55
636.36	1089.76
636.70	1083.26
637.05	1076.68
637.39	1070.22
637.73	1063.66
638.08	1057.84
638.42	1051.78
638.77	1045.38
639.11	1038.75
639.45	1032.40
639.80	1025.67
640.14	1019.19
640.49	1012.63
640.83	1006.25
641.17	1000.03
641.52	993.66
641.86	987.23
642.20	981.44
642.55	975.19
642.89	968.75
643.23	962.24
643.58	956.39
643.92	950.18
644.26	944.06
644.61	938.12
644.95	932.06
645.29	925.45
645.64	918.69
645.98	912.34
646.32	906.54
646.66	900.39
647.01	894.58
647.35	888.91
647.69	883.16
648.04	877.70
648.38	871.85
648.72	865.78
649.06	859.73
649.41	853.88
649.75	847.85
650.09	841.95
650.43	836.17
650.78	830.00
651.12	824.01
651.46	818.31
651.80	812.52
652.14	807.20
652.49	801.80
652.83	796.75
653.17	791.02
653.51	785.28
653.85	780.03
654.20	774.43
654.54	768.41
654.88	762.71
655.22	756.82
655.56	751.23
655.90	745.87
656.25	740.61
656.59	735.24
656.93	730.20
657.27	725.03
657.61	719.60
657.95	714.55
658.29	709.47
658.64	704.25
658.98	698.90
659.32	693.40
659.66	688.20
660.00	682.79
660.34	677.91
660.68	673.07
661.02	668.01
661.36	663.30
661.70	658.86
662.05	654.44
662.39	650.09
662.73	645.55
663.07	641.13
663.41	636.64
663.75	632.12
664.09	627.54
664.43	623.13
664.77	619.04
665.11	614.73
665.45	610.64
665.79	606.65
666.13	602.53
666.47	598.46
666.81	594.29
667.15	590.19
667.49	586.30
667.83	582.46
668.17	578.55
668.51	574.40
668.85	570.31
669.19	566.46
669.53	562.53
669.87	558.65
670.21	554.95
670.55	551.30
670.89	547.88
671.23	544.47
671.57	540.92
671.91	537.40
672.25	533.93
672.58	530.37
672.92	526.91
673.26	523.69
673.60	520.55
673.94	517.42
674.28	514.55
674.62	511.63
674.96	508.51
675.30	505.52
675.64	502.61
675.97	499.86
676.31	496.98
676.65	494.12
676.99	491.43
677.33	488.57
677.67	485.82
678.01	482.79
678.34	479.77
678.68	476.93
679.02	474.12
679.36	471.40
679.70	468.70
680.04	465.90
680.37	463.06
680.71	460.27
681.05	457.70
681.39	454.94
681.73	452.22
682.06	449.67
682.40	447.16
682.74	444.70
683.08	442.16
683.42	439.58
683.75	437.10
684.09	434.61
684.43	432.13
684.77	429.62
685.10	427.24
685.44	424.91
685.78	422.60
686.12	420.33
686.45	417.98
686.79	415.66
687.13	413.51
687.46	411.37
687.80	409.24
688.14	407.05
688.48	405.03
688.81	402.83
689.15	400.75
689.49	398.61
689.82	396.51
690.16	394.42
690.50	392.49
690.83	390.56
691.17	388.57
691.51	386.70
691.84	384.91
692.18	383.00
692.52	381.05
692.85	379.14
693.19	377.23
693.52	375.50
693.86	373.71
694.20	371.94
694.53	370.14
694.87	368.30
695.21	366.44
695.54	364.62
695.88	362.90
696.21	361.17
696.55	359.49
696.88	357.81
697.22	356.24
697.56	354.63
697.89	353.00
698.23	351.40
698.56	349.80
698.90	348.16
699.23	346.57
699.57	345.02
699.90	343.53
700.24	342.05
700.58	340.47
700.91	338.99
701.25	337.49
701.58	336.15
701.92	334.77
702.25	333.47
702.59	332.12
702.92	330.78
703.26	329.46
703.59	328.16
703.93	326.98
704.26	325.70
704.60	324.37
704.93	323.09
705.26	321.83
705.60	320.65
705.93	319.55
706.27	318.46
706.60	317.39
706.94	316.35
707.27	315.16
707.61	314.10
707.94	313.05
708.27	311.99
708.61	310.89
708.94	309.89
709.28	308.90
709.61	307.95
709.94	306.94
710.28	305.91
710.61	304.96
710.95	303.85
711.28	302.90
711.61	301.94
711.95	301.03
712.28	300.07
712.61	299.05
712.95	298.09
713.28	297.22
713.61	296.33
713.95	295.40
714.28	294.60
714.61	293.75
714.95	292.91
715.28	292.04
715.61	291.13
715.95	290.31
716.28	289.44
716.61	288.58
716.95	287.79
717.28	287.05
717.61	286.25
717.94	285.51
718.28	284.71
718.61	284.00
718.94	283.27
719.27	282.61
719.61	281.95
719.94	281.31
720.27	280.57
720.60	279.89
720.94	279.25
721.27	278.62
721.60	278.04
721.93	277.46
722.27	276.92
722.60	276.38
722.93	275.75
723.26	275.21
723.59	274.65
723.93	274.10
724.26	273.55
724.59	272.99
724.92	272.45
725.25	271.96
725.59	271.42
725.92	270.93
726.25	270.37
726.58	269.92
726.91	269.40
727.24	268.95
727.57	268.51
727.91	267.99
728.24	267.52
728.57	267.05
728.90	266.60
729.23	266.10
729.56	265.70
729.89	265.23
730.22	264.74
730.55	264.26
730.89	263.82
731.22	263.38
731.55	262.98
731.88	262.60
732.21	262.16
732.54	261.74
732.87	261.34
733.20	260.98
733.53	260.58
733.86	260.20
734.19	259.80
734.52	259.43
734.85	259.13
735.18	258.69
735.51	258.31
735.84	257.96
736.17	257.66
736.50	257.28
736.83	257.05
737.16	256.75
737.49	256.45
737.82	256.10
738.15	255.79
738.48	255.47
738.81	255.12
739.14	254.80
739.47	254.53
739.80	254.22
740.13	253.95
740.46	253.63
740.79	253.31
741.12	252.99
741.45	252.67
741.78	252.34
742.11	252.11
742.44	251.78
742.77	251.46
743.10	251.11
743.43	250.81
743.75	250.47
744.08	250.30
744.41	250.05
744.74	249.79
745.07	249.51
745.40	249.26
745.73	249.05
746.06	248.79
746.39	248.53
746.71	248.23
747.04	247.94
747.37	247.68
747.70	247.43
748.03	247.18
748.36	246.97
748.68	246.70
749.01	246.41
749.34	246.22
749.67	246.00
750.00	245.77
750.33	245.57
750.65	245.34
750.98	244.97
751.31	244.70
751.64	244.50
751.97	244.31
752.29	244.09
752.62	243.84
752.95	243.65
753.28	243.42
753.60	243.19
753.93	243.01
754.26	242.82
754.59	242.58
754.91	242.39
755.24	242.16
755.57	241.96
755.90	241.80
756.22	241.61
756.55	241.40
756.88	241.19
757.20	240.98
757.53	240.78
757.86	240.60
758.19	240.44
758.51	240.24
758.84	240.03
759.17	239.84
759.49	239.64
759.82	239.50
760.15	239.32
760.47	239.20
760.80	239.03
761.13	238.86
761.45	238.73
761.78	238.58
762.11	238.45
762.43	238.32
762.76	238.17
763.08	238.03
763.41	237.90
763.74	237.79
764.06	237.65
764.39	237.52
764.71	237.40
765.04	237.26
765.37	237.14
765.69	237.00
766.02	236.89
766.34	236.78
766.67	236.60
767.00	236.51
767.32	236.47
767.65	236.39
767.97	236.27
768.30	236.16
768.62	236.03
768.95	235.92
769.27	235.81
769.60	235.71
769.92	235.60
770.25	235.49
770.57	235.37
770.90	235.26
771.22	235.15
771.55	235.07
771.87	235.01
772.20	234.92
772.52	234.89
772.85	234.90
773.17	234.85
773.50	234.78
773.82	234.70
774.15	234.52
774.47	234.36
774.80	234.29
775.12	234.23
775.45	234.17
775.77	234.06
776.09	233.98
776.42	233.89
776.74	233.83
777.07	233.74
777.39	233.65
777.72	233.57
778.04	233.50
778.36	233.44
778.69	233.38
779.01	233.32
779.33	233.20
779.66	233.04
779.98	232.92
780.31	232.83
780.63	232.80
780.95	232.80
781.28	232.75
781.60	232.68
781.92	232.63
782.25	232.56
782.57	232.48
782.89	232.44
783.22	232.39
783.54	232.32
783.86	232.28
784.19	232.24
784.51	232.21
784.83	232.13
785.16	232.09
785.48	232.06
785.80	232.02
786.12	231.96
786.45	231.91
786.77	231.90
787.09	231.86
