SpectraSuite Data File
++++++++++++++++++++++++++++++++++++
Date: Fri Feb 01 15:32:43 EST 2013
User: group
Dark Spectrum Present: No
Reference Spectrum Present: No
Number of Sampled Component Spectra: 1
Spectrometers: USB2E7196
Integration Time (usec): 35000 (USB2E7196)
Spectra Averaged: 100 (USB2E7196)
Boxcar Smoothing: 10 (USB2E7196)
Correct for Electrical Dark: No (USB2E7196)
Strobe/Lamp Enabled: No (USB2E7196)
Correct for Detector Non-linearity: No (USB2E7196)
Correct for Stray Light: No (USB2E7196)
Number of Pixels in Processed Spectrum: 2048
>>>>>Begin Processed Spectral Data<<<<<
339.09	0.00
339.48	215.32
339.86	216.24
340.24	218.23
340.63	218.49
341.01	221.80
341.39	221.77
341.78	222.63
342.16	224.61
342.54	224.40
342.93	213.19
343.31	223.99
343.69	224.51
344.07	224.99
344.46	225.39
344.84	225.77
345.22	226.00
345.60	226.30
345.99	226.51
346.37	226.63
346.75	226.77
347.13	226.84
347.52	226.91
347.90	226.98
348.28	227.03
348.66	227.06
349.05	227.10
349.43	227.14
349.81	227.19
350.19	227.26
350.57	227.35
350.96	227.44
351.34	227.52
351.72	227.60
352.10	227.69
352.48	227.76
352.87	227.83
353.25	227.89
353.63	227.91
354.01	228.00
354.39	228.09
354.77	228.16
355.15	228.28
355.54	228.35
355.92	228.38
356.30	228.42
356.68	228.58
357.06	228.64
357.44	228.70
357.82	228.75
358.20	228.86
358.58	228.87
358.97	228.90
359.35	228.97
359.73	229.07
360.11	229.10
360.49	229.17
360.87	229.25
361.25	229.31
361.63	229.39
362.01	229.44
362.39	229.46
362.77	229.52
363.15	229.50
363.53	229.53
363.91	229.54
364.29	229.58
364.67	229.48
365.05	229.47
365.43	229.48
365.81	229.50
366.19	229.52
366.57	229.55
366.95	229.56
367.33	229.48
367.71	229.48
368.09	229.48
368.47	229.43
368.85	229.38
369.23	229.35
369.61	229.28
369.99	229.25
370.37	229.23
370.75	229.19
371.13	229.15
371.51	229.07
371.89	229.06
372.27	228.99
372.65	228.96
373.03	228.90
373.41	228.83
373.78	228.76
374.16	228.64
374.54	228.56
374.92	228.50
375.30	228.44
375.68	228.31
376.06	228.27
376.44	228.20
376.82	228.16
377.19	228.13
377.57	228.04
377.95	227.93
378.33	227.84
378.71	227.72
379.09	227.64
379.47	227.58
379.84	227.48
380.22	227.41
380.60	227.34
380.98	227.23
381.36	227.19
381.73	227.11
382.11	227.07
382.49	227.02
382.87	226.93
383.25	226.89
383.62	226.95
384.00	226.85
384.38	226.83
384.76	226.77
385.13	226.75
385.51	226.73
385.89	226.66
386.27	226.60
386.64	226.58
387.02	226.58
387.40	226.51
387.78	226.47
388.15	226.45
388.53	226.42
388.91	226.43
389.29	226.40
389.66	226.40
390.04	226.35
390.42	226.34
390.79	226.34
391.17	226.33
391.55	226.24
391.92	226.25
392.30	226.24
392.68	226.20
393.05	226.19
393.43	226.16
393.81	226.20
394.18	226.24
394.56	226.26
394.94	226.26
395.31	226.30
395.69	226.35
396.06	226.41
396.44	226.47
396.82	226.52
397.19	226.59
397.57	226.63
397.95	226.72
398.32	226.75
398.70	226.86
399.07	226.95
399.45	226.99
399.82	227.08
400.20	227.14
400.58	227.27
400.95	227.31
401.33	227.44
401.70	227.57
402.08	227.64
402.45	227.76
402.83	227.92
403.20	228.03
403.58	228.16
403.95	228.28
404.33	228.41
404.71	228.52
405.08	228.72
405.46	228.84
405.83	229.00
406.21	229.19
406.58	229.32
406.96	229.50
407.33	229.69
407.70	229.86
408.08	230.17
408.45	230.41
408.83	230.65
409.20	230.87
409.58	231.07
409.95	231.33
410.33	231.61
410.70	231.87
411.08	232.16
411.45	232.46
411.82	232.74
412.20	233.09
412.57	233.52
412.95	233.81
413.32	234.24
413.69	234.62
414.07	235.00
414.44	235.48
414.82	235.96
415.19	236.50
415.56	237.04
415.94	237.54
416.31	238.16
416.68	238.81
417.06	239.51
417.43	240.21
417.81	240.95
418.18	241.66
418.55	242.50
418.93	243.38
419.30	244.28
419.67	245.19
420.04	246.10
420.42	247.09
420.79	248.31
421.16	249.46
421.54	250.69
421.91	251.90
422.28	253.16
422.66	254.47
423.03	255.78
423.40	257.14
423.77	258.57
424.15	259.98
424.52	261.46
424.89	263.04
425.26	264.58
425.64	266.08
426.01	267.72
426.38	269.37
426.75	271.03
427.13	272.72
427.50	274.53
427.87	276.43
428.24	278.27
428.61	280.00
428.99	281.89
429.36	283.95
429.73	286.01
430.10	288.03
430.47	290.09
430.85	292.22
431.22	294.43
431.59	296.81
431.96	299.05
432.33	301.48
432.70	303.87
433.08	306.69
433.45	309.35
433.82	311.97
434.19	314.83
434.56	317.62
434.93	320.29
435.30	322.96
435.68	325.90
436.05	328.76
436.42	331.56
436.79	334.15
437.16	336.88
437.53	339.71
437.90	342.52
438.27	345.27
438.64	348.12
439.01	350.73
439.38	352.98
439.75	355.16
440.13	357.73
440.50	360.12
440.87	361.97
441.24	363.93
441.61	366.08
441.98	367.64
442.35	369.43
442.72	371.33
443.09	373.15
443.46	374.12
443.83	374.72
444.20	375.20
444.57	376.00
444.94	376.29
445.31	376.68
445.68	377.06
446.05	377.15
446.42	376.79
446.79	376.39
447.16	375.93
447.53	375.62
447.90	374.40
448.27	373.22
448.64	371.65
449.01	370.45
449.37	368.45
449.74	366.51
450.11	364.34
450.48	361.87
450.85	359.30
451.22	357.15
451.59	355.11
451.96	353.19
452.33	350.61
452.70	348.23
453.07	345.35
453.43	342.42
453.80	339.62
454.17	336.90
454.54	334.35
454.91	331.65
455.28	328.97
455.65	326.50
456.02	324.01
456.38	321.86
456.75	319.21
457.12	316.98
457.49	314.74
457.86	312.53
458.23	310.64
458.59	308.57
458.96	306.48
459.33	304.63
459.70	302.72
460.07	301.21
460.43	299.49
460.80	297.90
461.17	296.44
461.54	294.97
461.91	293.53
462.27	292.02
462.64	290.76
463.01	289.41
463.38	288.10
463.74	286.76
464.11	285.54
464.48	284.50
464.85	283.40
465.21	282.51
465.58	281.62
465.95	280.52
466.32	279.61
466.68	278.70
467.05	277.78
467.42	276.89
467.78	275.93
468.15	275.06
468.52	274.39
468.88	273.57
469.25	272.76
469.62	272.13
469.98	271.44
470.35	270.78
470.72	270.16
471.08	269.50
471.45	268.92
471.82	268.39
472.18	267.77
472.55	267.33
472.92	266.81
473.28	266.30
473.65	265.83
474.02	265.34
474.38	264.97
474.75	264.65
475.11	264.31
475.48	264.07
475.85	263.85
476.21	263.59
476.58	263.41
476.94	263.30
477.31	263.15
477.67	263.04
478.04	262.91
478.41	262.84
478.77	262.88
479.14	262.83
479.50	262.87
479.87	262.96
480.23	263.03
480.60	263.13
480.96	263.22
481.33	263.46
481.69	263.72
482.06	263.91
482.42	264.12
482.79	264.39
483.15	264.66
483.52	265.02
483.88	265.39
484.25	265.76
484.61	266.17
484.98	266.57
485.34	267.12
485.71	267.74
486.07	268.34
486.44	268.94
486.80	269.64
487.17	270.36
487.53	271.19
487.90	272.05
488.26	272.99
488.62	273.99
488.99	274.95
489.35	275.99
489.72	277.14
490.08	278.33
490.44	279.54
490.81	280.94
491.17	282.29
491.54	283.78
491.90	285.32
492.26	286.94
492.63	288.67
492.99	290.48
493.36	292.38
493.72	294.41
494.08	296.48
494.45	298.75
494.81	301.13
495.17	303.54
495.54	306.05
495.90	308.71
496.26	311.53
496.63	314.50
496.99	317.62
497.35	320.84
497.72	324.25
498.08	327.79
498.44	331.43
498.80	335.35
499.17	339.37
499.53	343.53
499.89	347.89
500.26	352.37
500.62	357.05
500.98	361.95
501.34	367.07
501.71	372.40
502.07	377.84
502.43	383.45
502.79	389.25
503.16	395.38
503.52	401.63
503.88	408.02
504.24	414.67
504.60	421.52
504.97	428.67
505.33	435.96
505.69	443.65
506.05	451.40
506.41	459.32
506.78	467.54
507.14	476.04
507.50	484.81
507.86	493.90
508.22	503.12
508.59	512.38
508.95	521.92
509.31	531.70
509.67	541.82
510.03	552.17
510.39	562.74
510.75	573.51
511.12	584.47
511.48	595.75
511.84	607.16
512.20	618.67
512.56	630.65
512.92	642.85
513.28	655.20
513.64	667.74
514.00	680.37
514.37	693.26
514.73	706.28
515.09	719.31
515.45	732.65
515.81	746.17
516.17	760.18
516.53	774.40
516.89	788.71
517.25	802.96
517.61	817.34
517.97	831.86
518.33	846.29
518.69	861.17
519.05	876.20
519.41	891.49
519.77	907.06
520.13	922.56
520.49	937.97
520.85	953.42
521.21	969.20
521.57	985.58
521.93	1001.46
522.29	1017.97
522.65	1034.23
523.01	1050.42
523.37	1066.54
523.73	1082.76
524.09	1098.74
524.45	1114.99
524.81	1131.64
525.17	1148.49
525.53	1165.35
525.89	1182.28
526.25	1199.13
526.61	1215.65
526.97	1232.36
527.33	1248.96
527.68	1265.63
528.04	1282.23
528.40	1298.87
528.76	1315.86
529.12	1332.44
529.48	1349.31
529.84	1365.38
530.20	1382.06
530.56	1399.21
530.91	1416.58
531.27	1433.42
531.63	1450.09
531.99	1466.88
532.35	1482.89
532.71	1498.88
533.07	1515.19
533.42	1531.18
533.78	1547.10
534.14	1563.32
534.50	1578.63
534.86	1594.59
535.21	1609.78
535.57	1625.79
535.93	1641.34
536.29	1656.21
536.65	1671.37
537.00	1686.35
537.36	1701.61
537.72	1716.11
538.08	1730.45
538.44	1744.46
538.79	1758.39
539.15	1771.98
539.51	1785.68
539.87	1799.98
540.22	1813.76
540.58	1827.64
540.94	1840.88
541.29	1854.02
541.65	1866.85
542.01	1880.20
542.37	1892.48
542.72	1904.91
543.08	1916.72
543.44	1929.14
543.79	1940.47
544.15	1951.53
544.51	1962.94
544.87	1973.98
545.22	1984.88
545.58	1994.95
545.94	2004.60
546.29	2014.38
546.65	2024.33
547.01	2033.57
547.36	2042.44
547.72	2050.91
548.07	2058.77
548.43	2067.12
548.79	2075.23
549.14	2082.61
549.50	2090.05
549.86	2097.81
550.21	2105.08
550.57	2112.18
550.92	2118.72
551.28	2125.82
551.64	2132.86
551.99	2139.44
552.35	2145.61
552.70	2151.75
553.06	2157.92
553.41	2164.34
553.77	2170.33
554.13	2176.48
554.48	2182.59
554.84	2187.95
555.19	2193.19
555.55	2198.38
555.90	2202.82
556.26	2207.57
556.61	2212.42
556.97	2216.61
557.32	2220.68
557.68	2224.76
558.03	2228.99
558.39	2232.80
558.74	2237.39
559.10	2241.24
559.45	2244.74
559.81	2249.09
560.16	2252.86
560.52	2256.16
560.87	2259.56
561.23	2262.17
561.58	2265.08
561.94	2267.69
562.29	2270.17
562.64	2272.78
563.00	2275.38
563.35	2278.92
563.71	2282.04
564.06	2285.26
564.42	2288.12
564.77	2290.76
565.12	2293.08
565.48	2295.06
565.83	2296.81
566.19	2298.16
566.54	2299.14
566.89	2300.37
567.25	2300.90
567.60	2302.30
567.96	2303.91
568.31	2304.72
568.66	2305.95
569.02	2306.55
569.37	2306.74
569.72	2307.48
570.08	2307.73
570.43	2307.52
570.78	2306.89
571.14	2305.27
571.49	2303.85
571.84	2303.46
572.20	2302.01
572.55	2301.00
572.90	2299.32
573.26	2297.99
573.61	2296.21
573.96	2294.20
574.31	2291.36
574.67	2288.25
575.02	2284.62
575.37	2281.24
575.72	2277.36
576.08	2274.04
576.43	2270.61
576.78	2266.95
577.13	2263.78
577.49	2260.67
577.84	2257.41
578.19	2253.59
578.54	2249.87
578.90	2245.66
579.25	2240.08
579.60	2235.22
579.95	2230.12
580.30	2225.13
580.66	2219.86
581.01	2214.79
581.36	2209.87
581.71	2205.42
582.06	2200.94
582.42	2196.48
582.77	2191.05
583.12	2186.33
583.47	2181.44
583.82	2176.26
584.17	2170.80
584.53	2165.11
584.88	2159.32
585.23	2153.30
585.58	2147.70
585.93	2142.21
586.28	2137.37
586.63	2132.24
586.98	2127.04
587.34	2122.31
587.69	2117.32
588.04	2111.98
588.39	2106.27
588.74	2099.80
589.09	2093.75
589.44	2086.91
589.79	2080.73
590.14	2075.11
590.49	2068.59
590.84	2062.23
591.19	2056.19
591.54	2049.80
591.89	2042.47
592.25	2035.71
592.60	2028.43
592.95	2020.87
593.30	2013.50
593.65	2005.73
594.00	1998.69
594.35	1991.44
594.70	1983.33
595.05	1975.97
595.40	1968.62
595.75	1961.05
596.10	1954.66
596.45	1947.62
596.80	1941.42
597.15	1934.61
597.50	1927.48
597.85	1921.01
598.19	1914.14
598.54	1907.09
598.89	1900.42
599.24	1894.53
599.59	1887.69
599.94	1881.51
600.29	1875.10
600.64	1868.45
600.99	1861.05
601.34	1854.04
601.69	1846.96
602.04	1839.97
602.39	1832.73
602.74	1825.93
603.08	1819.14
603.43	1812.47
603.78	1805.20
604.13	1798.00
604.48	1790.77
604.83	1784.02
605.18	1776.97
605.53	1769.06
605.87	1760.96
606.22	1753.73
606.57	1745.74
606.92	1738.58
607.27	1731.41
607.62	1724.58
607.96	1717.21
608.31	1710.60
608.66	1703.02
609.01	1695.52
609.36	1687.99
609.70	1679.88
610.05	1671.71
610.40	1663.99
610.75	1655.66
611.10	1648.04
611.44	1639.66
611.79	1631.72
612.14	1622.99
612.49	1613.85
612.83	1605.52
613.18	1597.36
613.53	1589.23
613.88	1580.65
614.22	1572.26
614.57	1563.63
614.92	1555.59
615.27	1548.00
615.61	1539.61
615.96	1531.57
616.31	1523.94
616.65	1516.51
617.00	1509.01
617.35	1501.39
617.70	1493.01
618.04	1484.52
618.39	1476.23
618.74	1468.48
619.08	1460.06
619.43	1452.44
619.78	1445.54
620.12	1438.33
620.47	1430.81
620.82	1422.68
621.16	1415.29
621.51	1407.59
621.85	1399.95
622.20	1391.33
622.55	1383.13
622.89	1375.24
623.24	1367.64
623.59	1360.24
623.93	1352.70
624.28	1345.41
624.62	1337.87
624.97	1330.69
625.32	1323.94
625.66	1317.01
626.01	1309.86
626.35	1302.39
626.70	1294.52
627.04	1286.76
627.39	1279.00
627.73	1271.62
628.08	1264.56
628.43	1257.19
628.77	1249.79
629.12	1242.21
629.46	1235.09
629.81	1227.61
630.15	1220.41
630.50	1212.92
630.84	1204.76
631.19	1196.87
631.53	1189.46
631.88	1181.95
632.22	1174.46
632.57	1167.12
632.91	1159.57
633.26	1152.11
633.60	1144.79
633.95	1137.88
634.29	1130.81
634.64	1124.09
634.98	1116.70
635.32	1109.62
635.67	1103.12
636.01	1096.52
636.36	1089.70
636.70	1083.15
637.05	1076.50
637.39	1070.02
637.73	1063.56
638.08	1057.66
638.42	1051.68
638.77	1045.10
639.11	1038.51
639.45	1032.06
639.80	1025.36
640.14	1018.80
640.49	1012.32
640.83	1006.04
641.17	999.63
641.52	993.36
641.86	986.97
642.20	981.08
642.55	974.85
642.89	968.32
643.23	961.78
643.58	956.06
643.92	949.81
644.26	943.85
644.61	937.90
644.95	931.83
645.29	925.25
645.64	918.50
645.98	912.28
646.32	906.41
646.66	900.49
647.01	894.71
647.35	889.14
647.69	883.34
648.04	877.78
648.38	872.06
648.72	865.97
649.06	859.84
649.41	854.01
649.75	847.94
650.09	842.01
650.43	836.31
650.78	830.08
651.12	824.15
651.46	818.40
651.80	812.59
652.14	807.29
652.49	801.93
652.83	796.74
653.17	791.00
653.51	785.20
653.85	779.74
654.20	774.10
654.54	768.08
654.88	762.29
655.22	756.39
655.56	750.78
655.90	745.37
656.25	740.15
656.59	734.81
656.93	729.76
657.27	724.52
657.61	719.06
657.95	714.01
658.29	708.91
658.64	703.66
658.98	698.37
659.32	692.88
659.66	687.64
660.00	682.38
660.34	677.45
660.68	672.63
661.02	667.62
661.36	662.87
661.70	658.39
662.05	654.05
662.39	649.79
662.73	645.27
663.07	640.88
663.41	636.37
663.75	631.86
664.09	627.36
664.43	623.01
664.77	618.86
665.11	614.59
665.45	610.53
665.79	606.44
666.13	602.35
666.47	598.25
666.81	594.08
667.15	589.96
667.49	586.05
667.83	582.25
668.17	578.28
668.51	574.18
668.85	570.19
669.19	566.38
669.53	562.49
669.87	558.63
670.21	554.94
670.55	551.39
670.89	548.03
671.23	544.53
671.57	541.00
671.91	537.47
672.25	534.01
672.58	530.46
672.92	527.09
673.26	523.87
673.60	520.75
673.94	517.66
674.28	514.80
674.62	511.87
674.96	508.77
675.30	505.89
675.64	503.02
675.97	500.23
676.31	497.32
676.65	494.45
676.99	491.76
677.33	488.87
677.67	485.96
678.01	482.90
678.34	479.88
678.68	477.04
679.02	474.22
679.36	471.41
679.70	468.74
680.04	465.99
680.37	463.10
680.71	460.26
681.05	457.69
681.39	454.94
681.73	452.23
682.06	449.68
682.40	447.07
682.74	444.54
683.08	441.97
683.42	439.38
683.75	436.92
684.09	434.36
684.43	431.93
684.77	429.56
685.10	427.28
685.44	425.01
685.78	422.71
686.12	420.48
686.45	418.17
686.79	415.89
687.13	413.64
687.46	411.56
687.80	409.44
688.14	407.19
688.48	405.12
688.81	402.90
689.15	400.78
689.49	398.72
689.82	396.65
690.16	394.60
690.50	392.64
690.83	390.66
691.17	388.70
691.51	386.80
691.84	384.95
692.18	382.94
692.52	380.98
692.85	379.08
693.19	377.18
693.52	375.42
693.86	373.59
694.20	371.89
694.53	370.05
694.87	368.24
695.21	366.48
695.54	364.69
695.88	363.00
696.21	361.22
696.55	359.55
696.88	357.89
697.22	356.19
697.56	354.61
697.89	352.94
698.23	351.31
698.56	349.73
698.90	348.13
699.23	346.49
699.57	344.97
699.90	343.42
700.24	341.91
700.58	340.37
700.91	338.88
701.25	337.41
701.58	336.06
701.92	334.73
702.25	333.35
702.59	332.00
702.92	330.68
703.26	329.41
703.59	328.11
703.93	326.91
704.26	325.74
704.60	324.42
704.93	323.14
705.26	321.90
705.60	320.73
705.93	319.59
706.27	318.54
706.60	317.46
706.94	316.38
707.27	315.24
707.61	314.20
707.94	313.15
708.27	312.04
708.61	310.95
708.94	309.89
709.28	308.88
709.61	307.91
709.94	306.94
710.28	305.89
710.61	304.92
710.95	303.87
711.28	302.89
711.61	301.90
711.95	300.98
712.28	300.03
712.61	298.99
712.95	298.00
713.28	297.12
713.61	296.22
713.95	295.32
714.28	294.46
714.61	293.54
714.95	292.65
715.28	291.82
715.61	290.91
715.95	290.05
716.28	289.20
716.61	288.32
716.95	287.51
717.28	286.79
717.61	285.97
717.94	285.14
718.28	284.32
718.61	283.62
718.94	282.92
719.27	282.24
719.61	281.65
719.94	281.02
720.27	280.29
720.60	279.59
720.94	278.98
721.27	278.40
721.60	277.83
721.93	277.26
722.27	276.73
722.60	276.21
722.93	275.58
723.26	275.03
723.59	274.47
723.93	273.90
724.26	273.34
724.59	272.80
724.92	272.31
725.25	271.84
725.59	271.34
725.92	270.86
726.25	270.38
726.58	269.85
726.91	269.31
727.24	268.88
727.57	268.42
727.91	267.90
728.24	267.46
728.57	267.03
728.90	266.58
729.23	266.11
729.56	265.68
729.89	265.28
730.22	264.82
730.55	264.39
730.89	263.93
731.22	263.48
731.55	263.06
731.88	262.66
732.21	262.24
732.54	261.82
732.87	261.41
733.20	261.00
733.53	260.68
733.86	260.35
734.19	259.92
734.52	259.53
734.85	259.24
735.18	258.81
735.51	258.42
735.84	258.06
736.17	257.69
736.50	257.29
736.83	257.08
737.16	256.75
737.49	256.41
737.82	256.13
738.15	255.82
738.48	255.48
738.81	255.15
739.14	254.80
739.47	254.50
739.80	254.19
740.13	253.88
740.46	253.50
740.79	253.20
741.12	252.92
741.45	252.64
741.78	252.27
742.11	252.00
742.44	251.69
742.77	251.42
743.10	251.10
743.43	250.81
743.75	250.39
744.08	250.27
744.41	250.02
744.74	249.74
745.07	249.49
745.40	249.28
745.73	249.06
746.06	248.80
746.39	248.51
746.71	248.23
747.04	247.99
747.37	247.71
747.70	247.47
748.03	247.22
748.36	246.98
748.68	246.78
749.01	246.50
749.34	246.25
749.67	245.96
750.00	245.74
750.33	245.60
750.65	245.40
750.98	245.03
751.31	244.79
751.64	244.57
751.97	244.40
752.29	244.17
752.62	243.91
752.95	243.68
753.28	243.46
753.60	243.24
753.93	243.04
754.26	242.86
754.59	242.60
754.91	242.40
755.24	242.21
755.57	242.01
755.90	241.85
756.22	241.67
756.55	241.49
756.88	241.32
757.20	241.06
757.53	240.83
757.86	240.67
758.19	240.53
758.51	240.38
758.84	240.12
759.17	239.90
759.49	239.75
759.82	239.63
760.15	239.50
760.47	239.34
760.80	239.18
761.13	239.07
761.45	238.93
761.78	238.76
762.11	238.60
762.43	238.44
762.76	238.30
763.08	238.16
763.41	238.04
763.74	237.89
764.06	237.75
764.39	237.65
764.71	237.53
765.04	237.34
765.37	237.19
765.69	237.08
766.02	236.99
766.34	236.87
766.67	236.73
767.00	236.60
767.32	236.56
767.65	236.51
767.97	236.41
768.30	236.33
768.62	236.25
768.95	236.15
769.27	236.03
769.60	235.92
769.92	235.76
770.25	235.66
770.57	235.58
770.90	235.49
771.22	235.37
771.55	235.28
771.87	235.21
772.20	235.11
772.52	235.10
772.85	235.12
773.17	235.04
773.50	234.95
773.82	234.87
774.15	234.74
774.47	234.61
774.80	234.51
775.12	234.39
775.45	234.29
775.77	234.20
776.09	234.13
776.42	234.06
776.74	234.04
777.07	233.97
777.39	233.90
777.72	233.82
778.04	233.78
778.36	233.70
778.69	233.66
779.01	233.62
779.33	233.46
779.66	233.30
779.98	233.20
780.31	233.15
780.63	233.16
780.95	233.11
781.28	233.00
781.60	232.96
781.92	232.92
782.25	232.87
782.57	232.80
782.89	232.73
783.22	232.68
783.54	232.60
783.86	232.53
784.19	232.46
784.51	232.44
784.83	232.36
785.16	232.31
785.48	232.21
785.80	232.14
786.12	232.11
786.45	232.04
786.77	232.02
787.09	231.94
