SpectraSuite Data File
++++++++++++++++++++++++++++++++++++
Date: Fri Feb 01 16:23:22 EST 2013
User: group
Dark Spectrum Present: No
Reference Spectrum Present: No
Number of Sampled Component Spectra: 1
Spectrometers: USB2E7196
Integration Time (usec): 35000 (USB2E7196)
Spectra Averaged: 100 (USB2E7196)
Boxcar Smoothing: 10 (USB2E7196)
Correct for Electrical Dark: No (USB2E7196)
Strobe/Lamp Enabled: No (USB2E7196)
Correct for Detector Non-linearity: No (USB2E7196)
Correct for Stray Light: No (USB2E7196)
Number of Pixels in Processed Spectrum: 2048
>>>>>Begin Processed Spectral Data<<<<<
339.09	0.00
339.48	214.43
339.86	215.33
340.24	216.58
340.63	217.88
341.01	221.74
341.39	221.16
341.78	222.35
342.16	223.66
342.54	223.80
342.93	212.49
343.31	223.22
343.69	223.73
344.07	224.22
344.46	224.63
344.84	225.01
345.22	225.22
345.60	225.43
345.99	225.60
346.37	225.72
346.75	225.83
347.13	225.88
347.52	225.91
347.90	225.95
348.28	225.94
348.66	225.95
349.05	225.93
349.43	225.98
349.81	226.07
350.19	226.09
350.57	226.12
350.96	226.19
351.34	226.29
351.72	226.36
352.10	226.46
352.48	226.53
352.87	226.60
353.25	226.64
353.63	226.71
354.01	226.77
354.39	226.85
354.77	226.91
355.15	226.97
355.54	227.03
355.92	227.05
356.30	227.14
356.68	227.27
357.06	227.36
357.44	227.40
357.82	227.42
358.20	227.51
358.58	227.58
358.97	227.65
359.35	227.72
359.73	227.79
360.11	227.83
360.49	227.91
360.87	227.95
361.25	228.04
361.63	228.11
362.01	228.17
362.39	228.21
362.77	228.26
363.15	228.30
363.53	228.30
363.91	228.34
364.29	228.35
364.67	228.30
365.05	228.32
365.43	228.38
365.81	228.43
366.19	228.50
366.57	228.54
366.95	228.53
367.33	228.49
367.71	228.50
368.09	228.46
368.47	228.45
368.85	228.41
369.23	228.42
369.61	228.40
369.99	228.40
370.37	228.37
370.75	228.39
371.13	228.36
371.51	228.34
371.89	228.31
372.27	228.28
372.65	228.22
373.03	228.14
373.41	228.05
373.78	227.98
374.16	227.89
374.54	227.79
374.92	227.73
375.30	227.70
375.68	227.62
376.06	227.63
376.44	227.54
376.82	227.51
377.19	227.46
377.57	227.39
377.95	227.32
378.33	227.29
378.71	227.15
379.09	227.09
379.47	227.05
379.84	226.98
380.22	226.89
380.60	226.82
380.98	226.77
381.36	226.71
381.73	226.63
382.11	226.56
382.49	226.51
382.87	226.46
383.25	226.38
383.62	226.42
384.00	226.34
384.38	226.32
384.76	226.28
385.13	226.24
385.51	226.20
385.89	226.13
386.27	226.05
386.64	226.03
387.02	226.00
387.40	225.97
387.78	225.95
388.15	225.96
388.53	225.94
388.91	225.92
389.29	225.89
389.66	225.91
390.04	225.91
390.42	225.91
390.79	225.88
391.17	225.87
391.55	225.76
391.92	225.75
392.30	225.75
392.68	225.72
393.05	225.70
393.43	225.70
393.81	225.70
394.18	225.69
394.56	225.72
394.94	225.73
395.31	225.72
395.69	225.76
396.06	225.77
396.44	225.82
396.82	225.82
397.19	225.89
397.57	225.90
397.95	225.92
398.32	225.92
398.70	225.98
399.07	226.02
399.45	226.07
399.82	226.12
400.20	226.14
400.58	226.21
400.95	226.26
401.33	226.33
401.70	226.47
402.08	226.58
402.45	226.64
402.83	226.74
403.20	226.85
403.58	226.96
403.95	227.11
404.33	227.24
404.71	227.38
405.08	227.55
405.46	227.68
405.83	227.83
406.21	227.99
406.58	228.16
406.96	228.35
407.33	228.52
407.70	228.71
408.08	229.00
408.45	229.20
408.83	229.42
409.20	229.63
409.58	229.81
409.95	230.07
410.33	230.35
410.70	230.59
411.08	230.90
411.45	231.20
411.82	231.49
412.20	231.81
412.57	232.25
412.95	232.53
413.32	232.97
413.69	233.37
414.07	233.81
414.44	234.30
414.82	234.80
415.19	235.36
415.56	235.87
415.94	236.41
416.31	237.06
416.68	237.69
417.06	238.40
417.43	239.07
417.81	239.82
418.18	240.57
418.55	241.42
418.93	242.26
419.30	243.15
419.67	244.08
420.04	245.06
420.42	246.03
420.79	247.23
421.16	248.34
421.54	249.53
421.91	250.71
422.28	251.96
422.66	253.25
423.03	254.56
423.40	255.92
423.77	257.35
424.15	258.75
424.52	260.22
424.89	261.83
425.26	263.39
425.64	264.84
426.01	266.46
426.38	268.09
426.75	269.79
427.13	271.47
427.50	273.28
427.87	275.14
428.24	277.02
428.61	278.77
428.99	280.70
429.36	282.80
429.73	284.90
430.10	286.87
430.47	288.94
430.85	291.01
431.22	293.25
431.59	295.64
431.96	297.90
432.33	300.41
432.70	302.76
433.08	305.54
433.45	308.16
433.82	310.76
434.19	313.64
434.56	316.41
434.93	319.09
435.30	321.67
435.68	324.53
436.05	327.32
436.42	330.10
436.79	332.63
437.16	335.29
437.53	338.12
437.90	340.92
438.27	343.70
438.64	346.52
439.01	349.07
439.38	351.25
439.75	353.36
440.13	355.83
440.50	358.16
440.87	360.04
441.24	361.95
441.61	364.13
441.98	365.65
442.35	367.50
442.72	369.35
443.09	371.18
443.46	372.18
443.83	372.76
444.20	373.24
444.57	374.07
444.94	374.37
445.31	374.71
445.68	375.04
446.05	375.06
446.42	374.67
446.79	374.28
447.16	373.87
447.53	373.59
447.90	372.42
448.27	371.26
448.64	369.65
449.01	368.51
449.37	366.52
449.74	364.59
450.11	362.31
450.48	359.85
450.85	357.31
451.22	355.16
451.59	353.13
451.96	351.17
452.33	348.58
452.70	346.19
453.07	343.34
453.43	340.49
453.80	337.73
454.17	335.08
454.54	332.52
454.91	329.77
455.28	327.08
455.65	324.60
456.02	322.16
456.38	320.06
456.75	317.43
457.12	315.21
457.49	312.97
457.86	310.84
458.23	309.02
458.59	307.01
458.96	304.93
459.33	303.11
459.70	301.32
460.07	299.84
460.43	298.17
460.80	296.58
461.17	295.13
461.54	293.66
461.91	292.29
462.27	290.86
462.64	289.62
463.01	288.29
463.38	287.00
463.74	285.64
464.11	284.45
464.48	283.46
464.85	282.33
465.21	281.49
465.58	280.53
465.95	279.40
466.32	278.48
466.68	277.60
467.05	276.71
467.42	275.81
467.78	274.85
468.15	273.97
468.52	273.29
468.88	272.43
469.25	271.63
469.62	271.00
469.98	270.36
470.35	269.76
470.72	269.18
471.08	268.55
471.45	268.03
471.82	267.50
472.18	266.89
472.55	266.46
472.92	265.98
473.28	265.54
473.65	265.11
474.02	264.69
474.38	264.35
474.75	264.06
475.11	263.67
475.48	263.45
475.85	263.25
476.21	263.05
476.58	262.88
476.94	262.74
477.31	262.56
477.67	262.42
478.04	262.29
478.41	262.23
478.77	262.29
479.14	262.22
479.50	262.24
479.87	262.31
480.23	262.41
480.60	262.45
480.96	262.56
481.33	262.77
481.69	262.95
482.06	263.12
482.42	263.28
482.79	263.59
483.15	263.88
483.52	264.24
483.88	264.56
484.25	264.97
484.61	265.44
484.98	265.91
485.34	266.43
485.71	267.04
486.07	267.64
486.44	268.22
486.80	268.93
487.17	269.68
487.53	270.51
487.90	271.35
488.26	272.31
488.62	273.28
488.99	274.27
489.35	275.33
489.72	276.45
490.08	277.66
490.44	278.92
490.81	280.27
491.17	281.66
491.54	283.21
491.90	284.75
492.26	286.38
492.63	288.12
492.99	289.95
493.36	291.90
493.72	293.95
494.08	296.04
494.45	298.27
494.81	300.62
495.17	303.02
495.54	305.62
495.90	308.31
496.26	311.14
496.63	314.11
496.99	317.23
497.35	320.50
497.72	323.90
498.08	327.43
498.44	331.16
498.80	335.06
499.17	339.05
499.53	343.25
499.89	347.63
500.26	352.14
500.62	356.80
500.98	361.76
501.34	366.81
501.71	372.15
502.07	377.61
502.43	383.27
502.79	389.15
503.16	395.25
503.52	401.53
503.88	407.96
504.24	414.58
504.60	421.51
504.97	428.67
505.33	436.07
505.69	443.83
506.05	451.53
506.41	459.50
506.78	467.76
507.14	476.19
507.50	484.89
507.86	493.96
508.22	503.19
508.59	512.41
508.95	522.04
509.31	531.87
509.67	542.03
510.03	552.29
510.39	562.78
510.75	573.57
511.12	584.53
511.48	595.81
511.84	607.31
512.20	618.77
512.56	630.71
512.92	642.88
513.28	655.16
513.64	667.65
514.00	680.36
514.37	693.15
514.73	706.13
515.09	719.18
515.45	732.37
515.81	745.92
516.17	759.91
516.53	774.02
516.89	788.18
517.25	802.28
517.61	816.67
517.97	831.19
518.33	845.58
518.69	860.23
519.05	875.18
519.41	890.21
519.77	905.75
520.13	921.16
520.49	936.47
520.85	951.80
521.21	967.48
521.57	983.57
521.93	999.39
522.29	1015.74
522.65	1031.98
523.01	1048.16
523.37	1064.23
523.73	1080.26
524.09	1096.31
524.45	1112.52
524.81	1129.10
525.17	1145.91
525.53	1162.71
525.89	1179.54
526.25	1196.32
526.61	1212.53
526.97	1229.24
527.33	1245.62
527.68	1262.08
528.04	1278.58
528.40	1295.16
528.76	1312.18
529.12	1328.84
529.48	1345.67
529.84	1361.70
530.20	1378.18
530.56	1395.19
530.91	1412.43
531.27	1429.07
531.63	1445.45
531.99	1461.92
532.35	1477.80
532.71	1493.54
533.07	1509.69
533.42	1525.50
533.78	1541.48
534.14	1557.81
534.50	1573.18
534.86	1589.04
535.21	1604.08
535.57	1619.87
535.93	1635.29
536.29	1649.95
536.65	1664.83
537.00	1679.40
537.36	1694.59
537.72	1709.13
538.08	1723.36
538.44	1737.01
538.79	1750.89
539.15	1764.32
539.51	1778.05
539.87	1792.25
540.22	1806.03
540.58	1819.75
540.94	1832.98
541.29	1845.84
541.65	1858.41
542.01	1871.42
542.37	1883.76
542.72	1896.19
543.08	1907.94
543.44	1920.16
543.79	1931.41
544.15	1942.27
544.51	1953.83
544.87	1964.80
545.22	1975.64
545.58	1985.81
545.94	1995.51
546.29	2005.31
546.65	2015.29
547.01	2024.57
547.36	2033.29
547.72	2041.62
548.07	2049.33
548.43	2057.31
548.79	2065.31
549.14	2072.77
549.50	2080.17
549.86	2087.63
550.21	2094.93
550.57	2101.85
550.92	2108.51
551.28	2115.41
551.64	2122.55
551.99	2128.95
552.35	2134.99
552.70	2140.86
553.06	2146.86
553.41	2153.30
553.77	2159.18
554.13	2165.24
554.48	2171.28
554.84	2176.84
555.19	2182.09
555.55	2187.34
555.90	2191.90
556.26	2196.75
556.61	2201.32
556.97	2205.57
557.32	2209.64
557.68	2213.74
558.03	2218.15
558.39	2221.81
558.74	2226.48
559.10	2230.21
559.45	2234.03
559.81	2238.34
560.16	2242.37
560.52	2245.62
560.87	2249.02
561.23	2251.83
561.58	2254.74
561.94	2257.10
562.29	2259.26
562.64	2262.01
563.00	2264.39
563.35	2267.98
563.71	2270.99
564.06	2274.47
564.42	2277.26
564.77	2279.93
565.12	2282.30
565.48	2284.17
565.83	2286.18
566.19	2287.51
566.54	2288.45
566.89	2289.51
567.25	2290.06
567.60	2291.22
567.96	2292.82
568.31	2293.77
568.66	2294.93
569.02	2295.44
569.37	2295.90
569.72	2296.95
570.08	2297.00
570.43	2297.24
570.78	2296.72
571.14	2295.36
571.49	2293.99
571.84	2293.78
572.20	2292.67
572.55	2291.63
572.90	2290.22
573.26	2288.77
573.61	2287.12
573.96	2285.35
574.31	2282.46
574.67	2279.51
575.02	2276.04
575.37	2272.73
575.72	2268.79
576.08	2265.44
576.43	2262.21
576.78	2258.65
577.13	2255.46
577.49	2252.49
577.84	2249.12
578.19	2245.54
578.54	2241.86
578.90	2237.75
579.25	2232.27
579.60	2227.19
579.95	2222.20
580.30	2217.18
580.66	2212.01
581.01	2207.22
581.36	2202.57
581.71	2198.53
582.06	2194.21
582.42	2189.79
582.77	2184.78
583.12	2180.38
583.47	2175.85
583.82	2171.02
584.17	2165.64
584.53	2160.21
584.88	2154.56
585.23	2148.80
585.58	2143.15
585.93	2137.80
586.28	2133.10
586.63	2128.01
586.98	2123.00
587.34	2118.36
587.69	2113.58
588.04	2108.28
588.39	2102.50
588.74	2095.87
589.09	2089.73
589.44	2082.95
589.79	2077.00
590.14	2071.42
590.49	2064.86
590.84	2058.33
591.19	2052.34
591.54	2046.11
591.89	2038.73
592.25	2032.08
592.60	2024.88
592.95	2017.34
593.30	2010.09
593.65	2002.46
594.00	1995.60
594.35	1988.62
594.70	1980.63
595.05	1973.42
595.40	1966.44
595.75	1959.05
596.10	1952.98
596.45	1946.28
596.80	1940.27
597.15	1933.68
597.50	1926.50
597.85	1920.12
598.19	1913.52
598.54	1906.31
598.89	1899.65
599.24	1893.86
599.59	1887.04
599.94	1880.86
600.29	1874.60
600.64	1868.05
600.99	1860.77
601.34	1853.93
601.69	1846.75
602.04	1840.03
602.39	1832.67
602.74	1825.72
603.08	1818.99
603.43	1812.35
603.78	1805.02
604.13	1797.70
604.48	1790.43
604.83	1783.59
605.18	1776.59
605.53	1768.76
605.87	1760.78
606.22	1753.57
606.57	1745.60
606.92	1738.55
607.27	1731.50
607.62	1724.66
607.96	1717.42
608.31	1710.68
608.66	1703.01
609.01	1695.58
609.36	1687.97
609.70	1680.12
610.05	1672.09
610.40	1664.33
610.75	1655.95
611.10	1648.38
611.44	1639.98
611.79	1632.06
612.14	1623.39
612.49	1614.38
612.83	1605.95
613.18	1598.01
613.53	1589.87
613.88	1581.43
614.22	1573.06
614.57	1564.31
614.92	1556.28
615.27	1548.66
615.61	1540.35
615.96	1532.34
616.31	1524.82
616.65	1517.44
617.00	1509.68
617.35	1502.00
617.70	1493.82
618.04	1485.29
618.39	1477.06
618.74	1469.50
619.08	1461.09
619.43	1453.51
619.78	1446.47
620.12	1439.22
620.47	1431.55
620.82	1423.54
621.16	1416.07
621.51	1408.39
621.85	1400.90
622.20	1392.46
622.55	1384.08
622.89	1376.27
623.24	1368.65
623.59	1361.26
623.93	1353.67
624.28	1346.49
624.62	1338.93
624.97	1331.67
625.32	1324.94
625.66	1317.91
626.01	1310.77
626.35	1303.39
626.70	1295.66
627.04	1288.08
627.39	1280.37
627.73	1273.01
628.08	1266.09
628.43	1258.87
628.77	1251.57
629.12	1243.93
629.46	1236.65
629.81	1229.13
630.15	1221.89
630.50	1214.50
630.84	1206.30
631.19	1198.48
631.53	1190.98
631.88	1183.42
632.22	1175.90
632.57	1168.53
632.91	1160.93
633.26	1153.43
633.60	1146.07
633.95	1138.92
634.29	1131.72
634.64	1125.00
634.98	1117.59
635.32	1110.33
635.67	1103.62
636.01	1097.01
636.36	1090.20
636.70	1083.64
637.05	1077.16
637.39	1070.71
637.73	1064.19
638.08	1058.19
638.42	1052.10
638.77	1045.70
639.11	1039.17
639.45	1032.74
639.80	1026.11
640.14	1019.68
640.49	1013.14
640.83	1006.81
641.17	1000.58
641.52	994.19
641.86	987.74
642.20	981.99
642.55	975.74
642.89	969.31
643.23	962.72
643.58	957.05
643.92	950.86
644.26	944.78
644.61	938.76
644.95	932.72
645.29	926.18
645.64	919.40
645.98	913.09
646.32	907.20
646.66	901.11
647.01	895.38
647.35	889.64
647.69	883.79
648.04	878.13
648.38	872.38
648.72	866.49
649.06	860.41
649.41	854.42
649.75	848.34
650.09	842.46
650.43	836.67
650.78	830.51
651.12	824.57
651.46	818.90
651.80	813.16
652.14	807.79
652.49	802.45
652.83	797.37
653.17	791.64
653.51	785.97
653.85	780.67
654.20	774.97
654.54	768.99
654.88	763.25
655.22	757.44
655.56	751.76
655.90	746.28
656.25	741.04
656.59	735.67
656.93	730.67
657.27	725.44
657.61	720.03
657.95	714.90
658.29	709.84
658.64	704.54
658.98	699.21
659.32	693.72
659.66	688.49
660.00	683.13
660.34	678.17
660.68	673.35
661.02	668.22
661.36	663.45
661.70	658.94
662.05	654.59
662.39	650.35
662.73	645.84
663.07	641.45
663.41	636.96
663.75	632.48
664.09	627.89
664.43	623.49
664.77	619.31
665.11	615.03
665.45	610.87
665.79	606.80
666.13	602.66
666.47	598.54
666.81	594.39
667.15	590.20
667.49	586.32
667.83	582.40
668.17	578.51
668.51	574.47
668.85	570.45
669.19	566.63
669.53	562.67
669.87	558.84
670.21	555.13
670.55	551.62
670.89	548.19
671.23	544.75
671.57	541.23
671.91	537.67
672.25	534.18
672.58	530.65
672.92	527.22
673.26	524.00
673.60	520.89
673.94	517.73
674.28	514.89
674.62	511.92
674.96	508.77
675.30	505.84
675.64	502.92
675.97	500.14
676.31	497.28
676.65	494.42
676.99	491.68
677.33	488.81
677.67	485.91
678.01	482.87
678.34	479.90
678.68	477.04
679.02	474.24
679.36	471.43
679.70	468.73
680.04	465.95
680.37	463.06
680.71	460.23
681.05	457.60
681.39	454.87
681.73	452.17
682.06	449.67
682.40	447.11
682.74	444.57
683.08	441.98
683.42	439.36
683.75	436.80
684.09	434.24
684.43	431.75
684.77	429.27
685.10	426.94
685.44	424.65
685.78	422.31
686.12	420.05
686.45	417.79
686.79	415.45
687.13	413.24
687.46	411.13
687.80	408.99
688.14	406.79
688.48	404.73
688.81	402.47
689.15	400.30
689.49	398.15
689.82	396.07
690.16	394.04
690.50	392.09
690.83	390.19
691.17	388.22
691.51	386.32
691.84	384.52
692.18	382.57
692.52	380.58
692.85	378.71
693.19	376.82
693.52	374.93
693.86	373.15
694.20	371.40
694.53	369.59
694.87	367.76
695.21	365.97
695.54	364.12
695.88	362.45
696.21	360.74
696.55	359.05
696.88	357.36
697.22	355.67
697.56	354.01
697.89	352.34
698.23	350.70
698.56	349.05
698.90	347.45
699.23	345.83
699.57	344.32
699.90	342.72
700.24	341.15
700.58	339.66
700.91	338.16
701.25	336.66
701.58	335.30
701.92	333.92
702.25	332.49
702.59	331.12
702.92	329.76
703.26	328.45
703.59	327.18
703.93	326.01
704.26	324.76
704.60	323.49
704.93	322.19
705.26	320.95
705.60	319.85
705.93	318.66
706.27	317.61
706.60	316.54
706.94	315.50
707.27	314.42
707.61	313.36
707.94	312.37
708.27	311.31
708.61	310.22
708.94	309.21
709.28	308.27
709.61	307.34
709.94	306.37
710.28	305.38
710.61	304.42
710.95	303.33
711.28	302.42
711.61	301.49
711.95	300.59
712.28	299.66
712.61	298.62
712.95	297.66
713.28	296.77
713.61	295.84
713.95	294.94
714.28	294.10
714.61	293.18
714.95	292.31
715.28	291.45
715.61	290.55
715.95	289.66
716.28	288.78
716.61	287.93
716.95	287.13
717.28	286.34
717.61	285.52
717.94	284.79
718.28	283.99
718.61	283.23
718.94	282.52
719.27	281.84
719.61	281.18
719.94	280.52
720.27	279.77
720.60	279.13
720.94	278.51
721.27	277.89
721.60	277.37
721.93	276.77
722.27	276.22
722.60	275.71
722.93	275.13
723.26	274.61
723.59	274.01
723.93	273.43
724.26	272.88
724.59	272.32
724.92	271.75
725.25	271.27
725.59	270.74
725.92	270.25
726.25	269.73
726.58	269.26
726.91	268.78
727.24	268.33
727.57	267.86
727.91	267.32
728.24	266.87
728.57	266.37
728.90	265.89
729.23	265.41
729.56	264.94
729.89	264.50
730.22	263.99
730.55	263.54
730.89	263.15
731.22	262.68
731.55	262.26
731.88	261.87
732.21	261.41
732.54	261.01
732.87	260.57
733.20	260.19
733.53	259.80
733.86	259.38
734.19	258.97
734.52	258.59
734.85	258.29
735.18	257.86
735.51	257.47
735.84	257.13
736.17	256.78
736.50	256.37
736.83	256.15
737.16	255.84
737.49	255.53
737.82	255.17
738.15	254.87
738.48	254.53
738.81	254.18
739.14	253.89
739.47	253.56
739.80	253.26
740.13	252.97
740.46	252.64
740.79	252.29
741.12	252.01
741.45	251.68
741.78	251.32
742.11	251.03
742.44	250.71
742.77	250.43
743.10	250.13
743.43	249.83
743.75	249.48
744.08	249.35
744.41	249.05
744.74	248.78
745.07	248.49
745.40	248.26
745.73	248.04
746.06	247.78
746.39	247.51
746.71	247.25
747.04	246.97
747.37	246.71
747.70	246.53
748.03	246.29
748.36	246.06
748.68	245.80
749.01	245.56
749.34	245.34
749.67	245.06
750.00	244.87
750.33	244.74
750.65	244.50
750.98	244.13
751.31	243.89
751.64	243.70
751.97	243.53
752.29	243.29
752.62	243.03
752.95	242.82
753.28	242.58
753.60	242.36
753.93	242.18
754.26	242.00
754.59	241.77
754.91	241.56
755.24	241.38
755.57	241.23
755.90	241.03
756.22	240.80
756.55	240.63
756.88	240.40
757.20	240.12
757.53	239.91
757.86	239.76
758.19	239.61
758.51	239.41
758.84	239.21
759.17	239.06
759.49	238.90
759.82	238.77
760.15	238.61
760.47	238.44
760.80	238.27
761.13	238.12
761.45	237.97
761.78	237.83
762.11	237.68
762.43	237.53
762.76	237.41
763.08	237.31
763.41	237.18
763.74	237.05
764.06	236.93
764.39	236.81
764.71	236.66
765.04	236.56
765.37	236.43
765.69	236.29
766.02	236.15
766.34	236.02
766.67	235.86
767.00	235.76
767.32	235.71
767.65	235.64
767.97	235.54
768.30	235.43
768.62	235.28
768.95	235.13
769.27	235.03
769.60	234.95
769.92	234.83
770.25	234.73
770.57	234.60
770.90	234.52
771.22	234.42
771.55	234.33
771.87	234.24
772.20	234.14
772.52	234.15
772.85	234.18
773.17	234.10
773.50	234.04
773.82	233.95
774.15	233.83
774.47	233.69
774.80	233.56
775.12	233.47
775.45	233.39
775.77	233.32
776.09	233.24
776.42	233.13
776.74	233.09
777.07	233.04
777.39	232.98
777.72	232.90
778.04	232.82
778.36	232.74
778.69	232.63
779.01	232.57
779.33	232.36
779.66	232.19
779.98	232.10
780.31	232.03
780.63	232.01
780.95	231.98
781.28	231.91
781.60	231.85
781.92	231.80
782.25	231.75
782.57	231.71
782.89	231.64
783.22	231.58
783.54	231.46
783.86	231.36
784.19	231.30
784.51	231.27
784.83	231.21
785.16	231.14
785.48	231.13
785.80	231.08
786.12	231.06
786.45	231.02
786.77	230.99
787.09	230.90
