SpectraSuite Data File
++++++++++++++++++++++++++++++++++++
Date: Fri Feb 01 15:23:33 EST 2013
User: group
Dark Spectrum Present: No
Reference Spectrum Present: No
Number of Sampled Component Spectra: 1
Spectrometers: USB2E7196
Integration Time (usec): 35000 (USB2E7196)
Spectra Averaged: 100 (USB2E7196)
Boxcar Smoothing: 10 (USB2E7196)
Correct for Electrical Dark: No (USB2E7196)
Strobe/Lamp Enabled: No (USB2E7196)
Correct for Detector Non-linearity: No (USB2E7196)
Correct for Stray Light: No (USB2E7196)
Number of Pixels in Processed Spectrum: 2048
>>>>>Begin Processed Spectral Data<<<<<
339.09	0.00
339.48	215.26
339.86	216.33
340.24	218.38
340.63	219.71
341.01	221.74
341.39	222.05
341.78	223.74
342.16	223.95
342.54	224.95
342.93	213.37
343.31	224.15
343.69	224.67
344.07	225.14
344.46	225.51
344.84	225.84
345.22	226.08
345.60	226.32
345.99	226.49
346.37	226.64
346.75	226.73
347.13	226.77
347.52	226.80
347.90	226.88
348.28	226.91
348.66	226.95
349.05	226.91
349.43	226.95
349.81	226.97
350.19	227.02
350.57	227.07
350.96	227.14
351.34	227.23
351.72	227.32
352.10	227.42
352.48	227.53
352.87	227.65
353.25	227.71
353.63	227.78
354.01	227.84
354.39	227.93
354.77	228.01
355.15	228.12
355.54	228.23
355.92	228.26
356.30	228.34
356.68	228.47
357.06	228.59
357.44	228.65
357.82	228.73
358.20	228.84
358.58	228.92
358.97	228.99
359.35	229.06
359.73	229.16
360.11	229.18
360.49	229.22
360.87	229.24
361.25	229.33
361.63	229.41
362.01	229.46
362.39	229.48
362.77	229.52
363.15	229.57
363.53	229.58
363.91	229.60
364.29	229.63
364.67	229.55
365.05	229.60
365.43	229.62
365.81	229.63
366.19	229.64
366.57	229.67
366.95	229.68
367.33	229.66
367.71	229.65
368.09	229.70
368.47	229.67
368.85	229.64
369.23	229.63
369.61	229.56
369.99	229.55
370.37	229.54
370.75	229.57
371.13	229.51
371.51	229.47
371.89	229.44
372.27	229.42
372.65	229.37
373.03	229.28
373.41	229.24
373.78	229.19
374.16	229.11
374.54	229.00
374.92	228.92
375.30	228.84
375.68	228.73
376.06	228.62
376.44	228.56
376.82	228.49
377.19	228.39
377.57	228.33
377.95	228.23
378.33	228.17
378.71	227.99
379.09	227.90
379.47	227.85
379.84	227.77
380.22	227.65
380.60	227.56
380.98	227.48
381.36	227.36
381.73	227.30
382.11	227.21
382.49	227.14
382.87	227.06
383.25	226.99
383.62	227.04
384.00	226.97
384.38	226.90
384.76	226.88
385.13	226.84
385.51	226.80
385.89	226.75
386.27	226.68
386.64	226.71
387.02	226.65
387.40	226.58
387.78	226.53
388.15	226.50
388.53	226.45
388.91	226.45
389.29	226.42
389.66	226.38
390.04	226.34
390.42	226.36
390.79	226.35
391.17	226.36
391.55	226.22
391.92	226.22
392.30	226.25
392.68	226.23
393.05	226.26
393.43	226.26
393.81	226.28
394.18	226.31
394.56	226.32
394.94	226.38
395.31	226.41
395.69	226.49
396.06	226.56
396.44	226.61
396.82	226.64
397.19	226.75
397.57	226.81
397.95	226.88
398.32	226.92
398.70	227.01
399.07	227.07
399.45	227.15
399.82	227.22
400.20	227.30
400.58	227.36
400.95	227.41
401.33	227.52
401.70	227.67
402.08	227.74
402.45	227.83
402.83	227.99
403.20	228.10
403.58	228.18
403.95	228.31
404.33	228.46
404.71	228.61
405.08	228.78
405.46	228.93
405.83	229.11
406.21	229.26
406.58	229.42
406.96	229.61
407.33	229.79
407.70	230.00
408.08	230.26
408.45	230.55
408.83	230.80
409.20	230.99
409.58	231.14
409.95	231.42
410.33	231.71
410.70	231.93
411.08	232.26
411.45	232.58
411.82	232.92
412.20	233.26
412.57	233.67
412.95	233.95
413.32	234.34
413.69	234.74
414.07	235.16
414.44	235.65
414.82	236.14
415.19	236.72
415.56	237.29
415.94	237.84
416.31	238.45
416.68	239.09
417.06	239.82
417.43	240.50
417.81	241.24
418.18	242.04
418.55	242.83
418.93	243.68
419.30	244.59
419.67	245.48
420.04	246.43
420.42	247.40
420.79	248.59
421.16	249.74
421.54	250.94
421.91	252.15
422.28	253.42
422.66	254.74
423.03	256.06
423.40	257.39
423.77	258.78
424.15	260.16
424.52	261.61
424.89	263.22
425.26	264.81
425.64	266.28
426.01	267.87
426.38	269.57
426.75	271.23
427.13	272.98
427.50	274.76
427.87	276.62
428.24	278.46
428.61	280.22
428.99	282.17
429.36	284.27
429.73	286.34
430.10	288.35
430.47	290.44
430.85	292.52
431.22	294.75
431.59	297.16
431.96	299.40
432.33	301.87
432.70	304.28
433.08	307.07
433.45	309.69
433.82	312.27
434.19	315.15
434.56	317.96
434.93	320.61
435.30	323.24
435.68	326.12
436.05	328.96
436.42	331.75
436.79	334.27
437.16	336.97
437.53	339.80
437.90	342.62
438.27	345.32
438.64	348.14
439.01	350.70
439.38	352.90
439.75	355.08
440.13	357.59
440.50	359.89
440.87	361.74
441.24	363.71
441.61	365.90
441.98	367.38
442.35	369.21
442.72	371.06
443.09	372.84
443.46	373.89
443.83	374.49
444.20	375.01
444.57	375.81
444.94	376.10
445.31	376.44
445.68	376.75
446.05	376.81
446.42	376.41
446.79	376.03
447.16	375.61
447.53	375.36
447.90	374.17
448.27	373.01
448.64	371.47
449.01	370.33
449.37	368.37
449.74	366.50
450.11	364.26
450.48	361.78
450.85	359.31
451.22	357.11
451.59	355.06
451.96	353.11
452.33	350.55
452.70	348.16
453.07	345.35
453.43	342.46
453.80	339.71
454.17	337.06
454.54	334.50
454.91	331.79
455.28	329.08
455.65	326.63
456.02	324.20
456.38	321.99
456.75	319.32
457.12	317.07
457.49	314.84
457.86	312.67
458.23	310.83
458.59	308.76
458.96	306.72
459.33	304.90
459.70	303.06
460.07	301.52
460.43	299.84
460.80	298.19
461.17	296.77
461.54	295.25
461.91	293.83
462.27	292.38
462.64	291.14
463.01	289.76
463.38	288.46
463.74	287.07
464.11	285.94
464.48	284.87
464.85	283.69
465.21	282.84
465.58	281.92
465.95	280.79
466.32	279.88
466.68	278.97
467.05	278.04
467.42	277.14
467.78	276.20
468.15	275.33
468.52	274.67
468.88	273.81
469.25	273.06
469.62	272.46
469.98	271.75
470.35	271.08
470.72	270.46
471.08	269.81
471.45	269.27
471.82	268.72
472.18	268.16
472.55	267.75
472.92	267.18
473.28	266.69
473.65	266.27
474.02	265.84
474.38	265.48
474.75	265.19
475.11	264.82
475.48	264.59
475.85	264.33
476.21	264.08
476.58	263.85
476.94	263.69
477.31	263.48
477.67	263.34
478.04	263.23
478.41	263.16
478.77	263.20
479.14	263.13
479.50	263.10
479.87	263.12
480.23	263.20
480.60	263.24
480.96	263.32
481.33	263.48
481.69	263.67
482.06	263.85
482.42	264.04
482.79	264.32
483.15	264.58
483.52	264.95
483.88	265.29
484.25	265.71
484.61	266.15
484.98	266.59
485.34	267.17
485.71	267.73
486.07	268.33
486.44	268.83
486.80	269.50
487.17	270.21
487.53	271.06
487.90	271.88
488.26	272.83
488.62	273.83
488.99	274.81
489.35	275.79
489.72	276.90
490.08	278.07
490.44	279.24
490.81	280.60
491.17	281.96
491.54	283.44
491.90	284.98
492.26	286.63
492.63	288.37
492.99	290.15
493.36	292.05
493.72	294.13
494.08	296.28
494.45	298.54
494.81	300.96
495.17	303.37
495.54	306.00
495.90	308.66
496.26	311.49
496.63	314.44
496.99	317.61
497.35	320.87
497.72	324.26
498.08	327.83
498.44	331.46
498.80	335.36
499.17	339.40
499.53	343.52
499.89	347.87
500.26	352.37
500.62	357.01
500.98	362.03
501.34	367.10
501.71	372.44
502.07	377.86
502.43	383.47
502.79	389.27
503.16	395.32
503.52	401.61
503.88	408.02
504.24	414.70
504.60	421.55
504.97	428.71
505.33	436.11
505.69	443.79
506.05	451.63
506.41	459.54
506.78	467.73
507.14	476.24
507.50	484.98
507.86	494.07
508.22	503.27
508.59	512.39
508.95	521.99
509.31	531.84
509.67	541.96
510.03	552.26
510.39	562.78
510.75	573.63
511.12	584.59
511.48	595.90
511.84	607.33
512.20	618.83
512.56	630.74
512.92	642.88
513.28	655.25
513.64	667.75
514.00	680.43
514.37	693.31
514.73	706.32
515.09	719.36
515.45	732.56
515.81	746.15
516.17	760.22
516.53	774.36
516.89	788.48
517.25	802.65
517.61	817.05
517.97	831.64
518.33	846.10
518.69	860.87
519.05	875.86
519.41	891.05
519.77	906.64
520.13	922.16
520.49	937.67
520.85	953.08
521.21	968.84
521.57	985.11
521.93	1000.99
522.29	1017.52
522.65	1033.90
523.01	1050.20
523.37	1066.38
523.73	1082.57
524.09	1098.64
524.45	1115.02
524.81	1131.72
525.17	1148.70
525.53	1165.59
525.89	1182.44
526.25	1199.34
526.61	1215.77
526.97	1232.50
527.33	1249.01
527.68	1265.67
528.04	1282.14
528.40	1299.00
528.76	1316.12
529.12	1332.81
529.48	1349.80
529.84	1365.86
530.20	1382.44
530.56	1399.41
530.91	1416.81
531.27	1433.61
531.63	1450.20
531.99	1466.76
532.35	1482.87
532.71	1498.70
533.07	1515.01
533.42	1530.92
533.78	1547.06
534.14	1563.37
534.50	1578.85
534.86	1594.85
535.21	1610.04
535.57	1626.02
535.93	1641.42
536.29	1656.25
536.65	1671.38
537.00	1686.17
537.36	1701.49
537.72	1716.19
538.08	1730.86
538.44	1744.63
538.79	1758.60
539.15	1772.42
539.51	1786.28
539.87	1800.57
540.22	1814.43
540.58	1828.33
540.94	1841.85
541.29	1854.96
541.65	1867.68
542.01	1881.01
542.37	1893.30
542.72	1905.82
543.08	1917.60
543.44	1930.10
543.79	1941.31
544.15	1952.30
544.51	1963.77
544.87	1974.73
545.22	1985.58
545.58	1995.70
545.94	2005.60
546.29	2015.42
546.65	2025.01
547.01	2034.27
547.36	2043.09
547.72	2051.50
548.07	2059.40
548.43	2067.54
548.79	2075.47
549.14	2083.08
549.50	2090.48
549.86	2098.23
550.21	2105.58
550.57	2112.93
550.92	2119.44
551.28	2126.54
551.64	2133.62
551.99	2140.26
552.35	2146.52
552.70	2152.58
553.06	2158.67
553.41	2165.08
553.77	2171.19
554.13	2177.43
554.48	2183.66
554.84	2188.92
555.19	2194.35
555.55	2199.47
555.90	2203.94
556.26	2208.67
556.61	2213.46
556.97	2217.59
557.32	2221.67
557.68	2225.74
558.03	2229.99
558.39	2233.74
558.74	2238.37
559.10	2242.23
559.45	2245.91
559.81	2250.25
560.16	2254.15
560.52	2257.38
560.87	2260.86
561.23	2263.52
561.58	2266.54
561.94	2269.00
562.29	2271.52
562.64	2274.16
563.00	2276.73
563.35	2280.17
563.71	2283.42
564.06	2286.57
564.42	2289.41
564.77	2292.09
565.12	2294.35
565.48	2296.12
565.83	2297.90
566.19	2299.13
566.54	2300.03
566.89	2301.10
567.25	2301.51
567.60	2302.88
567.96	2304.43
568.31	2305.10
568.66	2306.15
569.02	2306.69
569.37	2306.91
569.72	2307.70
570.08	2307.73
570.43	2307.71
570.78	2307.15
571.14	2305.67
571.49	2304.20
571.84	2303.92
572.20	2302.52
572.55	2301.46
572.90	2299.91
573.26	2298.54
573.61	2296.80
573.96	2294.93
574.31	2291.94
574.67	2288.91
575.02	2285.05
575.37	2281.56
575.72	2277.63
576.08	2274.31
576.43	2270.98
576.78	2267.30
577.13	2264.16
577.49	2261.09
577.84	2257.63
578.19	2253.85
578.54	2249.99
578.90	2245.62
579.25	2240.01
579.60	2235.10
579.95	2229.99
580.30	2224.83
580.66	2219.61
581.01	2214.75
581.36	2209.75
581.71	2205.48
582.06	2200.98
582.42	2196.40
582.77	2191.14
583.12	2186.50
583.47	2181.64
583.82	2176.26
584.17	2170.95
584.53	2165.31
584.88	2159.57
585.23	2153.50
585.58	2147.91
585.93	2142.44
586.28	2137.77
586.63	2132.53
586.98	2127.29
587.34	2122.52
587.69	2117.67
588.04	2112.31
588.39	2106.33
588.74	2099.86
589.09	2093.67
589.44	2086.78
589.79	2080.76
590.14	2075.11
590.49	2068.52
590.84	2062.00
591.19	2056.09
591.54	2049.45
591.89	2041.83
592.25	2034.95
592.60	2027.76
592.95	2020.08
593.30	2012.61
593.65	2004.85
594.00	1997.77
594.35	1990.56
594.70	1982.44
595.05	1975.08
595.40	1967.65
595.75	1960.20
596.10	1953.91
596.45	1946.99
596.80	1940.73
597.15	1934.02
597.50	1926.85
597.85	1920.46
598.19	1913.82
598.54	1906.69
598.89	1900.15
599.24	1894.30
599.59	1887.48
599.94	1881.14
600.29	1874.80
600.64	1868.26
600.99	1860.80
601.34	1853.84
601.69	1846.68
602.04	1839.73
602.39	1832.37
602.74	1825.48
603.08	1818.78
603.43	1812.11
603.78	1804.97
604.13	1797.80
604.48	1790.47
604.83	1783.47
605.18	1776.34
605.53	1768.27
605.87	1760.18
606.22	1752.88
606.57	1744.91
606.92	1737.64
607.27	1730.49
607.62	1723.53
607.96	1716.14
608.31	1709.46
608.66	1701.87
609.01	1694.21
609.36	1686.56
609.70	1678.48
610.05	1670.37
610.40	1662.55
610.75	1654.10
611.10	1646.41
611.44	1637.99
611.79	1630.03
612.14	1621.38
612.49	1612.31
612.83	1603.96
613.18	1595.83
613.53	1587.76
613.88	1579.28
614.22	1571.08
614.57	1562.50
614.92	1554.37
615.27	1546.77
615.61	1538.41
615.96	1530.59
616.31	1523.08
616.65	1515.79
617.00	1508.18
617.35	1500.56
617.70	1492.14
618.04	1483.59
618.39	1475.18
618.74	1467.57
619.08	1459.21
619.43	1451.68
619.78	1444.69
620.12	1437.44
620.47	1429.96
620.82	1421.63
621.16	1414.28
621.51	1406.68
621.85	1399.02
622.20	1390.58
622.55	1382.32
622.89	1374.52
623.24	1366.71
623.59	1359.33
623.93	1351.78
624.28	1344.58
624.62	1337.17
624.97	1330.03
625.32	1323.36
625.66	1316.40
626.01	1309.12
626.35	1301.59
626.70	1293.78
627.04	1286.00
627.39	1278.33
627.73	1270.85
628.08	1263.96
628.43	1256.56
628.77	1249.06
629.12	1241.51
629.46	1234.26
629.81	1226.77
630.15	1219.51
630.50	1212.13
630.84	1204.01
631.19	1196.14
631.53	1188.69
631.88	1181.00
632.22	1173.49
632.57	1166.16
632.91	1158.62
633.26	1151.24
633.60	1143.96
633.95	1136.88
634.29	1129.95
634.64	1123.26
634.98	1115.87
635.32	1108.83
635.67	1102.23
636.01	1095.65
636.36	1088.96
636.70	1082.53
637.05	1075.94
637.39	1069.57
637.73	1063.06
638.08	1057.18
638.42	1051.18
638.77	1044.69
639.11	1038.08
639.45	1031.64
639.80	1024.91
640.14	1018.49
640.49	1012.03
640.83	1005.81
641.17	999.60
641.52	993.24
641.86	986.75
642.20	980.98
642.55	974.74
642.89	968.21
643.23	961.64
643.58	955.74
643.92	949.51
644.26	943.44
644.61	937.44
644.95	931.37
645.29	924.70
645.64	917.92
645.98	911.63
646.32	905.91
646.66	899.98
647.01	894.21
647.35	888.53
647.69	882.72
648.04	877.17
648.38	871.37
648.72	865.29
649.06	859.34
649.41	853.45
649.75	847.35
650.09	841.47
650.43	835.67
650.78	829.53
651.12	823.56
651.46	817.88
651.80	812.11
652.14	806.75
652.49	801.46
652.83	796.28
653.17	790.59
653.51	784.79
653.85	779.36
654.20	773.70
654.54	767.66
654.88	761.94
655.22	756.11
655.56	750.47
655.90	745.13
656.25	739.78
656.59	734.46
656.93	729.48
657.27	724.40
657.61	719.03
657.95	713.99
658.29	708.94
658.64	703.72
658.98	698.41
659.32	692.94
659.66	687.73
660.00	682.50
660.34	677.59
660.68	672.70
661.02	667.66
661.36	662.98
661.70	658.54
662.05	654.10
662.39	649.70
662.73	645.23
663.07	640.78
663.41	636.32
663.75	631.80
664.09	627.17
664.43	622.69
664.77	618.48
665.11	614.18
665.45	610.03
665.79	605.91
666.13	601.72
666.47	597.62
666.81	593.46
667.15	589.32
667.49	585.45
667.83	581.66
668.17	577.65
668.51	573.56
668.85	569.48
669.19	565.66
669.53	561.76
669.87	557.84
670.21	554.20
670.55	550.66
670.89	547.24
671.23	543.83
671.57	540.31
671.91	536.79
672.25	533.35
672.58	529.91
672.92	526.52
673.26	523.41
673.60	520.28
673.94	517.20
674.28	514.29
674.62	511.32
674.96	508.20
675.30	505.36
675.64	502.49
675.97	499.78
676.31	496.97
676.65	494.14
676.99	491.49
677.33	488.58
677.67	485.72
678.01	482.68
678.34	479.72
678.68	476.92
679.02	474.11
679.36	471.33
679.70	468.61
680.04	465.84
680.37	462.97
680.71	460.22
681.05	457.60
681.39	454.87
681.73	452.22
682.06	449.70
682.40	447.11
682.74	444.59
683.08	442.01
683.42	439.35
683.75	436.79
684.09	434.24
684.43	431.85
684.77	429.40
685.10	427.07
685.44	424.78
685.78	422.47
686.12	420.27
686.45	417.99
686.79	415.71
687.13	413.55
687.46	411.40
687.80	409.26
688.14	407.06
688.48	405.06
688.81	402.81
689.15	400.71
689.49	398.58
689.82	396.55
690.16	394.46
690.50	392.56
690.83	390.62
691.17	388.62
691.51	386.70
691.84	384.82
692.18	382.91
692.52	380.97
692.85	379.05
693.19	377.12
693.52	375.29
693.86	373.51
694.20	371.70
694.53	369.88
694.87	368.03
695.21	366.29
695.54	364.45
695.88	362.75
696.21	361.02
696.55	359.35
696.88	357.65
697.22	356.06
697.56	354.40
697.89	352.77
698.23	351.20
698.56	349.57
698.90	347.98
699.23	346.32
699.57	344.73
699.90	343.19
700.24	341.68
700.58	340.15
700.91	338.61
701.25	337.17
701.58	335.82
701.92	334.46
702.25	333.06
702.59	331.69
702.92	330.32
703.26	329.00
703.59	327.73
703.93	326.55
704.26	325.26
704.60	324.01
704.93	322.72
705.26	321.46
705.60	320.28
705.93	319.15
706.27	318.14
706.60	317.09
706.94	316.02
707.27	314.93
707.61	313.90
707.94	312.88
708.27	311.79
708.61	310.71
708.94	309.72
709.28	308.67
709.61	307.68
709.94	306.74
710.28	305.72
710.61	304.72
710.95	303.63
711.28	302.73
711.61	301.78
711.95	300.88
712.28	299.96
712.61	299.01
712.95	298.08
713.28	297.16
713.61	296.27
713.95	295.36
714.28	294.51
714.61	293.64
714.95	292.78
715.28	291.93
715.61	291.07
715.95	290.15
716.28	289.32
716.61	288.51
716.95	287.71
717.28	286.98
717.61	286.21
717.94	285.50
718.28	284.70
718.61	284.01
718.94	283.32
719.27	282.63
719.61	281.96
719.94	281.34
720.27	280.60
720.60	279.99
720.94	279.36
721.27	278.78
721.60	278.22
721.93	277.63
722.27	277.09
722.60	276.57
722.93	276.06
723.26	275.53
723.59	274.97
723.93	274.43
724.26	273.87
724.59	273.32
724.92	272.82
725.25	272.31
725.59	271.81
725.92	271.30
726.25	270.79
726.58	270.32
726.91	269.79
727.24	269.37
727.57	268.84
727.91	268.38
728.24	267.89
728.57	267.37
728.90	266.92
729.23	266.43
729.56	265.92
729.89	265.50
730.22	265.03
730.55	264.60
730.89	264.11
731.22	263.66
731.55	263.22
731.88	262.78
732.21	262.32
732.54	261.82
732.87	261.40
733.20	261.01
733.53	260.62
733.86	260.23
734.19	259.80
734.52	259.47
734.85	259.14
735.18	258.69
735.51	258.32
735.84	257.95
736.17	257.65
736.50	257.28
736.83	257.02
737.16	256.67
737.49	256.33
737.82	256.03
738.15	255.72
738.48	255.37
738.81	255.03
739.14	254.74
739.47	254.43
739.80	254.08
740.13	253.79
740.46	253.44
740.79	253.11
741.12	252.78
741.45	252.44
741.78	252.06
742.11	251.83
742.44	251.49
742.77	251.20
743.10	250.86
743.43	250.55
743.75	250.14
744.08	250.00
744.41	249.71
744.74	249.41
745.07	249.11
745.40	248.92
745.73	248.66
746.06	248.38
746.39	248.15
746.71	247.94
747.04	247.64
747.37	247.41
747.70	247.18
748.03	246.97
748.36	246.75
748.68	246.54
749.01	246.28
749.34	246.07
749.67	245.84
750.00	245.60
750.33	245.50
750.65	245.29
750.98	244.94
751.31	244.72
751.64	244.50
751.97	244.35
752.29	244.12
752.62	243.91
752.95	243.73
753.28	243.48
753.60	243.29
753.93	243.10
754.26	242.93
754.59	242.71
754.91	242.52
755.24	242.33
755.57	242.16
755.90	241.98
756.22	241.81
756.55	241.62
756.88	241.43
757.20	241.16
757.53	240.98
757.86	240.84
758.19	240.71
758.51	240.58
758.84	240.40
759.17	240.23
759.49	240.09
759.82	239.96
760.15	239.87
760.47	239.71
760.80	239.56
761.13	239.41
761.45	239.27
761.78	239.10
762.11	238.94
762.43	238.77
762.76	238.62
763.08	238.50
763.41	238.41
763.74	238.30
764.06	238.18
764.39	238.07
764.71	237.94
765.04	237.81
765.37	237.68
765.69	237.57
766.02	237.43
766.34	237.30
766.67	237.15
767.00	237.01
767.32	236.93
767.65	236.87
767.97	236.72
768.30	236.57
768.62	236.48
768.95	236.36
769.27	236.29
769.60	236.20
769.92	236.07
770.25	235.92
770.57	235.82
770.90	235.74
771.22	235.58
771.55	235.46
771.87	235.36
772.20	235.26
772.52	235.18
772.85	235.21
773.17	235.09
773.50	235.00
773.82	234.90
774.15	234.79
774.47	234.61
774.80	234.55
775.12	234.50
775.45	234.38
775.77	234.32
776.09	234.20
776.42	234.10
776.74	234.04
777.07	233.94
777.39	233.85
777.72	233.77
778.04	233.72
778.36	233.65
778.69	233.56
779.01	233.49
779.33	233.36
779.66	233.16
779.98	233.10
780.31	233.06
780.63	233.01
780.95	232.95
781.28	232.89
781.60	232.81
781.92	232.74
782.25	232.70
782.57	232.64
782.89	232.58
783.22	232.53
783.54	232.49
783.86	232.42
784.19	232.34
784.51	232.27
784.83	232.22
785.16	232.15
785.48	232.08
785.80	232.01
786.12	231.98
786.45	231.94
786.77	231.91
787.09	231.83
