SpectraSuite Data File
++++++++++++++++++++++++++++++++++++
Date: Fri Feb 01 15:49:26 EST 2013
User: group
Dark Spectrum Present: No
Reference Spectrum Present: No
Number of Sampled Component Spectra: 1
Spectrometers: USB2E7196
Integration Time (usec): 35000 (USB2E7196)
Spectra Averaged: 100 (USB2E7196)
Boxcar Smoothing: 10 (USB2E7196)
Correct for Electrical Dark: No (USB2E7196)
Strobe/Lamp Enabled: No (USB2E7196)
Correct for Detector Non-linearity: No (USB2E7196)
Correct for Stray Light: No (USB2E7196)
Number of Pixels in Processed Spectrum: 2048
>>>>>Begin Processed Spectral Data<<<<<
339.09	0.00
339.48	214.95
339.86	216.44
340.24	218.07
340.63	218.98
341.01	221.92
341.39	221.38
341.78	223.17
342.16	223.48
342.54	224.88
342.93	213.08
343.31	223.86
343.69	224.36
344.07	224.81
344.46	225.19
344.84	225.58
345.22	225.83
345.60	226.07
345.99	226.26
346.37	226.44
346.75	226.54
347.13	226.58
347.52	226.62
347.90	226.69
348.28	226.73
348.66	226.77
349.05	226.80
349.43	226.83
349.81	226.88
350.19	226.93
350.57	227.00
350.96	227.06
351.34	227.13
351.72	227.27
352.10	227.35
352.48	227.45
352.87	227.50
353.25	227.54
353.63	227.63
354.01	227.66
354.39	227.72
354.77	227.78
355.15	227.90
355.54	227.96
355.92	227.97
356.30	228.03
356.68	228.17
357.06	228.25
357.44	228.27
357.82	228.32
358.20	228.38
358.58	228.43
358.97	228.49
359.35	228.56
359.73	228.61
360.11	228.67
360.49	228.72
360.87	228.77
361.25	228.81
361.63	228.89
362.01	228.91
362.39	228.93
362.77	228.98
363.15	229.00
363.53	229.03
363.91	229.08
364.29	229.08
364.67	229.01
365.05	229.01
365.43	229.07
365.81	229.09
366.19	229.16
366.57	229.17
366.95	229.18
367.33	229.13
367.71	229.13
368.09	229.11
368.47	229.08
368.85	229.06
369.23	229.05
369.61	228.99
369.99	229.04
370.37	229.03
370.75	229.01
371.13	228.95
371.51	228.89
371.89	228.88
372.27	228.84
372.65	228.84
373.03	228.80
373.41	228.72
373.78	228.66
374.16	228.53
374.54	228.47
374.92	228.44
375.30	228.41
375.68	228.32
376.06	228.29
376.44	228.22
376.82	228.15
377.19	228.10
377.57	228.05
377.95	227.96
378.33	227.87
378.71	227.77
379.09	227.72
379.47	227.69
379.84	227.61
380.22	227.55
380.60	227.42
380.98	227.36
381.36	227.30
381.73	227.24
382.11	227.20
382.49	227.16
382.87	227.06
383.25	226.99
383.62	227.07
384.00	227.01
384.38	226.99
384.76	226.97
385.13	226.92
385.51	226.87
385.89	226.81
386.27	226.80
386.64	226.77
387.02	226.72
387.40	226.65
387.78	226.61
388.15	226.59
388.53	226.57
388.91	226.52
389.29	226.52
389.66	226.49
390.04	226.49
390.42	226.49
390.79	226.49
391.17	226.48
391.55	226.37
391.92	226.31
392.30	226.32
392.68	226.29
393.05	226.31
393.43	226.27
393.81	226.28
394.18	226.28
394.56	226.28
394.94	226.34
395.31	226.36
395.69	226.40
396.06	226.46
396.44	226.51
396.82	226.56
397.19	226.65
397.57	226.73
397.95	226.78
398.32	226.78
398.70	226.82
399.07	226.88
399.45	226.95
399.82	227.06
400.20	227.12
400.58	227.17
400.95	227.23
401.33	227.37
401.70	227.54
402.08	227.61
402.45	227.72
402.83	227.83
403.20	227.96
403.58	228.06
403.95	228.18
404.33	228.33
404.71	228.45
405.08	228.59
405.46	228.71
405.83	228.86
406.21	229.01
406.58	229.18
406.96	229.38
407.33	229.53
407.70	229.72
408.08	229.97
408.45	230.23
408.83	230.46
409.20	230.69
409.58	230.86
409.95	231.17
410.33	231.45
410.70	231.70
411.08	232.00
411.45	232.33
411.82	232.63
412.20	232.98
412.57	233.40
412.95	233.70
413.32	234.12
413.69	234.53
414.07	234.95
414.44	235.40
414.82	235.86
415.19	236.42
415.56	236.96
415.94	237.50
416.31	238.13
416.68	238.73
417.06	239.43
417.43	240.11
417.81	240.87
418.18	241.64
418.55	242.47
418.93	243.32
419.30	244.17
419.67	245.14
420.04	246.06
420.42	247.04
420.79	248.21
421.16	249.34
421.54	250.49
421.91	251.74
422.28	253.03
422.66	254.33
423.03	255.63
423.40	256.98
423.77	258.35
424.15	259.80
424.52	261.25
424.89	262.84
425.26	264.39
425.64	265.82
426.01	267.42
426.38	269.08
426.75	270.74
427.13	272.48
427.50	274.27
427.87	276.13
428.24	277.96
428.61	279.72
428.99	281.66
429.36	283.77
429.73	285.82
430.10	287.83
430.47	289.91
430.85	292.02
431.22	294.22
431.59	296.68
431.96	298.89
432.33	301.37
432.70	303.77
433.08	306.54
433.45	309.19
433.82	311.80
434.19	314.67
434.56	317.51
434.93	320.17
435.30	322.79
435.68	325.70
436.05	328.55
436.42	331.32
436.79	333.81
437.16	336.50
437.53	339.33
437.90	342.13
438.27	344.88
438.64	347.67
439.01	350.29
439.38	352.45
439.75	354.59
440.13	357.11
440.50	359.40
440.87	361.28
441.24	363.21
441.61	365.35
441.98	366.84
442.35	368.66
442.72	370.51
443.09	372.31
443.46	373.29
443.83	373.89
444.20	374.42
444.57	375.29
444.94	375.59
445.31	375.91
445.68	376.23
446.05	376.26
446.42	375.90
446.79	375.48
447.16	375.07
447.53	374.79
447.90	373.63
448.27	372.51
448.64	370.92
449.01	369.76
449.37	367.81
449.74	365.91
450.11	363.66
450.48	361.16
450.85	358.66
451.22	356.53
451.59	354.51
451.96	352.56
452.33	349.93
452.70	347.63
453.07	344.81
453.43	341.96
453.80	339.25
454.17	336.60
454.54	334.07
454.91	331.34
455.28	328.64
455.65	326.15
456.02	323.68
456.38	321.52
456.75	318.90
457.12	316.62
457.49	314.43
457.86	312.22
458.23	310.38
458.59	308.32
458.96	306.24
459.33	304.36
459.70	302.52
460.07	301.03
460.43	299.26
460.80	297.67
461.17	296.21
461.54	294.70
461.91	293.29
462.27	291.85
462.64	290.60
463.01	289.26
463.38	287.98
463.74	286.64
464.11	285.44
464.48	284.40
464.85	283.31
465.21	282.42
465.58	281.47
465.95	280.37
466.32	279.42
466.68	278.49
467.05	277.62
467.42	276.70
467.78	275.78
468.15	274.92
468.52	274.24
468.88	273.38
469.25	272.61
469.62	271.96
469.98	271.27
470.35	270.63
470.72	270.01
471.08	269.33
471.45	268.80
471.82	268.30
472.18	267.69
472.55	267.23
472.92	266.70
473.28	266.31
473.65	265.84
474.02	265.40
474.38	265.07
474.75	264.78
475.11	264.46
475.48	264.18
475.85	263.96
476.21	263.72
476.58	263.56
476.94	263.42
477.31	263.24
477.67	263.07
478.04	262.97
478.41	262.91
478.77	262.96
479.14	262.88
479.50	262.89
479.87	262.99
480.23	263.09
480.60	263.18
480.96	263.25
481.33	263.50
481.69	263.71
482.06	263.88
482.42	264.06
482.79	264.32
483.15	264.62
483.52	264.97
483.88	265.31
484.25	265.69
484.61	266.13
484.98	266.59
485.34	267.18
485.71	267.81
486.07	268.46
486.44	269.01
486.80	269.70
487.17	270.43
487.53	271.24
487.90	272.08
488.26	273.02
488.62	274.00
488.99	274.98
489.35	276.04
489.72	277.16
490.08	278.35
490.44	279.59
490.81	280.97
491.17	282.34
491.54	283.85
491.90	285.38
492.26	287.02
492.63	288.75
492.99	290.53
493.36	292.39
493.72	294.40
494.08	296.51
494.45	298.81
494.81	301.17
495.17	303.60
495.54	306.18
495.90	308.84
496.26	311.66
496.63	314.60
496.99	317.71
497.35	321.02
497.72	324.40
498.08	327.93
498.44	331.57
498.80	335.49
499.17	339.53
499.53	343.72
499.89	348.12
500.26	352.62
500.62	357.30
500.98	362.26
501.34	367.36
501.71	372.69
502.07	378.10
502.43	383.71
502.79	389.51
503.16	395.55
503.52	401.82
503.88	408.24
504.24	414.91
504.60	421.76
504.97	428.84
505.33	436.14
505.69	443.82
506.05	451.57
506.41	459.44
506.78	467.56
507.14	476.03
507.50	484.72
507.86	493.75
508.22	502.88
508.59	512.10
508.95	521.61
509.31	531.40
509.67	541.51
510.03	551.85
510.39	562.39
510.75	573.24
511.12	584.18
511.48	595.44
511.84	606.86
512.20	618.47
512.56	630.35
512.92	642.59
513.28	654.98
513.64	667.42
514.00	680.08
514.37	693.03
514.73	706.08
515.09	719.08
515.45	732.34
515.81	745.89
516.17	759.87
516.53	773.99
516.89	788.19
517.25	802.39
517.61	816.78
517.97	831.24
518.33	845.63
518.69	860.38
519.05	875.36
519.41	890.52
519.77	906.08
520.13	921.60
520.49	936.87
520.85	952.26
521.21	968.04
521.57	984.30
521.93	1000.07
522.29	1016.44
522.65	1032.66
523.01	1048.84
523.37	1064.94
523.73	1081.02
524.09	1097.15
524.45	1113.51
524.81	1130.13
525.17	1147.00
525.53	1163.92
525.89	1180.75
526.25	1197.58
526.61	1214.06
526.97	1230.88
527.33	1247.25
527.68	1263.90
528.04	1280.41
528.40	1297.02
528.76	1314.03
529.12	1330.64
529.48	1347.50
529.84	1363.47
530.20	1380.21
530.56	1397.20
530.91	1414.70
531.27	1431.55
531.63	1448.06
531.99	1464.60
532.35	1480.49
532.71	1496.22
533.07	1512.38
533.42	1528.33
533.78	1544.41
534.14	1560.58
534.50	1575.76
534.86	1591.63
535.21	1606.76
535.57	1622.74
535.93	1638.28
536.29	1653.09
536.65	1668.27
537.00	1683.01
537.36	1698.40
537.72	1712.74
538.08	1727.23
538.44	1741.00
538.79	1754.89
539.15	1768.46
539.51	1782.20
539.87	1796.52
540.22	1810.37
540.58	1824.19
540.94	1837.52
541.29	1850.43
541.65	1863.19
542.01	1876.49
542.37	1888.83
542.72	1901.15
543.08	1912.88
543.44	1925.15
543.79	1936.31
544.15	1947.23
544.51	1958.82
544.87	1969.77
545.22	1980.71
545.58	1990.99
545.94	2000.65
546.29	2010.35
546.65	2020.19
547.01	2029.46
547.36	2038.34
547.72	2046.68
548.07	2054.52
548.43	2062.67
548.79	2070.61
549.14	2078.10
549.50	2085.39
549.86	2093.12
550.21	2100.49
550.57	2107.73
550.92	2114.25
551.28	2121.28
551.64	2128.24
551.99	2134.61
552.35	2140.71
552.70	2146.82
553.06	2152.72
553.41	2159.12
553.77	2165.33
554.13	2171.38
554.48	2177.50
554.84	2182.84
555.19	2188.12
555.55	2193.29
555.90	2197.74
556.26	2202.68
556.61	2207.41
556.97	2211.66
557.32	2215.76
557.68	2219.94
558.03	2224.18
558.39	2227.93
558.74	2232.60
559.10	2236.45
559.45	2240.29
559.81	2244.61
560.16	2248.34
560.52	2251.62
560.87	2254.93
561.23	2257.56
561.58	2260.63
561.94	2263.10
562.29	2265.42
562.64	2268.19
563.00	2270.82
563.35	2274.20
563.71	2277.27
564.06	2280.43
564.42	2283.38
564.77	2285.87
565.12	2288.05
565.48	2290.01
565.83	2291.90
566.19	2293.04
566.54	2294.06
566.89	2295.15
567.25	2295.61
567.60	2296.93
567.96	2298.63
568.31	2299.58
568.66	2300.76
569.02	2301.14
569.37	2301.38
569.72	2302.25
570.08	2302.35
570.43	2302.35
570.78	2301.91
571.14	2300.35
571.49	2299.02
571.84	2298.50
572.20	2297.34
572.55	2296.23
572.90	2294.55
573.26	2293.24
573.61	2291.82
573.96	2289.99
574.31	2287.03
574.67	2284.08
575.02	2280.68
575.37	2277.23
575.72	2273.35
576.08	2269.82
576.43	2266.73
576.78	2263.11
577.13	2260.09
577.49	2257.10
577.84	2253.55
578.19	2249.82
578.54	2246.31
578.90	2242.07
579.25	2236.69
579.60	2231.69
579.95	2226.81
580.30	2221.83
580.66	2216.56
581.01	2211.52
581.36	2206.63
581.71	2202.46
582.06	2198.10
582.42	2193.49
582.77	2188.12
583.12	2183.62
583.47	2178.86
583.82	2173.71
584.17	2168.45
584.53	2162.74
584.88	2156.97
585.23	2151.15
585.58	2145.59
585.93	2140.11
586.28	2135.30
586.63	2130.11
586.98	2125.09
587.34	2120.28
587.69	2115.44
588.04	2110.13
588.39	2104.43
588.74	2097.90
589.09	2091.71
589.44	2084.90
589.79	2078.98
590.14	2073.48
590.49	2066.86
590.84	2060.61
591.19	2054.53
591.54	2047.98
591.89	2040.62
592.25	2033.84
592.60	2026.71
592.95	2019.18
593.30	2011.73
593.65	2004.06
594.00	1997.06
594.35	1989.76
594.70	1981.76
595.05	1974.53
595.40	1967.36
595.75	1959.92
596.10	1953.68
596.45	1946.94
596.80	1940.83
597.15	1934.06
597.50	1927.00
597.85	1920.49
598.19	1913.64
598.54	1906.57
598.89	1899.97
599.24	1894.12
599.59	1887.37
599.94	1881.08
600.29	1874.61
600.64	1868.01
600.99	1860.63
601.34	1853.80
601.69	1846.85
602.04	1839.94
602.39	1832.54
602.74	1825.60
603.08	1818.67
603.43	1811.87
603.78	1804.59
604.13	1797.38
604.48	1790.07
604.83	1783.17
605.18	1776.18
605.53	1768.28
605.87	1760.36
606.22	1753.16
606.57	1745.20
606.92	1737.94
607.27	1730.73
607.62	1723.99
607.96	1716.74
608.31	1710.11
608.66	1702.58
609.01	1694.97
609.36	1687.47
609.70	1679.42
610.05	1671.31
610.40	1663.70
610.75	1655.41
611.10	1647.71
611.44	1639.24
611.79	1631.21
612.14	1622.55
612.49	1613.50
612.83	1605.19
613.18	1597.03
613.53	1589.00
613.88	1580.41
614.22	1572.18
614.57	1563.63
614.92	1555.51
615.27	1547.78
615.61	1539.45
615.96	1531.33
616.31	1523.74
616.65	1516.36
617.00	1508.80
617.35	1501.22
617.70	1492.89
618.04	1484.41
618.39	1476.23
618.74	1468.58
619.08	1460.33
619.43	1452.73
619.78	1445.82
620.12	1438.58
620.47	1431.07
620.82	1422.93
621.16	1415.60
621.51	1407.93
621.85	1400.40
622.20	1391.86
622.55	1383.64
622.89	1375.90
623.24	1368.46
623.59	1361.01
623.93	1353.41
624.28	1346.29
624.62	1338.74
624.97	1331.61
625.32	1324.96
625.66	1317.90
626.01	1310.71
626.35	1303.24
626.70	1295.56
627.04	1287.77
627.39	1280.12
627.73	1272.78
628.08	1265.74
628.43	1258.46
628.77	1251.12
629.12	1243.56
629.46	1236.53
629.81	1229.23
630.15	1221.87
630.50	1214.32
630.84	1206.19
631.19	1198.36
631.53	1190.82
631.88	1183.28
632.22	1175.65
632.57	1168.21
632.91	1160.67
633.26	1153.22
633.60	1145.83
633.95	1138.71
634.29	1131.71
634.64	1124.97
634.98	1117.50
635.32	1110.35
635.67	1103.67
636.01	1097.11
636.36	1090.25
636.70	1083.56
637.05	1076.93
637.39	1070.42
637.73	1063.87
638.08	1058.00
638.42	1051.91
638.77	1045.50
639.11	1038.85
639.45	1032.52
639.80	1025.91
640.14	1019.42
640.49	1012.89
640.83	1006.63
641.17	1000.26
641.52	993.81
641.86	987.36
642.20	981.46
642.55	975.19
642.89	968.75
643.23	962.17
643.58	956.35
643.92	950.17
644.26	943.98
644.61	937.97
644.95	931.93
645.29	925.32
645.64	918.64
645.98	912.27
646.32	906.48
646.66	900.40
647.01	894.56
647.35	888.85
647.69	882.98
648.04	877.41
648.38	871.62
648.72	865.70
649.06	859.64
649.41	853.84
649.75	847.85
650.09	841.77
650.43	835.92
650.78	829.78
651.12	823.83
651.46	818.22
651.80	812.55
652.14	807.22
652.49	801.79
652.83	796.62
653.17	790.87
653.51	785.03
653.85	779.63
654.20	773.99
654.54	768.02
654.88	762.35
655.22	756.46
655.56	750.80
655.90	745.34
656.25	740.05
656.59	734.67
656.93	729.64
657.27	724.59
657.61	719.19
657.95	714.11
658.29	709.03
658.64	703.74
658.98	698.41
659.32	692.90
659.66	687.76
660.00	682.43
660.34	677.55
660.68	672.74
661.02	667.76
661.36	663.07
661.70	658.61
662.05	654.25
662.39	649.98
662.73	645.53
663.07	641.22
663.41	636.77
663.75	632.30
664.09	627.73
664.43	623.37
664.77	619.25
665.11	614.99
665.45	610.87
665.79	606.83
666.13	602.71
666.47	598.65
666.81	594.47
667.15	590.37
667.49	586.44
667.83	582.60
668.17	578.65
668.51	574.57
668.85	570.51
669.19	566.69
669.53	562.83
669.87	558.96
670.21	555.20
670.55	551.56
670.89	548.10
671.23	544.62
671.57	541.08
671.91	537.53
672.25	534.08
672.58	530.56
672.92	527.09
673.26	523.93
673.60	520.79
673.94	517.68
674.28	514.78
674.62	511.85
674.96	508.79
675.30	505.89
675.64	502.94
675.97	500.21
676.31	497.28
676.65	494.34
676.99	491.61
677.33	488.71
677.67	485.92
678.01	482.88
678.34	479.89
678.68	477.02
679.02	474.21
679.36	471.43
679.70	468.70
680.04	465.93
680.37	463.04
680.71	460.22
681.05	457.63
681.39	454.87
681.73	452.18
682.06	449.65
682.40	447.01
682.74	444.52
683.08	441.96
683.42	439.38
683.75	436.91
684.09	434.39
684.43	431.93
684.77	429.44
685.10	427.07
685.44	424.77
685.78	422.49
686.12	420.22
686.45	417.91
686.79	415.62
687.13	413.46
687.46	411.33
687.80	409.17
688.14	406.96
688.48	404.91
688.81	402.72
689.15	400.53
689.49	398.41
689.82	396.31
690.16	394.22
690.50	392.24
690.83	390.27
691.17	388.28
691.51	386.41
691.84	384.58
692.18	382.66
692.52	380.72
692.85	378.82
693.19	376.97
693.52	375.12
693.86	373.31
694.20	371.53
694.53	369.70
694.87	367.87
695.21	366.09
695.54	364.28
695.88	362.53
696.21	360.81
696.55	359.13
696.88	357.45
697.22	355.79
697.56	354.19
697.89	352.54
698.23	350.96
698.56	349.36
698.90	347.76
699.23	346.12
699.57	344.56
699.90	343.02
700.24	341.47
700.58	339.96
700.91	338.47
701.25	337.06
701.58	335.70
701.92	334.36
702.25	332.95
702.59	331.57
702.92	330.27
703.26	329.02
703.59	327.79
703.93	326.61
704.26	325.41
704.60	324.14
704.93	322.85
705.26	321.60
705.60	320.43
705.93	319.27
706.27	318.27
706.60	317.22
706.94	316.14
707.27	315.00
707.61	313.98
707.94	313.00
708.27	311.89
708.61	310.84
708.94	309.83
709.28	308.89
709.61	307.94
709.94	306.95
710.28	305.88
710.61	304.89
710.95	303.83
711.28	302.88
711.61	301.91
711.95	301.00
712.28	300.04
712.61	299.07
712.95	298.16
713.28	297.25
713.61	296.38
713.95	295.47
714.28	294.67
714.61	293.82
714.95	292.95
715.28	292.10
715.61	291.22
715.95	290.38
716.28	289.52
716.61	288.69
716.95	287.88
717.28	287.18
717.61	286.42
717.94	285.68
718.28	284.91
718.61	284.19
718.94	283.53
719.27	282.89
719.61	282.25
719.94	281.57
720.27	280.86
720.60	280.17
720.94	279.57
721.27	278.99
721.60	278.39
721.93	277.81
722.27	277.24
722.60	276.70
722.93	276.09
723.26	275.56
723.59	275.01
723.93	274.50
724.26	273.94
724.59	273.38
724.92	272.86
725.25	272.34
725.59	271.83
725.92	271.30
726.25	270.77
726.58	270.27
726.91	269.76
727.24	269.27
727.57	268.79
727.91	268.27
728.24	267.75
728.57	267.22
728.90	266.74
729.23	266.26
729.56	265.79
729.89	265.33
730.22	264.83
730.55	264.36
730.89	263.89
731.22	263.45
731.55	262.98
731.88	262.53
732.21	262.08
732.54	261.60
732.87	261.16
733.20	260.76
733.53	260.38
733.86	260.00
734.19	259.60
734.52	259.24
734.85	258.93
735.18	258.50
735.51	258.15
735.84	257.79
736.17	257.45
736.50	257.04
736.83	256.79
737.16	256.48
737.49	256.17
737.82	255.81
738.15	255.47
738.48	255.15
738.81	254.83
739.14	254.51
739.47	254.23
739.80	253.94
740.13	253.61
740.46	253.26
740.79	252.94
741.12	252.64
741.45	252.32
741.78	251.94
742.11	251.72
742.44	251.42
742.77	251.12
743.10	250.77
743.43	250.47
743.75	250.07
744.08	249.91
744.41	249.61
744.74	249.34
745.07	249.03
745.40	248.77
745.73	248.54
746.06	248.26
746.39	247.99
746.71	247.72
747.04	247.49
747.37	247.23
747.70	246.99
748.03	246.77
748.36	246.55
748.68	246.33
749.01	246.08
749.34	245.86
749.67	245.62
750.00	245.40
750.33	245.27
750.65	245.10
750.98	244.77
751.31	244.55
751.64	244.35
751.97	244.22
752.29	244.04
752.62	243.79
752.95	243.57
753.28	243.36
753.60	243.19
753.93	242.97
754.26	242.79
754.59	242.58
754.91	242.37
755.24	242.15
755.57	241.94
755.90	241.76
756.22	241.54
756.55	241.40
756.88	241.22
757.20	240.99
757.53	240.78
757.86	240.58
758.19	240.46
758.51	240.27
758.84	240.02
759.17	239.82
759.49	239.71
759.82	239.59
760.15	239.46
760.47	239.27
760.80	239.12
761.13	239.01
761.45	238.85
761.78	238.74
762.11	238.61
762.43	238.48
762.76	238.35
763.08	238.24
763.41	238.06
763.74	237.93
764.06	237.81
764.39	237.67
764.71	237.55
765.04	237.39
765.37	237.25
765.69	237.16
766.02	237.04
766.34	236.91
766.67	236.79
767.00	236.66
767.32	236.65
767.65	236.58
767.97	236.43
768.30	236.32
768.62	236.15
768.95	236.04
769.27	235.89
769.60	235.75
769.92	235.61
770.25	235.55
770.57	235.47
770.90	235.34
771.22	235.24
771.55	235.15
771.87	235.03
772.20	234.94
772.52	234.92
772.85	234.96
773.17	234.85
773.50	234.73
773.82	234.62
774.15	234.45
774.47	234.29
774.80	234.18
775.12	234.08
775.45	233.99
775.77	233.91
776.09	233.87
776.42	233.81
776.74	233.78
777.07	233.66
777.39	233.58
777.72	233.48
778.04	233.41
778.36	233.31
778.69	233.22
779.01	233.17
779.33	233.05
779.66	232.84
779.98	232.76
780.31	232.69
780.63	232.68
780.95	232.62
781.28	232.56
781.60	232.51
781.92	232.44
782.25	232.39
782.57	232.31
782.89	232.22
783.22	232.15
783.54	232.05
783.86	232.00
784.19	231.92
784.51	231.89
784.83	231.82
785.16	231.79
785.48	231.76
785.80	231.69
786.12	231.65
786.45	231.59
786.77	231.52
787.09	231.47
