SpectraSuite Data File
++++++++++++++++++++++++++++++++++++
Date: Fri Feb 01 16:31:46 EST 2013
User: group
Dark Spectrum Present: No
Reference Spectrum Present: No
Number of Sampled Component Spectra: 1
Spectrometers: USB2E7196
Integration Time (usec): 35000 (USB2E7196)
Spectra Averaged: 100 (USB2E7196)
Boxcar Smoothing: 10 (USB2E7196)
Correct for Electrical Dark: No (USB2E7196)
Strobe/Lamp Enabled: No (USB2E7196)
Correct for Detector Non-linearity: No (USB2E7196)
Correct for Stray Light: No (USB2E7196)
Number of Pixels in Processed Spectrum: 2048
>>>>>Begin Processed Spectral Data<<<<<
339.09	0.00
339.48	214.27
339.86	215.61
340.24	217.09
340.63	218.56
341.01	221.35
341.39	220.97
341.78	222.40
342.16	223.14
342.54	223.92
342.93	212.61
343.31	223.37
343.69	223.92
344.07	224.40
344.46	224.82
344.84	225.20
345.22	225.42
345.60	225.66
345.99	225.84
346.37	225.99
346.75	226.10
347.13	226.20
347.52	226.25
347.90	226.33
348.28	226.37
348.66	226.42
349.05	226.40
349.43	226.39
349.81	226.40
350.19	226.43
350.57	226.48
350.96	226.58
351.34	226.62
351.72	226.68
352.10	226.76
352.48	226.84
352.87	226.85
353.25	226.90
353.63	226.98
354.01	227.04
354.39	227.11
354.77	227.18
355.15	227.30
355.54	227.36
355.92	227.36
356.30	227.44
356.68	227.55
357.06	227.59
357.44	227.65
357.82	227.74
358.20	227.81
358.58	227.87
358.97	227.90
359.35	227.97
359.73	228.08
360.11	228.12
360.49	228.16
360.87	228.26
361.25	228.35
361.63	228.41
362.01	228.49
362.39	228.51
362.77	228.55
363.15	228.56
363.53	228.60
363.91	228.60
364.29	228.62
364.67	228.52
365.05	228.53
365.43	228.59
365.81	228.59
366.19	228.65
366.57	228.68
366.95	228.65
367.33	228.63
367.71	228.60
368.09	228.60
368.47	228.62
368.85	228.57
369.23	228.55
369.61	228.49
369.99	228.45
370.37	228.44
370.75	228.47
371.13	228.40
371.51	228.34
371.89	228.33
372.27	228.26
372.65	228.21
373.03	228.18
373.41	228.13
373.78	228.05
374.16	227.93
374.54	227.84
374.92	227.83
375.30	227.78
375.68	227.69
376.06	227.66
376.44	227.54
376.82	227.50
377.19	227.42
377.57	227.37
377.95	227.24
378.33	227.19
378.71	227.03
379.09	226.98
379.47	226.92
379.84	226.85
380.22	226.79
380.60	226.73
380.98	226.67
381.36	226.56
381.73	226.51
382.11	226.46
382.49	226.42
382.87	226.33
383.25	226.25
383.62	226.30
384.00	226.20
384.38	226.17
384.76	226.11
385.13	226.09
385.51	226.05
385.89	226.02
386.27	225.94
386.64	225.93
387.02	225.86
387.40	225.81
387.78	225.79
388.15	225.74
388.53	225.69
388.91	225.63
389.29	225.59
389.66	225.57
390.04	225.50
390.42	225.45
390.79	225.43
391.17	225.43
391.55	225.29
391.92	225.26
392.30	225.27
392.68	225.25
393.05	225.25
393.43	225.23
393.81	225.24
394.18	225.23
394.56	225.26
394.94	225.28
395.31	225.29
395.69	225.31
396.06	225.34
396.44	225.39
396.82	225.46
397.19	225.56
397.57	225.59
397.95	225.71
398.32	225.73
398.70	225.80
399.07	225.85
399.45	225.93
399.82	225.98
400.20	226.01
400.58	226.12
400.95	226.16
401.33	226.25
401.70	226.40
402.08	226.49
402.45	226.58
402.83	226.71
403.20	226.81
403.58	226.90
403.95	227.05
404.33	227.17
404.71	227.29
405.08	227.47
405.46	227.59
405.83	227.70
406.21	227.87
406.58	228.02
406.96	228.15
407.33	228.32
407.70	228.54
408.08	228.84
408.45	229.01
408.83	229.25
409.20	229.46
409.58	229.61
409.95	229.88
410.33	230.15
410.70	230.39
411.08	230.69
411.45	231.01
411.82	231.29
412.20	231.65
412.57	232.04
412.95	232.32
413.32	232.72
413.69	233.16
414.07	233.59
414.44	234.05
414.82	234.54
415.19	235.08
415.56	235.60
415.94	236.11
416.31	236.76
416.68	237.38
417.06	238.08
417.43	238.78
417.81	239.51
418.18	240.25
418.55	241.06
418.93	241.91
419.30	242.79
419.67	243.70
420.04	244.65
420.42	245.64
420.79	246.83
421.16	248.00
421.54	249.14
421.91	250.36
422.28	251.62
422.66	252.95
423.03	254.27
423.40	255.59
423.77	257.03
424.15	258.43
424.52	259.89
424.89	261.50
425.26	263.04
425.64	264.55
426.01	266.17
426.38	267.87
426.75	269.53
427.13	271.28
427.50	273.08
427.87	274.95
428.24	276.79
428.61	278.51
428.99	280.46
429.36	282.57
429.73	284.61
430.10	286.60
430.47	288.67
430.85	290.81
431.22	293.06
431.59	295.46
431.96	297.70
432.33	300.22
432.70	302.61
433.08	305.41
433.45	307.99
433.82	310.56
434.19	313.43
434.56	316.24
434.93	318.88
435.30	321.56
435.68	324.43
436.05	327.24
436.42	330.03
436.79	332.50
437.16	335.18
437.53	337.99
437.90	340.81
438.27	343.54
438.64	346.31
439.01	348.92
439.38	351.11
439.75	353.28
440.13	355.72
440.50	358.03
440.87	359.83
441.24	361.77
441.61	363.96
441.98	365.44
442.35	367.25
442.72	369.09
443.09	370.83
443.46	371.84
443.83	372.45
444.20	372.98
444.57	373.82
444.94	374.13
445.31	374.48
445.68	374.84
446.05	374.86
446.42	374.54
446.79	374.09
447.16	373.64
447.53	373.34
447.90	372.22
448.27	371.12
448.64	369.57
449.01	368.47
449.37	366.51
449.74	364.61
450.11	362.37
450.48	359.93
450.85	357.45
451.22	355.28
451.59	353.25
451.96	351.25
452.33	348.66
452.70	346.33
453.07	343.53
453.43	340.64
453.80	337.92
454.17	335.24
454.54	332.71
454.91	330.05
455.28	327.35
455.65	324.86
456.02	322.37
456.38	320.23
456.75	317.59
457.12	315.32
457.49	313.13
457.86	310.98
458.23	309.13
458.59	307.10
458.96	305.05
459.33	303.21
459.70	301.41
460.07	299.92
460.43	298.22
460.80	296.58
461.17	295.14
461.54	293.65
461.91	292.26
462.27	290.83
462.64	289.55
463.01	288.21
463.38	286.92
463.74	285.55
464.11	284.42
464.48	283.38
464.85	282.31
465.21	281.46
465.58	280.54
465.95	279.46
466.32	278.57
466.68	277.67
467.05	276.76
467.42	275.86
467.78	274.92
468.15	274.03
468.52	273.39
468.88	272.52
469.25	271.78
469.62	271.13
469.98	270.47
470.35	269.87
470.72	269.27
471.08	268.63
471.45	268.09
471.82	267.53
472.18	266.95
472.55	266.46
472.92	265.91
473.28	265.46
473.65	264.97
474.02	264.52
474.38	264.17
474.75	263.91
475.11	263.60
475.48	263.33
475.85	263.10
476.21	262.90
476.58	262.76
476.94	262.65
477.31	262.50
477.67	262.36
478.04	262.22
478.41	262.16
478.77	262.22
479.14	262.18
479.50	262.23
479.87	262.29
480.23	262.42
480.60	262.53
480.96	262.64
481.33	262.89
481.69	263.08
482.06	263.29
482.42	263.50
482.79	263.71
483.15	264.04
483.52	264.46
483.88	264.80
484.25	265.19
484.61	265.61
484.98	266.05
485.34	266.59
485.71	267.20
486.07	267.84
486.44	268.42
486.80	269.11
487.17	269.85
487.53	270.72
487.90	271.58
488.26	272.51
488.62	273.49
488.99	274.45
489.35	275.48
489.72	276.64
490.08	277.85
490.44	279.11
490.81	280.44
491.17	281.73
491.54	283.24
491.90	284.79
492.26	286.42
492.63	288.16
492.99	289.95
493.36	291.84
493.72	293.91
494.08	296.02
494.45	298.30
494.81	300.68
495.17	303.09
495.54	305.65
495.90	308.36
496.26	311.19
496.63	314.21
496.99	317.34
497.35	320.63
497.72	324.00
498.08	327.53
498.44	331.24
498.80	335.21
499.17	339.24
499.53	343.43
499.89	347.81
500.26	352.30
500.62	356.97
500.98	361.98
501.34	367.00
501.71	372.29
502.07	377.72
502.43	383.33
502.79	389.16
503.16	395.25
503.52	401.50
503.88	407.92
504.24	414.52
504.60	421.37
504.97	428.51
505.33	435.88
505.69	443.62
506.05	451.38
506.41	459.21
506.78	467.38
507.14	475.83
507.50	484.50
507.86	493.54
508.22	502.70
508.59	511.86
508.95	521.47
509.31	531.32
509.67	541.50
510.03	551.82
510.39	562.39
510.75	573.19
511.12	584.11
511.48	595.38
511.84	606.83
512.20	618.39
512.56	630.26
512.92	642.40
513.28	654.64
513.64	667.12
514.00	679.88
514.37	692.79
514.73	705.81
515.09	718.79
515.45	732.10
515.81	745.75
516.17	759.76
516.53	773.91
516.89	788.01
517.25	802.04
517.61	816.42
517.97	830.81
518.33	845.14
518.69	859.93
519.05	874.80
519.41	889.93
519.77	905.39
520.13	920.80
520.49	936.06
520.85	951.43
521.21	967.03
521.57	983.24
521.93	998.89
522.29	1015.16
522.65	1031.42
523.01	1047.45
523.37	1063.36
523.73	1079.44
524.09	1095.36
524.45	1111.58
524.81	1128.14
525.17	1144.82
525.53	1161.73
525.89	1178.61
526.25	1195.32
526.61	1211.68
526.97	1228.33
527.33	1244.76
527.68	1261.25
528.04	1277.70
528.40	1294.23
528.76	1311.23
529.12	1327.68
529.48	1344.56
529.84	1360.45
530.20	1377.10
530.56	1394.09
530.91	1411.47
531.27	1428.19
531.63	1444.53
531.99	1460.98
532.35	1476.92
532.71	1492.77
533.07	1508.83
533.42	1524.52
533.78	1540.37
534.14	1556.61
534.50	1571.85
534.86	1587.65
535.21	1602.71
535.57	1618.50
535.93	1633.94
536.29	1648.72
536.65	1663.67
537.00	1678.24
537.36	1693.46
537.72	1707.79
538.08	1722.11
538.44	1735.70
538.79	1749.56
539.15	1763.29
539.51	1776.99
539.87	1791.16
540.22	1804.70
540.58	1818.30
540.94	1831.54
541.29	1844.37
541.65	1856.98
542.01	1870.04
542.37	1882.30
542.72	1894.59
543.08	1906.23
543.44	1918.47
543.79	1929.52
544.15	1940.40
544.51	1951.95
544.87	1962.90
545.22	1973.66
545.58	1983.88
545.94	1993.50
546.29	2003.21
546.65	2012.87
547.01	2022.04
547.36	2030.55
547.72	2038.97
548.07	2046.77
548.43	2054.96
548.79	2062.91
549.14	2070.23
549.50	2077.53
549.86	2084.97
550.21	2092.26
550.57	2099.40
550.92	2106.01
551.28	2113.03
551.64	2120.00
551.99	2126.41
552.35	2132.40
552.70	2138.36
553.06	2144.21
553.41	2150.53
553.77	2156.48
554.13	2162.67
554.48	2168.77
554.84	2174.38
555.19	2179.72
555.55	2184.79
555.90	2189.10
556.26	2194.02
556.61	2198.84
556.97	2203.02
557.32	2207.31
557.68	2211.53
558.03	2215.88
558.39	2219.52
558.74	2224.16
559.10	2228.23
559.45	2231.98
559.81	2236.39
560.16	2240.47
560.52	2243.75
560.87	2247.28
561.23	2249.97
561.58	2252.85
561.94	2255.46
562.29	2257.76
562.64	2260.30
563.00	2263.09
563.35	2266.70
563.71	2269.80
564.06	2273.06
564.42	2276.09
564.77	2278.59
565.12	2280.78
565.48	2282.65
565.83	2284.58
566.19	2285.95
566.54	2286.74
566.89	2287.78
567.25	2288.43
567.60	2289.57
567.96	2291.37
568.31	2292.27
568.66	2293.40
569.02	2293.96
569.37	2294.27
569.72	2295.31
570.08	2295.52
570.43	2295.47
570.78	2295.02
571.14	2293.60
571.49	2292.26
571.84	2292.02
572.20	2291.04
572.55	2290.11
572.90	2288.70
573.26	2287.31
573.61	2285.54
573.96	2283.91
574.31	2281.06
574.67	2278.17
575.02	2274.62
575.37	2271.17
575.72	2267.35
576.08	2264.15
576.43	2260.89
576.78	2257.30
577.13	2254.22
577.49	2251.25
577.84	2247.86
578.19	2244.18
578.54	2240.62
578.90	2236.47
579.25	2230.94
579.60	2225.92
579.95	2221.04
580.30	2216.15
580.66	2211.14
581.01	2206.33
581.36	2201.51
581.71	2197.52
582.06	2193.08
582.42	2188.83
582.77	2183.78
583.12	2179.32
583.47	2174.61
583.82	2169.67
584.17	2164.47
584.53	2158.94
584.88	2153.43
585.23	2147.78
585.58	2142.27
585.93	2136.93
586.28	2132.19
586.63	2127.29
586.98	2122.37
587.34	2117.67
587.69	2112.73
588.04	2107.45
588.39	2101.93
588.74	2095.42
589.09	2089.40
589.44	2082.60
589.79	2076.60
590.14	2071.01
590.49	2064.41
590.84	2058.09
591.19	2052.19
591.54	2045.85
591.89	2038.55
592.25	2031.90
592.60	2024.72
592.95	2017.24
593.30	2009.86
593.65	2002.35
594.00	1995.30
594.35	1988.20
594.70	1980.32
595.05	1973.18
595.40	1966.04
595.75	1958.46
596.10	1952.33
596.45	1945.54
596.80	1939.55
597.15	1932.98
597.50	1925.93
597.85	1919.77
598.19	1913.15
598.54	1906.06
598.89	1899.39
599.24	1893.60
599.59	1886.89
599.94	1880.70
600.29	1874.41
600.64	1867.84
600.99	1860.61
601.34	1853.76
601.69	1846.78
602.04	1839.88
602.39	1832.66
602.74	1825.80
603.08	1819.14
603.43	1812.53
603.78	1805.24
604.13	1797.97
604.48	1790.66
604.83	1783.73
605.18	1776.55
605.53	1768.55
605.87	1760.56
606.22	1753.49
606.57	1745.58
606.92	1738.21
607.27	1731.24
607.62	1724.32
607.96	1717.16
608.31	1710.34
608.66	1702.78
609.01	1695.20
609.36	1687.58
609.70	1679.55
610.05	1671.71
610.40	1664.01
610.75	1655.55
611.10	1647.96
611.44	1639.50
611.79	1631.54
612.14	1622.89
612.49	1613.78
612.83	1605.49
613.18	1597.37
613.53	1589.20
613.88	1580.60
614.22	1572.42
614.57	1563.73
614.92	1555.75
615.27	1548.18
615.61	1539.90
615.96	1531.88
616.31	1524.25
616.65	1516.99
617.00	1509.42
617.35	1501.57
617.70	1493.34
618.04	1484.90
618.39	1476.58
618.74	1469.04
619.08	1460.73
619.43	1453.22
619.78	1446.37
620.12	1439.18
620.47	1431.69
620.82	1423.48
621.16	1416.08
621.51	1408.48
621.85	1400.91
622.20	1392.42
622.55	1383.98
622.89	1376.05
623.24	1368.40
623.59	1360.96
623.93	1353.33
624.28	1346.03
624.62	1338.47
624.97	1331.17
625.32	1324.44
625.66	1317.51
626.01	1310.31
626.35	1302.84
626.70	1295.11
627.04	1287.41
627.39	1279.67
627.73	1272.19
628.08	1265.32
628.43	1258.07
628.77	1250.68
629.12	1242.96
629.46	1235.85
629.81	1228.41
630.15	1221.34
630.50	1213.97
630.84	1205.75
631.19	1197.88
631.53	1190.47
631.88	1182.99
632.22	1175.47
632.57	1168.14
632.91	1160.55
633.26	1153.13
633.60	1145.80
633.95	1138.60
634.29	1131.57
634.64	1124.88
634.98	1117.53
635.32	1110.31
635.67	1103.64
636.01	1096.93
636.36	1090.13
636.70	1083.46
637.05	1077.05
637.39	1070.54
637.73	1064.05
638.08	1058.22
638.42	1052.19
638.77	1045.69
639.11	1039.05
639.45	1032.66
639.80	1026.03
640.14	1019.60
640.49	1013.12
640.83	1006.89
641.17	1000.68
641.52	994.28
641.86	987.75
642.20	981.86
642.55	975.55
642.89	969.06
643.23	962.54
643.58	956.80
643.92	950.70
644.26	944.60
644.61	938.50
644.95	932.38
645.29	925.73
645.64	918.98
645.98	912.61
646.32	906.82
646.66	900.80
647.01	894.98
647.35	889.26
647.69	883.33
648.04	877.69
648.38	871.85
648.72	865.93
649.06	859.97
649.41	854.18
649.75	848.19
650.09	842.36
650.43	836.60
650.78	830.43
651.12	824.46
651.46	818.74
651.80	813.00
652.14	807.66
652.49	802.34
652.83	797.19
653.17	791.50
653.51	785.71
653.85	780.27
654.20	774.70
654.54	768.71
654.88	763.03
655.22	757.13
655.56	751.48
655.90	746.04
656.25	740.72
656.59	735.28
656.93	730.21
657.27	725.02
657.61	719.52
657.95	714.43
658.29	709.33
658.64	704.04
658.98	698.72
659.32	693.31
659.66	688.11
660.00	682.79
660.34	677.88
660.68	673.01
661.02	667.94
661.36	663.14
661.70	658.67
662.05	654.29
662.39	649.97
662.73	645.45
663.07	641.09
663.41	636.62
663.75	632.19
664.09	627.62
664.43	623.19
664.77	619.11
665.11	614.87
665.45	610.72
665.79	606.62
666.13	602.52
666.47	598.37
666.81	594.19
667.15	590.11
667.49	586.21
667.83	582.41
668.17	578.48
668.51	574.46
668.85	570.40
669.19	566.57
669.53	562.73
669.87	558.88
670.21	555.10
670.55	551.50
670.89	548.07
671.23	544.66
671.57	541.12
671.91	537.59
672.25	534.09
672.58	530.58
672.92	527.18
673.26	524.02
673.60	520.93
673.94	517.78
674.28	514.84
674.62	511.86
674.96	508.73
675.30	505.81
675.64	502.85
675.97	500.12
676.31	497.25
676.65	494.28
676.99	491.66
677.33	488.79
677.67	485.90
678.01	482.81
678.34	479.82
678.68	476.97
679.02	474.07
679.36	471.26
679.70	468.56
680.04	465.80
680.37	462.91
680.71	460.05
681.05	457.44
681.39	454.68
681.73	452.04
682.06	449.53
682.40	447.01
682.74	444.46
683.08	441.84
683.42	439.23
683.75	436.74
684.09	434.10
684.43	431.61
684.77	429.15
685.10	426.84
685.44	424.53
685.78	422.24
686.12	419.97
686.45	417.72
686.79	415.42
687.13	413.18
687.46	411.00
687.80	408.85
688.14	406.63
688.48	404.55
688.81	402.30
689.15	400.14
689.49	397.98
689.82	395.90
690.16	393.81
690.50	391.84
690.83	389.94
691.17	387.96
691.51	386.08
691.84	384.27
692.18	382.36
692.52	380.36
692.85	378.40
693.19	376.58
693.52	374.74
693.86	372.90
694.20	371.10
694.53	369.35
694.87	367.49
695.21	365.66
695.54	363.84
695.88	362.13
696.21	360.39
696.55	358.70
696.88	357.02
697.22	355.42
697.56	353.80
697.89	352.13
698.23	350.51
698.56	348.93
698.90	347.32
699.23	345.64
699.57	344.13
699.90	342.63
700.24	341.06
700.58	339.57
700.91	338.13
701.25	336.72
701.58	335.31
701.92	333.96
702.25	332.64
702.59	331.30
702.92	329.97
703.26	328.69
703.59	327.41
703.93	326.23
704.26	324.97
704.60	323.68
704.93	322.43
705.26	321.21
705.60	319.99
705.93	318.85
706.27	317.80
706.60	316.74
706.94	315.64
707.27	314.51
707.61	313.46
707.94	312.40
708.27	311.33
708.61	310.25
708.94	309.24
709.28	308.24
709.61	307.26
709.94	306.30
710.28	305.29
710.61	304.27
710.95	303.17
711.28	302.26
711.61	301.31
711.95	300.39
712.28	299.44
712.61	298.46
712.95	297.49
713.28	296.63
713.61	295.74
713.95	294.87
714.28	294.07
714.61	293.15
714.95	292.28
715.28	291.42
715.61	290.58
715.95	289.76
716.28	288.93
716.61	288.13
716.95	287.29
717.28	286.56
717.61	285.83
717.94	285.09
718.28	284.24
718.61	283.49
718.94	282.75
719.27	282.08
719.61	281.46
719.94	280.79
720.27	280.07
720.60	279.39
720.94	278.74
721.27	278.13
721.60	277.54
721.93	276.94
722.27	276.38
722.60	275.83
722.93	275.19
723.26	274.66
723.59	274.05
723.93	273.49
724.26	272.90
724.59	272.32
724.92	271.82
725.25	271.35
725.59	270.84
725.92	270.36
726.25	269.92
726.58	269.38
726.91	268.90
727.24	268.41
727.57	267.97
727.91	267.45
728.24	266.93
728.57	266.43
728.90	265.98
729.23	265.50
729.56	265.04
729.89	264.58
730.22	264.07
730.55	263.63
730.89	263.19
731.22	262.76
731.55	262.31
731.88	261.85
732.21	261.44
732.54	261.00
732.87	260.54
733.20	260.10
733.53	259.72
733.86	259.35
734.19	258.99
734.52	258.57
734.85	258.27
735.18	257.89
735.51	257.56
735.84	257.17
736.17	256.80
736.50	256.39
736.83	256.12
737.16	255.79
737.49	255.43
737.82	255.08
738.15	254.75
738.48	254.43
738.81	254.15
739.14	253.79
739.47	253.47
739.80	253.18
740.13	252.90
740.46	252.58
740.79	252.25
741.12	251.90
741.45	251.60
741.78	251.27
742.11	251.00
742.44	250.68
742.77	250.40
743.10	250.11
743.43	249.79
743.75	249.45
744.08	249.31
744.41	249.06
744.74	248.82
745.07	248.50
745.40	248.27
745.73	248.01
746.06	247.76
746.39	247.50
746.71	247.23
747.04	246.91
747.37	246.66
747.70	246.41
748.03	246.20
748.36	245.95
748.68	245.69
749.01	245.44
749.34	245.22
749.67	245.01
750.00	244.78
750.33	244.65
750.65	244.45
750.98	244.10
751.31	243.86
751.64	243.65
751.97	243.51
752.29	243.23
752.62	242.97
752.95	242.77
753.28	242.56
753.60	242.37
753.93	242.21
754.26	242.00
754.59	241.78
754.91	241.55
755.24	241.36
755.57	241.15
755.90	240.97
756.22	240.78
756.55	240.55
756.88	240.35
757.20	240.13
757.53	239.90
757.86	239.72
758.19	239.57
758.51	239.39
758.84	239.17
759.17	239.04
759.49	238.89
759.82	238.76
760.15	238.55
760.47	238.37
760.80	238.19
761.13	238.07
761.45	237.90
761.78	237.77
762.11	237.64
762.43	237.51
762.76	237.35
763.08	237.22
763.41	237.10
763.74	236.97
764.06	236.81
764.39	236.69
764.71	236.52
765.04	236.41
765.37	236.27
765.69	236.14
766.02	235.98
766.34	235.87
766.67	235.73
767.00	235.69
767.32	235.64
767.65	235.60
767.97	235.48
768.30	235.39
768.62	235.25
768.95	235.11
769.27	234.99
769.60	234.90
769.92	234.79
770.25	234.70
770.57	234.62
770.90	234.49
771.22	234.38
771.55	234.32
771.87	234.19
772.20	234.13
772.52	234.14
772.85	234.18
773.17	234.08
773.50	234.00
773.82	233.86
774.15	233.71
774.47	233.58
774.80	233.47
775.12	233.36
775.45	233.28
775.77	233.22
776.09	233.15
776.42	233.09
776.74	233.01
777.07	232.93
777.39	232.86
777.72	232.82
778.04	232.75
778.36	232.69
778.69	232.64
779.01	232.54
779.33	232.36
779.66	232.23
779.98	232.15
780.31	232.08
780.63	232.08
780.95	232.01
781.28	231.91
781.60	231.86
781.92	231.81
782.25	231.79
782.57	231.73
782.89	231.65
783.22	231.55
783.54	231.50
783.86	231.44
784.19	231.37
784.51	231.37
784.83	231.30
785.16	231.23
785.48	231.18
785.80	231.16
786.12	231.12
786.45	231.06
786.77	231.03
787.09	230.98
