SpectraSuite Data File
++++++++++++++++++++++++++++++++++++
Date: Fri Feb 01 15:12:33 EST 2013
User: group
Dark Spectrum Present: No
Reference Spectrum Present: No
Number of Sampled Component Spectra: 1
Spectrometers: USB2E7196
Integration Time (usec): 35000 (USB2E7196)
Spectra Averaged: 100 (USB2E7196)
Boxcar Smoothing: 10 (USB2E7196)
Correct for Electrical Dark: No (USB2E7196)
Strobe/Lamp Enabled: No (USB2E7196)
Correct for Detector Non-linearity: No (USB2E7196)
Correct for Stray Light: No (USB2E7196)
Number of Pixels in Processed Spectrum: 2048
>>>>>Begin Processed Spectral Data<<<<<
339.09	0.00
339.48	215.20
339.86	216.56
340.24	218.06
340.63	219.12
341.01	222.56
341.39	221.66
341.78	223.64
342.16	224.48
342.54	225.53
342.93	213.37
343.31	224.14
343.69	224.70
344.07	225.16
344.46	225.59
344.84	226.00
345.22	226.21
345.60	226.47
345.99	226.62
346.37	226.76
346.75	226.84
347.13	226.90
347.52	226.98
347.90	227.02
348.28	227.04
348.66	227.07
349.05	227.07
349.43	227.11
349.81	227.16
350.19	227.21
350.57	227.27
350.96	227.31
351.34	227.40
351.72	227.46
352.10	227.54
352.48	227.59
352.87	227.63
353.25	227.71
353.63	227.75
354.01	227.85
354.39	227.93
354.77	227.99
355.15	228.08
355.54	228.14
355.92	228.22
356.30	228.32
356.68	228.46
357.06	228.56
357.44	228.60
357.82	228.64
358.20	228.71
358.58	228.80
358.97	228.88
359.35	228.99
359.73	229.08
360.11	229.14
360.49	229.20
360.87	229.24
361.25	229.29
361.63	229.41
362.01	229.46
362.39	229.46
362.77	229.52
363.15	229.56
363.53	229.62
363.91	229.66
364.29	229.68
364.67	229.60
365.05	229.62
365.43	229.66
365.81	229.70
366.19	229.74
366.57	229.75
366.95	229.77
367.33	229.71
367.71	229.70
368.09	229.71
368.47	229.71
368.85	229.69
369.23	229.69
369.61	229.60
369.99	229.58
370.37	229.59
370.75	229.58
371.13	229.52
371.51	229.44
371.89	229.41
372.27	229.37
372.65	229.32
373.03	229.26
373.41	229.19
373.78	229.13
374.16	229.02
374.54	228.92
374.92	228.83
375.30	228.77
375.68	228.67
376.06	228.60
376.44	228.52
376.82	228.45
377.19	228.36
377.57	228.33
377.95	228.25
378.33	228.18
378.71	228.04
379.09	227.99
379.47	227.91
379.84	227.82
380.22	227.75
380.60	227.64
380.98	227.56
381.36	227.47
381.73	227.39
382.11	227.36
382.49	227.31
382.87	227.25
383.25	227.20
383.62	227.23
384.00	227.16
384.38	227.10
384.76	227.08
385.13	227.07
385.51	226.98
385.89	226.88
386.27	226.81
386.64	226.77
387.02	226.71
387.40	226.63
387.78	226.59
388.15	226.54
388.53	226.47
388.91	226.43
389.29	226.43
389.66	226.40
390.04	226.40
390.42	226.36
390.79	226.33
391.17	226.30
391.55	226.20
391.92	226.19
392.30	226.18
392.68	226.16
393.05	226.15
393.43	226.17
393.81	226.22
394.18	226.23
394.56	226.27
394.94	226.32
395.31	226.38
395.69	226.44
396.06	226.51
396.44	226.55
396.82	226.57
397.19	226.65
397.57	226.67
397.95	226.69
398.32	226.76
398.70	226.83
399.07	226.92
399.45	226.96
399.82	227.02
400.20	227.11
400.58	227.18
400.95	227.22
401.33	227.32
401.70	227.44
402.08	227.57
402.45	227.64
402.83	227.76
403.20	227.89
403.58	227.96
403.95	228.09
404.33	228.24
404.71	228.40
405.08	228.61
405.46	228.79
405.83	228.96
406.21	229.13
406.58	229.32
406.96	229.49
407.33	229.68
407.70	229.87
408.08	230.14
408.45	230.40
408.83	230.67
409.20	230.91
409.58	231.11
409.95	231.34
410.33	231.64
410.70	231.87
411.08	232.21
411.45	232.56
411.82	232.86
412.20	233.27
412.57	233.69
412.95	233.96
413.32	234.38
413.69	234.78
414.07	235.21
414.44	235.68
414.82	236.13
415.19	236.72
415.56	237.31
415.94	237.84
416.31	238.48
416.68	239.07
417.06	239.78
417.43	240.48
417.81	241.27
418.18	242.05
418.55	242.91
418.93	243.77
419.30	244.64
419.67	245.56
420.04	246.52
420.42	247.51
420.79	248.70
421.16	249.83
421.54	251.06
421.91	252.25
422.28	253.51
422.66	254.89
423.03	256.19
423.40	257.49
423.77	258.88
424.15	260.32
424.52	261.83
424.89	263.43
425.26	264.98
425.64	266.42
426.01	268.00
426.38	269.64
426.75	271.29
427.13	273.01
427.50	274.89
427.87	276.77
428.24	278.65
428.61	280.40
428.99	282.36
429.36	284.42
429.73	286.49
430.10	288.53
430.47	290.59
430.85	292.72
431.22	294.98
431.59	297.41
431.96	299.63
432.33	302.12
432.70	304.49
433.08	307.29
433.45	309.95
433.82	312.56
434.19	315.49
434.56	318.28
434.93	320.95
435.30	323.50
435.68	326.40
436.05	329.25
436.42	332.06
436.79	334.53
437.16	337.30
437.53	340.12
437.90	342.93
438.27	345.66
438.64	348.47
439.01	351.08
439.38	353.32
439.75	355.48
440.13	357.99
440.50	360.33
440.87	362.13
441.24	364.07
441.61	366.23
441.98	367.68
442.35	369.49
442.72	371.33
443.09	373.19
443.46	374.14
443.83	374.70
444.20	375.19
444.57	376.08
444.94	376.33
445.31	376.69
445.68	377.05
446.05	377.13
446.42	376.77
446.79	376.33
447.16	375.86
447.53	375.53
447.90	374.35
448.27	373.18
448.64	371.63
449.01	370.49
449.37	368.55
449.74	366.67
450.11	364.43
450.48	361.97
450.85	359.37
451.22	357.24
451.59	355.20
451.96	353.23
452.33	350.59
452.70	348.19
453.07	345.32
453.43	342.38
453.80	339.61
454.17	336.92
454.54	334.37
454.91	331.61
455.28	328.95
455.65	326.42
456.02	323.96
456.38	321.82
456.75	319.12
457.12	316.90
457.49	314.70
457.86	312.51
458.23	310.62
458.59	308.59
458.96	306.51
459.33	304.67
459.70	302.82
460.07	301.30
460.43	299.63
460.80	298.01
461.17	296.60
461.54	295.08
461.91	293.66
462.27	292.19
462.64	290.92
463.01	289.57
463.38	288.30
463.74	286.94
464.11	285.81
464.48	284.81
464.85	283.67
465.21	282.78
465.58	281.90
465.95	280.85
466.32	279.93
466.68	279.06
467.05	278.15
467.42	277.27
467.78	276.34
468.15	275.44
468.52	274.80
468.88	273.91
469.25	273.12
469.62	272.49
469.98	271.82
470.35	271.23
470.72	270.62
471.08	269.95
471.45	269.43
471.82	268.81
472.18	268.21
472.55	267.76
472.92	267.21
473.28	266.74
473.65	266.27
474.02	265.85
474.38	265.44
474.75	265.11
475.11	264.76
475.48	264.50
475.85	264.27
476.21	264.02
476.58	263.83
476.94	263.68
477.31	263.51
477.67	263.36
478.04	263.22
478.41	263.19
478.77	263.23
479.14	263.13
479.50	263.17
479.87	263.23
480.23	263.31
480.60	263.37
480.96	263.43
481.33	263.63
481.69	263.80
482.06	263.97
482.42	264.17
482.79	264.41
483.15	264.75
483.52	265.14
483.88	265.46
484.25	265.89
484.61	266.31
484.98	266.71
485.34	267.27
485.71	267.87
486.07	268.44
486.44	268.94
486.80	269.67
487.17	270.39
487.53	271.19
487.90	272.00
488.26	272.92
488.62	273.91
488.99	274.88
489.35	275.92
489.72	277.06
490.08	278.23
490.44	279.49
490.81	280.78
491.17	282.06
491.54	283.50
491.90	284.98
492.26	286.63
492.63	288.38
492.99	290.13
493.36	291.98
493.72	293.98
494.08	296.10
494.45	298.30
494.81	300.66
495.17	303.08
495.54	305.65
495.90	308.34
496.26	311.11
496.63	314.01
496.99	317.11
497.35	320.31
497.72	323.69
498.08	327.15
498.44	330.78
498.80	334.73
499.17	338.85
499.53	342.98
499.89	347.30
500.26	351.75
500.62	356.42
500.98	361.39
501.34	366.48
501.71	371.78
502.07	377.18
502.43	382.74
502.79	388.53
503.16	394.55
503.52	400.82
503.88	407.22
504.24	413.92
504.60	420.81
504.97	427.97
505.33	435.36
505.69	443.04
506.05	450.82
506.41	458.64
506.78	466.72
507.14	475.22
507.50	483.98
507.86	493.05
508.22	502.26
508.59	511.41
508.95	521.02
509.31	530.89
509.67	541.03
510.03	551.36
510.39	561.92
510.75	572.76
511.12	583.66
511.48	595.00
511.84	606.38
512.20	617.91
512.56	629.87
512.92	642.04
513.28	654.41
513.64	666.93
514.00	679.69
514.37	692.65
514.73	705.74
515.09	718.78
515.45	732.03
515.81	745.50
516.17	759.55
516.53	773.69
516.89	787.88
517.25	802.08
517.61	816.57
517.97	831.01
518.33	845.39
518.69	860.22
519.05	875.23
519.41	890.53
519.77	906.12
520.13	921.67
520.49	937.02
520.85	952.47
521.21	968.21
521.57	984.53
521.93	1000.38
522.29	1016.77
522.65	1033.24
523.01	1049.59
523.37	1065.80
523.73	1082.11
524.09	1098.22
524.45	1114.57
524.81	1131.24
525.17	1148.09
525.53	1165.14
525.89	1182.08
526.25	1198.95
526.61	1215.33
526.97	1232.07
527.33	1248.60
527.68	1265.20
528.04	1281.72
528.40	1298.43
528.76	1315.69
529.12	1332.27
529.48	1349.26
529.84	1365.40
530.20	1381.83
530.56	1398.97
530.91	1416.41
531.27	1433.23
531.63	1449.75
531.99	1466.40
532.35	1482.44
532.71	1498.25
533.07	1514.60
533.42	1530.57
533.78	1546.69
534.14	1563.00
534.50	1578.42
534.86	1594.37
535.21	1609.56
535.57	1625.64
535.93	1641.25
536.29	1655.94
536.65	1671.21
537.00	1686.02
537.36	1701.42
537.72	1716.14
538.08	1730.56
538.44	1744.55
538.79	1758.42
539.15	1772.35
539.51	1786.26
539.87	1800.83
540.22	1814.83
540.58	1828.63
540.94	1842.15
541.29	1855.17
541.65	1867.98
542.01	1881.31
542.37	1893.74
542.72	1906.33
543.08	1918.14
543.44	1930.65
543.79	1942.05
544.15	1952.91
544.51	1964.53
544.87	1975.53
545.22	1986.43
545.58	1996.69
545.94	2006.48
546.29	2016.48
546.65	2026.14
547.01	2035.42
547.36	2043.95
547.72	2052.47
548.07	2060.37
548.43	2068.54
548.79	2076.61
549.14	2084.22
549.50	2091.64
549.86	2099.37
550.21	2106.63
550.57	2113.82
550.92	2120.37
551.28	2127.39
551.64	2134.63
551.99	2141.20
552.35	2147.38
552.70	2153.45
553.06	2159.39
553.41	2165.68
553.77	2171.66
554.13	2177.81
554.48	2183.85
554.84	2189.30
555.19	2194.65
555.55	2199.73
555.90	2204.19
556.26	2209.10
556.61	2213.90
556.97	2218.11
557.32	2222.24
557.68	2226.34
558.03	2230.58
558.39	2234.23
558.74	2238.95
559.10	2242.72
559.45	2246.29
559.81	2250.61
560.16	2254.41
560.52	2257.55
560.87	2261.01
561.23	2263.55
561.58	2266.39
561.94	2268.95
562.29	2271.47
562.64	2274.01
563.00	2276.64
563.35	2280.21
563.71	2283.24
564.06	2286.47
564.42	2289.26
564.77	2291.56
565.12	2293.80
565.48	2295.62
565.83	2297.40
566.19	2298.52
566.54	2299.53
566.89	2300.71
567.25	2301.07
567.60	2302.34
567.96	2303.97
568.31	2304.74
568.66	2305.68
569.02	2306.25
569.37	2306.44
569.72	2307.10
570.08	2307.08
570.43	2306.99
570.78	2306.23
571.14	2304.62
571.49	2303.07
571.84	2302.59
572.20	2301.33
572.55	2300.21
572.90	2298.72
573.26	2297.19
573.61	2295.43
573.96	2293.38
574.31	2290.12
574.67	2287.05
575.02	2283.48
575.37	2280.04
575.72	2276.07
576.08	2272.95
576.43	2269.45
576.78	2265.73
577.13	2262.52
577.49	2259.39
577.84	2255.82
578.19	2252.04
578.54	2248.32
578.90	2243.96
579.25	2238.33
579.60	2233.29
579.95	2228.13
580.30	2222.86
580.66	2217.69
581.01	2212.60
581.36	2207.62
581.71	2203.40
582.06	2198.86
582.42	2194.16
582.77	2188.80
583.12	2184.05
583.47	2178.96
583.82	2173.94
584.17	2168.58
584.53	2163.00
584.88	2157.21
585.23	2151.27
585.58	2145.63
585.93	2139.91
586.28	2135.16
586.63	2130.00
586.98	2124.87
587.34	2120.20
587.69	2115.30
588.04	2109.85
588.39	2104.08
588.74	2097.52
589.09	2091.27
589.44	2084.42
589.79	2078.30
590.14	2072.67
590.49	2066.06
590.84	2059.69
591.19	2053.65
591.54	2047.05
591.89	2039.38
592.25	2032.59
592.60	2025.34
592.95	2017.58
593.30	2010.26
593.65	2002.47
594.00	1995.36
594.35	1988.02
594.70	1979.81
595.05	1972.35
595.40	1965.12
595.75	1957.58
596.10	1951.27
596.45	1944.44
596.80	1938.13
597.15	1931.37
597.50	1924.12
597.85	1917.65
598.19	1910.85
598.54	1903.63
598.89	1896.97
599.24	1891.16
599.59	1884.28
599.94	1878.07
600.29	1871.85
600.64	1865.32
600.99	1857.71
601.34	1850.85
601.69	1843.97
602.04	1837.02
602.39	1829.80
602.74	1822.91
603.08	1816.21
603.43	1809.54
603.78	1802.29
604.13	1795.04
604.48	1787.59
604.83	1780.80
605.18	1773.75
605.53	1765.89
605.87	1757.74
606.22	1750.37
606.57	1742.42
606.92	1735.08
607.27	1727.75
607.62	1720.71
607.96	1713.22
608.31	1706.67
608.66	1699.01
609.01	1691.40
609.36	1683.84
609.70	1675.76
610.05	1667.50
610.40	1659.68
610.75	1651.18
611.10	1643.51
611.44	1635.27
611.79	1627.40
612.14	1618.63
612.49	1609.53
612.83	1601.04
613.18	1592.93
613.53	1585.00
613.88	1576.48
614.22	1568.40
614.57	1559.95
614.92	1551.89
615.27	1544.36
615.61	1535.99
615.96	1528.02
616.31	1520.46
616.65	1513.06
617.00	1505.48
617.35	1498.00
617.70	1489.63
618.04	1481.20
618.39	1472.92
618.74	1465.24
619.08	1456.99
619.43	1449.50
619.78	1442.54
620.12	1435.37
620.47	1427.94
620.82	1419.81
621.16	1412.44
621.51	1404.77
621.85	1397.19
622.20	1388.74
622.55	1380.49
622.89	1372.73
623.24	1365.16
623.59	1357.73
623.93	1350.31
624.28	1343.03
624.62	1335.50
624.97	1328.40
625.32	1321.74
625.66	1314.69
626.01	1307.44
626.35	1300.03
626.70	1292.27
627.04	1284.58
627.39	1276.87
627.73	1269.51
628.08	1262.56
628.43	1255.19
628.77	1247.77
629.12	1240.12
629.46	1232.88
629.81	1225.46
630.15	1218.20
630.50	1210.74
630.84	1202.53
631.19	1194.64
631.53	1187.39
631.88	1179.94
632.22	1172.34
632.57	1165.01
632.91	1157.57
633.26	1150.29
633.60	1142.89
633.95	1135.79
634.29	1128.76
634.64	1122.07
634.98	1114.60
635.32	1107.46
635.67	1100.95
636.01	1094.40
636.36	1087.57
636.70	1081.28
637.05	1074.71
637.39	1068.37
637.73	1061.90
638.08	1056.06
638.42	1050.10
638.77	1043.51
639.11	1036.85
639.45	1030.46
639.80	1023.78
640.14	1017.38
640.49	1010.84
640.83	1004.61
641.17	998.39
641.52	992.11
641.86	985.79
642.20	980.07
642.55	973.79
642.89	967.30
643.23	960.71
643.58	954.96
643.92	948.60
644.26	942.43
644.61	936.34
644.95	930.23
645.29	923.59
645.64	916.79
645.98	910.44
646.32	904.59
646.66	898.60
647.01	892.85
647.35	887.14
647.69	881.36
648.04	875.92
648.38	870.20
648.72	864.16
649.06	858.01
649.41	852.11
649.75	846.09
650.09	840.12
650.43	834.28
650.78	828.18
651.12	822.27
651.46	816.70
651.80	810.92
652.14	805.60
652.49	800.27
652.83	795.13
653.17	789.47
653.51	783.75
653.85	778.34
654.20	772.68
654.54	766.67
654.88	760.93
655.22	755.01
655.56	749.26
655.90	743.85
656.25	738.68
656.59	733.37
656.93	728.33
657.27	723.16
657.61	717.84
657.95	712.78
658.29	707.69
658.64	702.41
658.98	697.17
659.32	691.67
659.66	686.44
660.00	681.15
660.34	676.23
660.68	671.37
661.02	666.41
661.36	661.72
661.70	657.28
662.05	652.91
662.39	648.57
662.73	644.16
663.07	639.82
663.41	635.38
663.75	630.85
664.09	626.30
664.43	621.99
664.77	617.85
665.11	613.61
665.45	609.61
665.79	605.57
666.13	601.47
666.47	597.38
666.81	593.23
667.15	589.15
667.49	585.33
667.83	581.53
668.17	577.53
668.51	573.49
668.85	569.51
669.19	565.71
669.53	561.81
669.87	557.94
670.21	554.28
670.55	550.62
670.89	547.21
671.23	543.84
671.57	540.36
671.91	536.81
672.25	533.32
672.58	529.70
672.92	526.28
673.26	523.15
673.60	520.08
673.94	517.02
674.28	514.15
674.62	511.17
674.96	508.07
675.30	505.20
675.64	502.26
675.97	499.47
676.31	496.57
676.65	493.70
676.99	490.99
677.33	488.09
677.67	485.28
678.01	482.24
678.34	479.21
678.68	476.33
679.02	473.51
679.36	470.78
679.70	468.16
680.04	465.38
680.37	462.52
680.71	459.74
681.05	457.16
681.39	454.45
681.73	451.79
682.06	449.29
682.40	446.76
682.74	444.27
683.08	441.72
683.42	439.12
683.75	436.64
684.09	434.11
684.43	431.64
684.77	429.17
685.10	426.87
685.44	424.60
685.78	422.29
686.12	420.08
686.45	417.80
686.79	415.48
687.13	413.29
687.46	411.11
687.80	408.98
688.14	406.72
688.48	404.66
688.81	402.45
689.15	400.29
689.49	398.17
689.82	396.09
690.16	394.04
690.50	392.08
690.83	390.11
691.17	388.15
691.51	386.28
691.84	384.48
692.18	382.52
692.52	380.53
692.85	378.62
693.19	376.75
693.52	374.94
693.86	373.16
694.20	371.40
694.53	369.62
694.87	367.76
695.21	366.02
695.54	364.14
695.88	362.41
696.21	360.71
696.55	359.05
696.88	357.37
697.22	355.72
697.56	354.15
697.89	352.50
698.23	350.94
698.56	349.37
698.90	347.75
699.23	346.11
699.57	344.57
699.90	343.05
700.24	341.50
700.58	339.93
700.91	338.45
701.25	336.98
701.58	335.64
701.92	334.26
702.25	332.87
702.59	331.50
702.92	330.14
703.26	328.85
703.59	327.54
703.93	326.35
704.26	325.12
704.60	323.82
704.93	322.58
705.26	321.27
705.60	320.08
705.93	318.94
706.27	317.97
706.60	316.94
706.94	315.88
707.27	314.75
707.61	313.73
707.94	312.70
708.27	311.63
708.61	310.56
708.94	309.60
709.28	308.69
709.61	307.75
709.94	306.84
710.28	305.83
710.61	304.89
710.95	303.82
711.28	302.88
711.61	301.94
711.95	301.02
712.28	300.08
712.61	299.09
712.95	298.17
713.28	297.23
713.61	296.34
713.95	295.45
714.28	294.66
714.61	293.81
714.95	292.98
715.28	292.17
715.61	291.28
715.95	290.46
716.28	289.57
716.61	288.78
716.95	288.02
717.28	287.25
717.61	286.52
717.94	285.82
718.28	285.05
718.61	284.35
718.94	283.68
719.27	283.05
719.61	282.44
719.94	281.81
720.27	281.13
720.60	280.48
720.94	279.89
721.27	279.30
721.60	278.71
721.93	278.09
722.27	277.56
722.60	277.02
722.93	276.42
723.26	275.89
723.59	275.30
723.93	274.72
724.26	274.20
724.59	273.62
724.92	273.08
725.25	272.57
725.59	272.02
725.92	271.48
726.25	270.96
726.58	270.48
726.91	269.96
727.24	269.47
727.57	268.99
727.91	268.47
728.24	268.01
728.57	267.49
728.90	267.05
729.23	266.52
729.56	266.09
729.89	265.64
730.22	265.17
730.55	264.74
730.89	264.28
731.22	263.80
731.55	263.40
731.88	262.93
732.21	262.51
732.54	262.07
732.87	261.67
733.20	261.28
733.53	260.86
733.86	260.50
734.19	260.11
734.52	259.72
734.85	259.40
735.18	258.98
735.51	258.65
735.84	258.25
736.17	257.91
736.50	257.48
736.83	257.26
737.16	256.93
737.49	256.55
737.82	256.24
738.15	255.88
738.48	255.52
738.81	255.25
739.14	254.93
739.47	254.60
739.80	254.29
740.13	253.98
740.46	253.66
740.79	253.29
741.12	252.97
741.45	252.66
741.78	252.29
742.11	251.95
742.44	251.61
742.77	251.33
743.10	251.03
743.43	250.72
743.75	250.30
744.08	250.13
744.41	249.86
744.74	249.57
745.07	249.32
745.40	249.03
745.73	248.78
746.06	248.48
746.39	248.24
746.71	247.96
747.04	247.69
747.37	247.47
747.70	247.24
748.03	247.02
748.36	246.81
748.68	246.59
749.01	246.38
749.34	246.18
749.67	245.99
750.00	245.75
750.33	245.62
750.65	245.42
750.98	245.08
751.31	244.89
751.64	244.70
751.97	244.53
752.29	244.38
752.62	244.12
752.95	243.93
753.28	243.71
753.60	243.56
753.93	243.42
754.26	243.23
754.59	243.04
754.91	242.83
755.24	242.63
755.57	242.44
755.90	242.26
756.22	242.08
756.55	241.89
756.88	241.69
757.20	241.46
757.53	241.28
757.86	241.14
758.19	240.98
758.51	240.82
758.84	240.61
759.17	240.44
759.49	240.29
759.82	240.15
760.15	240.03
760.47	239.86
760.80	239.63
761.13	239.48
761.45	239.27
761.78	239.12
762.11	238.99
762.43	238.85
762.76	238.71
763.08	238.58
763.41	238.44
763.74	238.34
764.06	238.25
764.39	238.11
764.71	237.95
765.04	237.80
765.37	237.65
765.69	237.55
766.02	237.41
766.34	237.29
766.67	237.18
767.00	237.07
767.32	236.98
767.65	236.98
767.97	236.86
768.30	236.77
768.62	236.66
768.95	236.52
769.27	236.41
769.60	236.32
769.92	236.21
770.25	236.05
770.57	235.91
770.90	235.78
771.22	235.68
771.55	235.59
771.87	235.49
772.20	235.37
772.52	235.35
772.85	235.36
773.17	235.27
773.50	235.13
773.82	235.01
774.15	234.88
774.47	234.68
774.80	234.59
775.12	234.51
775.45	234.40
775.77	234.32
776.09	234.22
776.42	234.10
776.74	234.07
777.07	234.00
777.39	233.94
777.72	233.84
778.04	233.78
778.36	233.69
778.69	233.60
779.01	233.53
779.33	233.38
779.66	233.22
779.98	233.10
780.31	233.03
780.63	233.00
780.95	232.92
781.28	232.86
781.60	232.78
781.92	232.70
782.25	232.64
782.57	232.56
782.89	232.48
783.22	232.42
783.54	232.28
783.86	232.23
784.19	232.16
784.51	232.13
784.83	232.01
785.16	231.94
785.48	231.92
785.80	231.86
786.12	231.78
786.45	231.71
786.77	231.70
787.09	231.68
