SpectraSuite Data File
++++++++++++++++++++++++++++++++++++
Date: Fri Feb 01 15:43:30 EST 2013
User: group
Dark Spectrum Present: No
Reference Spectrum Present: No
Number of Sampled Component Spectra: 1
Spectrometers: USB2E7196
Integration Time (usec): 35000 (USB2E7196)
Spectra Averaged: 100 (USB2E7196)
Boxcar Smoothing: 10 (USB2E7196)
Correct for Electrical Dark: No (USB2E7196)
Strobe/Lamp Enabled: No (USB2E7196)
Correct for Detector Non-linearity: No (USB2E7196)
Correct for Stray Light: No (USB2E7196)
Number of Pixels in Processed Spectrum: 2048
>>>>>Begin Processed Spectral Data<<<<<
339.09	0.00
339.48	214.85
339.86	216.36
340.24	217.83
340.63	219.03
341.01	222.19
341.39	221.61
341.78	223.91
342.16	224.65
342.54	224.34
342.93	213.28
343.31	224.08
343.69	224.63
344.07	225.10
344.46	225.51
344.84	225.92
345.22	226.14
345.60	226.39
345.99	226.55
346.37	226.68
346.75	226.80
347.13	226.86
347.52	226.94
347.90	227.01
348.28	227.03
348.66	227.11
349.05	227.13
349.43	227.19
349.81	227.20
350.19	227.23
350.57	227.27
350.96	227.35
351.34	227.40
351.72	227.48
352.10	227.56
352.48	227.63
352.87	227.67
353.25	227.72
353.63	227.80
354.01	227.89
354.39	227.93
354.77	228.02
355.15	228.10
355.54	228.15
355.92	228.15
356.30	228.24
356.68	228.33
357.06	228.39
357.44	228.45
357.82	228.54
358.20	228.61
358.58	228.68
358.97	228.74
359.35	228.82
359.73	228.88
360.11	228.98
360.49	229.04
360.87	229.06
361.25	229.15
361.63	229.22
362.01	229.22
362.39	229.25
362.77	229.26
363.15	229.29
363.53	229.30
363.91	229.34
364.29	229.32
364.67	229.26
365.05	229.28
365.43	229.27
365.81	229.30
366.19	229.33
366.57	229.34
366.95	229.31
367.33	229.28
367.71	229.26
368.09	229.21
368.47	229.19
368.85	229.17
369.23	229.14
369.61	229.07
369.99	229.08
370.37	229.07
370.75	229.07
371.13	229.02
371.51	228.99
371.89	228.95
372.27	228.89
372.65	228.86
373.03	228.80
373.41	228.74
373.78	228.67
374.16	228.59
374.54	228.50
374.92	228.44
375.30	228.39
375.68	228.31
376.06	228.25
376.44	228.16
376.82	228.13
377.19	228.04
377.57	227.98
377.95	227.89
378.33	227.82
378.71	227.72
379.09	227.66
379.47	227.61
379.84	227.55
380.22	227.51
380.60	227.40
380.98	227.30
381.36	227.23
381.73	227.19
382.11	227.12
382.49	227.09
382.87	227.01
383.25	226.93
383.62	226.98
384.00	226.89
384.38	226.89
384.76	226.84
385.13	226.80
385.51	226.78
385.89	226.72
386.27	226.67
386.64	226.63
387.02	226.58
387.40	226.50
387.78	226.46
388.15	226.42
388.53	226.40
388.91	226.37
389.29	226.33
389.66	226.31
390.04	226.26
390.42	226.24
390.79	226.24
391.17	226.26
391.55	226.16
391.92	226.18
392.30	226.17
392.68	226.14
393.05	226.17
393.43	226.21
393.81	226.22
394.18	226.24
394.56	226.27
394.94	226.34
395.31	226.35
395.69	226.43
396.06	226.50
396.44	226.54
396.82	226.61
397.19	226.71
397.57	226.71
397.95	226.81
398.32	226.85
398.70	226.90
399.07	227.01
399.45	227.04
399.82	227.10
400.20	227.17
400.58	227.28
400.95	227.34
401.33	227.37
401.70	227.52
402.08	227.61
402.45	227.68
402.83	227.76
403.20	227.87
403.58	227.97
403.95	228.07
404.33	228.25
404.71	228.34
405.08	228.53
405.46	228.69
405.83	228.86
406.21	228.99
406.58	229.14
406.96	229.30
407.33	229.50
407.70	229.69
408.08	229.90
408.45	230.11
408.83	230.32
409.20	230.56
409.58	230.70
409.95	230.89
410.33	231.16
410.70	231.43
411.08	231.74
411.45	232.01
411.82	232.31
412.20	232.60
412.57	233.03
412.95	233.29
413.32	233.72
413.69	234.08
414.07	234.54
414.44	234.97
414.82	235.41
415.19	235.95
415.56	236.48
415.94	237.04
416.31	237.66
416.68	238.26
417.06	238.97
417.43	239.68
417.81	240.50
418.18	241.30
418.55	242.11
418.93	242.96
419.30	243.85
419.67	244.80
420.04	245.79
420.42	246.75
420.79	247.95
421.16	249.04
421.54	250.24
421.91	251.47
422.28	252.73
422.66	254.08
423.03	255.35
423.40	256.69
423.77	258.12
424.15	259.56
424.52	261.07
424.89	262.63
425.26	264.16
425.64	265.59
426.01	267.19
426.38	268.86
426.75	270.54
427.13	272.22
427.50	274.02
427.87	275.89
428.24	277.77
428.61	279.50
428.99	281.44
429.36	283.54
429.73	285.58
430.10	287.60
430.47	289.65
430.85	291.81
431.22	294.05
431.59	296.40
431.96	298.60
432.33	301.08
432.70	303.49
433.08	306.39
433.45	309.02
433.82	311.61
434.19	314.48
434.56	317.34
434.93	320.10
435.30	322.74
435.68	325.61
436.05	328.44
436.42	331.25
436.79	333.79
437.16	336.49
437.53	339.33
437.90	342.18
438.27	344.93
438.64	347.75
439.01	350.33
439.38	352.63
439.75	354.85
440.13	357.33
440.50	359.67
440.87	361.51
441.24	363.49
441.61	365.70
441.98	367.21
442.35	369.02
442.72	370.88
443.09	372.67
443.46	373.68
443.83	374.26
444.20	374.79
444.57	375.64
444.94	375.93
445.31	376.31
445.68	376.64
446.05	376.69
446.42	376.33
446.79	375.95
447.16	375.49
447.53	375.18
447.90	374.02
448.27	372.88
448.64	371.29
449.01	370.15
449.37	368.19
449.74	366.30
450.11	364.06
450.48	361.56
450.85	359.06
451.22	356.95
451.59	354.93
451.96	352.99
452.33	350.41
452.70	348.09
453.07	345.24
453.43	342.32
453.80	339.60
454.17	336.95
454.54	334.42
454.91	331.67
455.28	328.96
455.65	326.50
456.02	324.03
456.38	321.81
456.75	319.15
457.12	316.85
457.49	314.65
457.86	312.48
458.23	310.64
458.59	308.58
458.96	306.49
459.33	304.65
459.70	302.77
460.07	301.23
460.43	299.51
460.80	297.89
461.17	296.49
461.54	294.99
461.91	293.55
462.27	292.10
462.64	290.84
463.01	289.52
463.38	288.21
463.74	286.83
464.11	285.68
464.48	284.60
464.85	283.49
465.21	282.62
465.58	281.67
465.95	280.57
466.32	279.62
466.68	278.73
467.05	277.84
467.42	276.96
467.78	276.04
468.15	275.12
468.52	274.46
468.88	273.61
469.25	272.84
469.62	272.18
469.98	271.47
470.35	270.83
470.72	270.20
471.08	269.56
471.45	269.03
471.82	268.53
472.18	267.95
472.55	267.54
472.92	266.98
473.28	266.52
473.65	266.07
474.02	265.63
474.38	265.24
474.75	264.91
475.11	264.57
475.48	264.30
475.85	264.09
476.21	263.83
476.58	263.62
476.94	263.49
477.31	263.33
477.67	263.18
478.04	263.10
478.41	263.06
478.77	263.07
479.14	263.03
479.50	263.02
479.87	263.12
480.23	263.18
480.60	263.22
480.96	263.27
481.33	263.46
481.69	263.65
482.06	263.85
482.42	264.05
482.79	264.29
483.15	264.57
483.52	264.95
483.88	265.31
484.25	265.68
484.61	266.09
484.98	266.53
485.34	267.13
485.71	267.71
486.07	268.33
486.44	268.94
486.80	269.62
487.17	270.35
487.53	271.15
487.90	272.05
488.26	273.02
488.62	274.04
488.99	275.02
489.35	276.09
489.72	277.23
490.08	278.46
490.44	279.70
490.81	281.10
491.17	282.45
491.54	283.91
491.90	285.49
492.26	287.13
492.63	288.87
492.99	290.65
493.36	292.56
493.72	294.58
494.08	296.69
494.45	298.94
494.81	301.32
495.17	303.77
495.54	306.30
495.90	309.00
496.26	311.81
496.63	314.74
496.99	317.83
497.35	321.03
497.72	324.42
498.08	327.96
498.44	331.64
498.80	335.55
499.17	339.63
499.53	343.76
499.89	348.14
500.26	352.67
500.62	357.32
500.98	362.26
501.34	367.37
501.71	372.70
502.07	378.17
502.43	383.79
502.79	389.59
503.16	395.65
503.52	401.95
503.88	408.37
504.24	415.00
504.60	421.93
504.97	429.11
505.33	436.40
505.69	444.09
506.05	451.88
506.41	459.77
506.78	467.93
507.14	476.37
507.50	485.13
507.86	494.18
508.22	503.38
508.59	512.55
508.95	522.10
509.31	531.90
509.67	542.01
510.03	552.30
510.39	562.88
510.75	573.68
511.12	584.54
511.48	595.84
511.84	607.33
512.20	618.79
512.56	630.68
512.92	642.93
513.28	655.30
513.64	667.71
514.00	680.37
514.37	693.35
514.73	706.51
515.09	719.49
515.45	732.71
515.81	746.31
516.17	760.33
516.53	774.42
516.89	788.65
517.25	802.74
517.61	817.11
517.97	831.63
518.33	845.97
518.69	860.74
519.05	875.72
519.41	890.82
519.77	906.40
520.13	921.83
520.49	937.18
520.85	952.59
521.21	968.26
521.57	984.49
521.93	1000.20
522.29	1016.52
522.65	1032.73
523.01	1048.99
523.37	1065.07
523.73	1081.27
524.09	1097.41
524.45	1113.71
524.81	1130.37
525.17	1147.32
525.53	1164.04
525.89	1181.03
526.25	1197.83
526.61	1214.28
526.97	1231.07
527.33	1247.51
527.68	1264.18
528.04	1280.60
528.40	1297.12
528.76	1314.23
529.12	1330.90
529.48	1347.79
529.84	1363.74
530.20	1380.49
530.56	1397.50
530.91	1414.67
531.27	1431.40
531.63	1447.98
531.99	1464.48
532.35	1480.40
532.71	1496.19
533.07	1512.57
533.42	1528.46
533.78	1544.51
534.14	1560.74
534.50	1576.08
534.86	1591.95
535.21	1607.05
535.57	1623.23
535.93	1638.77
536.29	1653.62
536.65	1668.58
537.00	1683.47
537.36	1698.86
537.72	1713.42
538.08	1727.81
538.44	1741.80
538.79	1755.64
539.15	1769.20
539.51	1783.01
539.87	1797.37
540.22	1811.19
540.58	1825.04
540.94	1838.37
541.29	1851.29
541.65	1864.00
542.01	1877.29
542.37	1889.60
542.72	1902.11
543.08	1913.65
543.44	1925.97
543.79	1937.16
544.15	1948.24
544.51	1959.74
544.87	1970.76
545.22	1981.53
545.58	1991.70
545.94	2001.48
546.29	2011.32
546.65	2021.19
547.01	2030.45
547.36	2039.27
547.72	2047.61
548.07	2055.25
548.43	2063.51
548.79	2071.67
549.14	2079.23
549.50	2086.56
549.86	2094.28
550.21	2101.62
550.57	2108.88
550.92	2115.52
551.28	2122.54
551.64	2129.67
551.99	2136.12
552.35	2142.20
552.70	2148.39
553.06	2154.37
553.41	2160.76
553.77	2166.94
554.13	2173.06
554.48	2179.17
554.84	2184.47
555.19	2189.84
555.55	2195.10
555.90	2199.52
556.26	2204.29
556.61	2208.90
556.97	2213.07
557.32	2217.23
557.68	2221.28
558.03	2225.58
558.39	2229.34
558.74	2234.03
559.10	2237.87
559.45	2241.56
559.81	2245.80
560.16	2249.58
560.52	2252.91
560.87	2256.24
561.23	2258.82
561.58	2261.85
561.94	2264.41
562.29	2266.88
562.64	2269.40
563.00	2271.93
563.35	2275.45
563.71	2278.71
564.06	2282.03
564.42	2285.02
564.77	2287.40
565.12	2289.71
565.48	2291.58
565.83	2293.36
566.19	2294.55
566.54	2295.44
566.89	2296.56
567.25	2297.26
567.60	2298.47
567.96	2300.18
568.31	2300.95
568.66	2302.01
569.02	2302.42
569.37	2302.72
569.72	2303.62
570.08	2303.76
570.43	2303.84
570.78	2303.12
571.14	2301.47
571.49	2300.13
571.84	2299.78
572.20	2298.69
572.55	2297.69
572.90	2296.17
573.26	2294.83
573.61	2293.29
573.96	2291.42
574.31	2288.54
574.67	2285.49
575.02	2281.92
575.37	2278.54
575.72	2274.80
576.08	2271.59
576.43	2268.36
576.78	2264.64
577.13	2261.50
577.49	2258.56
577.84	2254.93
578.19	2251.35
578.54	2247.61
578.90	2243.22
579.25	2237.49
579.60	2232.58
579.95	2227.46
580.30	2222.31
580.66	2217.06
581.01	2212.11
581.36	2207.11
581.71	2202.82
582.06	2198.30
582.42	2193.77
582.77	2188.41
583.12	2183.82
583.47	2178.89
583.82	2173.79
584.17	2168.46
584.53	2162.82
584.88	2157.13
585.23	2151.50
585.58	2145.88
585.93	2140.48
586.28	2135.79
586.63	2130.72
586.98	2125.50
587.34	2120.86
587.69	2116.10
588.04	2110.83
588.39	2105.06
588.74	2098.72
589.09	2092.56
589.44	2085.76
589.79	2079.66
590.14	2074.09
590.49	2067.47
590.84	2061.21
591.19	2055.15
591.54	2048.72
591.89	2041.36
592.25	2034.47
592.60	2027.19
592.95	2019.62
593.30	2012.28
593.65	2004.60
594.00	1997.76
594.35	1990.66
594.70	1982.59
595.05	1975.21
595.40	1967.90
595.75	1960.38
596.10	1953.99
596.45	1947.32
596.80	1941.11
597.15	1934.63
597.50	1927.34
597.85	1920.91
598.19	1914.09
598.54	1906.92
598.89	1900.26
599.24	1894.35
599.59	1887.57
599.94	1881.39
600.29	1874.97
600.64	1868.26
600.99	1860.74
601.34	1853.80
601.69	1846.83
602.04	1839.91
602.39	1832.55
602.74	1825.80
603.08	1818.97
603.43	1812.37
603.78	1805.09
604.13	1797.96
604.48	1790.52
604.83	1783.77
605.18	1776.66
605.53	1768.64
605.87	1760.66
606.22	1753.46
606.57	1745.50
606.92	1738.44
607.27	1731.22
607.62	1724.33
607.96	1717.06
608.31	1710.60
608.66	1702.77
609.01	1695.12
609.36	1687.49
609.70	1679.47
610.05	1671.21
610.40	1663.53
610.75	1655.08
611.10	1647.26
611.44	1638.78
611.79	1630.77
612.14	1622.05
612.49	1613.00
612.83	1604.68
613.18	1596.57
613.53	1588.39
613.88	1579.79
614.22	1571.29
614.57	1562.67
614.92	1554.67
615.27	1547.17
615.61	1538.74
615.96	1530.85
616.31	1523.27
616.65	1515.91
617.00	1508.42
617.35	1500.78
617.70	1492.34
618.04	1483.93
618.39	1475.75
618.74	1468.16
619.08	1459.89
619.43	1452.28
619.78	1445.42
620.12	1438.27
620.47	1430.71
620.82	1422.60
621.16	1415.32
621.51	1407.81
621.85	1400.26
622.20	1391.58
622.55	1383.14
622.89	1375.29
623.24	1367.74
623.59	1360.33
623.93	1352.78
624.28	1345.57
624.62	1338.07
624.97	1330.90
625.32	1324.14
625.66	1317.16
626.01	1309.93
626.35	1302.53
626.70	1294.90
627.04	1287.06
627.39	1279.29
627.73	1271.84
628.08	1264.90
628.43	1257.53
628.77	1250.12
629.12	1242.52
629.46	1235.46
629.81	1228.18
630.15	1221.02
630.50	1213.57
630.84	1205.30
631.19	1197.43
631.53	1189.90
631.88	1182.39
632.22	1174.90
632.57	1167.59
632.91	1159.99
633.26	1152.57
633.60	1145.22
633.95	1138.05
634.29	1131.12
634.64	1124.46
634.98	1117.13
635.32	1109.95
635.67	1103.40
636.01	1096.82
636.36	1090.03
636.70	1083.60
637.05	1077.01
637.39	1070.55
637.73	1064.00
638.08	1058.29
638.42	1052.26
638.77	1045.76
639.11	1039.25
639.45	1032.92
639.80	1026.19
640.14	1019.79
640.49	1013.29
640.83	1006.98
641.17	1000.74
641.52	994.32
641.86	987.85
642.20	982.07
642.55	975.89
642.89	969.32
643.23	962.73
643.58	956.86
643.92	950.54
644.26	944.35
644.61	938.35
644.95	932.27
645.29	925.51
645.64	918.75
645.98	912.44
646.32	906.49
646.66	900.45
647.01	894.67
647.35	888.95
647.69	883.03
648.04	877.50
648.38	871.68
648.72	865.64
649.06	859.59
649.41	853.71
649.75	847.62
650.09	841.76
650.43	836.00
650.78	829.86
651.12	823.98
651.46	818.23
651.80	812.48
652.14	807.13
652.49	801.82
652.83	796.75
653.17	791.05
653.51	785.41
653.85	779.99
654.20	774.32
654.54	768.29
654.88	762.60
655.22	756.77
655.56	751.09
655.90	745.73
656.25	740.49
656.59	735.08
656.93	729.98
657.27	724.77
657.61	719.31
657.95	714.26
658.29	709.15
658.64	703.98
658.98	698.65
659.32	693.25
659.66	688.02
660.00	682.65
660.34	677.76
660.68	672.83
661.02	667.75
661.36	663.07
661.70	658.64
662.05	654.32
662.39	649.96
662.73	645.53
663.07	641.14
663.41	636.62
663.75	632.10
664.09	627.58
664.43	623.20
664.77	619.09
665.11	614.83
665.45	610.73
665.79	606.58
666.13	602.45
666.47	598.33
666.81	594.14
667.15	590.06
667.49	586.19
667.83	582.39
668.17	578.45
668.51	574.43
668.85	570.40
669.19	566.60
669.53	562.71
669.87	558.77
670.21	555.06
670.55	551.46
670.89	548.06
671.23	544.63
671.57	541.11
671.91	537.55
672.25	534.09
672.58	530.61
672.92	527.30
673.26	524.07
673.60	520.91
673.94	517.82
674.28	514.87
674.62	511.87
674.96	508.73
675.30	505.88
675.64	502.91
675.97	500.11
676.31	497.18
676.65	494.27
676.99	491.59
677.33	488.73
677.67	485.92
678.01	482.86
678.34	479.91
678.68	477.07
679.02	474.26
679.36	471.48
679.70	468.71
680.04	465.92
680.37	463.11
680.71	460.32
681.05	457.74
681.39	455.04
681.73	452.38
682.06	449.81
682.40	447.18
682.74	444.63
683.08	442.11
683.42	439.56
683.75	437.08
684.09	434.53
684.43	432.08
684.77	429.61
685.10	427.34
685.44	425.01
685.78	422.73
686.12	420.54
686.45	418.26
686.79	415.99
687.13	413.76
687.46	411.60
687.80	409.47
688.14	407.23
688.48	405.18
688.81	402.90
689.15	400.73
689.49	398.62
689.82	396.59
690.16	394.50
690.50	392.51
690.83	390.53
691.17	388.49
691.51	386.61
691.84	384.77
692.18	382.77
692.52	380.79
692.85	378.82
693.19	376.89
693.52	375.09
693.86	373.28
694.20	371.54
694.53	369.76
694.87	367.87
695.21	366.08
695.54	364.25
695.88	362.58
696.21	360.90
696.55	359.21
696.88	357.48
697.22	355.81
697.56	354.20
697.89	352.56
698.23	351.03
698.56	349.38
698.90	347.79
699.23	346.15
699.57	344.62
699.90	343.08
700.24	341.52
700.58	339.94
700.91	338.44
701.25	337.02
701.58	335.61
701.92	334.31
702.25	332.95
702.59	331.60
702.92	330.26
703.26	328.99
703.59	327.73
703.93	326.56
704.26	325.34
704.60	324.01
704.93	322.74
705.26	321.48
705.60	320.32
705.93	319.18
706.27	318.18
706.60	317.12
706.94	316.08
707.27	314.95
707.61	313.92
707.94	312.92
708.27	311.80
708.61	310.75
708.94	309.69
709.28	308.72
709.61	307.75
709.94	306.77
710.28	305.72
710.61	304.78
710.95	303.74
711.28	302.82
711.61	301.93
711.95	300.98
712.28	300.06
712.61	299.06
712.95	298.11
713.28	297.21
713.61	296.29
713.95	295.37
714.28	294.56
714.61	293.69
714.95	292.84
715.28	291.97
715.61	291.12
715.95	290.31
716.28	289.45
716.61	288.63
716.95	287.86
717.28	287.13
717.61	286.37
717.94	285.59
718.28	284.78
718.61	284.01
718.94	283.36
719.27	282.68
719.61	282.06
719.94	281.39
720.27	280.67
720.60	279.99
720.94	279.36
721.27	278.74
721.60	278.16
721.93	277.55
722.27	277.01
722.60	276.43
722.93	275.83
723.26	275.31
723.59	274.74
723.93	274.18
724.26	273.61
724.59	273.02
724.92	272.51
725.25	272.00
725.59	271.47
725.92	270.91
726.25	270.38
726.58	269.86
726.91	269.35
727.24	268.87
727.57	268.41
727.91	267.92
728.24	267.46
728.57	266.94
728.90	266.53
729.23	266.03
729.56	265.62
729.89	265.19
730.22	264.71
730.55	264.24
730.89	263.80
731.22	263.37
731.55	262.94
731.88	262.54
732.21	262.13
732.54	261.72
732.87	261.31
733.20	260.98
733.53	260.65
733.86	260.28
734.19	259.91
734.52	259.55
734.85	259.24
735.18	258.83
735.51	258.48
735.84	258.06
736.17	257.73
736.50	257.32
736.83	257.06
737.16	256.76
737.49	256.43
737.82	256.12
738.15	255.78
738.48	255.46
738.81	255.14
739.14	254.84
739.47	254.55
739.80	254.26
740.13	253.94
740.46	253.61
740.79	253.30
741.12	252.98
741.45	252.69
741.78	252.34
742.11	252.05
742.44	251.76
742.77	251.48
743.10	251.14
743.43	250.82
743.75	250.44
744.08	250.22
744.41	249.96
744.74	249.69
745.07	249.40
745.40	249.16
745.73	248.91
746.06	248.59
746.39	248.34
746.71	248.08
747.04	247.80
747.37	247.54
747.70	247.27
748.03	247.03
748.36	246.79
748.68	246.51
749.01	246.28
749.34	246.03
749.67	245.84
750.00	245.66
750.33	245.52
750.65	245.34
750.98	245.02
751.31	244.78
751.64	244.56
751.97	244.44
752.29	244.17
752.62	243.92
752.95	243.72
753.28	243.51
753.60	243.29
753.93	243.11
754.26	242.91
754.59	242.71
754.91	242.51
755.24	242.31
755.57	242.15
755.90	241.97
756.22	241.79
756.55	241.58
756.88	241.37
757.20	241.13
757.53	240.89
757.86	240.72
758.19	240.57
758.51	240.38
758.84	240.14
759.17	239.99
759.49	239.83
759.82	239.74
760.15	239.60
760.47	239.43
760.80	239.25
761.13	239.10
761.45	238.97
761.78	238.80
762.11	238.64
762.43	238.52
762.76	238.36
763.08	238.22
763.41	238.08
763.74	237.94
764.06	237.81
764.39	237.68
764.71	237.55
765.04	237.41
765.37	237.27
765.69	237.15
766.02	237.01
766.34	236.91
766.67	236.77
767.00	236.65
767.32	236.61
767.65	236.55
767.97	236.43
768.30	236.34
768.62	236.21
768.95	236.10
769.27	235.96
769.60	235.87
769.92	235.75
770.25	235.61
770.57	235.49
770.90	235.37
771.22	235.24
771.55	235.17
771.87	235.07
772.20	234.97
772.52	234.94
772.85	234.96
773.17	234.85
773.50	234.72
773.82	234.62
774.15	234.49
774.47	234.37
774.80	234.28
775.12	234.16
775.45	234.10
775.77	234.04
776.09	233.97
776.42	233.93
776.74	233.89
777.07	233.82
777.39	233.74
777.72	233.65
778.04	233.64
778.36	233.58
778.69	233.51
779.01	233.49
779.33	233.35
779.66	233.24
779.98	233.14
780.31	233.08
780.63	233.04
780.95	232.93
781.28	232.86
781.60	232.80
781.92	232.77
782.25	232.73
782.57	232.69
782.89	232.62
783.22	232.50
783.54	232.43
783.86	232.40
784.19	232.34
784.51	232.34
784.83	232.26
785.16	232.18
785.48	232.15
785.80	232.09
786.12	232.07
786.45	231.97
786.77	231.98
787.09	231.90
