SpectraSuite Data File
++++++++++++++++++++++++++++++++++++
Date: Fri Feb 01 15:28:17 EST 2013
User: group
Dark Spectrum Present: No
Reference Spectrum Present: No
Number of Sampled Component Spectra: 1
Spectrometers: USB2E7196
Integration Time (usec): 35000 (USB2E7196)
Spectra Averaged: 100 (USB2E7196)
Boxcar Smoothing: 10 (USB2E7196)
Correct for Electrical Dark: No (USB2E7196)
Strobe/Lamp Enabled: No (USB2E7196)
Correct for Detector Non-linearity: No (USB2E7196)
Correct for Stray Light: No (USB2E7196)
Number of Pixels in Processed Spectrum: 2048
>>>>>Begin Processed Spectral Data<<<<<
339.09	0.00
339.48	215.34
339.86	216.49
340.24	217.65
340.63	219.72
341.01	222.00
341.39	221.50
341.78	222.88
342.16	224.27
342.54	225.20
342.93	213.34
343.31	224.14
343.69	224.66
344.07	225.10
344.46	225.54
344.84	225.94
345.22	226.19
345.60	226.47
345.99	226.68
346.37	226.84
346.75	226.95
347.13	227.03
347.52	227.09
347.90	227.17
348.28	227.20
348.66	227.23
349.05	227.26
349.43	227.30
349.81	227.33
350.19	227.35
350.57	227.45
350.96	227.51
351.34	227.57
351.72	227.68
352.10	227.78
352.48	227.85
352.87	227.87
353.25	227.95
353.63	228.00
354.01	228.10
354.39	228.14
354.77	228.21
355.15	228.31
355.54	228.39
355.92	228.38
356.30	228.44
356.68	228.59
357.06	228.65
357.44	228.71
357.82	228.77
358.20	228.85
358.58	228.90
358.97	228.97
359.35	229.02
359.73	229.09
360.11	229.17
360.49	229.25
360.87	229.25
361.25	229.29
361.63	229.35
362.01	229.34
362.39	229.37
362.77	229.39
363.15	229.37
363.53	229.35
363.91	229.37
364.29	229.38
364.67	229.29
365.05	229.28
365.43	229.31
365.81	229.32
366.19	229.34
366.57	229.39
366.95	229.36
367.33	229.35
367.71	229.32
368.09	229.26
368.47	229.21
368.85	229.25
369.23	229.21
369.61	229.16
369.99	229.16
370.37	229.14
370.75	229.16
371.13	229.12
371.51	229.09
371.89	229.05
372.27	228.98
372.65	228.96
373.03	228.93
373.41	228.84
373.78	228.79
374.16	228.66
374.54	228.55
374.92	228.50
375.30	228.43
375.68	228.32
376.06	228.29
376.44	228.21
376.82	228.10
377.19	228.02
377.57	227.94
377.95	227.85
378.33	227.76
378.71	227.60
379.09	227.54
379.47	227.45
379.84	227.37
380.22	227.30
380.60	227.19
380.98	227.14
381.36	227.07
381.73	227.01
382.11	226.97
382.49	226.92
382.87	226.86
383.25	226.81
383.62	226.89
384.00	226.81
384.38	226.78
384.76	226.75
385.13	226.73
385.51	226.69
385.89	226.60
386.27	226.55
386.64	226.56
387.02	226.52
387.40	226.50
387.78	226.47
388.15	226.43
388.53	226.40
388.91	226.32
389.29	226.32
389.66	226.30
390.04	226.27
390.42	226.25
390.79	226.22
391.17	226.20
391.55	226.10
391.92	226.10
392.30	226.07
392.68	226.05
393.05	226.08
393.43	226.11
393.81	226.17
394.18	226.19
394.56	226.19
394.94	226.24
395.31	226.25
395.69	226.33
396.06	226.41
396.44	226.48
396.82	226.55
397.19	226.64
397.57	226.70
397.95	226.77
398.32	226.85
398.70	226.92
399.07	227.04
399.45	227.06
399.82	227.16
400.20	227.27
400.58	227.36
400.95	227.42
401.33	227.52
401.70	227.68
402.08	227.77
402.45	227.90
402.83	228.03
403.20	228.15
403.58	228.25
403.95	228.36
404.33	228.52
404.71	228.64
405.08	228.82
405.46	228.96
405.83	229.11
406.21	229.25
406.58	229.42
406.96	229.57
407.33	229.80
407.70	229.99
408.08	230.25
408.45	230.48
408.83	230.72
409.20	230.92
409.58	231.12
409.95	231.39
410.33	231.67
410.70	231.90
411.08	232.21
411.45	232.49
411.82	232.81
412.20	233.17
412.57	233.60
412.95	233.86
413.32	234.22
413.69	234.61
414.07	235.05
414.44	235.53
414.82	235.98
415.19	236.49
415.56	237.04
415.94	237.58
416.31	238.21
416.68	238.79
417.06	239.48
417.43	240.14
417.81	240.89
418.18	241.67
418.55	242.51
418.93	243.36
419.30	244.27
419.67	245.19
420.04	246.11
420.42	247.08
420.79	248.28
421.16	249.43
421.54	250.63
421.91	251.88
422.28	253.11
422.66	254.47
423.03	255.79
423.40	257.10
423.77	258.52
424.15	259.94
424.52	261.45
424.89	263.08
425.26	264.67
425.64	266.14
426.01	267.73
426.38	269.37
426.75	271.03
427.13	272.75
427.50	274.55
427.87	276.45
428.24	278.31
428.61	280.07
428.99	282.04
429.36	284.14
429.73	286.17
430.10	288.16
430.47	290.19
430.85	292.32
431.22	294.56
431.59	296.90
431.96	299.13
432.33	301.61
432.70	304.00
433.08	306.76
433.45	309.41
433.82	312.02
434.19	314.92
434.56	317.76
434.93	320.42
435.30	323.11
435.68	325.96
436.05	328.79
436.42	331.60
436.79	334.13
437.16	336.83
437.53	339.67
437.90	342.51
438.27	345.29
438.64	348.13
439.01	350.76
439.38	353.01
439.75	355.18
440.13	357.64
440.50	359.98
440.87	361.86
441.24	363.77
441.61	365.91
441.98	367.44
442.35	369.26
442.72	371.11
443.09	372.89
443.46	373.89
443.83	374.51
444.20	375.01
444.57	375.83
444.94	376.16
445.31	376.51
445.68	376.89
446.05	376.95
446.42	376.54
446.79	376.13
447.16	375.66
447.53	375.36
447.90	374.25
448.27	373.07
448.64	371.54
449.01	370.43
449.37	368.48
449.74	366.53
450.11	364.24
450.48	361.75
450.85	359.20
451.22	357.09
451.59	355.02
451.96	353.07
452.33	350.48
452.70	348.12
453.07	345.29
453.43	342.38
453.80	339.61
454.17	336.95
454.54	334.41
454.91	331.73
455.28	329.09
455.65	326.61
456.02	324.17
456.38	321.98
456.75	319.28
457.12	317.01
457.49	314.83
457.86	312.68
458.23	310.80
458.59	308.76
458.96	306.65
459.33	304.82
459.70	302.94
460.07	301.41
460.43	299.64
460.80	298.01
461.17	296.57
461.54	295.09
461.91	293.64
462.27	292.16
462.64	290.88
463.01	289.46
463.38	288.15
463.74	286.78
464.11	285.61
464.48	284.58
464.85	283.46
465.21	282.59
465.58	281.67
465.95	280.59
466.32	279.68
466.68	278.77
467.05	277.87
467.42	276.96
467.78	276.03
468.15	275.16
468.52	274.48
468.88	273.61
469.25	272.83
469.62	272.20
469.98	271.48
470.35	270.83
470.72	270.27
471.08	269.61
471.45	269.04
471.82	268.49
472.18	267.89
472.55	267.48
472.92	266.90
473.28	266.40
473.65	265.92
474.02	265.49
474.38	265.14
474.75	264.82
475.11	264.48
475.48	264.24
475.85	263.99
476.21	263.74
476.58	263.55
476.94	263.42
477.31	263.27
477.67	263.12
478.04	263.04
478.41	262.96
478.77	262.99
479.14	262.93
479.50	262.92
479.87	263.00
480.23	263.07
480.60	263.14
480.96	263.26
481.33	263.49
481.69	263.65
482.06	263.83
482.42	264.01
482.79	264.27
483.15	264.54
483.52	264.91
483.88	265.25
484.25	265.62
484.61	266.01
484.98	266.44
485.34	267.03
485.71	267.56
486.07	268.14
486.44	268.69
486.80	269.41
487.17	270.12
487.53	270.94
487.90	271.77
488.26	272.72
488.62	273.67
488.99	274.63
489.35	275.68
489.72	276.82
490.08	278.03
490.44	279.23
490.81	280.57
491.17	281.93
491.54	283.46
491.90	284.98
492.26	286.65
492.63	288.37
492.99	290.11
493.36	292.04
493.72	294.14
494.08	296.21
494.45	298.43
494.81	300.80
495.17	303.21
495.54	305.76
495.90	308.48
496.26	311.31
496.63	314.26
496.99	317.37
497.35	320.62
497.72	324.06
498.08	327.61
498.44	331.27
498.80	335.19
499.17	339.23
499.53	343.41
499.89	347.80
500.26	352.31
500.62	357.07
500.98	362.03
501.34	367.09
501.71	372.42
502.07	377.89
502.43	383.51
502.79	389.30
503.16	395.39
503.52	401.64
503.88	407.98
504.24	414.63
504.60	421.53
504.97	428.65
505.33	435.90
505.69	443.63
506.05	451.45
506.41	459.32
506.78	467.51
507.14	476.00
507.50	484.72
507.86	493.79
508.22	502.96
508.59	512.14
508.95	521.74
509.31	531.64
509.67	541.74
510.03	552.03
510.39	562.62
510.75	573.43
511.12	584.45
511.48	595.77
511.84	607.28
512.20	618.83
512.56	630.76
512.92	642.97
513.28	655.22
513.64	667.77
514.00	680.47
514.37	693.39
514.73	706.46
515.09	719.51
515.45	732.83
515.81	746.41
516.17	760.49
516.53	774.59
516.89	788.74
517.25	802.95
517.61	817.46
517.97	832.02
518.33	846.53
518.69	861.24
519.05	876.34
519.41	891.56
519.77	907.12
520.13	922.75
520.49	938.14
520.85	953.73
521.21	969.52
521.57	985.88
521.93	1001.78
522.29	1018.26
522.65	1034.55
523.01	1050.75
523.37	1066.82
523.73	1083.05
524.09	1099.20
524.45	1115.57
524.81	1132.33
525.17	1149.18
525.53	1166.12
525.89	1182.93
526.25	1199.84
526.61	1216.33
526.97	1233.03
527.33	1249.56
527.68	1266.13
528.04	1282.71
528.40	1299.36
528.76	1316.33
529.12	1332.97
529.48	1349.82
529.84	1365.89
530.20	1382.61
530.56	1399.75
530.91	1417.23
531.27	1433.98
531.63	1450.53
531.99	1467.20
532.35	1483.15
532.71	1499.18
533.07	1515.43
533.42	1531.40
533.78	1547.54
534.14	1563.77
534.50	1579.10
534.86	1595.22
535.21	1610.39
535.57	1626.50
535.93	1642.02
536.29	1656.87
536.65	1671.96
537.00	1686.76
537.36	1702.07
537.72	1716.61
538.08	1730.97
538.44	1744.82
538.79	1758.69
539.15	1772.38
539.51	1786.08
539.87	1800.46
540.22	1814.09
540.58	1827.89
540.94	1841.29
541.29	1854.24
541.65	1867.04
542.01	1880.44
542.37	1892.58
542.72	1905.00
543.08	1916.67
543.44	1929.08
543.79	1940.39
544.15	1951.51
544.51	1963.13
544.87	1974.16
545.22	1984.99
545.58	1995.22
545.94	2004.98
546.29	2014.96
546.65	2024.84
547.01	2034.11
547.36	2042.85
547.72	2051.39
548.07	2059.30
548.43	2067.55
548.79	2075.65
549.14	2083.22
549.50	2090.65
549.86	2098.48
550.21	2105.90
550.57	2113.23
550.92	2119.89
551.28	2127.03
551.64	2134.00
551.99	2140.48
552.35	2146.60
552.70	2152.76
553.06	2158.87
553.41	2165.28
553.77	2171.39
554.13	2177.46
554.48	2183.72
554.84	2189.19
555.19	2194.68
555.55	2199.85
555.90	2204.27
556.26	2208.98
556.61	2213.77
556.97	2217.99
557.32	2222.12
557.68	2226.37
558.03	2230.54
558.39	2234.29
558.74	2238.85
559.10	2242.65
559.45	2246.40
559.81	2250.80
560.16	2254.70
560.52	2258.05
560.87	2261.46
561.23	2264.03
561.58	2267.06
561.94	2269.68
562.29	2272.16
562.64	2274.72
563.00	2277.34
563.35	2280.96
563.71	2284.08
564.06	2287.21
564.42	2290.05
564.77	2292.45
565.12	2294.49
565.48	2296.37
565.83	2298.15
566.19	2299.44
566.54	2300.57
566.89	2301.60
567.25	2302.19
567.60	2303.49
567.96	2304.94
568.31	2305.75
568.66	2306.79
569.02	2307.29
569.37	2307.34
569.72	2308.07
570.08	2308.18
570.43	2308.21
570.78	2307.53
571.14	2305.98
571.49	2304.68
571.84	2304.28
572.20	2303.01
572.55	2302.11
572.90	2300.64
573.26	2299.20
573.61	2297.43
573.96	2295.51
574.31	2292.60
574.67	2289.35
575.02	2285.56
575.37	2282.23
575.72	2278.38
576.08	2275.07
576.43	2271.85
576.78	2268.05
577.13	2264.94
577.49	2261.86
577.84	2258.24
578.19	2254.35
578.54	2250.65
578.90	2246.20
579.25	2240.63
579.60	2235.65
579.95	2230.50
580.30	2225.30
580.66	2219.99
581.01	2214.95
581.36	2209.94
581.71	2205.78
582.06	2201.34
582.42	2196.83
582.77	2191.50
583.12	2186.74
583.47	2181.84
583.82	2176.45
584.17	2171.28
584.53	2165.55
584.88	2159.72
585.23	2153.83
585.58	2148.39
585.93	2142.92
586.28	2138.26
586.63	2133.05
586.98	2127.93
587.34	2123.22
587.69	2118.35
588.04	2113.09
588.39	2107.46
588.74	2100.94
589.09	2094.60
589.44	2087.67
589.79	2081.60
590.14	2075.80
590.49	2069.25
590.84	2062.81
591.19	2056.91
591.54	2050.46
591.89	2042.83
592.25	2035.89
592.60	2028.77
592.95	2021.03
593.30	2013.49
593.65	2005.75
594.00	1998.78
594.35	1991.54
594.70	1983.45
595.05	1976.11
595.40	1968.79
595.75	1961.11
596.10	1954.89
596.45	1948.05
596.80	1941.81
597.15	1935.10
597.50	1927.96
597.85	1921.59
598.19	1914.97
598.54	1907.72
598.89	1900.96
599.24	1895.17
599.59	1888.47
599.94	1882.14
600.29	1875.86
600.64	1869.34
600.99	1861.76
601.34	1854.81
601.69	1847.72
602.04	1840.47
602.39	1833.07
602.74	1826.12
603.08	1819.43
603.43	1812.56
603.78	1805.33
604.13	1798.25
604.48	1790.90
604.83	1784.00
605.18	1776.81
605.53	1768.71
605.87	1760.56
606.22	1753.30
606.57	1745.27
606.92	1737.86
607.27	1730.56
607.62	1723.54
607.96	1716.21
608.31	1709.54
608.66	1701.79
609.01	1694.13
609.36	1686.73
609.70	1678.77
610.05	1670.72
610.40	1662.81
610.75	1654.48
611.10	1646.70
611.44	1638.17
611.79	1630.26
612.14	1621.59
612.49	1612.48
612.83	1604.09
613.18	1596.09
613.53	1587.91
613.88	1579.54
614.22	1571.40
614.57	1562.81
614.92	1554.70
615.27	1547.09
615.61	1538.75
615.96	1530.81
616.31	1523.34
616.65	1515.99
617.00	1508.36
617.35	1500.75
617.70	1492.44
618.04	1483.81
618.39	1475.56
618.74	1467.89
619.08	1459.53
619.43	1451.96
619.78	1445.08
620.12	1437.90
620.47	1430.42
620.82	1422.23
621.16	1414.81
621.51	1407.11
621.85	1399.48
622.20	1391.01
622.55	1382.69
622.89	1374.88
623.24	1367.32
623.59	1359.85
623.93	1352.35
624.28	1345.01
624.62	1337.39
624.97	1330.31
625.32	1323.72
625.66	1316.72
626.01	1309.54
626.35	1301.96
626.70	1294.09
627.04	1286.28
627.39	1278.63
627.73	1271.15
628.08	1264.34
628.43	1256.99
628.77	1249.62
629.12	1242.08
629.46	1234.95
629.81	1227.52
630.15	1220.37
630.50	1212.93
630.84	1204.73
631.19	1196.82
631.53	1189.45
631.88	1181.89
632.22	1174.27
632.57	1167.01
632.91	1159.46
633.26	1152.04
633.60	1144.83
633.95	1137.87
634.29	1130.96
634.64	1124.19
634.98	1116.86
635.32	1109.72
635.67	1103.13
636.01	1096.47
636.36	1089.67
636.70	1083.14
637.05	1076.62
637.39	1070.10
637.73	1063.52
638.08	1057.67
638.42	1051.65
638.77	1045.13
639.11	1038.54
639.45	1032.21
639.80	1025.47
640.14	1019.03
640.49	1012.57
640.83	1006.23
641.17	999.96
641.52	993.55
641.86	987.07
642.20	981.25
642.55	974.99
642.89	968.48
643.23	961.92
643.58	956.14
643.92	949.92
644.26	943.81
644.61	937.83
644.95	931.83
645.29	925.21
645.64	918.44
645.98	912.10
646.32	906.39
646.66	900.36
647.01	894.59
647.35	888.94
647.69	883.13
648.04	877.63
648.38	871.89
648.72	865.87
649.06	859.91
649.41	854.05
649.75	847.98
650.09	842.05
650.43	836.28
650.78	830.06
651.12	824.14
651.46	818.42
651.80	812.59
652.14	807.20
652.49	801.84
652.83	796.76
653.17	791.07
653.51	785.29
653.85	779.83
654.20	774.08
654.54	768.05
654.88	762.33
655.22	756.45
655.56	750.70
655.90	745.27
656.25	739.95
656.59	734.50
656.93	729.45
657.27	724.33
657.61	718.90
657.95	713.87
658.29	708.75
658.64	703.49
658.98	698.20
659.32	692.69
659.66	687.52
660.00	682.15
660.34	677.25
660.68	672.30
661.02	667.28
661.36	662.59
661.70	658.06
662.05	653.65
662.39	649.36
662.73	644.95
663.07	640.56
663.41	636.15
663.75	631.66
664.09	627.10
664.43	622.69
664.77	618.57
665.11	614.35
665.45	610.26
665.79	606.25
666.13	602.16
666.47	598.06
666.81	593.86
667.15	589.72
667.49	585.78
667.83	581.95
668.17	577.95
668.51	573.90
668.85	569.88
669.19	566.00
669.53	562.08
669.87	558.19
670.21	554.50
670.55	550.87
670.89	547.44
671.23	543.98
671.57	540.50
671.91	536.98
672.25	533.45
672.58	529.91
672.92	526.47
673.26	523.26
673.60	520.15
673.94	517.11
674.28	514.24
674.62	511.34
674.96	508.26
675.30	505.43
675.64	502.46
675.97	499.72
676.31	496.89
676.65	493.96
676.99	491.26
677.33	488.42
677.67	485.53
678.01	482.53
678.34	479.60
678.68	476.68
679.02	473.87
679.36	471.11
679.70	468.46
680.04	465.73
680.37	462.85
680.71	460.09
681.05	457.44
681.39	454.72
681.73	452.09
682.06	449.57
682.40	447.02
682.74	444.61
683.08	442.05
683.42	439.46
683.75	437.03
684.09	434.50
684.43	432.06
684.77	429.65
685.10	427.32
685.44	424.97
685.78	422.72
686.12	420.47
686.45	418.21
686.79	415.89
687.13	413.70
687.46	411.59
687.80	409.44
688.14	407.24
688.48	405.20
688.81	402.96
689.15	400.80
689.49	398.72
689.82	396.61
690.16	394.56
690.50	392.58
690.83	390.61
691.17	388.58
691.51	386.66
691.84	384.86
692.18	382.88
692.52	380.93
692.85	379.01
693.19	377.13
693.52	375.32
693.86	373.56
694.20	371.79
694.53	370.02
694.87	368.23
695.21	366.43
695.54	364.61
695.88	362.91
696.21	361.22
696.55	359.50
696.88	357.83
697.22	356.21
697.56	354.62
697.89	352.99
698.23	351.42
698.56	349.83
698.90	348.23
699.23	346.61
699.57	345.06
699.90	343.52
700.24	341.99
700.58	340.46
700.91	338.87
701.25	337.41
701.58	336.00
701.92	334.60
702.25	333.22
702.59	331.83
702.92	330.48
703.26	329.16
703.59	327.86
703.93	326.65
704.26	325.33
704.60	324.04
704.93	322.77
705.26	321.56
705.60	320.34
705.93	319.17
706.27	318.14
706.60	317.09
706.94	316.02
707.27	314.85
707.61	313.76
707.94	312.82
708.27	311.74
708.61	310.66
708.94	309.65
709.28	308.69
709.61	307.76
709.94	306.81
710.28	305.77
710.61	304.83
710.95	303.79
711.28	302.93
711.61	301.98
711.95	301.07
712.28	300.11
712.61	299.13
712.95	298.14
713.28	297.25
713.61	296.35
713.95	295.48
714.28	294.68
714.61	293.84
714.95	292.96
715.28	292.11
715.61	291.25
715.95	290.41
716.28	289.52
716.61	288.66
716.95	287.82
717.28	287.10
717.61	286.32
717.94	285.52
718.28	284.72
718.61	284.03
718.94	283.32
719.27	282.65
719.61	282.02
719.94	281.40
720.27	280.69
720.60	280.02
720.94	279.40
721.27	278.79
721.60	278.19
721.93	277.59
722.27	277.03
722.60	276.48
722.93	275.85
723.26	275.35
723.59	274.80
723.93	274.26
724.26	273.68
724.59	273.12
724.92	272.64
725.25	272.16
725.59	271.65
725.92	271.10
726.25	270.60
726.58	270.10
726.91	269.62
727.24	269.19
727.57	268.72
727.91	268.16
728.24	267.77
728.57	267.27
728.90	266.81
729.23	266.34
729.56	265.91
729.89	265.50
730.22	264.99
730.55	264.52
730.89	264.08
731.22	263.63
731.55	263.20
731.88	262.76
732.21	262.27
732.54	261.80
732.87	261.42
733.20	261.05
733.53	260.69
733.86	260.27
734.19	259.86
734.52	259.51
734.85	259.24
735.18	258.78
735.51	258.42
735.84	258.05
736.17	257.72
736.50	257.29
736.83	257.02
737.16	256.71
737.49	256.38
737.82	256.01
738.15	255.68
738.48	255.34
738.81	255.01
739.14	254.68
739.47	254.38
739.80	254.05
740.13	253.70
740.46	253.37
740.79	253.05
741.12	252.75
741.45	252.38
741.78	251.99
742.11	251.70
742.44	251.38
742.77	251.08
743.10	250.74
743.43	250.48
743.75	250.10
744.08	249.94
744.41	249.67
744.74	249.40
745.07	249.14
745.40	248.90
745.73	248.66
746.06	248.40
746.39	248.12
746.71	247.85
747.04	247.58
747.37	247.31
747.70	247.04
748.03	246.78
748.36	246.59
748.68	246.33
749.01	246.03
749.34	245.85
749.67	245.61
750.00	245.39
750.33	245.21
750.65	245.02
750.98	244.68
751.31	244.48
751.64	244.26
751.97	244.08
752.29	243.88
752.62	243.63
752.95	243.46
753.28	243.26
753.60	243.03
753.93	242.88
754.26	242.69
754.59	242.48
754.91	242.30
755.24	242.11
755.57	241.95
755.90	241.80
756.22	241.58
756.55	241.37
756.88	241.21
757.20	241.00
757.53	240.78
757.86	240.60
758.19	240.45
758.51	240.27
758.84	240.09
759.17	239.92
759.49	239.82
759.82	239.67
760.15	239.55
760.47	239.47
760.80	239.31
761.13	239.18
761.45	239.05
761.78	238.91
762.11	238.77
762.43	238.60
762.76	238.48
763.08	238.38
763.41	238.28
763.74	238.15
764.06	238.02
764.39	237.89
764.71	237.76
765.04	237.64
765.37	237.56
765.69	237.43
766.02	237.28
766.34	237.16
766.67	237.05
767.00	236.95
767.32	236.87
767.65	236.80
767.97	236.66
768.30	236.54
768.62	236.42
768.95	236.29
769.27	236.22
769.60	236.13
769.92	236.02
770.25	235.92
770.57	235.78
770.90	235.66
771.22	235.56
771.55	235.49
771.87	235.38
772.20	235.26
772.52	235.24
772.85	235.27
773.17	235.14
773.50	235.03
773.82	234.89
774.15	234.72
774.47	234.59
774.80	234.51
775.12	234.42
775.45	234.36
775.77	234.26
776.09	234.18
776.42	234.08
776.74	234.01
777.07	233.94
777.39	233.87
777.72	233.83
778.04	233.77
778.36	233.69
778.69	233.61
779.01	233.57
779.33	233.42
779.66	233.26
779.98	233.20
780.31	233.11
780.63	233.10
780.95	233.06
781.28	232.98
781.60	232.94
781.92	232.88
782.25	232.81
782.57	232.79
782.89	232.72
783.22	232.66
783.54	232.62
783.86	232.53
784.19	232.46
784.51	232.40
784.83	232.30
785.16	232.23
785.48	232.16
785.80	232.08
786.12	232.06
786.45	231.97
786.77	231.90
787.09	231.85
