SpectraSuite Data File
++++++++++++++++++++++++++++++++++++
Date: Fri Feb 01 16:33:22 EST 2013
User: group
Dark Spectrum Present: No
Reference Spectrum Present: No
Number of Sampled Component Spectra: 1
Spectrometers: USB2E7196
Integration Time (usec): 35000 (USB2E7196)
Spectra Averaged: 100 (USB2E7196)
Boxcar Smoothing: 10 (USB2E7196)
Correct for Electrical Dark: No (USB2E7196)
Strobe/Lamp Enabled: No (USB2E7196)
Correct for Detector Non-linearity: No (USB2E7196)
Correct for Stray Light: No (USB2E7196)
Number of Pixels in Processed Spectrum: 2048
>>>>>Begin Processed Spectral Data<<<<<
339.09	0.00
339.48	214.11
339.86	214.91
340.24	216.02
340.63	218.33
341.01	220.87
341.39	220.63
341.78	222.14
342.16	223.45
342.54	223.58
342.93	212.17
343.31	222.92
343.69	223.44
344.07	223.96
344.46	224.41
344.84	224.78
345.22	225.01
345.60	225.26
345.99	225.46
346.37	225.57
346.75	225.70
347.13	225.75
347.52	225.83
347.90	225.89
348.28	225.92
348.66	225.95
349.05	225.97
349.43	226.04
349.81	226.09
350.19	226.16
350.57	226.24
350.96	226.33
351.34	226.40
351.72	226.51
352.10	226.56
352.48	226.66
352.87	226.69
353.25	226.75
353.63	226.81
354.01	226.88
354.39	227.00
354.77	227.09
355.15	227.20
355.54	227.26
355.92	227.30
356.30	227.39
356.68	227.53
357.06	227.63
357.44	227.66
357.82	227.71
358.20	227.76
358.58	227.83
358.97	227.88
359.35	227.97
359.73	228.03
360.11	228.09
360.49	228.13
360.87	228.23
361.25	228.31
361.63	228.42
362.01	228.45
362.39	228.46
362.77	228.48
363.15	228.51
363.53	228.50
363.91	228.54
364.29	228.54
364.67	228.44
365.05	228.44
365.43	228.46
365.81	228.50
366.19	228.55
366.57	228.57
366.95	228.57
367.33	228.54
367.71	228.55
368.09	228.56
368.47	228.54
368.85	228.46
369.23	228.43
369.61	228.36
369.99	228.37
370.37	228.33
370.75	228.32
371.13	228.26
371.51	228.22
371.89	228.22
372.27	228.21
372.65	228.17
373.03	228.15
373.41	228.12
373.78	228.06
374.16	227.92
374.54	227.85
374.92	227.79
375.30	227.71
375.68	227.57
376.06	227.52
376.44	227.45
376.82	227.42
377.19	227.36
377.57	227.33
377.95	227.21
378.33	227.12
378.71	227.02
379.09	226.98
379.47	226.92
379.84	226.82
380.22	226.74
380.60	226.66
380.98	226.59
381.36	226.49
381.73	226.42
382.11	226.41
382.49	226.34
382.87	226.26
383.25	226.18
383.62	226.30
384.00	226.19
384.38	226.16
384.76	226.11
385.13	226.10
385.51	226.02
385.89	225.96
386.27	225.94
386.64	225.92
387.02	225.85
387.40	225.84
387.78	225.79
388.15	225.71
388.53	225.65
388.91	225.61
389.29	225.58
389.66	225.55
390.04	225.48
390.42	225.45
390.79	225.44
391.17	225.45
391.55	225.27
391.92	225.27
392.30	225.23
392.68	225.23
393.05	225.20
393.43	225.19
393.81	225.22
394.18	225.21
394.56	225.20
394.94	225.24
395.31	225.23
395.69	225.23
396.06	225.30
396.44	225.35
396.82	225.38
397.19	225.46
397.57	225.52
397.95	225.58
398.32	225.61
398.70	225.65
399.07	225.71
399.45	225.79
399.82	225.89
400.20	225.97
400.58	226.03
400.95	226.06
401.33	226.18
401.70	226.30
402.08	226.40
402.45	226.47
402.83	226.54
403.20	226.67
403.58	226.80
403.95	226.92
404.33	227.06
404.71	227.18
405.08	227.37
405.46	227.48
405.83	227.64
406.21	227.78
406.58	227.92
406.96	228.07
407.33	228.25
407.70	228.41
408.08	228.69
408.45	228.90
408.83	229.15
409.20	229.36
409.58	229.56
409.95	229.81
410.33	230.14
410.70	230.41
411.08	230.71
411.45	230.98
411.82	231.29
412.20	231.63
412.57	232.04
412.95	232.32
413.32	232.72
413.69	233.16
414.07	233.63
414.44	234.12
414.82	234.62
415.19	235.17
415.56	235.74
415.94	236.29
416.31	236.90
416.68	237.53
417.06	238.26
417.43	238.93
417.81	239.72
418.18	240.47
418.55	241.32
418.93	242.17
419.30	243.14
419.67	244.06
420.04	245.05
420.42	246.04
420.79	247.23
421.16	248.37
421.54	249.53
421.91	250.74
422.28	252.01
422.66	253.34
423.03	254.63
423.40	255.94
423.77	257.32
424.15	258.76
424.52	260.25
424.89	261.82
425.26	263.38
425.64	264.82
426.01	266.43
426.38	268.07
426.75	269.76
427.13	271.46
427.50	273.25
427.87	275.09
428.24	276.97
428.61	278.70
428.99	280.65
429.36	282.77
429.73	284.80
430.10	286.81
430.47	288.84
430.85	290.95
431.22	293.18
431.59	295.53
431.96	297.74
432.33	300.17
432.70	302.55
433.08	305.32
433.45	307.89
433.82	310.45
434.19	313.34
434.56	316.10
434.93	318.72
435.30	321.34
435.68	324.20
436.05	326.98
436.42	329.71
436.79	332.21
437.16	334.84
437.53	337.65
437.90	340.41
438.27	343.11
438.64	345.93
439.01	348.48
439.38	350.74
439.75	352.88
440.13	355.37
440.50	357.69
440.87	359.50
441.24	361.45
441.61	363.61
441.98	365.02
442.35	366.82
442.72	368.66
443.09	370.45
443.46	371.43
443.83	371.97
444.20	372.44
444.57	373.25
444.94	373.52
445.31	373.85
445.68	374.21
446.05	374.28
446.42	373.86
446.79	373.47
447.16	373.00
447.53	372.68
447.90	371.51
448.27	370.34
448.64	368.79
449.01	367.64
449.37	365.66
449.74	363.81
450.11	361.57
450.48	359.09
450.85	356.57
451.22	354.42
451.59	352.47
451.96	350.59
452.33	347.98
452.70	345.60
453.07	342.78
453.43	339.87
453.80	337.10
454.17	334.46
454.54	331.91
454.91	329.18
455.28	326.57
455.65	324.12
456.02	321.68
456.38	319.53
456.75	316.93
457.12	314.71
457.49	312.45
457.86	310.35
458.23	308.54
458.59	306.55
458.96	304.47
459.33	302.65
459.70	300.82
460.07	299.37
460.43	297.73
460.80	296.16
461.17	294.77
461.54	293.36
461.91	291.98
462.27	290.56
462.64	289.31
463.01	287.94
463.38	286.65
463.74	285.33
464.11	284.16
464.48	283.16
464.85	282.08
465.21	281.26
465.58	280.32
465.95	279.23
466.32	278.32
466.68	277.45
467.05	276.54
467.42	275.66
467.78	274.74
468.15	273.88
468.52	273.22
468.88	272.39
469.25	271.60
469.62	271.00
469.98	270.33
470.35	269.76
470.72	269.17
471.08	268.55
471.45	268.01
471.82	267.51
472.18	266.92
472.55	266.50
472.92	266.00
473.28	265.54
473.65	265.11
474.02	264.70
474.38	264.40
474.75	264.08
475.11	263.72
475.48	263.46
475.85	263.28
476.21	263.07
476.58	262.91
476.94	262.79
477.31	262.62
477.67	262.49
478.04	262.38
478.41	262.37
478.77	262.42
479.14	262.33
479.50	262.35
479.87	262.41
480.23	262.48
480.60	262.52
480.96	262.59
481.33	262.78
481.69	262.92
482.06	263.11
482.42	263.33
482.79	263.57
483.15	263.86
483.52	264.19
483.88	264.54
484.25	264.89
484.61	265.27
484.98	265.67
485.34	266.23
485.71	266.77
486.07	267.34
486.44	267.88
486.80	268.57
487.17	269.28
487.53	270.09
487.90	270.91
488.26	271.83
488.62	272.81
488.99	273.75
489.35	274.81
489.72	275.88
490.08	277.06
490.44	278.32
490.81	279.68
491.17	281.04
491.54	282.47
491.90	284.02
492.26	285.68
492.63	287.44
492.99	289.19
493.36	291.13
493.72	293.19
494.08	295.31
494.45	297.56
494.81	299.94
495.17	302.41
495.54	304.99
495.90	307.74
496.26	310.56
496.63	313.57
496.99	316.71
497.35	319.97
497.72	323.40
498.08	326.95
498.44	330.64
498.80	334.57
499.17	338.66
499.53	342.87
499.89	347.30
500.26	351.81
500.62	356.51
500.98	361.50
501.34	366.55
501.71	371.91
502.07	377.39
502.43	383.01
502.79	388.85
503.16	394.93
503.52	401.19
503.88	407.65
504.24	414.27
504.60	421.24
504.97	428.44
505.33	435.77
505.69	443.46
506.05	451.25
506.41	459.11
506.78	467.30
507.14	475.70
507.50	484.42
507.86	493.48
508.22	502.75
508.59	511.97
508.95	521.69
509.31	531.50
509.67	541.66
510.03	551.97
510.39	562.48
510.75	573.29
511.12	584.19
511.48	595.49
511.84	606.96
512.20	618.41
512.56	630.29
512.92	642.46
513.28	654.82
513.64	667.29
514.00	680.03
514.37	693.03
514.73	706.12
515.09	719.13
515.45	732.38
515.81	745.89
516.17	759.87
516.53	773.90
516.89	787.99
517.25	802.07
517.61	816.55
517.97	831.04
518.33	845.49
518.69	860.30
519.05	875.25
519.41	890.35
519.77	905.86
520.13	921.31
520.49	936.66
520.85	952.00
521.21	967.66
521.57	983.84
521.93	999.42
522.29	1015.69
522.65	1031.89
523.01	1048.01
523.37	1063.97
523.73	1080.05
524.09	1096.04
524.45	1112.28
524.81	1128.91
525.17	1145.57
525.53	1162.33
525.89	1179.22
526.25	1196.05
526.61	1212.31
526.97	1228.93
527.33	1245.32
527.68	1261.82
528.04	1278.21
528.40	1294.70
528.76	1311.66
529.12	1328.08
529.48	1345.00
529.84	1360.90
530.20	1377.40
530.56	1394.37
530.91	1411.63
531.27	1428.23
531.63	1444.56
531.99	1461.06
532.35	1476.84
532.71	1492.63
533.07	1508.88
533.42	1524.50
533.78	1540.39
534.14	1556.51
534.50	1571.85
534.86	1587.68
535.21	1602.70
535.57	1618.50
535.93	1633.84
536.29	1648.41
536.65	1663.45
537.00	1678.03
537.36	1693.27
537.72	1707.58
538.08	1721.80
538.44	1735.36
538.79	1749.02
539.15	1762.48
539.51	1776.03
539.87	1790.29
540.22	1803.83
540.58	1817.27
540.94	1830.29
541.29	1842.90
541.65	1855.36
542.01	1868.27
542.37	1880.39
542.72	1892.67
543.08	1904.27
543.44	1916.57
543.79	1927.78
544.15	1938.46
544.51	1949.84
544.87	1960.63
545.22	1971.47
545.58	1981.62
545.94	1991.46
546.29	2001.36
546.65	2011.35
547.01	2020.77
547.36	2029.36
547.72	2037.94
548.07	2045.82
548.43	2054.11
548.79	2062.06
549.14	2069.75
549.50	2077.18
549.86	2084.85
550.21	2092.25
550.57	2099.49
550.92	2106.15
551.28	2113.13
551.64	2120.30
551.99	2126.87
552.35	2133.11
552.70	2139.26
553.06	2145.23
553.41	2151.59
553.77	2157.57
554.13	2163.55
554.48	2169.44
554.84	2175.11
555.19	2180.15
555.55	2185.39
555.90	2189.91
556.26	2195.03
556.61	2199.77
556.97	2204.14
557.32	2208.34
557.68	2212.46
558.03	2216.76
558.39	2220.36
558.74	2225.13
559.10	2228.97
559.45	2232.71
559.81	2236.94
560.16	2240.87
560.52	2244.12
560.87	2247.48
561.23	2250.30
561.58	2253.15
561.94	2255.77
562.29	2258.13
562.64	2261.03
563.00	2263.55
563.35	2267.13
563.71	2270.28
564.06	2273.37
564.42	2276.31
564.77	2278.87
565.12	2281.18
565.48	2283.07
565.83	2285.20
566.19	2286.57
566.54	2287.42
566.89	2288.61
567.25	2289.31
567.60	2290.57
567.96	2292.31
568.31	2293.27
568.66	2294.40
569.02	2295.12
569.37	2295.57
569.72	2296.39
570.08	2296.59
570.43	2296.69
570.78	2296.17
571.14	2294.62
571.49	2293.42
571.84	2293.06
572.20	2291.99
572.55	2290.98
572.90	2289.28
573.26	2287.82
573.61	2286.10
573.96	2284.67
574.31	2281.68
574.67	2278.71
575.02	2275.15
575.37	2271.87
575.72	2268.17
576.08	2264.77
576.43	2261.49
576.78	2257.83
577.13	2254.60
577.49	2251.49
577.84	2248.20
578.19	2244.38
578.54	2240.80
578.90	2236.71
579.25	2231.19
579.60	2226.24
579.95	2221.29
580.30	2216.38
580.66	2211.22
581.01	2206.23
581.36	2201.38
581.71	2197.26
582.06	2192.82
582.42	2188.46
582.77	2183.25
583.12	2178.74
583.47	2174.11
583.82	2169.27
584.17	2164.20
584.53	2158.85
584.88	2153.16
585.23	2147.39
585.58	2142.06
585.93	2136.62
586.28	2131.84
586.63	2126.95
586.98	2121.84
587.34	2117.22
587.69	2112.50
588.04	2107.26
588.39	2101.69
588.74	2095.25
589.09	2089.15
589.44	2082.58
589.79	2076.45
590.14	2070.91
590.49	2064.41
590.84	2058.12
591.19	2052.08
591.54	2045.56
591.89	2038.30
592.25	2031.68
592.60	2024.49
592.95	2017.07
593.30	2009.86
593.65	2002.40
594.00	1995.37
594.35	1988.21
594.70	1980.07
595.05	1973.01
595.40	1965.84
595.75	1958.48
596.10	1952.30
596.45	1945.78
596.80	1939.77
597.15	1933.35
597.50	1926.40
597.85	1919.96
598.19	1913.39
598.54	1906.50
598.89	1899.86
599.24	1893.93
599.59	1887.35
599.94	1881.25
600.29	1874.81
600.64	1868.08
600.99	1860.66
601.34	1853.81
601.69	1846.95
602.04	1840.26
602.39	1833.01
602.74	1826.15
603.08	1819.42
603.43	1812.78
603.78	1805.38
604.13	1798.01
604.48	1790.77
604.83	1783.85
605.18	1776.91
605.53	1768.94
605.87	1760.74
606.22	1753.55
606.57	1745.59
606.92	1738.10
607.27	1730.81
607.62	1723.99
607.96	1716.73
608.31	1709.98
608.66	1702.30
609.01	1694.58
609.36	1686.83
609.70	1678.67
610.05	1670.69
610.40	1662.97
610.75	1654.50
611.10	1646.77
611.44	1638.39
611.79	1630.34
612.14	1621.64
612.49	1612.46
612.83	1603.99
613.18	1596.03
613.53	1587.98
613.88	1579.51
614.22	1571.33
614.57	1562.85
614.92	1554.91
615.27	1547.62
615.61	1539.45
615.96	1531.48
616.31	1524.03
616.65	1516.84
617.00	1509.32
617.35	1501.72
617.70	1493.50
618.04	1485.07
618.39	1476.85
618.74	1469.20
619.08	1460.84
619.43	1453.25
619.78	1446.33
620.12	1439.31
620.47	1431.70
620.82	1423.46
621.16	1416.05
621.51	1408.50
621.85	1400.84
622.20	1392.16
622.55	1383.61
622.89	1375.82
623.24	1368.19
623.59	1360.64
623.93	1353.04
624.28	1345.79
624.62	1338.20
624.97	1331.00
625.32	1324.25
625.66	1317.27
626.01	1310.20
626.35	1302.85
626.70	1295.07
627.04	1287.33
627.39	1279.41
627.73	1271.96
628.08	1265.16
628.43	1257.94
628.77	1250.59
629.12	1243.08
629.46	1236.03
629.81	1228.54
630.15	1221.23
630.50	1213.83
630.84	1205.75
631.19	1197.89
631.53	1190.46
631.88	1182.95
632.22	1175.26
632.57	1167.88
632.91	1160.37
633.26	1152.84
633.60	1145.40
633.95	1138.30
634.29	1131.12
634.64	1124.48
634.98	1117.15
635.32	1109.98
635.67	1103.31
636.01	1096.63
636.36	1089.79
636.70	1083.19
637.05	1076.70
637.39	1070.13
637.73	1063.76
638.08	1057.79
638.42	1051.81
638.77	1045.33
639.11	1038.74
639.45	1032.35
639.80	1025.74
640.14	1019.33
640.49	1012.93
640.83	1006.57
641.17	1000.38
641.52	994.23
641.86	987.69
642.20	981.84
642.55	975.37
642.89	968.90
643.23	962.28
643.58	956.50
643.92	950.32
644.26	944.27
644.61	938.27
644.95	932.21
645.29	925.70
645.64	918.98
645.98	912.60
646.32	906.72
646.66	900.74
647.01	894.98
647.35	889.20
647.69	883.27
648.04	877.77
648.38	871.92
648.72	865.99
649.06	860.02
649.41	854.08
649.75	848.25
650.09	842.31
650.43	836.56
650.78	830.44
651.12	824.50
651.46	818.83
651.80	813.16
652.14	807.76
652.49	802.43
652.83	797.25
653.17	791.62
653.51	785.91
653.85	780.49
654.20	774.78
654.54	768.89
654.88	763.14
655.22	757.19
655.56	751.61
655.90	746.05
656.25	740.86
656.59	735.56
656.93	730.44
657.27	725.26
657.61	719.79
657.95	714.59
658.29	709.46
658.64	704.17
658.98	698.82
659.32	693.33
659.66	688.09
660.00	682.72
660.34	677.73
660.68	672.84
661.02	667.80
661.36	663.04
661.70	658.50
662.05	654.18
662.39	649.94
662.73	645.42
663.07	641.12
663.41	636.67
663.75	632.22
664.09	627.64
664.43	623.29
664.77	619.22
665.11	615.05
665.45	610.84
665.79	606.74
666.13	602.61
666.47	598.45
666.81	594.27
667.15	590.20
667.49	586.26
667.83	582.42
668.17	578.44
668.51	574.43
668.85	570.38
669.19	566.49
669.53	562.65
669.87	558.78
670.21	555.00
670.55	551.32
670.89	547.80
671.23	544.36
671.57	540.79
671.91	537.19
672.25	533.65
672.58	530.24
672.92	526.83
673.26	523.65
673.60	520.50
673.94	517.34
674.28	514.38
674.62	511.48
674.96	508.39
675.30	505.49
675.64	502.60
675.97	499.80
676.31	496.93
676.65	493.96
676.99	491.28
677.33	488.47
677.67	485.66
678.01	482.71
678.34	479.75
678.68	476.86
679.02	474.06
679.36	471.35
679.70	468.54
680.04	465.79
680.37	462.93
680.71	460.19
681.05	457.64
681.39	454.92
681.73	452.22
682.06	449.67
682.40	447.12
682.74	444.55
683.08	441.99
683.42	439.44
683.75	436.96
684.09	434.37
684.43	431.85
684.77	429.41
685.10	427.01
685.44	424.64
685.78	422.32
686.12	420.11
686.45	417.77
686.79	415.54
687.13	413.38
687.46	411.21
687.80	409.03
688.14	406.74
688.48	404.71
688.81	402.52
689.15	400.33
689.49	398.20
689.82	396.10
690.16	394.05
690.50	392.05
690.83	390.09
691.17	388.08
691.51	386.19
691.84	384.32
692.18	382.35
692.52	380.41
692.85	378.47
693.19	376.58
693.52	374.75
693.86	372.93
694.20	371.08
694.53	369.30
694.87	367.44
695.21	365.70
695.54	363.80
695.88	362.04
696.21	360.36
696.55	358.71
696.88	357.04
697.22	355.36
697.56	353.72
697.89	352.11
698.23	350.51
698.56	348.87
698.90	347.30
699.23	345.66
699.57	344.11
699.90	342.60
700.24	341.07
700.58	339.56
700.91	338.04
701.25	336.60
701.58	335.22
701.92	333.84
702.25	332.46
702.59	331.13
702.92	329.81
703.26	328.45
703.59	327.15
703.93	325.95
704.26	324.67
704.60	323.34
704.93	322.03
705.26	320.78
705.60	319.58
705.93	318.40
706.27	317.39
706.60	316.34
706.94	315.22
707.27	314.05
707.61	312.97
707.94	311.91
708.27	310.77
708.61	309.66
708.94	308.66
709.28	307.66
709.61	306.74
709.94	305.78
710.28	304.79
710.61	303.79
710.95	302.72
711.28	301.84
711.61	300.93
711.95	299.98
712.28	299.07
712.61	298.12
712.95	297.16
713.28	296.27
713.61	295.35
713.95	294.50
714.28	293.69
714.61	292.85
714.95	292.05
715.28	291.27
715.61	290.41
715.95	289.52
716.28	288.64
716.61	287.79
716.95	287.01
717.28	286.24
717.61	285.46
717.94	284.73
718.28	283.91
718.61	283.17
718.94	282.52
719.27	281.84
719.61	281.20
719.94	280.55
720.27	279.83
720.60	279.20
720.94	278.57
721.27	277.96
721.60	277.39
721.93	276.77
722.27	276.18
722.60	275.64
722.93	275.08
723.26	274.56
723.59	274.00
723.93	273.44
724.26	272.94
724.59	272.37
724.92	271.80
725.25	271.31
725.59	270.80
725.92	270.26
726.25	269.75
726.58	269.24
726.91	268.76
727.24	268.30
727.57	267.82
727.91	267.32
728.24	266.85
728.57	266.32
728.90	265.86
729.23	265.39
729.56	265.00
729.89	264.54
730.22	264.05
730.55	263.58
730.89	263.11
731.22	262.65
731.55	262.21
731.88	261.80
732.21	261.39
732.54	260.97
732.87	260.54
733.20	260.14
733.53	259.76
733.86	259.36
734.19	258.94
734.52	258.54
734.85	258.16
735.18	257.72
735.51	257.38
735.84	256.99
736.17	256.63
736.50	256.17
736.83	255.94
737.16	255.63
737.49	255.31
737.82	254.96
738.15	254.63
738.48	254.30
738.81	253.99
739.14	253.64
739.47	253.34
739.80	253.02
740.13	252.74
740.46	252.41
740.79	252.12
741.12	251.83
741.45	251.52
741.78	251.23
742.11	250.98
742.44	250.65
742.77	250.40
743.10	250.11
743.43	249.81
743.75	249.42
744.08	249.26
744.41	248.94
744.74	248.71
745.07	248.40
745.40	248.17
745.73	247.91
746.06	247.68
746.39	247.40
746.71	247.13
747.04	246.87
747.37	246.63
747.70	246.36
748.03	246.13
748.36	245.92
748.68	245.67
749.01	245.39
749.34	245.20
749.67	244.96
750.00	244.72
750.33	244.55
750.65	244.38
750.98	244.07
751.31	243.87
751.64	243.66
751.97	243.54
752.29	243.27
752.62	243.05
752.95	242.82
753.28	242.62
753.60	242.43
753.93	242.21
754.26	242.02
754.59	241.80
754.91	241.58
755.24	241.35
755.57	241.19
755.90	241.02
756.22	240.78
756.55	240.55
756.88	240.35
757.20	240.14
757.53	239.92
757.86	239.74
758.19	239.55
758.51	239.35
758.84	239.14
759.17	239.00
759.49	238.85
759.82	238.73
760.15	238.56
760.47	238.44
760.80	238.25
761.13	238.08
761.45	237.93
761.78	237.80
762.11	237.69
762.43	237.53
762.76	237.38
763.08	237.27
763.41	237.19
763.74	237.08
764.06	236.95
764.39	236.79
764.71	236.65
765.04	236.54
765.37	236.41
765.69	236.22
766.02	236.12
766.34	235.98
766.67	235.80
767.00	235.73
767.32	235.60
767.65	235.57
767.97	235.46
768.30	235.37
768.62	235.26
768.95	235.11
769.27	234.99
769.60	234.91
769.92	234.79
770.25	234.64
770.57	234.54
770.90	234.43
771.22	234.35
771.55	234.22
771.87	234.14
772.20	234.05
772.52	234.07
772.85	234.05
773.17	233.96
773.50	233.90
773.82	233.76
774.15	233.66
774.47	233.49
774.80	233.39
775.12	233.27
775.45	233.20
775.77	233.17
776.09	233.05
776.42	232.97
776.74	232.95
777.07	232.88
777.39	232.81
777.72	232.76
778.04	232.70
778.36	232.63
778.69	232.56
779.01	232.50
779.33	232.36
779.66	232.13
779.98	232.07
780.31	231.98
780.63	231.97
780.95	231.91
781.28	231.88
781.60	231.80
781.92	231.76
782.25	231.66
782.57	231.56
782.89	231.52
783.22	231.45
783.54	231.32
783.86	231.27
784.19	231.20
784.51	231.17
784.83	231.10
785.16	231.07
785.48	230.98
785.80	230.92
786.12	230.90
786.45	230.93
786.77	230.91
787.09	230.88
