SpectraSuite Data File
++++++++++++++++++++++++++++++++++++
Date: Fri Feb 01 15:12:55 EST 2013
User: group
Dark Spectrum Present: No
Reference Spectrum Present: No
Number of Sampled Component Spectra: 1
Spectrometers: USB2E7196
Integration Time (usec): 35000 (USB2E7196)
Spectra Averaged: 100 (USB2E7196)
Boxcar Smoothing: 10 (USB2E7196)
Correct for Electrical Dark: No (USB2E7196)
Strobe/Lamp Enabled: No (USB2E7196)
Correct for Detector Non-linearity: No (USB2E7196)
Correct for Stray Light: No (USB2E7196)
Number of Pixels in Processed Spectrum: 2048
>>>>>Begin Processed Spectral Data<<<<<
339.09	0.00
339.48	215.12
339.86	217.06
340.24	218.06
340.63	219.91
341.01	222.72
341.39	222.35
341.78	223.43
342.16	224.80
342.54	225.19
342.93	213.72
343.31	224.51
343.69	225.06
344.07	225.52
344.46	225.96
344.84	226.34
345.22	226.55
345.60	226.80
345.99	227.00
346.37	227.12
346.75	227.24
347.13	227.30
347.52	227.35
347.90	227.36
348.28	227.39
348.66	227.43
349.05	227.42
349.43	227.47
349.81	227.50
350.19	227.53
350.57	227.61
350.96	227.64
351.34	227.72
351.72	227.82
352.10	227.90
352.48	227.95
352.87	227.97
353.25	228.05
353.63	228.13
354.01	228.19
354.39	228.27
354.77	228.33
355.15	228.44
355.54	228.48
355.92	228.53
356.30	228.56
356.68	228.70
357.06	228.75
357.44	228.81
357.82	228.82
358.20	228.92
358.58	228.97
358.97	229.04
359.35	229.15
359.73	229.21
360.11	229.22
360.49	229.24
360.87	229.30
361.25	229.34
361.63	229.37
362.01	229.42
362.39	229.44
362.77	229.47
363.15	229.49
363.53	229.53
363.91	229.56
364.29	229.61
364.67	229.52
365.05	229.55
365.43	229.53
365.81	229.55
366.19	229.58
366.57	229.60
366.95	229.60
367.33	229.54
367.71	229.50
368.09	229.52
368.47	229.53
368.85	229.50
369.23	229.47
369.61	229.42
369.99	229.37
370.37	229.38
370.75	229.37
371.13	229.29
371.51	229.22
371.89	229.21
372.27	229.17
372.65	229.09
373.03	229.05
373.41	229.00
373.78	228.95
374.16	228.83
374.54	228.73
374.92	228.67
375.30	228.59
375.68	228.50
376.06	228.44
376.44	228.34
376.82	228.24
377.19	228.13
377.57	228.05
377.95	227.97
378.33	227.86
378.71	227.76
379.09	227.71
379.47	227.65
379.84	227.51
380.22	227.40
380.60	227.34
380.98	227.26
381.36	227.18
381.73	227.10
382.11	227.06
382.49	227.00
382.87	226.92
383.25	226.87
383.62	226.95
384.00	226.86
384.38	226.82
384.76	226.81
385.13	226.84
385.51	226.79
385.89	226.72
386.27	226.69
386.64	226.65
387.02	226.58
387.40	226.55
387.78	226.54
388.15	226.51
388.53	226.49
388.91	226.44
389.29	226.42
389.66	226.43
390.04	226.37
390.42	226.38
390.79	226.36
391.17	226.32
391.55	226.21
391.92	226.24
392.30	226.27
392.68	226.25
393.05	226.23
393.43	226.24
393.81	226.26
394.18	226.28
394.56	226.32
394.94	226.40
395.31	226.43
395.69	226.51
396.06	226.55
396.44	226.59
396.82	226.64
397.19	226.71
397.57	226.73
397.95	226.80
398.32	226.85
398.70	226.93
399.07	227.04
399.45	227.12
399.82	227.18
400.20	227.24
400.58	227.35
400.95	227.43
401.33	227.55
401.70	227.73
402.08	227.83
402.45	227.91
402.83	228.01
403.20	228.13
403.58	228.22
403.95	228.37
404.33	228.55
404.71	228.68
405.08	228.89
405.46	229.05
405.83	229.20
406.21	229.33
406.58	229.54
406.96	229.71
407.33	229.89
407.70	230.10
408.08	230.34
408.45	230.57
408.83	230.79
409.20	231.04
409.58	231.22
409.95	231.51
410.33	231.78
410.70	232.02
411.08	232.31
411.45	232.64
411.82	232.94
412.20	233.26
412.57	233.68
412.95	233.98
413.32	234.39
413.69	234.81
414.07	235.26
414.44	235.70
414.82	236.17
415.19	236.73
415.56	237.25
415.94	237.82
416.31	238.47
416.68	239.11
417.06	239.81
417.43	240.46
417.81	241.20
418.18	241.98
418.55	242.84
418.93	243.74
419.30	244.62
419.67	245.53
420.04	246.48
420.42	247.45
420.79	248.57
421.16	249.72
421.54	250.89
421.91	252.09
422.28	253.34
422.66	254.67
423.03	255.96
423.40	257.28
423.77	258.68
424.15	260.09
424.52	261.54
424.89	263.12
425.26	264.66
425.64	266.07
426.01	267.66
426.38	269.30
426.75	270.96
427.13	272.64
427.50	274.46
427.87	276.33
428.24	278.18
428.61	279.98
428.99	281.91
429.36	284.01
429.73	286.07
430.10	288.04
430.47	290.10
430.85	292.21
431.22	294.47
431.59	296.83
431.96	299.07
432.33	301.59
432.70	303.97
433.08	306.83
433.45	309.47
433.82	312.09
434.19	315.00
434.56	317.81
434.93	320.52
435.30	323.17
435.68	326.12
436.05	328.99
436.42	331.80
436.79	334.38
437.16	337.09
437.53	339.91
437.90	342.79
438.27	345.59
438.64	348.44
439.01	351.04
439.38	353.33
439.75	355.54
440.13	358.05
440.50	360.44
440.87	362.32
441.24	364.33
441.61	366.50
441.98	367.94
442.35	369.73
442.72	371.62
443.09	373.45
443.46	374.41
443.83	375.00
444.20	375.48
444.57	376.29
444.94	376.64
445.31	377.01
445.68	377.40
446.05	377.51
446.42	377.15
446.79	376.75
447.16	376.29
447.53	375.96
447.90	374.82
448.27	373.67
448.64	372.06
449.01	370.91
449.37	368.91
449.74	367.07
450.11	364.85
450.48	362.39
450.85	359.86
451.22	357.75
451.59	355.74
451.96	353.82
452.33	351.22
452.70	348.85
453.07	346.00
453.43	343.04
453.80	340.19
454.17	337.50
454.54	334.98
454.91	332.25
455.28	329.56
455.65	327.04
456.02	324.53
456.38	322.40
456.75	319.68
457.12	317.43
457.49	315.19
457.86	312.99
458.23	311.07
458.59	309.03
458.96	306.91
459.33	305.09
459.70	303.22
460.07	301.71
460.43	299.98
460.80	298.39
461.17	296.98
461.54	295.52
461.91	294.06
462.27	292.57
462.64	291.34
463.01	289.98
463.38	288.69
463.74	287.32
464.11	286.11
464.48	285.10
464.85	283.97
465.21	283.07
465.58	282.12
465.95	281.05
466.32	280.07
466.68	279.17
467.05	278.20
467.42	277.24
467.78	276.26
468.15	275.35
468.52	274.66
468.88	273.77
469.25	272.92
469.62	272.28
469.98	271.59
470.35	270.94
470.72	270.30
471.08	269.61
471.45	269.05
471.82	268.47
472.18	267.84
472.55	267.40
472.92	266.87
473.28	266.38
473.65	265.90
474.02	265.42
474.38	264.98
474.75	264.64
475.11	264.29
475.48	264.04
475.85	263.81
476.21	263.55
476.58	263.34
476.94	263.17
477.31	263.00
477.67	262.83
478.04	262.70
478.41	262.64
478.77	262.66
479.14	262.59
479.50	262.60
479.87	262.65
480.23	262.75
480.60	262.83
480.96	262.92
481.33	263.13
481.69	263.35
482.06	263.58
482.42	263.83
482.79	264.11
483.15	264.45
483.52	264.80
483.88	265.14
484.25	265.50
484.61	265.95
484.98	266.39
485.34	266.96
485.71	267.55
486.07	268.16
486.44	268.69
486.80	269.38
487.17	270.13
487.53	271.00
487.90	271.83
488.26	272.75
488.62	273.77
488.99	274.72
489.35	275.83
489.72	276.96
490.08	278.14
490.44	279.33
490.81	280.65
491.17	282.01
491.54	283.55
491.90	285.11
492.26	286.77
492.63	288.51
492.99	290.26
493.36	292.16
493.72	294.19
494.08	296.30
494.45	298.57
494.81	300.92
495.17	303.32
495.54	305.88
495.90	308.54
496.26	311.31
496.63	314.28
496.99	317.32
497.35	320.54
497.72	323.92
498.08	327.47
498.44	331.14
498.80	335.08
499.17	339.07
499.53	343.18
499.89	347.57
500.26	352.04
500.62	356.71
500.98	361.66
501.34	366.73
501.71	372.04
502.07	377.48
502.43	383.11
502.79	388.91
503.16	395.00
503.52	401.25
503.88	407.70
504.24	414.35
504.60	421.35
504.97	428.47
505.33	435.83
505.69	443.50
506.05	451.21
506.41	459.10
506.78	467.23
507.14	475.71
507.50	484.42
507.86	493.43
508.22	502.66
508.59	511.85
508.95	521.44
509.31	531.29
509.67	541.42
510.03	551.67
510.39	562.24
510.75	573.04
511.12	584.03
511.48	595.37
511.84	606.78
512.20	618.23
512.56	630.26
512.92	642.41
513.28	654.78
513.64	667.35
514.00	680.02
514.37	692.98
514.73	706.05
515.09	719.09
515.45	732.49
515.81	746.09
516.17	760.13
516.53	774.25
516.89	788.42
517.25	802.55
517.61	817.03
517.97	831.45
518.33	845.84
518.69	860.61
519.05	875.63
519.41	890.89
519.77	906.47
520.13	921.89
520.49	937.31
520.85	952.87
521.21	968.61
521.57	984.93
521.93	1000.74
522.29	1017.16
522.65	1033.46
523.01	1049.72
523.37	1065.82
523.73	1082.08
524.09	1098.25
524.45	1114.75
524.81	1131.44
525.17	1148.35
525.53	1165.43
525.89	1182.35
526.25	1199.28
526.61	1215.69
526.97	1232.49
527.33	1248.93
527.68	1265.65
528.04	1282.18
528.40	1298.81
528.76	1315.93
529.12	1332.54
529.48	1349.49
529.84	1365.69
530.20	1382.47
530.56	1399.60
530.91	1417.07
531.27	1433.90
531.63	1450.44
531.99	1466.98
532.35	1483.05
532.71	1499.02
533.07	1515.29
533.42	1531.30
533.78	1547.36
534.14	1563.70
534.50	1579.12
534.86	1595.13
535.21	1610.32
535.57	1626.44
535.93	1641.95
536.29	1656.89
536.65	1672.08
537.00	1686.96
537.36	1702.32
537.72	1716.98
538.08	1731.38
538.44	1745.25
538.79	1759.18
539.15	1772.94
539.51	1786.77
539.87	1801.23
540.22	1815.07
540.58	1828.98
540.94	1842.51
541.29	1855.53
541.65	1868.25
542.01	1881.68
542.37	1894.19
542.72	1906.76
543.08	1918.43
543.44	1930.92
543.79	1942.14
544.15	1953.29
544.51	1964.91
544.87	1975.83
545.22	1986.69
545.58	1996.87
545.94	2006.71
546.29	2016.64
546.65	2026.46
547.01	2035.83
547.36	2044.63
547.72	2052.97
548.07	2060.78
548.43	2069.12
548.79	2077.15
549.14	2084.72
549.50	2092.06
549.86	2099.87
550.21	2107.02
550.57	2114.34
550.92	2120.94
551.28	2128.09
551.64	2135.13
551.99	2141.67
552.35	2147.88
552.70	2153.90
553.06	2159.93
553.41	2166.17
553.77	2172.25
554.13	2178.39
554.48	2184.37
554.84	2189.63
555.19	2195.10
555.55	2200.13
555.90	2204.40
556.26	2209.31
556.61	2214.15
556.97	2218.14
557.32	2222.06
557.68	2226.30
558.03	2230.61
558.39	2234.37
558.74	2238.96
559.10	2242.76
559.45	2246.46
559.81	2250.85
560.16	2254.67
560.52	2258.00
560.87	2261.36
561.23	2263.89
561.58	2266.80
561.94	2269.42
562.29	2271.92
562.64	2274.54
563.00	2277.41
563.35	2280.89
563.71	2283.97
564.06	2286.90
564.42	2289.87
564.77	2292.36
565.12	2294.58
565.48	2296.25
565.83	2297.98
566.19	2299.16
566.54	2300.03
566.89	2301.03
567.25	2301.36
567.60	2302.63
567.96	2304.21
568.31	2305.15
568.66	2306.18
569.02	2306.61
569.37	2306.78
569.72	2307.51
570.08	2307.42
570.43	2307.13
570.78	2306.44
571.14	2304.87
571.49	2303.47
571.84	2303.12
572.20	2301.74
572.55	2300.71
572.90	2299.36
573.26	2297.98
573.61	2296.17
573.96	2294.20
574.31	2291.12
574.67	2288.23
575.02	2284.50
575.37	2281.00
575.72	2277.09
576.08	2273.79
576.43	2270.44
576.78	2266.67
577.13	2263.47
577.49	2260.40
577.84	2256.75
578.19	2252.91
578.54	2248.99
578.90	2244.77
579.25	2239.12
579.60	2234.10
579.95	2228.84
580.30	2223.54
580.66	2218.21
581.01	2213.34
581.36	2208.36
581.71	2204.16
582.06	2199.51
582.42	2194.94
582.77	2189.57
583.12	2184.96
583.47	2180.01
583.82	2174.93
584.17	2169.56
584.53	2163.98
584.88	2158.22
585.23	2152.38
585.58	2146.80
585.93	2141.42
586.28	2136.55
586.63	2131.31
586.98	2126.18
587.34	2121.49
587.69	2116.42
588.04	2110.96
588.39	2105.04
588.74	2098.55
589.09	2092.25
589.44	2085.29
589.79	2079.16
590.14	2073.43
590.49	2066.75
590.84	2060.21
591.19	2054.05
591.54	2047.63
591.89	2039.85
592.25	2032.90
592.60	2025.65
592.95	2017.89
593.30	2010.27
593.65	2002.55
594.00	1995.45
594.35	1988.13
594.70	1979.90
595.05	1972.63
595.40	1965.30
595.75	1957.83
596.10	1951.49
596.45	1944.57
596.80	1938.31
597.15	1931.67
597.50	1924.38
597.85	1917.73
598.19	1910.97
598.54	1903.88
598.89	1897.04
599.24	1891.40
599.59	1884.63
599.94	1878.52
600.29	1872.20
600.64	1865.62
600.99	1858.12
601.34	1851.20
601.69	1844.11
602.04	1837.20
602.39	1829.82
602.74	1823.01
603.08	1816.17
603.43	1809.36
603.78	1802.06
604.13	1794.77
604.48	1787.34
604.83	1780.61
605.18	1773.59
605.53	1765.58
605.87	1757.50
606.22	1750.27
606.57	1742.21
606.92	1734.97
607.27	1727.63
607.62	1720.82
607.96	1713.59
608.31	1706.94
608.66	1699.30
609.01	1691.82
609.36	1684.23
609.70	1676.22
610.05	1668.10
610.40	1660.26
610.75	1652.00
611.10	1644.39
611.44	1636.14
611.79	1628.23
612.14	1619.40
612.49	1610.38
612.83	1602.06
613.18	1594.01
613.53	1586.05
613.88	1577.47
614.22	1569.12
614.57	1560.61
614.92	1552.39
615.27	1544.75
615.61	1536.35
615.96	1528.39
616.31	1520.76
616.65	1513.42
617.00	1505.83
617.35	1498.26
617.70	1489.93
618.04	1481.41
618.39	1473.18
618.74	1465.53
619.08	1457.11
619.43	1449.65
619.78	1442.70
620.12	1435.51
620.47	1427.97
620.82	1419.77
621.16	1412.44
621.51	1404.92
621.85	1397.26
622.20	1388.87
622.55	1380.68
622.89	1372.99
623.24	1365.40
623.59	1358.01
623.93	1350.46
624.28	1343.30
624.62	1335.74
624.97	1328.63
625.32	1321.94
625.66	1314.95
626.01	1307.77
626.35	1300.43
626.70	1292.68
627.04	1284.98
627.39	1277.23
627.73	1269.82
628.08	1262.79
628.43	1255.50
628.77	1248.18
629.12	1240.61
629.46	1233.33
629.81	1225.84
630.15	1218.61
630.50	1211.14
630.84	1203.01
631.19	1195.14
631.53	1187.67
631.88	1180.10
632.22	1172.52
632.57	1165.15
632.91	1157.56
633.26	1150.10
633.60	1142.76
633.95	1135.82
634.29	1128.80
634.64	1122.13
634.98	1114.74
635.32	1107.67
635.67	1101.03
636.01	1094.30
636.36	1087.55
636.70	1081.20
637.05	1074.66
637.39	1068.23
637.73	1061.81
638.08	1055.99
638.42	1050.03
638.77	1043.67
639.11	1037.07
639.45	1030.76
639.80	1024.19
640.14	1017.74
640.49	1011.35
640.83	1005.05
641.17	998.69
641.52	992.34
641.86	985.93
642.20	980.15
642.55	973.87
642.89	967.40
643.23	960.87
643.58	955.16
643.92	948.88
644.26	942.73
644.61	936.78
644.95	930.65
645.29	923.96
645.64	917.17
645.98	910.75
646.32	904.92
646.66	898.85
647.01	893.05
647.35	887.46
647.69	881.63
648.04	876.18
648.38	870.37
648.72	864.37
649.06	858.31
649.41	852.35
649.75	846.36
650.09	840.45
650.43	834.70
650.78	828.50
651.12	822.58
651.46	816.95
651.80	811.18
652.14	805.81
652.49	800.48
652.83	795.34
653.17	789.64
653.51	783.91
653.85	778.54
654.20	772.84
654.54	766.77
654.88	761.07
655.22	755.17
655.56	749.56
655.90	744.16
656.25	739.00
656.59	733.72
656.93	728.67
657.27	723.53
657.61	718.09
657.95	713.01
658.29	707.99
658.64	702.74
658.98	697.44
659.32	692.06
659.66	686.88
660.00	681.60
660.34	676.70
660.68	671.85
661.02	666.88
661.36	662.17
661.70	657.73
662.05	653.28
662.39	648.93
662.73	644.45
663.07	640.09
663.41	635.61
663.75	631.12
664.09	626.55
664.43	622.20
664.77	618.10
665.11	613.83
665.45	609.77
665.79	605.67
666.13	601.51
666.47	597.44
666.81	593.29
667.15	589.23
667.49	585.33
667.83	581.54
668.17	577.55
668.51	573.52
668.85	569.54
669.19	565.71
669.53	561.86
669.87	558.02
670.21	554.32
670.55	550.71
670.89	547.25
671.23	543.88
671.57	540.34
671.91	536.83
672.25	533.34
672.58	529.77
672.92	526.42
673.26	523.24
673.60	520.13
673.94	517.04
674.28	514.19
674.62	511.22
674.96	508.14
675.30	505.22
675.64	502.27
675.97	499.45
676.31	496.59
676.65	493.71
676.99	491.00
677.33	488.11
677.67	485.28
678.01	482.32
678.34	479.26
678.68	476.43
679.02	473.59
679.36	470.91
679.70	468.18
680.04	465.45
680.37	462.62
680.71	459.84
681.05	457.22
681.39	454.44
681.73	451.83
682.06	449.25
682.40	446.75
682.74	444.34
683.08	441.80
683.42	439.22
683.75	436.76
684.09	434.24
684.43	431.77
684.77	429.33
685.10	426.98
685.44	424.74
685.78	422.44
686.12	420.23
686.45	417.90
686.79	415.64
687.13	413.42
687.46	411.31
687.80	409.16
688.14	406.97
688.48	404.92
688.81	402.67
689.15	400.62
689.49	398.47
689.82	396.35
690.16	394.29
690.50	392.36
690.83	390.37
691.17	388.38
691.51	386.52
691.84	384.70
692.18	382.73
692.52	380.72
692.85	378.80
693.19	376.94
693.52	375.12
693.86	373.32
694.20	371.58
694.53	369.80
694.87	367.91
695.21	366.12
695.54	364.26
695.88	362.54
696.21	360.75
696.55	359.08
696.88	357.43
697.22	355.84
697.56	354.24
697.89	352.58
698.23	350.98
698.56	349.41
698.90	347.80
699.23	346.16
699.57	344.62
699.90	343.10
700.24	341.59
700.58	340.08
700.91	338.57
701.25	337.12
701.58	335.74
701.92	334.42
702.25	333.07
702.59	331.76
702.92	330.43
703.26	329.15
703.59	327.88
703.93	326.71
704.26	325.42
704.60	324.14
704.93	322.93
705.26	321.68
705.60	320.48
705.93	319.34
706.27	318.33
706.60	317.29
706.94	316.22
707.27	315.05
707.61	313.97
707.94	312.95
708.27	311.83
708.61	310.73
708.94	309.72
709.28	308.73
709.61	307.78
709.94	306.88
710.28	305.89
710.61	304.91
710.95	303.82
711.28	302.90
711.61	301.91
711.95	301.00
712.28	300.05
712.61	299.09
712.95	298.11
713.28	297.24
713.61	296.34
713.95	295.45
714.28	294.61
714.61	293.77
714.95	292.92
715.28	292.13
715.61	291.24
715.95	290.36
716.28	289.51
716.61	288.66
716.95	287.85
717.28	287.08
717.61	286.33
717.94	285.59
718.28	284.82
718.61	284.12
718.94	283.43
719.27	282.75
719.61	282.11
719.94	281.48
720.27	280.78
720.60	280.12
720.94	279.47
721.27	278.89
721.60	278.31
721.93	277.72
722.27	277.16
722.60	276.66
722.93	276.12
723.26	275.58
723.59	275.04
723.93	274.48
724.26	273.90
724.59	273.32
724.92	272.78
725.25	272.26
725.59	271.75
725.92	271.25
726.25	270.76
726.58	270.25
726.91	269.76
727.24	269.26
727.57	268.83
727.91	268.35
728.24	267.88
728.57	267.38
728.90	266.92
729.23	266.39
729.56	265.96
729.89	265.48
730.22	265.01
730.55	264.57
730.89	264.13
731.22	263.71
731.55	263.29
731.88	262.90
732.21	262.47
732.54	262.03
732.87	261.58
733.20	261.19
733.53	260.81
733.86	260.44
734.19	260.06
734.52	259.70
734.85	259.41
735.18	258.99
735.51	258.63
735.84	258.25
736.17	257.93
736.50	257.49
736.83	257.30
737.16	256.98
737.49	256.61
737.82	256.28
738.15	255.97
738.48	255.67
738.81	255.34
739.14	255.04
739.47	254.74
739.80	254.46
740.13	254.17
740.46	253.82
740.79	253.49
741.12	253.18
741.45	252.85
741.78	252.50
742.11	252.24
742.44	251.95
742.77	251.68
743.10	251.38
743.43	251.11
743.75	250.71
744.08	250.58
744.41	250.32
744.74	250.07
745.07	249.77
745.40	249.47
745.73	249.22
746.06	248.92
746.39	248.65
746.71	248.36
747.04	248.08
747.37	247.83
747.70	247.59
748.03	247.36
748.36	247.14
748.68	246.88
749.01	246.59
749.34	246.31
749.67	246.07
750.00	245.83
750.33	245.70
750.65	245.45
750.98	245.07
751.31	244.85
751.64	244.63
751.97	244.44
752.29	244.23
752.62	243.96
752.95	243.76
753.28	243.56
753.60	243.36
753.93	243.16
754.26	242.98
754.59	242.77
754.91	242.55
755.24	242.30
755.57	242.11
755.90	241.92
756.22	241.75
756.55	241.56
756.88	241.36
757.20	241.09
757.53	240.90
757.86	240.75
758.19	240.61
758.51	240.42
758.84	240.24
759.17	240.06
759.49	239.93
759.82	239.77
760.15	239.62
760.47	239.48
760.80	239.32
761.13	239.17
761.45	238.99
761.78	238.84
762.11	238.72
762.43	238.58
762.76	238.45
763.08	238.35
763.41	238.22
763.74	238.10
764.06	237.95
764.39	237.81
764.71	237.66
765.04	237.48
765.37	237.37
765.69	237.26
766.02	237.14
766.34	237.02
766.67	236.88
767.00	236.76
767.32	236.66
767.65	236.58
767.97	236.48
768.30	236.42
768.62	236.30
768.95	236.21
769.27	236.08
769.60	235.98
769.92	235.82
770.25	235.71
770.57	235.62
770.90	235.52
771.22	235.43
771.55	235.33
771.87	235.26
772.20	235.14
772.52	235.12
772.85	235.17
773.17	235.06
773.50	234.97
773.82	234.88
774.15	234.76
774.47	234.60
774.80	234.47
775.12	234.39
775.45	234.26
775.77	234.14
776.09	234.10
776.42	234.03
776.74	234.01
777.07	233.95
777.39	233.83
777.72	233.75
778.04	233.71
778.36	233.61
778.69	233.56
779.01	233.53
779.33	233.38
779.66	233.17
779.98	233.15
780.31	233.10
780.63	233.09
780.95	233.08
781.28	233.05
781.60	232.98
781.92	232.89
782.25	232.90
782.57	232.87
782.89	232.80
783.22	232.70
783.54	232.62
783.86	232.55
784.19	232.51
784.51	232.49
784.83	232.42
785.16	232.39
785.48	232.32
785.80	232.25
786.12	232.23
786.45	232.17
786.77	232.12
787.09	232.06
