SpectraSuite Data File
++++++++++++++++++++++++++++++++++++
Date: Fri Feb 01 16:31:10 EST 2013
User: group
Dark Spectrum Present: No
Reference Spectrum Present: No
Number of Sampled Component Spectra: 1
Spectrometers: USB2E7196
Integration Time (usec): 35000 (USB2E7196)
Spectra Averaged: 100 (USB2E7196)
Boxcar Smoothing: 10 (USB2E7196)
Correct for Electrical Dark: No (USB2E7196)
Strobe/Lamp Enabled: No (USB2E7196)
Correct for Detector Non-linearity: No (USB2E7196)
Correct for Stray Light: No (USB2E7196)
Number of Pixels in Processed Spectrum: 2048
>>>>>Begin Processed Spectral Data<<<<<
339.09	0.00
339.48	214.57
339.86	215.64
340.24	217.04
340.63	218.43
341.01	221.87
341.39	221.35
341.78	222.38
342.16	223.19
342.54	224.31
342.93	212.62
343.31	223.39
343.69	223.92
344.07	224.40
344.46	224.82
344.84	225.20
345.22	225.43
345.60	225.65
345.99	225.85
346.37	225.99
346.75	226.10
347.13	226.19
347.52	226.27
347.90	226.35
348.28	226.36
348.66	226.39
349.05	226.39
349.43	226.44
349.81	226.47
350.19	226.52
350.57	226.59
350.96	226.63
351.34	226.67
351.72	226.73
352.10	226.81
352.48	226.84
352.87	226.89
353.25	226.93
353.63	226.99
354.01	227.06
354.39	227.12
354.77	227.18
355.15	227.26
355.54	227.28
355.92	227.29
356.30	227.37
356.68	227.52
357.06	227.58
357.44	227.62
357.82	227.68
358.20	227.73
358.58	227.79
358.97	227.84
359.35	227.92
359.73	227.99
360.11	228.02
360.49	228.11
360.87	228.13
361.25	228.18
361.63	228.25
362.01	228.31
362.39	228.35
362.77	228.38
363.15	228.39
363.53	228.41
363.91	228.41
364.29	228.42
364.67	228.36
365.05	228.37
365.43	228.39
365.81	228.41
366.19	228.46
366.57	228.44
366.95	228.48
367.33	228.48
367.71	228.47
368.09	228.49
368.47	228.47
368.85	228.48
369.23	228.49
369.61	228.46
369.99	228.45
370.37	228.43
370.75	228.43
371.13	228.38
371.51	228.33
371.89	228.31
372.27	228.27
372.65	228.19
373.03	228.14
373.41	228.09
373.78	228.01
374.16	227.91
374.54	227.85
374.92	227.75
375.30	227.67
375.68	227.58
376.06	227.54
376.44	227.47
376.82	227.40
377.19	227.31
377.57	227.25
377.95	227.14
378.33	227.04
378.71	226.92
379.09	226.88
379.47	226.83
379.84	226.77
380.22	226.72
380.60	226.65
380.98	226.56
381.36	226.50
381.73	226.44
382.11	226.41
382.49	226.33
382.87	226.26
383.25	226.22
383.62	226.28
384.00	226.21
384.38	226.17
384.76	226.12
385.13	226.12
385.51	226.05
385.89	226.01
386.27	225.99
386.64	225.97
387.02	225.92
387.40	225.88
387.78	225.83
388.15	225.79
388.53	225.77
388.91	225.78
389.29	225.74
389.66	225.71
390.04	225.66
390.42	225.69
390.79	225.67
391.17	225.64
391.55	225.48
391.92	225.46
392.30	225.45
392.68	225.44
393.05	225.40
393.43	225.41
393.81	225.39
394.18	225.40
394.56	225.40
394.94	225.43
395.31	225.45
395.69	225.52
396.06	225.53
396.44	225.56
396.82	225.59
397.19	225.65
397.57	225.72
397.95	225.77
398.32	225.81
398.70	225.87
399.07	225.92
399.45	226.02
399.82	226.07
400.20	226.14
400.58	226.17
400.95	226.22
401.33	226.33
401.70	226.48
402.08	226.57
402.45	226.70
402.83	226.79
403.20	226.88
403.58	226.95
403.95	227.10
404.33	227.23
404.71	227.33
405.08	227.50
405.46	227.59
405.83	227.74
406.21	227.86
406.58	228.02
406.96	228.21
407.33	228.37
407.70	228.58
408.08	228.83
408.45	229.07
408.83	229.27
409.20	229.46
409.58	229.66
409.95	229.92
410.33	230.16
410.70	230.40
411.08	230.70
411.45	231.02
411.82	231.31
412.20	231.64
412.57	232.04
412.95	232.34
413.32	232.79
413.69	233.21
414.07	233.66
414.44	234.14
414.82	234.58
415.19	235.16
415.56	235.71
415.94	236.25
416.31	236.89
416.68	237.53
417.06	238.26
417.43	238.95
417.81	239.70
418.18	240.47
418.55	241.33
418.93	242.23
419.30	243.12
419.67	244.06
420.04	245.02
420.42	246.01
420.79	247.20
421.16	248.35
421.54	249.52
421.91	250.71
422.28	251.97
422.66	253.32
423.03	254.57
423.40	255.88
423.77	257.30
424.15	258.74
424.52	260.23
424.89	261.84
425.26	263.35
425.64	264.82
426.01	266.42
426.38	268.06
426.75	269.70
427.13	271.39
427.50	273.19
427.87	275.08
428.24	276.97
428.61	278.68
428.99	280.61
429.36	282.70
429.73	284.77
430.10	286.77
430.47	288.80
430.85	290.95
431.22	293.23
431.59	295.60
431.96	297.79
432.33	300.25
432.70	302.55
433.08	305.36
433.45	307.98
433.82	310.56
434.19	313.41
434.56	316.21
434.93	318.88
435.30	321.49
435.68	324.33
436.05	327.12
436.42	329.93
436.79	332.45
437.16	335.15
437.53	337.97
437.90	340.80
438.27	343.53
438.64	346.37
439.01	348.90
439.38	351.11
439.75	353.27
440.13	355.76
440.50	358.14
440.87	360.04
441.24	361.95
441.61	364.06
441.98	365.53
442.35	367.35
442.72	369.20
443.09	370.97
443.46	371.96
443.83	372.55
444.20	373.01
444.57	373.82
444.94	374.10
445.31	374.44
445.68	374.78
446.05	374.84
446.42	374.43
446.79	374.02
447.16	373.59
447.53	373.32
447.90	372.14
448.27	371.01
448.64	369.37
449.01	368.23
449.37	366.32
449.74	364.43
450.11	362.15
450.48	359.60
450.85	357.06
451.22	354.94
451.59	352.92
451.96	351.01
452.33	348.39
452.70	346.06
453.07	343.26
453.43	340.34
453.80	337.58
454.17	334.91
454.54	332.40
454.91	329.67
455.28	327.01
455.65	324.55
456.02	322.08
456.38	319.96
456.75	317.32
457.12	315.09
457.49	312.89
457.86	310.74
458.23	308.99
458.59	306.98
458.96	304.92
459.33	303.07
459.70	301.23
460.07	299.73
460.43	298.02
460.80	296.40
461.17	294.95
461.54	293.48
461.91	292.07
462.27	290.62
462.64	289.36
463.01	287.99
463.38	286.70
463.74	285.35
464.11	284.17
464.48	283.16
464.85	282.08
465.21	281.25
465.58	280.35
465.95	279.24
466.32	278.34
466.68	277.45
467.05	276.58
467.42	275.72
467.78	274.82
468.15	273.95
468.52	273.26
468.88	272.42
469.25	271.66
469.62	271.05
469.98	270.40
470.35	269.80
470.72	269.20
471.08	268.59
471.45	268.07
471.82	267.57
472.18	266.94
472.55	266.48
472.92	265.94
473.28	265.52
473.65	265.10
474.02	264.69
474.38	264.36
474.75	264.05
475.11	263.67
475.48	263.43
475.85	263.21
476.21	263.00
476.58	262.85
476.94	262.72
477.31	262.58
477.67	262.45
478.04	262.35
478.41	262.31
478.77	262.33
479.14	262.29
479.50	262.29
479.87	262.37
480.23	262.45
480.60	262.54
480.96	262.60
481.33	262.86
481.69	263.02
482.06	263.21
482.42	263.39
482.79	263.68
483.15	264.00
483.52	264.37
483.88	264.75
484.25	265.14
484.61	265.57
484.98	266.01
485.34	266.56
485.71	267.15
486.07	267.74
486.44	268.29
486.80	269.01
487.17	269.74
487.53	270.56
487.90	271.42
488.26	272.36
488.62	273.34
488.99	274.24
489.35	275.31
489.72	276.48
490.08	277.67
490.44	278.93
490.81	280.22
491.17	281.59
491.54	283.09
491.90	284.62
492.26	286.28
492.63	288.03
492.99	289.79
493.36	291.69
493.72	293.70
494.08	295.85
494.45	298.09
494.81	300.50
495.17	302.94
495.54	305.56
495.90	308.21
496.26	311.02
496.63	314.05
496.99	317.15
497.35	320.37
497.72	323.80
498.08	327.32
498.44	331.04
498.80	334.94
499.17	338.92
499.53	343.10
499.89	347.49
500.26	351.98
500.62	356.70
500.98	361.69
501.34	366.79
501.71	372.10
502.07	377.55
502.43	383.08
502.79	388.92
503.16	394.96
503.52	401.25
503.88	407.66
504.24	414.30
504.60	421.24
504.97	428.35
505.33	435.68
505.69	443.39
506.05	451.19
506.41	459.08
506.78	467.23
507.14	475.78
507.50	484.45
507.86	493.48
508.22	502.72
508.59	511.91
508.95	521.52
509.31	531.36
509.67	541.45
510.03	551.84
510.39	562.42
510.75	573.15
511.12	584.12
511.48	595.42
511.84	606.79
512.20	618.29
512.56	630.31
512.92	642.49
513.28	654.81
513.64	667.27
514.00	679.99
514.37	692.93
514.73	705.93
515.09	718.95
515.45	732.21
515.81	745.70
516.17	759.74
516.53	773.87
516.89	787.99
517.25	802.14
517.61	816.45
517.97	830.80
518.33	845.32
518.69	860.00
519.05	874.86
519.41	890.03
519.77	905.43
520.13	920.75
520.49	935.97
520.85	951.34
521.21	967.06
521.57	983.33
521.93	999.01
522.29	1015.29
522.65	1031.51
523.01	1047.71
523.37	1063.65
523.73	1079.62
524.09	1095.55
524.45	1111.87
524.81	1128.38
525.17	1145.16
525.53	1162.09
525.89	1178.85
526.25	1195.66
526.61	1212.07
526.97	1228.75
527.33	1245.24
527.68	1261.81
528.04	1278.38
528.40	1294.89
528.76	1311.80
529.12	1328.24
529.48	1345.12
529.84	1361.04
530.20	1377.60
530.56	1394.57
530.91	1411.98
531.27	1428.66
531.63	1445.16
531.99	1461.54
532.35	1477.45
532.71	1493.26
533.07	1509.32
533.42	1525.11
533.78	1541.02
534.14	1557.21
534.50	1572.46
534.86	1588.13
535.21	1603.26
535.57	1619.08
535.93	1634.54
536.29	1649.22
536.65	1664.17
537.00	1678.84
537.36	1694.08
537.72	1708.58
538.08	1722.84
538.44	1736.47
538.79	1750.19
539.15	1763.68
539.51	1777.42
539.87	1791.62
540.22	1805.19
540.58	1818.86
540.94	1832.04
541.29	1845.00
541.65	1857.62
542.01	1870.64
542.37	1882.93
542.72	1895.23
543.08	1906.91
543.44	1919.04
543.79	1930.24
544.15	1940.99
544.51	1952.33
544.87	1963.22
545.22	1973.68
545.58	1983.81
545.94	1993.43
546.29	2003.31
546.65	2013.06
547.01	2022.25
547.36	2030.98
547.72	2039.43
548.07	2047.11
548.43	2055.20
548.79	2063.02
549.14	2070.49
549.50	2077.82
549.86	2085.44
550.21	2092.62
550.57	2099.58
550.92	2106.11
551.28	2113.06
551.64	2120.20
551.99	2126.78
552.35	2132.90
552.70	2139.20
553.06	2145.08
553.41	2151.41
553.77	2157.30
554.13	2163.41
554.48	2169.53
554.84	2175.03
555.19	2180.39
555.55	2185.67
555.90	2190.06
556.26	2194.85
556.61	2199.41
556.97	2203.54
557.32	2207.72
557.68	2211.91
558.03	2216.29
558.39	2220.03
558.74	2224.51
559.10	2228.33
559.45	2231.98
559.81	2236.21
560.16	2240.04
560.52	2243.37
560.87	2246.75
561.23	2249.52
561.58	2252.49
561.94	2254.87
562.29	2257.22
562.64	2259.89
563.00	2262.46
563.35	2266.13
563.71	2269.43
564.06	2272.78
564.42	2275.76
564.77	2278.33
565.12	2280.58
565.48	2282.58
565.83	2284.57
566.19	2286.07
566.54	2287.04
566.89	2288.25
567.25	2288.94
567.60	2290.21
567.96	2291.80
568.31	2292.66
568.66	2293.91
569.02	2294.45
569.37	2294.83
569.72	2295.88
570.08	2295.91
570.43	2296.09
570.78	2295.59
571.14	2293.89
571.49	2292.50
571.84	2292.42
572.20	2291.48
572.55	2290.49
572.90	2288.92
573.26	2287.59
573.61	2285.96
573.96	2284.38
574.31	2281.49
574.67	2278.47
575.02	2274.85
575.37	2271.52
575.72	2267.96
576.08	2264.56
576.43	2261.36
576.78	2257.83
577.13	2254.64
577.49	2251.65
577.84	2248.14
578.19	2244.52
578.54	2241.23
578.90	2237.20
579.25	2231.60
579.60	2226.48
579.95	2221.65
580.30	2216.67
580.66	2211.53
581.01	2206.58
581.36	2201.64
581.71	2197.61
582.06	2193.37
582.42	2189.21
582.77	2184.16
583.12	2179.69
583.47	2175.13
583.82	2170.21
584.17	2164.97
584.53	2159.43
584.88	2153.95
585.23	2148.17
585.58	2142.69
585.93	2137.20
586.28	2132.47
586.63	2127.46
586.98	2122.58
587.34	2117.80
587.69	2113.06
588.04	2107.95
588.39	2102.40
588.74	2095.92
589.09	2089.60
589.44	2082.72
589.79	2076.66
590.14	2071.19
590.49	2064.65
590.84	2058.36
591.19	2052.35
591.54	2045.99
591.89	2038.77
592.25	2032.03
592.60	2025.00
592.95	2017.51
593.30	2010.18
593.65	2002.62
594.00	1995.68
594.35	1988.48
594.70	1980.71
595.05	1973.57
595.40	1966.21
595.75	1958.81
596.10	1952.68
596.45	1946.07
596.80	1940.04
597.15	1933.48
597.50	1926.35
597.85	1919.93
598.19	1913.16
598.54	1906.02
598.89	1899.49
599.24	1893.58
599.59	1886.86
599.94	1880.62
600.29	1874.25
600.64	1867.73
600.99	1860.38
601.34	1853.60
601.69	1846.64
602.04	1839.58
602.39	1832.17
602.74	1825.34
603.08	1818.55
603.43	1811.91
603.78	1804.65
604.13	1797.49
604.48	1790.19
604.83	1783.27
605.18	1776.27
605.53	1768.41
605.87	1760.62
606.22	1753.30
606.57	1745.33
606.92	1738.13
607.27	1731.10
607.62	1724.16
607.96	1716.92
608.31	1710.37
608.66	1702.72
609.01	1695.17
609.36	1687.78
609.70	1679.87
610.05	1671.93
610.40	1664.34
610.75	1655.98
611.10	1648.38
611.44	1640.01
611.79	1631.99
612.14	1623.43
612.49	1614.29
612.83	1605.99
613.18	1597.78
613.53	1589.74
613.88	1581.23
614.22	1572.95
614.57	1564.21
614.92	1556.19
615.27	1548.58
615.61	1540.17
615.96	1532.20
616.31	1524.51
616.65	1517.05
617.00	1509.37
617.35	1501.75
617.70	1493.34
618.04	1484.85
618.39	1476.58
618.74	1468.94
619.08	1460.78
619.43	1453.17
619.78	1446.27
620.12	1438.99
620.47	1431.52
620.82	1423.42
621.16	1416.03
621.51	1408.41
621.85	1400.80
622.20	1392.42
622.55	1384.00
622.89	1376.13
623.24	1368.39
623.59	1361.10
623.93	1353.58
624.28	1346.45
624.62	1338.83
624.97	1331.75
625.32	1325.05
625.66	1318.09
626.01	1310.98
626.35	1303.46
626.70	1295.75
627.04	1288.00
627.39	1280.16
627.73	1272.77
628.08	1265.74
628.43	1258.42
628.77	1251.01
629.12	1243.58
629.46	1236.33
629.81	1228.92
630.15	1221.73
630.50	1214.41
630.84	1206.21
631.19	1198.33
631.53	1190.84
631.88	1183.33
632.22	1175.63
632.57	1168.28
632.91	1160.67
633.26	1153.18
633.60	1145.79
633.95	1138.60
634.29	1131.65
634.64	1125.06
634.98	1117.63
635.32	1110.50
635.67	1103.93
636.01	1097.39
636.36	1090.58
636.70	1083.98
637.05	1077.54
637.39	1071.06
637.73	1064.54
638.08	1058.58
638.42	1052.49
638.77	1046.01
639.11	1039.37
639.45	1033.05
639.80	1026.40
640.14	1020.06
640.49	1013.55
640.83	1007.20
641.17	1000.97
641.52	994.58
641.86	988.07
642.20	982.22
642.55	975.86
642.89	969.33
643.23	962.69
643.58	956.89
643.92	950.75
644.26	944.65
644.61	938.62
644.95	932.59
645.29	925.92
645.64	919.24
645.98	912.83
646.32	907.09
646.66	901.05
647.01	895.24
647.35	889.42
647.69	883.52
648.04	878.13
648.38	872.28
648.72	866.26
649.06	860.23
649.41	854.34
649.75	848.47
650.09	842.49
650.43	836.77
650.78	830.54
651.12	824.55
651.46	818.78
651.80	813.06
652.14	807.67
652.49	802.36
652.83	797.21
653.17	791.54
653.51	785.72
653.85	780.35
654.20	774.73
654.54	768.75
654.88	762.96
655.22	756.96
655.56	751.30
655.90	745.88
656.25	740.66
656.59	735.28
656.93	730.22
657.27	725.08
657.61	719.52
657.95	714.41
658.29	709.34
658.64	704.13
658.98	698.81
659.32	693.37
659.66	688.23
660.00	682.87
660.34	677.95
660.68	673.01
661.02	667.88
661.36	663.07
661.70	658.54
662.05	654.22
662.39	649.88
662.73	645.46
663.07	641.06
663.41	636.57
663.75	632.15
664.09	627.58
664.43	623.18
664.77	619.07
665.11	614.87
665.45	610.72
665.79	606.60
666.13	602.51
666.47	598.38
666.81	594.19
667.15	590.04
667.49	586.12
667.83	582.40
668.17	578.49
668.51	574.43
668.85	570.42
669.19	566.68
669.53	562.84
669.87	558.93
670.21	555.20
670.55	551.54
670.89	548.07
671.23	544.58
671.57	541.15
671.91	537.68
672.25	534.18
672.58	530.69
672.92	527.25
673.26	524.05
673.60	520.85
673.94	517.78
674.28	514.97
674.62	512.05
674.96	508.91
675.30	505.98
675.64	503.10
675.97	500.29
676.31	497.37
676.65	494.44
676.99	491.72
677.33	488.94
677.67	486.15
678.01	483.11
678.34	480.14
678.68	477.22
679.02	474.38
679.36	471.58
679.70	468.88
680.04	466.15
680.37	463.25
680.71	460.53
681.05	457.86
681.39	455.08
681.73	452.36
682.06	449.79
682.40	447.28
682.74	444.74
683.08	442.24
683.42	439.61
683.75	437.08
684.09	434.51
684.43	432.00
684.77	429.50
685.10	427.07
685.44	424.78
685.78	422.45
686.12	420.19
686.45	417.90
686.79	415.54
687.13	413.33
687.46	411.15
687.80	408.93
688.14	406.69
688.48	404.62
688.81	402.41
689.15	400.29
689.49	398.13
689.82	396.02
690.16	393.92
690.50	392.00
690.83	390.05
691.17	388.07
691.51	386.16
691.84	384.29
692.18	382.45
692.52	380.45
692.85	378.45
693.19	376.54
693.52	374.71
693.86	372.92
694.20	371.17
694.53	369.41
694.87	367.53
695.21	365.73
695.54	363.92
695.88	362.16
696.21	360.41
696.55	358.69
696.88	357.00
697.22	355.29
697.56	353.61
697.89	351.96
698.23	350.37
698.56	348.74
698.90	347.18
699.23	345.45
699.57	343.90
699.90	342.43
700.24	340.93
700.58	339.39
700.91	337.86
701.25	336.39
701.58	334.97
701.92	333.61
702.25	332.27
702.59	330.89
702.92	329.57
703.26	328.27
703.59	327.01
703.93	325.80
704.26	324.56
704.60	323.25
704.93	321.98
705.26	320.76
705.60	319.59
705.93	318.38
706.27	317.41
706.60	316.36
706.94	315.26
707.27	314.09
707.61	313.03
707.94	312.00
708.27	310.88
708.61	309.81
708.94	308.82
709.28	307.84
709.61	306.88
709.94	305.95
710.28	304.94
710.61	303.97
710.95	302.94
711.28	302.06
711.61	301.16
711.95	300.27
712.28	299.29
712.61	298.27
712.95	297.39
713.28	296.52
713.61	295.64
713.95	294.77
714.28	293.92
714.61	293.08
714.95	292.26
715.28	291.44
715.61	290.58
715.95	289.71
716.28	288.85
716.61	288.00
716.95	287.16
717.28	286.42
717.61	285.63
717.94	284.87
718.28	284.09
718.61	283.36
718.94	282.68
719.27	282.03
719.61	281.43
719.94	280.74
720.27	279.96
720.60	279.27
720.94	278.63
721.27	278.03
721.60	277.46
721.93	276.88
722.27	276.34
722.60	275.79
722.93	275.25
723.26	274.71
723.59	274.17
723.93	273.63
724.26	273.10
724.59	272.54
724.92	272.02
725.25	271.50
725.59	270.97
725.92	270.44
726.25	269.91
726.58	269.44
726.91	268.98
727.24	268.53
727.57	268.07
727.91	267.56
728.24	267.13
728.57	266.63
728.90	266.19
729.23	265.68
729.56	265.23
729.89	264.75
730.22	264.28
730.55	263.81
730.89	263.34
731.22	262.86
731.55	262.43
731.88	261.99
732.21	261.56
732.54	261.13
732.87	260.69
733.20	260.31
733.53	259.89
733.86	259.47
734.19	259.08
734.52	258.68
734.85	258.38
735.18	257.90
735.51	257.53
735.84	257.09
736.17	256.75
736.50	256.32
736.83	256.09
737.16	255.72
737.49	255.36
737.82	255.01
738.15	254.68
738.48	254.35
738.81	254.03
739.14	253.69
739.47	253.39
739.80	253.09
740.13	252.79
740.46	252.45
740.79	252.14
741.12	251.80
741.45	251.46
741.78	251.15
742.11	250.89
742.44	250.55
742.77	250.30
743.10	249.98
743.43	249.71
743.75	249.31
744.08	249.20
744.41	248.94
744.74	248.68
745.07	248.39
745.40	248.14
745.73	247.90
746.06	247.62
746.39	247.35
746.71	247.11
747.04	246.80
747.37	246.53
747.70	246.30
748.03	246.06
748.36	245.83
748.68	245.54
749.01	245.32
749.34	245.08
749.67	244.83
750.00	244.61
750.33	244.46
750.65	244.25
750.98	243.88
751.31	243.66
751.64	243.49
751.97	243.32
752.29	243.12
752.62	242.86
752.95	242.65
753.28	242.42
753.60	242.20
753.93	242.05
754.26	241.89
754.59	241.64
754.91	241.42
755.24	241.24
755.57	241.05
755.90	240.86
756.22	240.65
756.55	240.45
756.88	240.23
757.20	240.00
757.53	239.79
757.86	239.61
758.19	239.45
758.51	239.27
758.84	239.06
759.17	238.86
759.49	238.71
759.82	238.58
760.15	238.46
760.47	238.27
760.80	238.09
761.13	237.93
761.45	237.76
761.78	237.63
762.11	237.47
762.43	237.34
762.76	237.19
763.08	237.12
763.41	237.00
763.74	236.88
764.06	236.74
764.39	236.63
764.71	236.52
765.04	236.36
765.37	236.20
765.69	236.03
766.02	235.90
766.34	235.77
766.67	235.62
767.00	235.50
767.32	235.46
767.65	235.42
767.97	235.30
768.30	235.23
768.62	235.12
768.95	235.01
769.27	234.88
769.60	234.81
769.92	234.67
770.25	234.53
770.57	234.42
770.90	234.28
771.22	234.17
771.55	234.03
771.87	233.96
772.20	233.88
772.52	233.88
772.85	233.92
773.17	233.85
773.50	233.76
773.82	233.65
774.15	233.51
774.47	233.36
774.80	233.27
775.12	233.20
775.45	233.11
775.77	233.03
776.09	232.98
776.42	232.88
776.74	232.83
777.07	232.79
777.39	232.73
777.72	232.67
778.04	232.60
778.36	232.54
778.69	232.49
779.01	232.41
779.33	232.26
779.66	232.09
779.98	232.01
780.31	231.94
780.63	231.91
780.95	231.84
781.28	231.79
781.60	231.72
781.92	231.65
782.25	231.60
782.57	231.54
782.89	231.49
783.22	231.43
783.54	231.37
783.86	231.33
784.19	231.27
784.51	231.26
784.83	231.18
785.16	231.14
785.48	231.08
785.80	231.06
786.12	231.04
786.45	230.98
786.77	230.92
787.09	230.87
