SpectraSuite Data File
++++++++++++++++++++++++++++++++++++
Date: Fri Feb 01 15:48:02 EST 2013
User: group
Dark Spectrum Present: No
Reference Spectrum Present: No
Number of Sampled Component Spectra: 1
Spectrometers: USB2E7196
Integration Time (usec): 35000 (USB2E7196)
Spectra Averaged: 100 (USB2E7196)
Boxcar Smoothing: 10 (USB2E7196)
Correct for Electrical Dark: No (USB2E7196)
Strobe/Lamp Enabled: No (USB2E7196)
Correct for Detector Non-linearity: No (USB2E7196)
Correct for Stray Light: No (USB2E7196)
Number of Pixels in Processed Spectrum: 2048
>>>>>Begin Processed Spectral Data<<<<<
339.09	0.00
339.48	214.31
339.86	216.07
340.24	217.37
340.63	218.81
341.01	221.96
341.39	221.62
341.78	223.51
342.16	223.65
342.54	224.88
342.93	212.97
343.31	223.77
343.69	224.32
344.07	224.78
344.46	225.20
344.84	225.57
345.22	225.78
345.60	226.02
345.99	226.18
346.37	226.34
346.75	226.39
347.13	226.46
347.52	226.51
347.90	226.58
348.28	226.57
348.66	226.60
349.05	226.61
349.43	226.65
349.81	226.70
350.19	226.72
350.57	226.79
350.96	226.85
351.34	226.93
351.72	227.00
352.10	227.08
352.48	227.16
352.87	227.20
353.25	227.26
353.63	227.33
354.01	227.38
354.39	227.47
354.77	227.60
355.15	227.70
355.54	227.78
355.92	227.82
356.30	227.94
356.68	228.11
357.06	228.18
357.44	228.25
357.82	228.28
358.20	228.39
358.58	228.46
358.97	228.55
359.35	228.59
359.73	228.69
360.11	228.77
360.49	228.83
360.87	228.88
361.25	228.96
361.63	229.04
362.01	229.08
362.39	229.13
362.77	229.17
363.15	229.21
363.53	229.23
363.91	229.29
364.29	229.29
364.67	229.21
365.05	229.25
365.43	229.27
365.81	229.30
366.19	229.31
366.57	229.35
366.95	229.36
367.33	229.34
367.71	229.34
368.09	229.32
368.47	229.30
368.85	229.29
369.23	229.28
369.61	229.24
369.99	229.27
370.37	229.21
370.75	229.22
371.13	229.14
371.51	229.09
371.89	229.05
372.27	229.02
372.65	228.98
373.03	228.94
373.41	228.87
373.78	228.80
374.16	228.72
374.54	228.63
374.92	228.55
375.30	228.48
375.68	228.35
376.06	228.31
376.44	228.24
376.82	228.20
377.19	228.14
377.57	228.07
377.95	227.96
378.33	227.91
378.71	227.78
379.09	227.73
379.47	227.69
379.84	227.61
380.22	227.53
380.60	227.44
380.98	227.33
381.36	227.29
381.73	227.22
382.11	227.18
382.49	227.17
382.87	227.11
383.25	227.03
383.62	227.13
384.00	227.06
384.38	227.00
384.76	226.96
385.13	226.93
385.51	226.86
385.89	226.77
386.27	226.72
386.64	226.70
387.02	226.63
387.40	226.56
387.78	226.53
388.15	226.49
388.53	226.46
388.91	226.46
389.29	226.41
389.66	226.41
390.04	226.35
390.42	226.29
390.79	226.26
391.17	226.28
391.55	226.17
391.92	226.14
392.30	226.18
392.68	226.16
393.05	226.17
393.43	226.17
393.81	226.18
394.18	226.17
394.56	226.17
394.94	226.22
395.31	226.25
395.69	226.30
396.06	226.32
396.44	226.39
396.82	226.36
397.19	226.44
397.57	226.44
397.95	226.51
398.32	226.55
398.70	226.64
399.07	226.70
399.45	226.75
399.82	226.80
400.20	226.84
400.58	226.89
400.95	226.89
401.33	227.03
401.70	227.19
402.08	227.27
402.45	227.36
402.83	227.47
403.20	227.57
403.58	227.64
403.95	227.79
404.33	227.91
404.71	228.08
405.08	228.23
405.46	228.36
405.83	228.50
406.21	228.63
406.58	228.81
406.96	228.94
407.33	229.12
407.70	229.32
408.08	229.59
408.45	229.81
408.83	230.08
409.20	230.28
409.58	230.46
409.95	230.72
410.33	231.01
410.70	231.26
411.08	231.55
411.45	231.86
411.82	232.17
412.20	232.49
412.57	232.90
412.95	233.22
413.32	233.67
413.69	234.07
414.07	234.52
414.44	234.95
414.82	235.47
415.19	236.04
415.56	236.63
415.94	237.15
416.31	237.81
416.68	238.43
417.06	239.13
417.43	239.82
417.81	240.58
418.18	241.34
418.55	242.16
418.93	243.04
419.30	243.98
419.67	244.91
420.04	245.90
420.42	246.87
420.79	248.06
421.16	249.19
421.54	250.37
421.91	251.59
422.28	252.88
422.66	254.17
423.03	255.47
423.40	256.77
423.77	258.20
424.15	259.65
424.52	261.15
424.89	262.79
425.26	264.34
425.64	265.81
426.01	267.44
426.38	269.14
426.75	270.81
427.13	272.50
427.50	274.29
427.87	276.15
428.24	278.03
428.61	279.76
428.99	281.72
429.36	283.84
429.73	285.91
430.10	287.92
430.47	289.99
430.85	292.07
431.22	294.37
431.59	296.76
431.96	298.97
432.33	301.41
432.70	303.78
433.08	306.59
433.45	309.22
433.82	311.78
434.19	314.63
434.56	317.44
434.93	320.10
435.30	322.71
435.68	325.60
436.05	328.44
436.42	331.23
436.79	333.71
437.16	336.41
437.53	339.26
437.90	342.02
438.27	344.73
438.64	347.58
439.01	350.14
439.38	352.34
439.75	354.53
440.13	357.06
440.50	359.41
440.87	361.24
441.24	363.18
441.61	365.36
441.98	366.86
442.35	368.67
442.72	370.53
443.09	372.28
443.46	373.30
443.83	373.85
444.20	374.39
444.57	375.25
444.94	375.57
445.31	375.89
445.68	376.27
446.05	376.39
446.42	376.02
446.79	375.59
447.16	375.14
447.53	374.79
447.90	373.60
448.27	372.41
448.64	370.82
449.01	369.71
449.37	367.73
449.74	365.84
450.11	363.60
450.48	361.12
450.85	358.65
451.22	356.49
451.59	354.48
451.96	352.51
452.33	349.92
452.70	347.49
453.07	344.65
453.43	341.72
453.80	338.97
454.17	336.29
454.54	333.76
454.91	331.06
455.28	328.40
455.65	325.95
456.02	323.47
456.38	321.34
456.75	318.63
457.12	316.39
457.49	314.18
457.86	312.04
458.23	310.17
458.59	308.13
458.96	306.02
459.33	304.17
459.70	302.30
460.07	300.78
460.43	299.07
460.80	297.43
461.17	296.06
461.54	294.55
461.91	293.15
462.27	291.72
462.64	290.49
463.01	289.13
463.38	287.80
463.74	286.47
464.11	285.32
464.48	284.30
464.85	283.16
465.21	282.28
465.58	281.34
465.95	280.24
466.32	279.34
466.68	278.47
467.05	277.59
467.42	276.71
467.78	275.76
468.15	274.90
468.52	274.25
468.88	273.35
469.25	272.55
469.62	271.94
469.98	271.26
470.35	270.62
470.72	270.04
471.08	269.41
471.45	268.88
471.82	268.34
472.18	267.77
472.55	267.33
472.92	266.80
473.28	266.28
473.65	265.88
474.02	265.43
474.38	265.07
474.75	264.76
475.11	264.41
475.48	264.19
475.85	263.99
476.21	263.76
476.58	263.63
476.94	263.51
477.31	263.33
477.67	263.14
478.04	263.03
478.41	262.96
478.77	263.02
479.14	262.94
479.50	262.94
479.87	263.02
480.23	263.15
480.60	263.22
480.96	263.33
481.33	263.53
481.69	263.75
482.06	263.96
482.42	264.16
482.79	264.44
483.15	264.76
483.52	265.13
483.88	265.46
484.25	265.86
484.61	266.27
484.98	266.72
485.34	267.33
485.71	267.90
486.07	268.50
486.44	269.07
486.80	269.77
487.17	270.50
487.53	271.30
487.90	272.16
488.26	273.11
488.62	274.11
488.99	275.06
489.35	276.10
489.72	277.22
490.08	278.43
490.44	279.64
490.81	280.96
491.17	282.31
491.54	283.82
491.90	285.34
492.26	286.99
492.63	288.70
492.99	290.46
493.36	292.35
493.72	294.39
494.08	296.45
494.45	298.72
494.81	301.11
495.17	303.54
495.54	306.06
495.90	308.78
496.26	311.58
496.63	314.56
496.99	317.69
497.35	320.95
497.72	324.30
498.08	327.89
498.44	331.56
498.80	335.48
499.17	339.56
499.53	343.72
499.89	348.12
500.26	352.61
500.62	357.30
500.98	362.26
501.34	367.34
501.71	372.71
502.07	378.14
502.43	383.71
502.79	389.52
503.16	395.62
503.52	401.90
503.88	408.32
504.24	414.95
504.60	421.82
504.97	428.87
505.33	436.27
505.69	443.92
506.05	451.75
506.41	459.59
506.78	467.67
507.14	476.11
507.50	484.85
507.86	493.88
508.22	503.12
508.59	512.30
508.95	521.93
509.31	531.71
509.67	541.81
510.03	552.14
510.39	562.77
510.75	573.53
511.12	584.42
511.48	595.65
511.84	607.08
512.20	618.61
512.56	630.67
512.92	642.83
513.28	655.21
513.64	667.68
514.00	680.44
514.37	693.43
514.73	706.48
515.09	719.46
515.45	732.74
515.81	746.25
516.17	760.20
516.53	774.34
516.89	788.57
517.25	802.74
517.61	817.22
517.97	831.55
518.33	846.06
518.69	860.85
519.05	875.97
519.41	891.08
519.77	906.51
520.13	921.89
520.49	937.26
520.85	952.64
521.21	968.35
521.57	984.53
521.93	1000.26
522.29	1016.67
522.65	1032.93
523.01	1049.13
523.37	1065.23
523.73	1081.46
524.09	1097.52
524.45	1113.83
524.81	1130.51
525.17	1147.20
525.53	1164.18
525.89	1181.03
526.25	1197.90
526.61	1214.24
526.97	1231.07
527.33	1247.60
527.68	1264.24
528.04	1280.65
528.40	1297.20
528.76	1314.20
529.12	1330.75
529.48	1347.73
529.84	1363.71
530.20	1380.37
530.56	1397.46
530.91	1414.94
531.27	1431.67
531.63	1448.12
531.99	1464.62
532.35	1480.55
532.71	1496.51
533.07	1512.70
533.42	1528.54
533.78	1544.57
534.14	1560.89
534.50	1576.28
534.86	1592.23
535.21	1607.36
535.57	1623.30
535.93	1638.86
536.29	1653.70
536.65	1668.83
537.00	1683.55
537.36	1698.80
537.72	1713.35
538.08	1727.65
538.44	1741.32
538.79	1755.11
539.15	1768.72
539.51	1782.53
539.87	1796.80
540.22	1810.62
540.58	1824.32
540.94	1837.74
541.29	1850.67
541.65	1863.34
542.01	1876.60
542.37	1888.88
542.72	1901.22
543.08	1913.07
543.44	1925.40
543.79	1936.57
544.15	1947.56
544.51	1959.19
544.87	1970.20
545.22	1980.99
545.58	1991.19
545.94	2000.94
546.29	2011.02
546.65	2020.90
547.01	2030.17
547.36	2038.97
547.72	2047.30
548.07	2055.20
548.43	2063.27
548.79	2071.22
549.14	2078.71
549.50	2085.93
549.86	2093.60
550.21	2101.05
550.57	2108.13
550.92	2114.66
551.28	2121.78
551.64	2128.87
551.99	2135.27
552.35	2141.50
552.70	2147.57
553.06	2153.61
553.41	2159.94
553.77	2165.99
554.13	2172.00
554.48	2178.02
554.84	2183.30
555.19	2188.74
555.55	2193.94
555.90	2198.41
556.26	2203.19
556.61	2207.95
556.97	2212.09
557.32	2216.21
557.68	2220.19
558.03	2224.49
558.39	2228.34
558.74	2232.90
559.10	2236.64
559.45	2240.33
559.81	2244.59
560.16	2248.45
560.52	2251.64
560.87	2255.03
561.23	2257.62
561.58	2260.61
561.94	2263.12
562.29	2265.59
562.64	2268.16
563.00	2270.75
563.35	2274.42
563.71	2277.71
564.06	2280.82
564.42	2283.73
564.77	2286.15
565.12	2288.61
565.48	2290.47
565.83	2292.28
566.19	2293.59
566.54	2294.60
566.89	2295.67
567.25	2296.19
567.60	2297.42
567.96	2299.12
568.31	2300.04
568.66	2301.16
569.02	2301.65
569.37	2302.01
569.72	2302.92
570.08	2302.88
570.43	2302.81
570.78	2301.97
571.14	2300.42
571.49	2299.05
571.84	2298.71
572.20	2297.67
572.55	2296.68
572.90	2295.26
573.26	2293.86
573.61	2292.16
573.96	2290.37
574.31	2287.40
574.67	2284.44
575.02	2280.85
575.37	2277.46
575.72	2273.58
576.08	2270.26
576.43	2267.06
576.78	2263.40
577.13	2260.24
577.49	2257.26
577.84	2253.77
578.19	2250.24
578.54	2246.50
578.90	2242.27
579.25	2236.84
579.60	2231.83
579.95	2226.73
580.30	2221.78
580.66	2216.55
581.01	2211.62
581.36	2206.75
581.71	2202.56
582.06	2198.10
582.42	2193.63
582.77	2188.38
583.12	2183.70
583.47	2178.92
583.82	2173.77
584.17	2168.49
584.53	2162.93
584.88	2157.28
585.23	2151.49
585.58	2145.85
585.93	2140.47
586.28	2135.75
586.63	2130.64
586.98	2125.59
587.34	2120.87
587.69	2115.89
588.04	2110.50
588.39	2104.83
588.74	2098.29
589.09	2092.11
589.44	2085.33
589.79	2079.37
590.14	2073.73
590.49	2067.17
590.84	2060.73
591.19	2054.84
591.54	2048.34
591.89	2040.94
592.25	2034.12
592.60	2026.90
592.95	2019.38
593.30	2011.94
593.65	2004.33
594.00	1997.33
594.35	1990.17
594.70	1981.97
595.05	1974.63
595.40	1967.54
595.75	1960.02
596.10	1953.69
596.45	1946.90
596.80	1940.68
597.15	1933.98
597.50	1926.86
597.85	1920.53
598.19	1913.77
598.54	1906.51
598.89	1899.96
599.24	1894.10
599.59	1887.29
599.94	1881.22
600.29	1874.74
600.64	1868.23
600.99	1860.74
601.34	1853.80
601.69	1846.79
602.04	1839.99
602.39	1832.68
602.74	1825.78
603.08	1818.96
603.43	1812.35
603.78	1805.08
604.13	1797.86
604.48	1790.49
604.83	1783.56
605.18	1776.42
605.53	1768.43
605.87	1760.45
606.22	1753.05
606.57	1745.02
606.92	1737.86
607.27	1730.57
607.62	1723.74
607.96	1716.31
608.31	1709.71
608.66	1702.09
609.01	1694.44
609.36	1686.87
609.70	1678.85
610.05	1670.83
610.40	1663.24
610.75	1654.87
611.10	1647.29
611.44	1638.93
611.79	1631.00
612.14	1622.46
612.49	1613.43
612.83	1605.13
613.18	1597.12
613.53	1589.08
613.88	1580.67
614.22	1572.29
614.57	1563.73
614.92	1555.66
615.27	1548.15
615.61	1539.77
615.96	1531.79
616.31	1524.13
616.65	1516.85
617.00	1509.27
617.35	1501.57
617.70	1493.18
618.04	1484.65
618.39	1476.41
618.74	1468.88
619.08	1460.59
619.43	1453.07
619.78	1446.12
620.12	1438.91
620.47	1431.39
620.82	1423.31
621.16	1415.93
621.51	1408.49
621.85	1400.89
622.20	1392.41
622.55	1384.13
622.89	1376.41
623.24	1368.78
623.59	1361.44
623.93	1353.80
624.28	1346.51
624.62	1338.93
624.97	1331.78
625.32	1325.13
625.66	1318.11
626.01	1310.84
626.35	1303.37
626.70	1295.54
627.04	1287.83
627.39	1280.03
627.73	1272.52
628.08	1265.50
628.43	1258.13
628.77	1250.67
629.12	1243.08
629.46	1235.84
629.81	1228.44
630.15	1221.10
630.50	1213.61
630.84	1205.51
631.19	1197.60
631.53	1190.18
631.88	1182.68
632.22	1175.03
632.57	1167.67
632.91	1160.02
633.26	1152.57
633.60	1145.25
633.95	1138.19
634.29	1131.15
634.64	1124.53
634.98	1117.28
635.32	1110.15
635.67	1103.55
636.01	1096.89
636.36	1090.08
636.70	1083.67
637.05	1077.07
637.39	1070.72
637.73	1064.21
638.08	1058.27
638.42	1052.29
638.77	1045.83
639.11	1039.07
639.45	1032.71
639.80	1025.98
640.14	1019.55
640.49	1012.99
640.83	1006.66
641.17	1000.35
641.52	993.99
641.86	987.49
642.20	981.60
642.55	975.32
642.89	968.78
643.23	962.29
643.58	956.56
643.92	950.36
644.26	944.23
644.61	938.08
644.95	932.07
645.29	925.41
645.64	918.64
645.98	912.31
646.32	906.60
646.66	900.54
647.01	894.83
647.35	889.19
647.69	883.41
648.04	877.93
648.38	872.13
648.72	866.13
649.06	860.13
649.41	854.24
649.75	848.26
650.09	842.30
650.43	836.52
650.78	830.34
651.12	824.39
651.46	818.71
651.80	812.95
652.14	807.59
652.49	802.18
652.83	797.04
653.17	791.28
653.51	785.62
653.85	780.19
654.20	774.52
654.54	768.49
654.88	762.69
655.22	756.71
655.56	751.10
655.90	745.69
656.25	740.36
656.59	735.00
656.93	729.90
657.27	724.70
657.61	719.19
657.95	714.12
658.29	708.96
658.64	703.74
658.98	698.46
659.32	692.96
659.66	687.80
660.00	682.46
660.34	677.56
660.68	672.60
661.02	667.53
661.36	662.80
661.70	658.28
662.05	653.92
662.39	649.60
662.73	645.11
663.07	640.69
663.41	636.24
663.75	631.70
664.09	627.19
664.43	622.91
664.77	618.80
665.11	614.51
665.45	610.41
665.79	606.26
666.13	602.17
666.47	598.12
666.81	594.03
667.15	589.94
667.49	586.04
667.83	582.25
668.17	578.32
668.51	574.24
668.85	570.23
669.19	566.44
669.53	562.59
669.87	558.71
670.21	555.02
670.55	551.46
670.89	548.04
671.23	544.57
671.57	541.01
671.91	537.46
672.25	533.96
672.58	530.43
672.92	527.08
673.26	523.86
673.60	520.72
673.94	517.57
674.28	514.63
674.62	511.72
674.96	508.60
675.30	505.74
675.64	502.86
675.97	500.10
676.31	497.20
676.65	494.30
676.99	491.58
677.33	488.76
677.67	485.96
678.01	482.96
678.34	480.00
678.68	477.13
679.02	474.34
679.36	471.61
679.70	468.90
680.04	466.06
680.37	463.22
680.71	460.39
681.05	457.77
681.39	455.10
681.73	452.42
682.06	449.88
682.40	447.32
682.74	444.80
683.08	442.28
683.42	439.72
683.75	437.20
684.09	434.65
684.43	432.16
684.77	429.64
685.10	427.28
685.44	424.98
685.78	422.69
686.12	420.45
686.45	418.15
686.79	415.86
687.13	413.72
687.46	411.57
687.80	409.42
688.14	407.18
688.48	405.10
688.81	402.89
689.15	400.76
689.49	398.62
689.82	396.51
690.16	394.40
690.50	392.40
690.83	390.45
691.17	388.52
691.51	386.61
691.84	384.78
692.18	382.82
692.52	380.84
692.85	378.94
693.19	377.03
693.52	375.17
693.86	373.36
694.20	371.61
694.53	369.76
694.87	367.95
695.21	366.16
695.54	364.32
695.88	362.56
696.21	360.87
696.55	359.19
696.88	357.51
697.22	355.89
697.56	354.29
697.89	352.64
698.23	350.99
698.56	349.37
698.90	347.78
699.23	346.17
699.57	344.61
699.90	343.09
700.24	341.53
700.58	340.01
700.91	338.53
701.25	337.05
701.58	335.71
701.92	334.37
702.25	333.05
702.59	331.71
702.92	330.41
703.26	329.06
703.59	327.82
703.93	326.64
704.26	325.37
704.60	324.08
704.93	322.85
705.26	321.61
705.60	320.46
705.93	319.28
706.27	318.23
706.60	317.16
706.94	316.10
707.27	314.97
707.61	313.93
707.94	312.89
708.27	311.80
708.61	310.72
708.94	309.72
709.28	308.74
709.61	307.78
709.94	306.82
710.28	305.81
710.61	304.83
710.95	303.76
711.28	302.86
711.61	301.91
711.95	300.97
712.28	300.02
712.61	299.04
712.95	298.09
713.28	297.21
713.61	296.34
713.95	295.41
714.28	294.61
714.61	293.77
714.95	292.90
715.28	292.05
715.61	291.17
715.95	290.29
716.28	289.39
716.61	288.55
716.95	287.72
717.28	287.00
717.61	286.23
717.94	285.50
718.28	284.73
718.61	284.02
718.94	283.35
719.27	282.67
719.61	282.05
719.94	281.42
720.27	280.72
720.60	280.04
720.94	279.42
721.27	278.79
721.60	278.16
721.93	277.57
722.27	277.01
722.60	276.47
722.93	275.89
723.26	275.37
723.59	274.79
723.93	274.21
724.26	273.63
724.59	273.05
724.92	272.51
725.25	271.98
725.59	271.47
725.92	270.94
726.25	270.46
726.58	269.94
726.91	269.47
727.24	269.02
727.57	268.58
727.91	268.06
728.24	267.59
728.57	267.10
728.90	266.62
729.23	266.13
729.56	265.71
729.89	265.24
730.22	264.73
730.55	264.26
730.89	263.84
731.22	263.36
731.55	262.93
731.88	262.51
732.21	262.06
732.54	261.58
732.87	261.14
733.20	260.73
733.53	260.36
733.86	259.95
734.19	259.51
734.52	259.12
734.85	258.83
735.18	258.43
735.51	258.08
735.84	257.71
736.17	257.35
736.50	256.93
736.83	256.67
737.16	256.36
737.49	256.01
737.82	255.64
738.15	255.37
738.48	255.06
738.81	254.74
739.14	254.43
739.47	254.14
739.80	253.83
740.13	253.52
740.46	253.15
740.79	252.82
741.12	252.50
741.45	252.19
741.78	251.86
742.11	251.58
742.44	251.25
742.77	251.00
743.10	250.72
743.43	250.41
743.75	250.07
744.08	249.93
744.41	249.68
744.74	249.44
745.07	249.14
745.40	248.88
745.73	248.69
746.06	248.39
746.39	248.14
746.71	247.88
747.04	247.62
747.37	247.37
747.70	247.12
748.03	246.89
748.36	246.68
748.68	246.45
749.01	246.22
749.34	246.03
749.67	245.80
750.00	245.59
750.33	245.47
750.65	245.22
750.98	244.90
751.31	244.69
751.64	244.49
751.97	244.35
752.29	244.11
752.62	243.85
752.95	243.66
753.28	243.46
753.60	243.29
753.93	243.14
754.26	242.97
754.59	242.76
754.91	242.58
755.24	242.36
755.57	242.13
755.90	241.94
756.22	241.74
756.55	241.53
756.88	241.32
757.20	241.09
757.53	240.88
757.86	240.72
758.19	240.55
758.51	240.41
758.84	240.21
759.17	240.07
759.49	239.88
759.82	239.77
760.15	239.61
760.47	239.44
760.80	239.27
761.13	239.11
761.45	238.94
761.78	238.76
762.11	238.60
762.43	238.46
762.76	238.31
763.08	238.19
763.41	238.07
763.74	237.96
764.06	237.80
764.39	237.69
764.71	237.52
765.04	237.38
765.37	237.23
765.69	237.10
766.02	236.94
766.34	236.86
766.67	236.75
767.00	236.61
767.32	236.55
767.65	236.49
767.97	236.37
768.30	236.25
768.62	236.13
768.95	236.03
769.27	235.93
769.60	235.83
769.92	235.66
770.25	235.50
770.57	235.37
770.90	235.27
771.22	235.16
771.55	235.05
771.87	234.96
772.20	234.82
772.52	234.76
772.85	234.77
773.17	234.64
773.50	234.46
773.82	234.36
774.15	234.18
774.47	234.03
774.80	233.92
775.12	233.85
775.45	233.80
775.77	233.69
776.09	233.60
776.42	233.53
776.74	233.51
777.07	233.45
777.39	233.36
777.72	233.28
778.04	233.23
778.36	233.16
778.69	233.08
779.01	233.04
779.33	232.90
779.66	232.74
779.98	232.68
780.31	232.64
780.63	232.61
780.95	232.55
781.28	232.47
781.60	232.38
781.92	232.32
782.25	232.25
782.57	232.21
782.89	232.13
783.22	232.04
783.54	231.97
783.86	231.94
784.19	231.89
784.51	231.87
784.83	231.79
785.16	231.72
785.48	231.69
785.80	231.63
786.12	231.59
786.45	231.54
786.77	231.49
787.09	231.47
