SpectraSuite Data File
++++++++++++++++++++++++++++++++++++
Date: Fri Feb 01 16:06:56 EST 2013
User: group
Dark Spectrum Present: No
Reference Spectrum Present: No
Number of Sampled Component Spectra: 1
Spectrometers: USB2E7196
Integration Time (usec): 35000 (USB2E7196)
Spectra Averaged: 100 (USB2E7196)
Boxcar Smoothing: 10 (USB2E7196)
Correct for Electrical Dark: No (USB2E7196)
Strobe/Lamp Enabled: No (USB2E7196)
Correct for Detector Non-linearity: No (USB2E7196)
Correct for Stray Light: No (USB2E7196)
Number of Pixels in Processed Spectrum: 2048
>>>>>Begin Processed Spectral Data<<<<<
339.09	0.00
339.48	214.60
339.86	216.12
340.24	217.26
340.63	218.46
341.01	221.46
341.39	221.22
341.78	222.86
342.16	223.57
342.54	224.46
342.93	212.88
343.31	223.63
343.69	224.19
344.07	224.66
344.46	225.11
344.84	225.51
345.22	225.78
345.60	226.04
345.99	226.25
346.37	226.39
346.75	226.50
347.13	226.58
347.52	226.66
347.90	226.75
348.28	226.78
348.66	226.83
349.05	226.83
349.43	226.89
349.81	226.95
350.19	226.98
350.57	227.02
350.96	227.08
351.34	227.20
351.72	227.28
352.10	227.36
352.48	227.44
352.87	227.49
353.25	227.55
353.63	227.57
354.01	227.64
354.39	227.72
354.77	227.80
355.15	227.90
355.54	227.96
355.92	228.00
356.30	228.07
356.68	228.16
357.06	228.23
357.44	228.28
357.82	228.35
358.20	228.44
358.58	228.52
358.97	228.55
359.35	228.61
359.73	228.66
360.11	228.73
360.49	228.79
360.87	228.84
361.25	228.88
361.63	228.99
362.01	228.98
362.39	229.03
362.77	229.07
363.15	229.08
363.53	229.12
363.91	229.14
364.29	229.16
364.67	229.11
365.05	229.13
365.43	229.13
365.81	229.13
366.19	229.14
366.57	229.16
366.95	229.14
367.33	229.11
367.71	229.15
368.09	229.12
368.47	229.07
368.85	229.03
369.23	229.03
369.61	228.99
369.99	229.01
370.37	228.98
370.75	228.97
371.13	228.93
371.51	228.87
371.89	228.81
372.27	228.76
372.65	228.72
373.03	228.65
373.41	228.60
373.78	228.52
374.16	228.44
374.54	228.36
374.92	228.33
375.30	228.26
375.68	228.16
376.06	228.11
376.44	228.06
376.82	228.01
377.19	227.94
377.57	227.85
377.95	227.77
378.33	227.69
378.71	227.57
379.09	227.49
379.47	227.45
379.84	227.41
380.22	227.32
380.60	227.24
380.98	227.17
381.36	227.12
381.73	227.05
382.11	227.00
382.49	226.93
382.87	226.85
383.25	226.78
383.62	226.79
384.00	226.71
384.38	226.65
384.76	226.65
385.13	226.61
385.51	226.56
385.89	226.49
386.27	226.44
386.64	226.42
387.02	226.39
387.40	226.34
387.78	226.30
388.15	226.28
388.53	226.22
388.91	226.19
389.29	226.15
389.66	226.14
390.04	226.09
390.42	226.09
390.79	226.08
391.17	226.09
391.55	226.02
391.92	225.99
392.30	226.01
392.68	225.98
393.05	226.00
393.43	226.01
393.81	226.03
394.18	226.06
394.56	226.07
394.94	226.10
395.31	226.13
395.69	226.19
396.06	226.21
396.44	226.28
396.82	226.34
397.19	226.40
397.57	226.44
397.95	226.52
398.32	226.52
398.70	226.59
399.07	226.66
399.45	226.73
399.82	226.80
400.20	226.84
400.58	226.89
400.95	226.92
401.33	227.01
401.70	227.14
402.08	227.24
402.45	227.34
402.83	227.45
403.20	227.54
403.58	227.62
403.95	227.79
404.33	227.91
404.71	228.04
405.08	228.24
405.46	228.38
405.83	228.50
406.21	228.67
406.58	228.83
406.96	228.96
407.33	229.11
407.70	229.33
408.08	229.62
408.45	229.85
408.83	230.08
409.20	230.31
409.58	230.51
409.95	230.76
410.33	231.04
410.70	231.30
411.08	231.61
411.45	231.93
411.82	232.21
412.20	232.57
412.57	232.96
412.95	233.24
413.32	233.66
413.69	234.12
414.07	234.58
414.44	235.06
414.82	235.58
415.19	236.14
415.56	236.66
415.94	237.20
416.31	237.84
416.68	238.46
417.06	239.14
417.43	239.81
417.81	240.57
418.18	241.34
418.55	242.18
418.93	243.04
419.30	243.91
419.67	244.85
420.04	245.84
420.42	246.84
420.79	248.02
421.16	249.18
421.54	250.34
421.91	251.50
422.28	252.73
422.66	254.03
423.03	255.35
423.40	256.67
423.77	258.11
424.15	259.51
424.52	260.99
424.89	262.60
425.26	264.17
425.64	265.61
426.01	267.19
426.38	268.82
426.75	270.48
427.13	272.24
427.50	274.01
427.87	275.83
428.24	277.72
428.61	279.44
428.99	281.37
429.36	283.48
429.73	285.54
430.10	287.57
430.47	289.65
430.85	291.74
431.22	293.99
431.59	296.35
431.96	298.59
432.33	301.10
432.70	303.49
433.08	306.30
433.45	308.97
433.82	311.59
434.19	314.51
434.56	317.34
434.93	319.95
435.30	322.61
435.68	325.51
436.05	328.30
436.42	331.08
436.79	333.58
437.16	336.28
437.53	339.09
437.90	341.89
438.27	344.57
438.64	347.38
439.01	349.95
439.38	352.16
439.75	354.28
440.13	356.80
440.50	359.16
440.87	360.91
441.24	362.82
441.61	364.94
441.98	366.40
442.35	368.17
442.72	370.06
443.09	371.86
443.46	372.85
443.83	373.43
444.20	373.94
444.57	374.77
444.94	375.04
445.31	375.36
445.68	375.74
446.05	375.84
446.42	375.46
446.79	375.04
447.16	374.58
447.53	374.29
447.90	373.08
448.27	371.88
448.64	370.43
449.01	369.28
449.37	367.36
449.74	365.46
450.11	363.23
450.48	360.71
450.85	358.16
451.22	356.00
451.59	353.97
451.96	352.03
452.33	349.39
452.70	347.04
453.07	344.25
453.43	341.39
453.80	338.64
454.17	335.98
454.54	333.46
454.91	330.73
455.28	328.08
455.65	325.61
456.02	323.17
456.38	320.99
456.75	318.34
457.12	316.06
457.49	313.84
457.86	311.65
458.23	309.86
458.59	307.81
458.96	305.71
459.33	303.90
459.70	302.05
460.07	300.58
460.43	298.92
460.80	297.32
461.17	295.88
461.54	294.42
461.91	292.97
462.27	291.54
462.64	290.34
463.01	288.97
463.38	287.66
463.74	286.29
464.11	285.12
464.48	284.11
464.85	283.04
465.21	282.18
465.58	281.28
465.95	280.17
466.32	279.28
466.68	278.40
467.05	277.46
467.42	276.60
467.78	275.66
468.15	274.72
468.52	274.06
468.88	273.18
469.25	272.40
469.62	271.81
469.98	271.11
470.35	270.44
470.72	269.88
471.08	269.26
471.45	268.68
471.82	268.11
472.18	267.50
472.55	267.08
472.92	266.59
473.28	266.12
473.65	265.67
474.02	265.21
474.38	264.85
474.75	264.58
475.11	264.20
475.48	263.92
475.85	263.71
476.21	263.46
476.58	263.27
476.94	263.12
477.31	262.95
477.67	262.83
478.04	262.72
478.41	262.60
478.77	262.60
479.14	262.58
479.50	262.62
479.87	262.72
480.23	262.77
480.60	262.84
480.96	262.94
481.33	263.19
481.69	263.39
482.06	263.58
482.42	263.78
482.79	264.06
483.15	264.41
483.52	264.79
483.88	265.14
484.25	265.54
484.61	265.93
484.98	266.36
485.34	266.93
485.71	267.52
486.07	268.16
486.44	268.75
486.80	269.45
487.17	270.21
487.53	271.02
487.90	271.90
488.26	272.77
488.62	273.76
488.99	274.72
489.35	275.77
489.72	276.90
490.08	278.10
490.44	279.35
490.81	280.67
491.17	282.00
491.54	283.49
491.90	285.03
492.26	286.72
492.63	288.48
492.99	290.27
493.36	292.21
493.72	294.26
494.08	296.38
494.45	298.64
494.81	300.96
495.17	303.39
495.54	305.95
495.90	308.69
496.26	311.49
496.63	314.50
496.99	317.59
497.35	320.86
497.72	324.24
498.08	327.76
498.44	331.48
498.80	335.44
499.17	339.51
499.53	343.71
499.89	348.11
500.26	352.60
500.62	357.25
500.98	362.22
501.34	367.31
501.71	372.60
502.07	378.04
502.43	383.67
502.79	389.50
503.16	395.61
503.52	401.88
503.88	408.30
504.24	414.95
504.60	421.90
504.97	429.07
505.33	436.42
505.69	444.18
506.05	451.97
506.41	459.87
506.78	468.08
507.14	476.56
507.50	485.28
507.86	494.36
508.22	503.61
508.59	512.82
508.95	522.44
509.31	532.30
509.67	542.41
510.03	552.69
510.39	563.28
510.75	574.04
511.12	585.01
511.48	596.28
511.84	607.68
512.20	619.17
512.56	631.10
512.92	643.27
513.28	655.59
513.64	668.00
514.00	680.72
514.37	693.60
514.73	706.56
515.09	719.59
515.45	732.86
515.81	746.43
516.17	760.30
516.53	774.39
516.89	788.67
517.25	802.77
517.61	817.27
517.97	831.70
518.33	846.17
518.69	860.85
519.05	875.78
519.41	890.91
519.77	906.41
520.13	921.81
520.49	937.21
520.85	952.59
521.21	968.38
521.57	984.59
521.93	1000.34
522.29	1016.86
522.65	1033.07
523.01	1049.26
523.37	1065.25
523.73	1081.46
524.09	1097.60
524.45	1113.71
524.81	1130.41
525.17	1147.08
525.53	1163.88
525.89	1180.71
526.25	1197.51
526.61	1213.98
526.97	1230.79
527.33	1247.17
527.68	1263.77
528.04	1280.21
528.40	1296.74
528.76	1313.76
529.12	1330.28
529.48	1347.13
529.84	1362.96
530.20	1379.44
530.56	1396.31
530.91	1413.69
531.27	1430.39
531.63	1446.64
531.99	1463.15
532.35	1479.02
532.71	1494.86
533.07	1511.11
533.42	1526.85
533.78	1542.88
534.14	1559.13
534.50	1574.29
534.86	1590.20
535.21	1605.23
535.57	1621.01
535.93	1636.44
536.29	1651.05
536.65	1666.07
537.00	1680.80
537.36	1696.05
537.72	1710.58
538.08	1724.95
538.44	1738.71
538.79	1752.63
539.15	1766.31
539.51	1780.06
539.87	1794.35
540.22	1808.03
540.58	1821.69
540.94	1834.93
541.29	1847.83
541.65	1860.30
542.01	1873.44
542.37	1885.65
542.72	1898.05
543.08	1909.86
543.44	1922.19
543.79	1933.33
544.15	1944.18
544.51	1955.70
544.87	1966.67
545.22	1977.52
545.58	1987.83
545.94	1997.61
546.29	2007.45
546.65	2017.25
547.01	2026.51
547.36	2035.33
547.72	2043.85
548.07	2051.73
548.43	2059.94
548.79	2067.94
549.14	2075.56
549.50	2083.00
549.86	2090.63
550.21	2097.91
550.57	2105.16
550.92	2111.82
551.28	2119.17
551.64	2126.34
551.99	2132.85
552.35	2139.05
552.70	2145.22
553.06	2151.15
553.41	2157.42
553.77	2163.35
554.13	2169.44
554.48	2175.61
554.84	2181.03
555.19	2186.28
555.55	2191.56
555.90	2196.02
556.26	2200.89
556.61	2205.67
556.97	2210.01
557.32	2214.19
557.68	2218.35
558.03	2222.59
558.39	2226.25
558.74	2230.69
559.10	2234.51
559.45	2238.13
559.81	2242.29
560.16	2246.06
560.52	2249.22
560.87	2252.69
561.23	2255.44
561.58	2258.29
561.94	2260.57
562.29	2262.80
562.64	2265.52
563.00	2267.91
563.35	2271.53
563.71	2274.63
564.06	2277.81
564.42	2280.66
564.77	2283.23
565.12	2285.64
565.48	2287.57
565.83	2289.55
566.19	2290.86
566.54	2291.77
566.89	2292.78
567.25	2293.34
567.60	2294.51
567.96	2296.34
568.31	2297.14
568.66	2298.22
569.02	2298.80
569.37	2299.22
569.72	2300.21
570.08	2300.28
570.43	2300.43
570.78	2299.81
571.14	2298.26
571.49	2296.91
571.84	2296.52
572.20	2295.33
572.55	2294.27
572.90	2292.55
573.26	2291.08
573.61	2289.43
573.96	2287.86
574.31	2285.15
574.67	2282.25
575.02	2278.75
575.37	2275.25
575.72	2271.55
576.08	2268.23
576.43	2265.09
576.78	2261.56
577.13	2258.29
577.49	2255.21
577.84	2251.71
578.19	2247.98
578.54	2244.42
578.90	2240.19
579.25	2234.67
579.60	2229.81
579.95	2224.85
580.30	2219.92
580.66	2214.74
581.01	2209.76
581.36	2204.82
581.71	2200.49
582.06	2196.14
582.42	2191.74
582.77	2186.59
583.12	2181.92
583.47	2177.30
583.82	2172.38
584.17	2167.09
584.53	2161.73
584.88	2156.23
585.23	2150.48
585.58	2144.96
585.93	2139.42
586.28	2134.64
586.63	2129.64
586.98	2124.72
587.34	2119.95
587.69	2115.08
588.04	2109.83
588.39	2104.26
588.74	2097.67
589.09	2091.65
589.44	2084.73
589.79	2078.71
590.14	2073.11
590.49	2066.53
590.84	2060.01
591.19	2053.86
591.54	2047.42
591.89	2040.09
592.25	2033.14
592.60	2026.09
592.95	2018.60
593.30	2011.38
593.65	2003.80
594.00	1996.78
594.35	1989.39
594.70	1981.35
595.05	1974.30
595.40	1967.18
595.75	1959.47
596.10	1953.34
596.45	1946.64
596.80	1940.56
597.15	1933.91
597.50	1926.93
597.85	1920.60
598.19	1914.04
598.54	1906.99
598.89	1900.31
599.24	1894.36
599.59	1887.91
599.94	1881.61
600.29	1875.31
600.64	1868.71
600.99	1861.28
601.34	1854.30
601.69	1847.35
602.04	1840.47
602.39	1833.07
602.74	1826.18
603.08	1819.50
603.43	1812.81
603.78	1805.37
604.13	1798.22
604.48	1791.12
604.83	1784.11
605.18	1777.15
605.53	1769.12
605.87	1761.19
606.22	1753.95
606.57	1746.03
606.92	1738.52
607.27	1731.44
607.62	1724.47
607.96	1717.04
608.31	1710.47
608.66	1703.00
609.01	1695.40
609.36	1688.00
609.70	1679.99
610.05	1672.03
610.40	1664.51
610.75	1656.16
611.10	1648.59
611.44	1640.20
611.79	1632.15
612.14	1623.51
612.49	1614.33
612.83	1606.10
613.18	1597.92
613.53	1589.92
613.88	1581.34
614.22	1573.10
614.57	1564.48
614.92	1556.57
615.27	1549.06
615.61	1540.77
615.96	1532.67
616.31	1525.18
616.65	1517.61
617.00	1510.03
617.35	1502.18
617.70	1493.81
618.04	1485.22
618.39	1477.02
618.74	1469.34
619.08	1461.03
619.43	1453.53
619.78	1446.62
620.12	1439.36
620.47	1431.79
620.82	1423.58
621.16	1416.14
621.51	1408.49
621.85	1400.70
622.20	1392.06
622.55	1383.81
622.89	1375.95
623.24	1368.31
623.59	1360.80
623.93	1353.33
624.28	1346.19
624.62	1338.69
624.97	1331.44
625.32	1324.75
625.66	1317.63
626.01	1310.54
626.35	1303.09
626.70	1295.20
627.04	1287.52
627.39	1279.67
627.73	1272.36
628.08	1265.50
628.43	1258.26
628.77	1250.96
629.12	1243.51
629.46	1236.38
629.81	1228.95
630.15	1221.69
630.50	1214.37
630.84	1206.22
631.19	1198.27
631.53	1190.72
631.88	1183.20
632.22	1175.61
632.57	1168.26
632.91	1160.79
633.26	1153.30
633.60	1145.83
633.95	1138.69
634.29	1131.58
634.64	1124.90
634.98	1117.53
635.32	1110.42
635.67	1103.83
636.01	1097.26
636.36	1090.45
636.70	1083.99
637.05	1077.38
637.39	1070.93
637.73	1064.46
638.08	1058.55
638.42	1052.63
638.77	1046.13
639.11	1039.57
639.45	1033.29
639.80	1026.61
640.14	1020.20
640.49	1013.70
640.83	1007.43
641.17	1001.28
641.52	994.97
641.86	988.50
642.20	982.64
642.55	976.28
642.89	969.83
643.23	963.27
643.58	957.52
643.92	951.30
644.26	945.36
644.61	939.27
644.95	933.19
645.29	926.58
645.64	919.83
645.98	913.50
646.32	907.60
646.66	901.53
647.01	895.74
647.35	889.99
647.69	884.18
648.04	878.63
648.38	872.82
648.72	866.79
649.06	860.70
649.41	854.77
649.75	848.81
650.09	842.93
650.43	837.09
650.78	830.96
651.12	824.97
651.46	819.11
651.80	813.32
652.14	807.90
652.49	802.52
652.83	797.29
653.17	791.63
653.51	785.86
653.85	780.35
654.20	774.76
654.54	768.79
654.88	762.97
655.22	757.10
655.56	751.43
655.90	745.96
656.25	740.75
656.59	735.38
656.93	730.29
657.27	725.06
657.61	719.61
657.95	714.46
658.29	709.36
658.64	704.16
658.98	698.93
659.32	693.48
659.66	688.33
660.00	683.00
660.34	678.02
660.68	673.12
661.02	668.19
661.36	663.49
661.70	658.98
662.05	654.71
662.39	650.34
662.73	645.85
663.07	641.49
663.41	637.00
663.75	632.51
664.09	627.92
664.43	623.53
664.77	619.44
665.11	615.16
665.45	611.00
665.79	606.91
666.13	602.82
666.47	598.76
666.81	594.60
667.15	590.57
667.49	586.67
667.83	582.88
668.17	578.91
668.51	574.83
668.85	570.78
669.19	566.88
669.53	563.08
669.87	559.24
670.21	555.56
670.55	551.93
670.89	548.51
671.23	545.07
671.57	541.55
671.91	537.99
672.25	534.51
672.58	530.99
672.92	527.60
673.26	524.43
673.60	521.29
673.94	518.10
674.28	515.20
674.62	512.26
674.96	509.17
675.30	506.26
675.64	503.34
675.97	500.54
676.31	497.70
676.65	494.76
676.99	491.99
677.33	489.11
677.67	486.34
678.01	483.29
678.34	480.33
678.68	477.47
679.02	474.56
679.36	471.79
679.70	469.15
680.04	466.36
680.37	463.44
680.71	460.63
681.05	458.07
681.39	455.29
681.73	452.59
682.06	450.08
682.40	447.53
682.74	445.03
683.08	442.50
683.42	439.88
683.75	437.37
684.09	434.79
684.43	432.34
684.77	429.83
685.10	427.51
685.44	425.20
685.78	422.86
686.12	420.74
686.45	418.44
686.79	416.10
687.13	413.87
687.46	411.67
687.80	409.49
688.14	407.22
688.48	405.13
688.81	402.87
689.15	400.66
689.49	398.57
689.82	396.44
690.16	394.31
690.50	392.40
690.83	390.49
691.17	388.58
691.51	386.68
691.84	384.82
692.18	382.86
692.52	380.85
692.85	378.93
693.19	377.01
693.52	375.16
693.86	373.35
694.20	371.59
694.53	369.83
694.87	368.01
695.21	366.23
695.54	364.42
695.88	362.73
696.21	361.03
696.55	359.28
696.88	357.61
697.22	355.99
697.56	354.28
697.89	352.61
698.23	350.99
698.56	349.36
698.90	347.77
699.23	346.16
699.57	344.61
699.90	343.05
700.24	341.52
700.58	340.00
700.91	338.49
701.25	337.09
701.58	335.69
701.92	334.38
702.25	333.00
702.59	331.63
702.92	330.32
703.26	328.98
703.59	327.69
703.93	326.50
704.26	325.24
704.60	323.95
704.93	322.69
705.26	321.41
705.60	320.24
705.93	319.07
706.27	318.03
706.60	317.00
706.94	315.91
707.27	314.81
707.61	313.77
707.94	312.75
708.27	311.64
708.61	310.62
708.94	309.57
709.28	308.63
709.61	307.68
709.94	306.76
710.28	305.76
710.61	304.82
710.95	303.72
711.28	302.81
711.61	301.90
711.95	301.00
712.28	300.06
712.61	299.08
712.95	298.15
713.28	297.29
713.61	296.36
713.95	295.52
714.28	294.65
714.61	293.81
714.95	292.93
715.28	292.09
715.61	291.18
715.95	290.32
716.28	289.46
716.61	288.65
716.95	287.81
717.28	287.06
717.61	286.31
717.94	285.59
718.28	284.78
718.61	284.05
718.94	283.36
719.27	282.73
719.61	282.08
719.94	281.43
720.27	280.70
720.60	280.05
720.94	279.44
721.27	278.85
721.60	278.28
721.93	277.72
722.27	277.16
722.60	276.62
722.93	276.04
723.26	275.48
723.59	274.88
723.93	274.31
724.26	273.75
724.59	273.17
724.92	272.65
725.25	272.17
725.59	271.66
725.92	271.13
726.25	270.62
726.58	270.11
726.91	269.60
727.24	269.16
727.57	268.66
727.91	268.11
728.24	267.64
728.57	267.10
728.90	266.65
729.23	266.15
729.56	265.68
729.89	265.22
730.22	264.70
730.55	264.25
730.89	263.82
731.22	263.38
731.55	262.89
731.88	262.43
732.21	262.01
732.54	261.56
732.87	261.18
733.20	260.74
733.53	260.36
733.86	260.00
734.19	259.59
734.52	259.22
734.85	258.90
735.18	258.48
735.51	258.14
735.84	257.74
736.17	257.41
736.50	256.99
736.83	256.75
737.16	256.43
737.49	256.10
737.82	255.70
738.15	255.40
738.48	255.12
738.81	254.82
739.14	254.47
739.47	254.19
739.80	253.86
740.13	253.58
740.46	253.28
740.79	252.95
741.12	252.61
741.45	252.35
741.78	252.00
742.11	251.74
742.44	251.40
742.77	251.12
743.10	250.80
743.43	250.52
743.75	250.14
744.08	250.00
744.41	249.72
744.74	249.49
745.07	249.19
745.40	248.94
745.73	248.71
746.06	248.42
746.39	248.14
746.71	247.86
747.04	247.58
747.37	247.29
747.70	247.08
748.03	246.86
748.36	246.62
748.68	246.37
749.01	246.14
749.34	245.93
749.67	245.71
750.00	245.49
750.33	245.33
750.65	245.10
750.98	244.77
751.31	244.58
751.64	244.37
751.97	244.23
752.29	244.01
752.62	243.75
752.95	243.54
753.28	243.32
753.60	243.10
753.93	242.93
754.26	242.72
754.59	242.50
754.91	242.27
755.24	242.07
755.57	241.90
755.90	241.68
756.22	241.46
756.55	241.24
756.88	241.07
757.20	240.84
757.53	240.64
757.86	240.48
758.19	240.29
758.51	240.11
758.84	239.88
759.17	239.70
759.49	239.58
759.82	239.48
760.15	239.34
760.47	239.22
760.80	239.07
761.13	238.95
761.45	238.76
761.78	238.63
762.11	238.49
762.43	238.36
762.76	238.25
763.08	238.15
763.41	238.05
763.74	237.92
764.06	237.82
764.39	237.74
764.71	237.61
765.04	237.47
765.37	237.36
765.69	237.24
766.02	237.11
766.34	236.97
766.67	236.83
767.00	236.72
767.32	236.66
767.65	236.58
767.97	236.47
768.30	236.38
768.62	236.27
768.95	236.13
769.27	236.00
769.60	235.88
769.92	235.72
770.25	235.56
770.57	235.43
770.90	235.27
771.22	235.14
771.55	235.03
771.87	234.98
772.20	234.86
772.52	234.85
772.85	234.87
773.17	234.76
773.50	234.65
773.82	234.55
774.15	234.37
774.47	234.25
774.80	234.16
775.12	234.05
775.45	233.96
775.77	233.90
776.09	233.83
776.42	233.72
776.74	233.65
777.07	233.58
777.39	233.52
777.72	233.45
778.04	233.37
778.36	233.30
778.69	233.21
779.01	233.13
779.33	232.95
779.66	232.81
779.98	232.72
780.31	232.66
780.63	232.62
780.95	232.58
781.28	232.48
781.60	232.41
781.92	232.36
782.25	232.28
782.57	232.18
782.89	232.08
783.22	232.04
783.54	232.00
783.86	231.95
784.19	231.85
784.51	231.83
784.83	231.77
785.16	231.70
785.48	231.63
785.80	231.60
786.12	231.56
786.45	231.48
786.77	231.45
787.09	231.39
