SpectraSuite Data File
++++++++++++++++++++++++++++++++++++
Date: Fri Feb 01 15:12:51 EST 2013
User: group
Dark Spectrum Present: No
Reference Spectrum Present: No
Number of Sampled Component Spectra: 1
Spectrometers: USB2E7196
Integration Time (usec): 35000 (USB2E7196)
Spectra Averaged: 100 (USB2E7196)
Boxcar Smoothing: 10 (USB2E7196)
Correct for Electrical Dark: No (USB2E7196)
Strobe/Lamp Enabled: No (USB2E7196)
Correct for Detector Non-linearity: No (USB2E7196)
Correct for Stray Light: No (USB2E7196)
Number of Pixels in Processed Spectrum: 2048
>>>>>Begin Processed Spectral Data<<<<<
339.09	0.00
339.48	214.49
339.86	216.28
340.24	218.27
340.63	219.68
341.01	222.10
341.39	222.26
341.78	223.41
342.16	224.35
342.54	225.22
342.93	213.44
343.31	224.23
343.69	224.82
344.07	225.30
344.46	225.71
344.84	226.08
345.22	226.35
345.60	226.57
345.99	226.79
346.37	226.94
346.75	227.03
347.13	227.11
347.52	227.18
347.90	227.27
348.28	227.30
348.66	227.33
349.05	227.30
349.43	227.37
349.81	227.42
350.19	227.47
350.57	227.51
350.96	227.57
351.34	227.66
351.72	227.76
352.10	227.87
352.48	227.96
352.87	228.01
353.25	228.07
353.63	228.16
354.01	228.21
354.39	228.29
354.77	228.37
355.15	228.47
355.54	228.52
355.92	228.57
356.30	228.64
356.68	228.78
357.06	228.89
357.44	228.93
357.82	228.97
358.20	229.05
358.58	229.10
358.97	229.14
359.35	229.22
359.73	229.27
360.11	229.28
360.49	229.29
360.87	229.35
361.25	229.38
361.63	229.42
362.01	229.47
362.39	229.46
362.77	229.55
363.15	229.56
363.53	229.60
363.91	229.63
364.29	229.65
364.67	229.55
365.05	229.54
365.43	229.58
365.81	229.62
366.19	229.64
366.57	229.69
366.95	229.72
367.33	229.66
367.71	229.66
368.09	229.66
368.47	229.66
368.85	229.61
369.23	229.60
369.61	229.57
369.99	229.54
370.37	229.52
370.75	229.48
371.13	229.38
371.51	229.31
371.89	229.23
372.27	229.19
372.65	229.17
373.03	229.11
373.41	229.02
373.78	228.94
374.16	228.84
374.54	228.72
374.92	228.64
375.30	228.59
375.68	228.47
376.06	228.42
376.44	228.35
376.82	228.26
377.19	228.15
377.57	228.08
377.95	227.99
378.33	227.92
378.71	227.80
379.09	227.75
379.47	227.68
379.84	227.59
380.22	227.48
380.60	227.41
380.98	227.32
381.36	227.24
381.73	227.16
382.11	227.13
382.49	227.08
382.87	227.00
383.25	226.92
383.62	226.97
384.00	226.87
384.38	226.82
384.76	226.81
385.13	226.81
385.51	226.74
385.89	226.71
386.27	226.66
386.64	226.64
387.02	226.63
387.40	226.57
387.78	226.55
388.15	226.52
388.53	226.48
388.91	226.45
389.29	226.46
389.66	226.44
390.04	226.37
390.42	226.35
390.79	226.31
391.17	226.31
391.55	226.21
391.92	226.23
392.30	226.23
392.68	226.19
393.05	226.19
393.43	226.21
393.81	226.21
394.18	226.22
394.56	226.24
394.94	226.30
395.31	226.31
395.69	226.38
396.06	226.44
396.44	226.50
396.82	226.52
397.19	226.58
397.57	226.65
397.95	226.74
398.32	226.80
398.70	226.88
399.07	226.98
399.45	227.05
399.82	227.10
400.20	227.18
400.58	227.28
400.95	227.31
401.33	227.43
401.70	227.58
402.08	227.67
402.45	227.79
402.83	227.86
403.20	228.00
403.58	228.09
403.95	228.22
404.33	228.33
404.71	228.49
405.08	228.68
405.46	228.83
405.83	228.96
406.21	229.10
406.58	229.26
406.96	229.41
407.33	229.59
407.70	229.80
408.08	230.06
408.45	230.26
408.83	230.54
409.20	230.76
409.58	230.94
409.95	231.21
410.33	231.43
410.70	231.66
411.08	231.97
411.45	232.31
411.82	232.61
412.20	232.92
412.57	233.36
412.95	233.65
413.32	234.04
413.69	234.46
414.07	234.90
414.44	235.37
414.82	235.87
415.19	236.41
415.56	236.95
415.94	237.49
416.31	238.14
416.68	238.74
417.06	239.44
417.43	240.13
417.81	240.87
418.18	241.68
418.55	242.56
418.93	243.44
419.30	244.30
419.67	245.24
420.04	246.26
420.42	247.22
420.79	248.41
421.16	249.61
421.54	250.82
421.91	252.05
422.28	253.33
422.66	254.66
423.03	255.96
423.40	257.30
423.77	258.71
424.15	260.14
424.52	261.61
424.89	263.22
425.26	264.78
425.64	266.24
426.01	267.82
426.38	269.49
426.75	271.16
427.13	272.91
427.50	274.73
427.87	276.60
428.24	278.45
428.61	280.24
428.99	282.19
429.36	284.29
429.73	286.34
430.10	288.38
430.47	290.41
430.85	292.56
431.22	294.79
431.59	297.20
431.96	299.48
432.33	302.01
432.70	304.40
433.08	307.21
433.45	309.90
433.82	312.54
434.19	315.40
434.56	318.18
434.93	320.82
435.30	323.44
435.68	326.35
436.05	329.20
436.42	331.95
436.79	334.43
437.16	337.13
437.53	340.02
437.90	342.83
438.27	345.63
438.64	348.48
439.01	351.09
439.38	353.34
439.75	355.51
440.13	358.03
440.50	360.36
440.87	362.24
441.24	364.20
441.61	366.33
441.98	367.83
442.35	369.66
442.72	371.56
443.09	373.40
443.46	374.40
443.83	375.04
444.20	375.57
444.57	376.41
444.94	376.73
445.31	377.06
445.68	377.42
446.05	377.50
446.42	377.10
446.79	376.71
447.16	376.28
447.53	375.94
447.90	374.74
448.27	373.59
448.64	372.02
449.01	370.85
449.37	368.89
449.74	367.02
450.11	364.75
450.48	362.21
450.85	359.64
451.22	357.47
451.59	355.40
451.96	353.41
452.33	350.81
452.70	348.39
453.07	345.50
453.43	342.58
453.80	339.79
454.17	337.11
454.54	334.53
454.91	331.77
455.28	329.08
455.65	326.60
456.02	324.16
456.38	321.99
456.75	319.30
457.12	317.06
457.49	314.80
457.86	312.63
458.23	310.79
458.59	308.78
458.96	306.67
459.33	304.79
459.70	302.95
460.07	301.42
460.43	299.68
460.80	298.10
461.17	296.63
461.54	295.12
461.91	293.69
462.27	292.20
462.64	290.91
463.01	289.54
463.38	288.21
463.74	286.82
464.11	285.62
464.48	284.58
464.85	283.44
465.21	282.53
465.58	281.60
465.95	280.54
466.32	279.58
466.68	278.68
467.05	277.81
467.42	276.93
467.78	275.97
468.15	275.12
468.52	274.41
468.88	273.55
469.25	272.76
469.62	272.08
469.98	271.39
470.35	270.77
470.72	270.18
471.08	269.51
471.45	268.97
471.82	268.44
472.18	267.83
472.55	267.39
472.92	266.88
473.28	266.39
473.65	265.90
474.02	265.45
474.38	265.07
474.75	264.69
475.11	264.32
475.48	264.04
475.85	263.79
476.21	263.55
476.58	263.37
476.94	263.21
477.31	263.08
477.67	263.00
478.04	262.85
478.41	262.81
478.77	262.85
479.14	262.77
479.50	262.75
479.87	262.84
480.23	262.93
480.60	263.02
480.96	263.13
481.33	263.36
481.69	263.55
482.06	263.77
482.42	264.00
482.79	264.27
483.15	264.63
483.52	264.99
483.88	265.36
484.25	265.75
484.61	266.20
484.98	266.62
485.34	267.14
485.71	267.76
486.07	268.34
486.44	268.88
486.80	269.60
487.17	270.34
487.53	271.16
487.90	272.02
488.26	272.94
488.62	273.96
488.99	274.87
489.35	275.95
489.72	277.07
490.08	278.32
490.44	279.57
490.81	280.93
491.17	282.30
491.54	283.77
491.90	285.31
492.26	286.92
492.63	288.64
492.99	290.41
493.36	292.30
493.72	294.35
494.08	296.50
494.45	298.71
494.81	301.05
495.17	303.48
495.54	306.01
495.90	308.69
496.26	311.47
496.63	314.45
496.99	317.51
497.35	320.74
497.72	324.10
498.08	327.59
498.44	331.22
498.80	335.14
499.17	339.22
499.53	343.39
499.89	347.80
500.26	352.28
500.62	356.97
500.98	361.94
501.34	367.01
501.71	372.32
502.07	377.73
502.43	383.35
502.79	389.17
503.16	395.26
503.52	401.51
503.88	407.94
504.24	414.53
504.60	421.37
504.97	428.54
505.33	435.79
505.69	443.51
506.05	451.25
506.41	459.12
506.78	467.18
507.14	475.58
507.50	484.31
507.86	493.37
508.22	502.47
508.59	511.58
508.95	521.22
509.31	531.00
509.67	541.22
510.03	551.47
510.39	562.02
510.75	572.89
511.12	583.79
511.48	595.06
511.84	606.55
512.20	618.12
512.56	630.05
512.92	642.36
513.28	654.62
513.64	667.16
514.00	679.83
514.37	692.79
514.73	705.90
515.09	718.99
515.45	732.30
515.81	745.95
516.17	760.00
516.53	773.98
516.89	788.11
517.25	802.30
517.61	816.86
517.97	831.38
518.33	845.72
518.69	860.56
519.05	875.57
519.41	890.80
519.77	906.34
520.13	921.83
520.49	937.15
520.85	952.64
521.21	968.32
521.57	984.68
521.93	1000.52
522.29	1016.96
522.65	1033.13
523.01	1049.42
523.37	1065.57
523.73	1081.75
524.09	1097.94
524.45	1114.40
524.81	1131.10
525.17	1147.90
525.53	1164.91
525.89	1181.98
526.25	1198.85
526.61	1215.34
526.97	1232.13
527.33	1248.65
527.68	1265.45
528.04	1281.94
528.40	1298.73
528.76	1315.89
529.12	1332.55
529.48	1349.40
529.84	1365.47
530.20	1382.29
530.56	1399.38
530.91	1416.79
531.27	1433.73
531.63	1450.22
531.99	1466.87
532.35	1482.85
532.71	1498.82
533.07	1515.10
533.42	1530.93
533.78	1547.02
534.14	1563.49
534.50	1578.89
534.86	1594.86
535.21	1609.95
535.57	1626.07
535.93	1641.52
536.29	1656.41
536.65	1671.47
537.00	1686.48
537.36	1701.94
537.72	1716.63
538.08	1731.05
538.44	1745.01
538.79	1758.92
539.15	1772.89
539.51	1786.67
539.87	1801.17
540.22	1814.89
540.58	1828.76
540.94	1842.32
541.29	1855.39
541.65	1868.06
542.01	1881.29
542.37	1893.81
542.72	1906.25
543.08	1918.13
543.44	1930.59
543.79	1941.85
544.15	1952.96
544.51	1964.54
544.87	1975.50
545.22	1986.24
545.58	1996.53
545.94	2006.43
546.29	2016.26
546.65	2025.90
547.01	2035.25
547.36	2044.04
547.72	2052.63
548.07	2060.42
548.43	2068.58
548.79	2076.71
549.14	2084.18
549.50	2091.74
549.86	2099.33
550.21	2106.67
550.57	2113.87
550.92	2120.41
551.28	2127.56
551.64	2134.60
551.99	2141.15
552.35	2147.34
552.70	2153.48
553.06	2159.48
553.41	2165.62
553.77	2171.82
554.13	2178.07
554.48	2184.22
554.84	2189.43
555.19	2194.83
555.55	2200.05
555.90	2204.40
556.26	2209.13
556.61	2214.07
556.97	2218.11
557.32	2222.29
557.68	2226.55
558.03	2230.82
558.39	2234.78
558.74	2239.40
559.10	2243.22
559.45	2246.80
559.81	2251.22
560.16	2255.17
560.52	2258.35
560.87	2261.83
561.23	2264.46
561.58	2267.40
561.94	2269.81
562.29	2272.27
562.64	2274.76
563.00	2277.32
563.35	2280.92
563.71	2283.99
564.06	2286.99
564.42	2290.01
564.77	2292.28
565.12	2294.31
565.48	2295.92
565.83	2297.54
566.19	2298.86
566.54	2299.83
566.89	2300.95
567.25	2301.32
567.60	2302.35
567.96	2304.05
568.31	2304.86
568.66	2305.74
569.02	2306.08
569.37	2306.31
569.72	2307.22
570.08	2307.22
570.43	2307.15
570.78	2306.32
571.14	2304.84
571.49	2303.45
571.84	2302.90
572.20	2301.75
572.55	2300.75
572.90	2299.36
573.26	2297.88
573.61	2296.01
573.96	2294.17
574.31	2291.13
574.67	2287.87
575.02	2284.28
575.37	2280.87
575.72	2276.79
576.08	2273.60
576.43	2270.29
576.78	2266.56
577.13	2263.18
577.49	2260.17
577.84	2256.48
578.19	2252.84
578.54	2248.97
578.90	2244.59
579.25	2238.97
579.60	2234.07
579.95	2229.02
580.30	2223.80
580.66	2218.62
581.01	2213.52
581.36	2208.45
581.71	2204.13
582.06	2199.71
582.42	2195.07
582.77	2189.68
583.12	2185.11
583.47	2180.02
583.82	2174.89
584.17	2169.48
584.53	2163.88
584.88	2158.02
585.23	2152.17
585.58	2146.50
585.93	2140.98
586.28	2136.16
586.63	2131.02
586.98	2125.73
587.34	2120.97
587.69	2115.98
588.04	2110.54
588.39	2104.69
588.74	2098.02
589.09	2091.73
589.44	2084.85
589.79	2078.77
590.14	2073.04
590.49	2066.42
590.84	2059.92
591.19	2053.87
591.54	2047.46
591.89	2039.92
592.25	2033.03
592.60	2025.68
592.95	2017.99
593.30	2010.53
593.65	2002.86
594.00	1995.81
594.35	1988.46
594.70	1980.25
595.05	1972.93
595.40	1965.55
595.75	1958.07
596.10	1951.86
596.45	1945.00
596.80	1938.79
597.15	1932.05
597.50	1924.74
597.85	1918.28
598.19	1911.64
598.54	1904.32
598.89	1897.68
599.24	1891.82
599.59	1884.95
599.94	1878.61
600.29	1872.38
600.64	1865.92
600.99	1858.45
601.34	1851.49
601.69	1844.59
602.04	1837.61
602.39	1830.33
602.74	1823.45
603.08	1816.71
603.43	1809.94
603.78	1802.78
604.13	1795.57
604.48	1788.19
604.83	1781.40
605.18	1774.20
605.53	1766.11
605.87	1758.20
606.22	1750.86
606.57	1742.93
606.92	1735.74
607.27	1728.66
607.62	1721.63
607.96	1714.14
608.31	1707.38
608.66	1699.72
609.01	1692.03
609.36	1684.43
609.70	1676.28
610.05	1668.20
610.40	1660.43
610.75	1652.15
611.10	1644.38
611.44	1635.89
611.79	1627.99
612.14	1619.34
612.49	1610.26
612.83	1601.95
613.18	1593.85
613.53	1585.67
613.88	1577.12
614.22	1568.80
614.57	1560.30
614.92	1552.16
615.27	1544.53
615.61	1536.27
615.96	1528.34
616.31	1520.74
616.65	1513.36
617.00	1505.84
617.35	1498.32
617.70	1489.87
618.04	1481.26
618.39	1473.04
618.74	1465.50
619.08	1457.15
619.43	1449.50
619.78	1442.65
620.12	1435.46
620.47	1427.90
620.82	1419.86
621.16	1412.49
621.51	1404.90
621.85	1397.27
622.20	1388.81
622.55	1380.65
622.89	1372.74
623.24	1365.07
623.59	1357.75
623.93	1350.28
624.28	1343.07
624.62	1335.45
624.97	1328.43
625.32	1321.70
625.66	1314.66
626.01	1307.37
626.35	1299.83
626.70	1292.13
627.04	1284.43
627.39	1276.69
627.73	1269.25
628.08	1262.27
628.43	1254.88
628.77	1247.60
629.12	1240.01
629.46	1232.92
629.81	1225.56
630.15	1218.33
630.50	1210.94
630.84	1202.73
631.19	1194.91
631.53	1187.46
631.88	1179.86
632.22	1172.21
632.57	1164.99
632.91	1157.53
633.26	1150.21
633.60	1142.96
633.95	1135.97
634.29	1128.93
634.64	1122.34
634.98	1115.09
635.32	1108.06
635.67	1101.52
636.01	1094.86
636.36	1088.01
636.70	1081.49
637.05	1074.84
637.39	1068.42
637.73	1061.89
638.08	1055.99
638.42	1049.96
638.77	1043.51
639.11	1036.99
639.45	1030.67
639.80	1023.99
640.14	1017.57
640.49	1011.01
640.83	1004.75
641.17	998.45
641.52	992.09
641.86	985.67
642.20	979.91
642.55	973.55
642.89	967.00
643.23	960.41
643.58	954.70
643.92	948.53
644.26	942.43
644.61	936.48
644.95	930.51
645.29	923.86
645.64	917.11
645.98	910.81
646.32	904.98
646.66	898.96
647.01	893.16
647.35	887.41
647.69	881.70
648.04	876.20
648.38	870.43
648.72	864.46
649.06	858.31
649.41	852.34
649.75	846.31
650.09	840.46
650.43	834.72
650.78	828.57
651.12	822.57
651.46	816.82
651.80	811.07
652.14	805.70
652.49	800.44
652.83	795.28
653.17	789.54
653.51	783.76
653.85	778.40
654.20	772.76
654.54	766.86
654.88	761.04
655.22	755.16
655.56	749.48
655.90	744.00
656.25	738.79
656.59	733.43
656.93	728.37
657.27	723.12
657.61	717.66
657.95	712.62
658.29	707.56
658.64	702.38
658.98	697.03
659.32	691.57
659.66	686.40
660.00	681.13
660.34	676.21
660.68	671.38
661.02	666.37
661.36	661.70
661.70	657.19
662.05	652.86
662.39	648.52
662.73	644.12
663.07	639.82
663.41	635.44
663.75	630.95
664.09	626.41
664.43	622.11
664.77	618.09
665.11	613.81
665.45	609.69
665.79	605.67
666.13	601.58
666.47	597.53
666.81	593.35
667.15	589.24
667.49	585.41
667.83	581.62
668.17	577.66
668.51	573.62
668.85	569.59
669.19	565.79
669.53	561.95
669.87	558.03
670.21	554.35
670.55	550.69
670.89	547.28
671.23	543.92
671.57	540.42
671.91	536.84
672.25	533.37
672.58	529.87
672.92	526.47
673.26	523.38
673.60	520.24
673.94	517.15
674.28	514.21
674.62	511.28
674.96	508.15
675.30	505.26
675.64	502.24
675.97	499.49
676.31	496.63
676.65	493.75
676.99	491.06
677.33	488.21
677.67	485.43
678.01	482.46
678.34	479.38
678.68	476.52
679.02	473.75
679.36	471.07
679.70	468.36
680.04	465.57
680.37	462.68
680.71	459.87
681.05	457.29
681.39	454.61
681.73	451.90
682.06	449.51
682.40	446.95
682.74	444.50
683.08	441.97
683.42	439.39
683.75	436.93
684.09	434.40
684.43	431.92
684.77	429.49
685.10	427.16
685.44	424.95
685.78	422.70
686.12	420.44
686.45	418.12
686.79	415.84
687.13	413.68
687.46	411.48
687.80	409.38
688.14	407.15
688.48	405.08
688.81	402.85
689.15	400.61
689.49	398.51
689.82	396.41
690.16	394.34
690.50	392.39
690.83	390.42
691.17	388.45
691.51	386.50
691.84	384.62
692.18	382.63
692.52	380.62
692.85	378.68
693.19	376.83
693.52	375.05
693.86	373.27
694.20	371.49
694.53	369.72
694.87	367.87
695.21	366.12
695.54	364.34
695.88	362.63
696.21	360.90
696.55	359.19
696.88	357.56
697.22	355.94
697.56	354.30
697.89	352.64
698.23	351.03
698.56	349.47
698.90	347.87
699.23	346.25
699.57	344.73
699.90	343.18
700.24	341.56
700.58	339.97
700.91	338.47
701.25	337.02
701.58	335.63
701.92	334.27
702.25	332.93
702.59	331.56
702.92	330.27
703.26	328.99
703.59	327.75
703.93	326.53
704.26	325.27
704.60	323.96
704.93	322.68
705.26	321.41
705.60	320.25
705.93	319.08
706.27	318.05
706.60	317.00
706.94	315.92
707.27	314.84
707.61	313.80
707.94	312.76
708.27	311.70
708.61	310.62
708.94	309.60
709.28	308.59
709.61	307.61
709.94	306.66
710.28	305.68
710.61	304.67
710.95	303.62
711.28	302.73
711.61	301.80
711.95	300.91
712.28	299.97
712.61	298.98
712.95	298.06
713.28	297.21
713.61	296.28
713.95	295.40
714.28	294.60
714.61	293.76
714.95	292.91
715.28	292.01
715.61	291.16
715.95	290.30
716.28	289.43
716.61	288.59
716.95	287.73
717.28	287.00
717.61	286.23
717.94	285.51
718.28	284.69
718.61	284.00
718.94	283.30
719.27	282.66
719.61	282.03
719.94	281.40
720.27	280.67
720.60	280.01
720.94	279.38
721.27	278.75
721.60	278.17
721.93	277.60
722.27	277.09
722.60	276.54
722.93	276.00
723.26	275.51
723.59	274.96
723.93	274.42
724.26	273.83
724.59	273.31
724.92	272.76
725.25	272.28
725.59	271.74
725.92	271.27
726.25	270.80
726.58	270.31
726.91	269.81
727.24	269.33
727.57	268.86
727.91	268.39
728.24	267.95
728.57	267.46
728.90	266.96
729.23	266.48
729.56	266.07
729.89	265.55
730.22	265.07
730.55	264.61
730.89	264.22
731.22	263.78
731.55	263.35
731.88	262.93
732.21	262.44
732.54	261.99
732.87	261.51
733.20	261.08
733.53	260.71
733.86	260.34
734.19	259.96
734.52	259.60
734.85	259.27
735.18	258.82
735.51	258.49
735.84	258.14
736.17	257.75
736.50	257.32
736.83	257.15
737.16	256.84
737.49	256.51
737.82	256.14
738.15	255.81
738.48	255.49
738.81	255.14
739.14	254.85
739.47	254.58
739.80	254.30
740.13	254.00
740.46	253.64
740.79	253.28
741.12	252.98
741.45	252.65
741.78	252.33
742.11	252.10
742.44	251.74
742.77	251.46
743.10	251.21
743.43	250.92
743.75	250.52
744.08	250.37
744.41	250.08
744.74	249.80
745.07	249.52
745.40	249.25
745.73	249.07
746.06	248.80
746.39	248.53
746.71	248.23
747.04	247.98
747.37	247.72
747.70	247.51
748.03	247.25
748.36	247.06
748.68	246.79
749.01	246.51
749.34	246.28
749.67	246.09
750.00	245.86
750.33	245.72
750.65	245.52
750.98	245.13
751.31	244.95
751.64	244.75
751.97	244.58
752.29	244.34
752.62	244.06
752.95	243.86
753.28	243.63
753.60	243.43
753.93	243.25
754.26	243.05
754.59	242.83
754.91	242.66
755.24	242.45
755.57	242.27
755.90	242.12
756.22	241.97
756.55	241.75
756.88	241.53
757.20	241.29
757.53	241.10
757.86	240.95
758.19	240.76
758.51	240.60
758.84	240.42
759.17	240.30
759.49	240.17
759.82	240.08
760.15	239.96
760.47	239.82
760.80	239.65
761.13	239.54
761.45	239.36
761.78	239.19
762.11	239.05
762.43	238.92
762.76	238.74
763.08	238.62
763.41	238.47
763.74	238.35
764.06	238.19
764.39	238.04
764.71	237.90
765.04	237.80
765.37	237.68
765.69	237.52
766.02	237.37
766.34	237.23
766.67	237.08
767.00	236.93
767.32	236.87
767.65	236.78
767.97	236.65
768.30	236.56
768.62	236.43
768.95	236.32
769.27	236.19
769.60	236.13
769.92	235.96
770.25	235.83
770.57	235.71
770.90	235.62
771.22	235.51
771.55	235.41
771.87	235.29
772.20	235.14
772.52	235.13
772.85	235.14
773.17	235.01
773.50	234.91
773.82	234.83
774.15	234.68
774.47	234.54
774.80	234.42
775.12	234.33
775.45	234.24
775.77	234.12
776.09	234.00
776.42	233.90
776.74	233.88
777.07	233.82
777.39	233.70
777.72	233.58
778.04	233.51
778.36	233.40
778.69	233.32
779.01	233.29
779.33	233.12
779.66	232.92
779.98	232.86
780.31	232.79
780.63	232.76
780.95	232.69
781.28	232.64
781.60	232.58
781.92	232.53
782.25	232.46
782.57	232.47
782.89	232.41
783.22	232.34
783.54	232.25
783.86	232.19
784.19	232.18
784.51	232.19
784.83	232.13
785.16	232.09
785.48	232.06
785.80	232.03
786.12	231.99
786.45	231.95
786.77	231.95
787.09	231.91
