SpectraSuite Data File
++++++++++++++++++++++++++++++++++++
Date: Fri Feb 01 18:16:38 EST 2013
User: group
Dark Spectrum Present: No
Reference Spectrum Present: No
Number of Sampled Component Spectra: 1
Spectrometers: USB2E7196
Integration Time (usec): 35000 (USB2E7196)
Spectra Averaged: 100 (USB2E7196)
Boxcar Smoothing: 10 (USB2E7196)
Correct for Electrical Dark: No (USB2E7196)
Strobe/Lamp Enabled: No (USB2E7196)
Correct for Detector Non-linearity: No (USB2E7196)
Correct for Stray Light: No (USB2E7196)
Number of Pixels in Processed Spectrum: 2048
>>>>>Begin Processed Spectral Data<<<<<
339.09	0.00
339.48	213.35
339.86	214.01
340.24	215.88
340.63	217.45
341.01	220.07
341.39	220.13
341.78	221.14
342.16	222.90
342.54	223.00
342.93	211.62
343.31	222.30
343.69	222.83
344.07	223.32
344.46	223.75
344.84	224.15
345.22	224.38
345.60	224.63
345.99	224.85
346.37	224.95
346.75	225.07
347.13	225.14
347.52	225.22
347.90	225.28
348.28	225.30
348.66	225.34
349.05	225.31
349.43	225.35
349.81	225.39
350.19	225.45
350.57	225.50
350.96	225.54
351.34	225.62
351.72	225.70
352.10	225.80
352.48	225.87
352.87	225.91
353.25	225.97
353.63	226.01
354.01	226.05
354.39	226.15
354.77	226.21
355.15	226.31
355.54	226.35
355.92	226.40
356.30	226.47
356.68	226.59
357.06	226.68
357.44	226.73
357.82	226.78
358.20	226.83
358.58	226.86
358.97	226.93
359.35	227.01
359.73	227.09
360.11	227.15
360.49	227.25
360.87	227.28
361.25	227.36
361.63	227.43
362.01	227.48
362.39	227.52
362.77	227.54
363.15	227.56
363.53	227.62
363.91	227.62
364.29	227.62
364.67	227.56
365.05	227.55
365.43	227.58
365.81	227.60
366.19	227.63
366.57	227.66
366.95	227.72
367.33	227.69
367.71	227.69
368.09	227.69
368.47	227.64
368.85	227.65
369.23	227.65
369.61	227.63
369.99	227.64
370.37	227.61
370.75	227.64
371.13	227.59
371.51	227.51
371.89	227.50
372.27	227.49
372.65	227.43
373.03	227.41
373.41	227.35
373.78	227.28
374.16	227.19
374.54	227.13
374.92	227.02
375.30	227.00
375.68	226.89
376.06	226.81
376.44	226.76
376.82	226.72
377.19	226.66
377.57	226.58
377.95	226.48
378.33	226.44
378.71	226.32
379.09	226.26
379.47	226.25
379.84	226.17
380.22	226.11
380.60	226.05
380.98	226.00
381.36	225.95
381.73	225.92
382.11	225.87
382.49	225.82
382.87	225.74
383.25	225.64
383.62	225.72
384.00	225.67
384.38	225.60
384.76	225.54
385.13	225.49
385.51	225.44
385.89	225.38
386.27	225.34
386.64	225.32
387.02	225.31
387.40	225.20
387.78	225.19
388.15	225.18
388.53	225.17
388.91	225.13
389.29	225.08
389.66	225.05
390.04	225.03
390.42	225.00
390.79	225.01
391.17	224.99
391.55	224.88
391.92	224.88
392.30	224.89
392.68	224.89
393.05	224.87
393.43	224.90
393.81	224.93
394.18	224.92
394.56	224.92
394.94	224.91
395.31	224.96
395.69	225.00
396.06	224.98
396.44	224.99
396.82	225.04
397.19	225.12
397.57	225.14
397.95	225.20
398.32	225.25
398.70	225.29
399.07	225.38
399.45	225.42
399.82	225.47
400.20	225.51
400.58	225.52
400.95	225.58
401.33	225.67
401.70	225.79
402.08	225.89
402.45	225.97
402.83	226.07
403.20	226.21
403.58	226.27
403.95	226.44
404.33	226.60
404.71	226.74
405.08	226.94
405.46	227.12
405.83	227.29
406.21	227.48
406.58	227.69
406.96	227.90
407.33	228.13
407.70	228.39
408.08	228.71
408.45	229.01
408.83	229.33
409.20	229.60
409.58	229.87
409.95	230.19
410.33	230.57
410.70	230.94
411.08	231.29
411.45	231.76
411.82	232.14
412.20	232.58
412.57	233.10
412.95	233.50
413.32	234.04
413.69	234.60
414.07	235.19
414.44	235.80
414.82	236.44
415.19	237.20
415.56	237.93
415.94	238.73
416.31	239.63
416.68	240.48
417.06	241.47
417.43	242.41
417.81	243.50
418.18	244.58
418.55	245.74
418.93	246.99
419.30	248.21
419.67	249.53
420.04	250.87
420.42	252.28
420.79	253.91
421.16	255.52
421.54	257.19
421.91	258.90
422.28	260.70
422.66	262.58
423.03	264.40
423.40	266.26
423.77	268.22
424.15	270.20
424.52	272.33
424.89	274.59
425.26	276.79
425.64	278.84
426.01	281.12
426.38	283.47
426.75	285.82
427.13	288.29
427.50	290.85
427.87	293.50
428.24	296.12
428.61	298.60
428.99	301.34
429.36	304.28
429.73	307.18
430.10	310.04
430.47	312.93
430.85	315.93
431.22	319.10
431.59	322.44
431.96	325.62
432.33	329.14
432.70	332.49
433.08	336.42
433.45	340.12
433.82	343.77
434.19	347.86
434.56	351.78
434.93	355.50
435.30	359.18
435.68	363.28
436.05	367.29
436.42	371.24
436.79	374.83
437.16	378.66
437.53	382.66
437.90	386.56
438.27	390.46
438.64	394.45
439.01	398.13
439.38	401.33
439.75	404.39
440.13	407.91
440.50	411.19
440.87	413.82
441.24	416.59
441.61	419.66
441.98	421.74
442.35	424.38
442.72	426.98
443.09	429.57
443.46	430.98
443.83	431.83
444.20	432.58
444.57	433.82
444.94	434.24
445.31	434.76
445.68	435.30
446.05	435.41
446.42	434.89
446.79	434.31
447.16	433.67
447.53	433.20
447.90	431.53
448.27	429.98
448.64	427.79
449.01	426.19
449.37	423.41
449.74	420.74
450.11	417.51
450.48	414.05
450.85	410.51
451.22	407.49
451.59	404.65
451.96	401.93
452.33	398.16
452.70	394.88
453.07	390.89
453.43	386.89
453.80	383.00
454.17	379.22
454.54	375.60
454.91	371.80
455.28	368.08
455.65	364.61
456.02	361.04
456.38	357.97
456.75	354.19
457.12	351.01
457.49	347.85
457.86	344.80
458.23	342.20
458.59	339.28
458.96	336.31
459.33	333.64
459.70	330.94
460.07	328.84
460.43	326.36
460.80	324.05
461.17	321.94
461.54	319.78
461.91	317.77
462.27	315.76
462.64	313.96
463.01	312.03
463.38	310.14
463.74	308.27
464.11	306.62
464.48	305.16
464.85	303.56
465.21	302.30
465.58	300.96
465.95	299.38
466.32	298.06
466.68	296.77
467.05	295.49
467.42	294.23
467.78	292.87
468.15	291.61
468.52	290.62
468.88	289.38
469.25	288.29
469.62	287.35
469.98	286.37
470.35	285.40
470.72	284.54
471.08	283.60
471.45	282.80
471.82	282.01
472.18	281.12
472.55	280.45
472.92	279.71
473.28	279.07
473.65	278.39
474.02	277.74
474.38	277.19
474.75	276.67
475.11	276.14
475.48	275.73
475.85	275.35
476.21	274.95
476.58	274.62
476.94	274.35
477.31	274.07
477.67	273.77
478.04	273.59
478.41	273.42
478.77	273.34
479.14	273.19
479.50	273.08
479.87	273.11
480.23	273.14
480.60	273.13
480.96	273.11
481.33	273.26
481.69	273.40
482.06	273.51
482.42	273.64
482.79	273.87
483.15	274.14
483.52	274.48
483.88	274.83
484.25	275.20
484.61	275.57
484.98	276.04
485.34	276.60
485.71	277.14
486.07	277.72
486.44	278.32
486.80	279.02
487.17	279.75
487.53	280.58
487.90	281.45
488.26	282.43
488.62	283.49
488.99	284.49
489.35	285.61
489.72	286.78
490.08	288.07
490.44	289.36
490.81	290.78
491.17	292.24
491.54	293.79
491.90	295.44
492.26	297.22
492.63	299.00
492.99	300.89
493.36	302.95
493.72	305.13
494.08	307.36
494.45	309.74
494.81	312.29
495.17	314.89
495.54	317.65
495.90	320.52
496.26	323.50
496.63	326.69
496.99	330.02
497.35	333.54
497.72	337.22
498.08	341.02
498.44	344.97
498.80	349.19
499.17	353.50
499.53	357.97
499.89	362.64
500.26	367.51
500.62	372.53
500.98	377.88
501.34	383.28
501.71	388.97
502.07	394.87
502.43	400.90
502.79	407.17
503.16	413.70
503.52	420.44
503.88	427.31
504.24	434.45
504.60	441.89
504.97	449.54
505.33	457.41
505.69	465.77
506.05	474.16
506.41	482.67
506.78	491.49
507.14	500.63
507.50	510.11
507.86	519.87
508.22	529.74
508.59	539.72
508.95	550.12
509.31	560.75
509.67	571.70
510.03	582.90
510.39	594.36
510.75	606.07
511.12	617.89
511.48	630.23
511.84	642.72
512.20	655.23
512.56	668.29
512.92	681.48
513.28	694.94
513.64	708.67
514.00	722.62
514.37	736.78
514.73	751.06
515.09	765.37
515.45	779.93
515.81	794.89
516.17	810.25
516.53	825.81
516.89	841.49
517.25	857.00
517.61	872.84
517.97	888.68
518.33	904.63
518.69	920.94
519.05	937.48
519.41	954.22
519.77	971.33
520.13	988.45
520.49	1005.60
520.85	1022.58
521.21	1039.91
521.57	1057.85
521.93	1075.28
522.29	1093.46
522.65	1111.51
523.01	1129.59
523.37	1147.52
523.73	1165.57
524.09	1183.52
524.45	1201.67
524.81	1220.30
525.17	1239.03
525.53	1258.13
525.89	1277.08
526.25	1296.12
526.61	1314.55
526.97	1333.43
527.33	1351.97
527.68	1370.69
528.04	1389.33
528.40	1408.20
528.76	1427.44
529.12	1446.30
529.48	1465.64
529.84	1483.92
530.20	1502.91
530.56	1522.27
530.91	1542.22
531.27	1561.45
531.63	1580.38
531.99	1599.38
532.35	1617.84
532.71	1636.32
533.07	1654.89
533.42	1673.23
533.78	1691.79
534.14	1710.70
534.50	1728.55
534.86	1747.06
535.21	1764.80
535.57	1783.31
535.93	1801.26
536.29	1818.70
536.65	1836.25
537.00	1853.51
537.36	1871.35
537.72	1888.39
538.08	1905.52
538.44	1921.79
538.79	1938.15
539.15	1954.19
539.51	1970.64
539.87	1987.65
540.22	2003.96
540.58	2020.59
540.94	2036.60
541.29	2052.11
541.65	2067.35
542.01	2083.19
542.37	2098.17
542.72	2113.09
543.08	2127.39
543.44	2142.68
543.79	2156.51
544.15	2170.18
544.51	2184.45
544.87	2198.20
545.22	2211.56
545.58	2224.20
545.94	2236.44
546.29	2248.81
546.65	2261.43
547.01	2273.22
547.36	2284.34
547.72	2295.30
548.07	2305.49
548.43	2316.05
548.79	2326.32
549.14	2336.21
549.50	2345.86
549.86	2355.91
550.21	2365.67
550.57	2375.28
550.92	2383.97
551.28	2393.25
551.64	2402.47
551.99	2411.13
552.35	2419.43
552.70	2427.76
553.06	2435.96
553.41	2444.41
553.77	2452.51
554.13	2460.64
554.48	2468.92
554.84	2476.58
555.19	2483.81
555.55	2490.86
555.90	2497.26
556.26	2504.33
556.61	2511.01
556.97	2517.27
557.32	2523.17
557.68	2529.24
558.03	2535.29
558.39	2540.56
558.74	2547.10
559.10	2552.84
559.45	2558.21
559.81	2564.21
560.16	2569.84
560.52	2574.80
560.87	2579.99
561.23	2584.21
561.58	2588.67
561.94	2592.65
562.29	2596.32
562.64	2600.51
563.00	2604.73
563.35	2609.78
563.71	2614.23
564.06	2618.94
564.42	2623.24
564.77	2627.25
565.12	2630.95
565.48	2634.24
565.83	2637.68
566.19	2640.22
566.54	2642.15
566.89	2644.56
567.25	2646.34
567.60	2648.78
567.96	2651.59
568.31	2653.56
568.66	2655.83
569.02	2657.57
569.37	2658.85
569.72	2660.79
570.08	2661.94
570.43	2662.79
570.78	2663.05
571.14	2662.17
571.49	2661.29
571.84	2661.67
572.20	2661.32
572.55	2660.90
572.90	2659.70
573.26	2658.85
573.61	2657.61
573.96	2656.44
574.31	2653.80
574.67	2650.92
575.02	2647.46
575.37	2644.12
575.72	2640.31
576.08	2637.07
576.43	2633.68
576.78	2630.15
577.13	2627.04
577.49	2623.96
577.84	2620.40
578.19	2616.61
578.54	2613.10
578.90	2608.87
579.25	2602.92
579.60	2597.56
579.95	2592.08
580.30	2586.78
580.66	2581.28
581.01	2575.91
581.36	2570.66
581.71	2566.21
582.06	2561.68
582.42	2556.97
582.77	2551.41
583.12	2546.45
583.47	2541.38
583.82	2536.12
584.17	2530.23
584.53	2524.29
584.88	2517.94
585.23	2511.73
585.58	2505.50
585.93	2499.48
586.28	2494.17
586.63	2488.59
586.98	2483.00
587.34	2477.56
587.69	2472.13
588.04	2466.19
588.39	2459.85
588.74	2452.42
589.09	2445.38
589.44	2437.46
589.79	2430.25
590.14	2423.76
590.49	2416.12
590.84	2408.72
591.19	2401.76
591.54	2394.38
591.89	2385.91
592.25	2378.20
592.60	2369.73
592.95	2361.05
593.30	2352.46
593.65	2343.60
594.00	2335.33
594.35	2326.70
594.70	2317.46
595.05	2309.15
595.40	2300.55
595.75	2291.78
596.10	2284.49
596.45	2276.65
596.80	2269.43
597.15	2261.96
597.50	2253.70
597.85	2246.21
598.19	2238.51
598.54	2230.09
598.89	2222.21
599.24	2215.12
599.59	2207.39
599.94	2200.16
600.29	2192.70
600.64	2184.79
600.99	2176.14
601.34	2168.12
601.69	2159.90
602.04	2151.87
602.39	2143.15
602.74	2135.07
603.08	2127.00
603.43	2118.93
603.78	2110.16
604.13	2101.63
604.48	2092.93
604.83	2084.77
605.18	2076.45
605.53	2066.89
605.87	2057.36
606.22	2048.57
606.57	2039.06
606.92	2029.93
607.27	2021.36
607.62	2013.05
607.96	2004.30
608.31	1996.28
608.66	1987.21
609.01	1978.27
609.36	1969.11
609.70	1959.49
610.05	1949.84
610.40	1940.75
610.75	1930.80
611.10	1921.66
611.44	1911.51
611.79	1901.70
612.14	1891.27
612.49	1880.31
612.83	1870.19
613.18	1860.42
613.53	1850.84
613.88	1840.56
614.22	1830.78
614.57	1820.28
614.92	1810.59
615.27	1801.50
615.61	1791.72
615.96	1781.95
616.31	1772.63
616.65	1763.70
617.00	1754.54
617.35	1745.27
617.70	1735.19
618.04	1725.17
618.39	1715.21
618.74	1706.04
619.08	1696.13
619.43	1686.93
619.78	1678.59
620.12	1669.96
620.47	1660.95
620.82	1651.03
621.16	1642.01
621.51	1632.71
621.85	1623.51
622.20	1613.23
622.55	1603.14
622.89	1593.40
623.24	1584.13
623.59	1575.08
623.93	1565.99
624.28	1557.27
624.62	1548.16
624.97	1539.48
625.32	1531.10
625.66	1522.56
626.01	1513.99
626.35	1505.01
626.70	1495.59
627.04	1486.16
627.39	1476.69
627.73	1467.67
628.08	1459.33
628.43	1450.62
628.77	1441.81
629.12	1432.71
629.46	1424.05
629.81	1415.08
630.15	1406.39
630.50	1397.50
630.84	1387.79
631.19	1378.26
631.53	1369.15
631.88	1360.06
632.22	1350.86
632.57	1342.10
632.91	1332.95
633.26	1324.01
633.60	1315.20
633.95	1306.70
634.29	1298.29
634.64	1290.27
634.98	1281.41
635.32	1272.81
635.67	1264.80
636.01	1256.95
636.36	1248.80
636.70	1241.01
637.05	1233.12
637.39	1225.39
637.73	1217.69
638.08	1210.60
638.42	1203.37
638.77	1195.66
639.11	1187.91
639.45	1180.21
639.80	1172.24
640.14	1164.66
640.49	1156.83
640.83	1149.26
641.17	1141.77
641.52	1134.19
641.86	1126.43
642.20	1119.49
642.55	1112.00
642.89	1104.34
643.23	1096.29
643.58	1089.41
643.92	1082.06
644.26	1074.89
644.61	1067.65
644.95	1060.45
645.29	1052.64
645.64	1044.71
645.98	1037.15
646.32	1030.01
646.66	1022.90
647.01	1016.06
647.35	1009.28
647.69	1002.32
648.04	995.67
648.38	988.80
648.72	981.83
649.06	974.74
649.41	967.68
649.75	960.64
650.09	953.63
650.43	946.90
650.78	939.58
651.12	932.53
651.46	925.70
651.80	919.03
652.14	912.56
652.49	906.21
652.83	900.10
653.17	893.41
653.51	886.68
653.85	880.24
654.20	873.62
654.54	866.47
654.88	859.64
655.22	852.66
655.56	846.01
655.90	839.49
656.25	833.25
656.59	826.97
656.93	820.96
657.27	814.82
657.61	808.36
657.95	802.34
658.29	796.32
658.64	790.13
658.98	783.73
659.32	777.29
659.66	771.17
660.00	764.87
660.34	759.01
660.68	753.21
661.02	747.29
661.36	741.63
661.70	736.31
662.05	731.14
662.39	726.11
662.73	720.73
663.07	715.52
663.41	710.26
663.75	704.87
664.09	699.41
664.43	694.19
664.77	689.30
665.11	684.28
665.45	679.34
665.79	674.49
666.13	669.67
666.47	664.89
666.81	659.99
667.15	655.13
667.49	650.52
667.83	646.01
668.17	641.35
668.51	636.56
668.85	631.85
669.19	627.34
669.53	622.85
669.87	618.33
670.21	613.93
670.55	609.60
670.89	605.67
671.23	601.62
671.57	597.47
671.91	593.33
672.25	589.18
672.58	585.05
672.92	581.03
673.26	577.24
673.60	573.50
673.94	569.72
674.28	566.22
674.62	562.79
674.96	559.09
675.30	555.70
675.64	552.20
675.97	548.90
676.31	545.49
676.65	542.05
676.99	538.86
677.33	535.43
677.67	532.14
678.01	528.50
678.34	525.03
678.68	521.66
679.02	518.35
679.36	515.12
679.70	511.92
680.04	508.78
680.37	505.43
680.71	502.13
681.05	499.14
681.39	496.00
681.73	492.81
682.06	489.96
682.40	486.95
682.74	483.96
683.08	480.97
683.42	477.91
683.75	474.91
684.09	471.90
684.43	469.08
684.77	466.16
685.10	463.36
685.44	460.57
685.78	457.91
686.12	455.28
686.45	452.58
686.79	449.82
687.13	447.13
687.46	444.53
687.80	441.98
688.14	439.31
688.48	436.81
688.81	434.21
689.15	431.63
689.49	429.04
689.82	426.58
690.16	424.06
690.50	421.77
690.83	419.49
691.17	417.08
691.51	414.78
691.84	412.61
692.18	410.37
692.52	408.07
692.85	405.72
693.19	403.47
693.52	401.26
693.86	399.14
694.20	397.01
694.53	394.86
694.87	392.67
695.21	390.54
695.54	388.38
695.88	386.27
696.21	384.21
696.55	382.22
696.88	380.26
697.22	378.30
697.56	376.35
697.89	374.42
698.23	372.58
698.56	370.67
698.90	368.77
699.23	366.86
699.57	365.05
699.90	363.21
700.24	361.36
700.58	359.59
700.91	357.81
701.25	356.10
701.58	354.45
701.92	352.84
702.25	351.24
702.59	349.63
702.92	348.07
703.26	346.55
703.59	345.03
703.93	343.59
704.26	342.18
704.60	340.62
704.93	339.05
705.26	337.53
705.60	336.14
705.93	334.74
706.27	333.45
706.60	332.16
706.94	330.85
707.27	329.54
707.61	328.22
707.94	326.95
708.27	325.63
708.61	324.34
708.94	323.16
709.28	321.99
709.61	320.86
709.94	319.72
710.28	318.47
710.61	317.32
710.95	316.08
711.28	314.91
711.61	313.77
711.95	312.70
712.28	311.62
712.61	310.45
712.95	309.38
713.28	308.30
713.61	307.23
713.95	306.23
714.28	305.23
714.61	304.26
714.95	303.26
715.28	302.29
715.61	301.31
715.95	300.24
716.28	299.19
716.61	298.19
716.95	297.19
717.28	296.30
717.61	295.38
717.94	294.47
718.28	293.53
718.61	292.68
718.94	291.83
719.27	291.02
719.61	290.26
719.94	289.44
720.27	288.58
720.60	287.81
720.94	287.07
721.27	286.35
721.60	285.64
721.93	284.91
722.27	284.22
722.60	283.57
722.93	282.90
723.26	282.28
723.59	281.60
723.93	280.98
724.26	280.32
724.59	279.66
724.92	279.06
725.25	278.47
725.59	277.87
725.92	277.28
726.25	276.64
726.58	276.04
726.91	275.47
727.24	274.93
727.57	274.35
727.91	273.73
728.24	273.18
728.57	272.59
728.90	272.09
729.23	271.52
729.56	271.00
729.89	270.41
730.22	269.85
730.55	269.28
730.89	268.72
731.22	268.22
731.55	267.71
731.88	267.15
732.21	266.62
732.54	266.09
732.87	265.60
733.20	265.13
733.53	264.67
733.86	264.24
734.19	263.75
734.52	263.32
734.85	262.93
735.18	262.42
735.51	261.98
735.84	261.54
736.17	261.15
736.50	260.68
736.83	260.41
737.16	259.99
737.49	259.62
737.82	259.22
738.15	258.82
738.48	258.40
738.81	258.04
739.14	257.68
739.47	257.32
739.80	256.96
740.13	256.60
740.46	256.22
740.79	255.80
741.12	255.48
741.45	255.12
741.78	254.72
742.11	254.38
742.44	254.01
742.77	253.64
743.10	253.24
743.43	252.89
743.75	252.46
744.08	252.27
744.41	251.96
744.74	251.65
745.07	251.32
745.40	251.02
745.73	250.71
746.06	250.38
746.39	250.08
746.71	249.74
747.04	249.44
747.37	249.13
747.70	248.85
748.03	248.55
748.36	248.28
748.68	247.98
749.01	247.70
749.34	247.44
749.67	247.19
750.00	246.97
750.33	246.76
750.65	246.49
750.98	246.10
751.31	245.82
751.64	245.57
751.97	245.40
752.29	245.13
752.62	244.86
752.95	244.61
753.28	244.35
753.60	244.11
753.93	243.89
754.26	243.65
754.59	243.41
754.91	243.17
755.24	242.93
755.57	242.70
755.90	242.47
756.22	242.24
756.55	242.00
756.88	241.72
757.20	241.45
757.53	241.23
757.86	241.01
758.19	240.84
758.51	240.64
758.84	240.40
759.17	240.22
759.49	240.00
759.82	239.88
760.15	239.72
760.47	239.56
760.80	239.35
761.13	239.21
761.45	239.00
761.78	238.79
762.11	238.63
762.43	238.47
762.76	238.31
763.08	238.15
763.41	237.98
763.74	237.86
764.06	237.69
764.39	237.53
764.71	237.38
765.04	237.24
765.37	237.07
765.69	236.90
766.02	236.77
766.34	236.65
766.67	236.46
767.00	236.33
767.32	236.26
767.65	236.20
767.97	236.04
768.30	235.95
768.62	235.83
768.95	235.68
769.27	235.52
769.60	235.40
769.92	235.26
770.25	235.11
770.57	234.96
770.90	234.84
771.22	234.69
771.55	234.57
771.87	234.43
772.20	234.34
772.52	234.30
772.85	234.28
773.17	234.21
773.50	234.10
773.82	233.96
774.15	233.76
774.47	233.59
774.80	233.48
775.12	233.36
775.45	233.26
775.77	233.18
776.09	233.11
776.42	233.01
776.74	232.95
777.07	232.88
777.39	232.79
777.72	232.69
778.04	232.68
778.36	232.57
778.69	232.48
779.01	232.40
779.33	232.23
779.66	232.03
779.98	231.90
780.31	231.81
780.63	231.77
780.95	231.71
781.28	231.63
781.60	231.56
781.92	231.48
782.25	231.42
782.57	231.34
782.89	231.23
783.22	231.16
783.54	231.08
783.86	231.03
784.19	230.95
784.51	230.95
784.83	230.84
785.16	230.79
785.48	230.74
785.80	230.70
786.12	230.66
786.45	230.59
