SpectraSuite Data File
++++++++++++++++++++++++++++++++++++
Date: Fri Feb 01 16:38:58 EST 2013
User: group
Dark Spectrum Present: No
Reference Spectrum Present: No
Number of Sampled Component Spectra: 1
Spectrometers: USB2E7196
Integration Time (usec): 35000 (USB2E7196)
Spectra Averaged: 100 (USB2E7196)
Boxcar Smoothing: 10 (USB2E7196)
Correct for Electrical Dark: No (USB2E7196)
Strobe/Lamp Enabled: No (USB2E7196)
Correct for Detector Non-linearity: No (USB2E7196)
Correct for Stray Light: No (USB2E7196)
Number of Pixels in Processed Spectrum: 2048
>>>>>Begin Processed Spectral Data<<<<<
339.09	0.00
339.48	213.83
339.86	215.02
340.24	216.59
340.63	217.88
341.01	220.52
341.39	220.37
341.78	221.80
342.16	223.30
342.54	223.91
342.93	212.10
343.31	222.81
343.69	223.37
344.07	223.82
344.46	224.25
344.84	224.62
345.22	224.87
345.60	225.13
345.99	225.33
346.37	225.47
346.75	225.57
347.13	225.65
347.52	225.72
347.90	225.77
348.28	225.77
348.66	225.87
349.05	225.87
349.43	225.90
349.81	225.95
350.19	226.00
350.57	226.05
350.96	226.13
351.34	226.24
351.72	226.31
352.10	226.41
352.48	226.51
352.87	226.56
353.25	226.64
353.63	226.71
354.01	226.80
354.39	226.86
354.77	226.93
355.15	227.04
355.54	227.14
355.92	227.18
356.30	227.27
356.68	227.37
357.06	227.48
357.44	227.53
357.82	227.62
358.20	227.72
358.58	227.80
358.97	227.87
359.35	227.92
359.73	228.01
360.11	228.07
360.49	228.14
360.87	228.23
361.25	228.28
361.63	228.32
362.01	228.35
362.39	228.39
362.77	228.44
363.15	228.43
363.53	228.46
363.91	228.50
364.29	228.51
364.67	228.43
365.05	228.44
365.43	228.49
365.81	228.50
366.19	228.51
366.57	228.53
366.95	228.53
367.33	228.52
367.71	228.47
368.09	228.47
368.47	228.42
368.85	228.37
369.23	228.35
369.61	228.31
369.99	228.31
370.37	228.29
370.75	228.32
371.13	228.28
371.51	228.19
371.89	228.16
372.27	228.11
372.65	228.07
373.03	228.00
373.41	227.91
373.78	227.84
374.16	227.76
374.54	227.67
374.92	227.57
375.30	227.51
375.68	227.44
376.06	227.39
376.44	227.32
376.82	227.26
377.19	227.19
377.57	227.11
377.95	227.02
378.33	226.94
378.71	226.78
379.09	226.73
379.47	226.66
379.84	226.57
380.22	226.48
380.60	226.40
380.98	226.32
381.36	226.25
381.73	226.17
382.11	226.11
382.49	226.03
382.87	225.97
383.25	225.95
383.62	225.99
384.00	225.91
384.38	225.86
384.76	225.85
385.13	225.85
385.51	225.79
385.89	225.71
386.27	225.66
386.64	225.66
387.02	225.62
387.40	225.57
387.78	225.55
388.15	225.53
388.53	225.47
388.91	225.45
389.29	225.44
389.66	225.41
390.04	225.38
390.42	225.37
390.79	225.33
391.17	225.27
391.55	225.17
391.92	225.16
392.30	225.17
392.68	225.13
393.05	225.12
393.43	225.15
393.81	225.17
394.18	225.16
394.56	225.15
394.94	225.18
395.31	225.20
395.69	225.27
396.06	225.30
396.44	225.37
396.82	225.42
397.19	225.47
397.57	225.52
397.95	225.57
398.32	225.60
398.70	225.69
399.07	225.77
399.45	225.80
399.82	225.87
400.20	225.95
400.58	226.03
400.95	226.04
401.33	226.16
401.70	226.32
402.08	226.43
402.45	226.52
402.83	226.62
403.20	226.73
403.58	226.81
403.95	226.96
404.33	227.10
404.71	227.20
405.08	227.40
405.46	227.52
405.83	227.67
406.21	227.84
406.58	228.01
406.96	228.18
407.33	228.37
407.70	228.56
408.08	228.78
408.45	229.01
408.83	229.28
409.20	229.48
409.58	229.64
409.95	229.90
410.33	230.19
410.70	230.44
411.08	230.75
411.45	231.05
411.82	231.34
412.20	231.66
412.57	232.07
412.95	232.35
413.32	232.79
413.69	233.18
414.07	233.59
414.44	234.04
414.82	234.50
415.19	235.04
415.56	235.55
415.94	236.08
416.31	236.68
416.68	237.26
417.06	237.96
417.43	238.63
417.81	239.36
418.18	240.12
418.55	240.95
418.93	241.83
419.30	242.73
419.67	243.65
420.04	244.63
420.42	245.61
420.79	246.78
421.16	247.91
421.54	249.09
421.91	250.31
422.28	251.56
422.66	252.88
423.03	254.19
423.40	255.51
423.77	256.92
424.15	258.33
424.52	259.81
424.89	261.42
425.26	262.98
425.64	264.45
426.01	266.04
426.38	267.67
426.75	269.30
427.13	270.99
427.50	272.76
427.87	274.56
428.24	276.44
428.61	278.16
428.99	280.07
429.36	282.13
429.73	284.13
430.10	286.10
430.47	288.14
430.85	290.21
431.22	292.42
431.59	294.77
431.96	297.00
432.33	299.44
432.70	301.77
433.08	304.55
433.45	307.11
433.82	309.64
434.19	312.49
434.56	315.27
434.93	317.87
435.30	320.48
435.68	323.38
436.05	326.15
436.42	328.91
436.79	331.39
437.16	334.04
437.53	336.89
437.90	339.68
438.27	342.41
438.64	345.20
439.01	347.76
439.38	349.94
439.75	352.06
440.13	354.54
440.50	356.85
440.87	358.68
441.24	360.61
441.61	362.80
441.98	364.28
442.35	366.05
442.72	367.93
443.09	369.72
443.46	370.72
443.83	371.31
444.20	371.84
444.57	372.73
444.94	373.07
445.31	373.42
445.68	373.77
446.05	373.87
446.42	373.53
446.79	373.14
447.16	372.74
447.53	372.48
447.90	371.36
448.27	370.20
448.64	368.61
449.01	367.54
449.37	365.60
449.74	363.75
450.11	361.58
450.48	359.16
450.85	356.68
451.22	354.59
451.59	352.58
451.96	350.67
452.33	348.08
452.70	345.72
453.07	342.92
453.43	340.08
453.80	337.34
454.17	334.73
454.54	332.23
454.91	329.54
455.28	326.90
455.65	324.43
456.02	322.03
456.38	319.95
456.75	317.29
457.12	315.04
457.49	312.86
457.86	310.73
458.23	308.86
458.59	306.85
458.96	304.77
459.33	302.91
459.70	301.02
460.07	299.51
460.43	297.86
460.80	296.26
461.17	294.80
461.54	293.35
461.91	291.91
462.27	290.49
462.64	289.25
463.01	287.90
463.38	286.62
463.74	285.25
464.11	284.10
464.48	283.08
464.85	281.98
465.21	281.13
465.58	280.16
465.95	279.08
466.32	278.16
466.68	277.26
467.05	276.41
467.42	275.58
467.78	274.63
468.15	273.71
468.52	273.06
468.88	272.21
469.25	271.40
469.62	270.80
469.98	270.13
470.35	269.54
470.72	268.95
471.08	268.34
471.45	267.82
471.82	267.28
472.18	266.70
472.55	266.30
472.92	265.74
473.28	265.28
473.65	264.83
474.02	264.40
474.38	264.01
474.75	263.71
475.11	263.35
475.48	263.12
475.85	262.92
476.21	262.73
476.58	262.61
476.94	262.48
477.31	262.32
477.67	262.17
478.04	262.05
478.41	262.00
478.77	262.02
479.14	261.93
479.50	261.93
479.87	262.00
480.23	262.08
480.60	262.16
480.96	262.28
481.33	262.49
481.69	262.72
482.06	262.93
482.42	263.08
482.79	263.36
483.15	263.68
483.52	264.05
483.88	264.33
484.25	264.69
484.61	265.13
484.98	265.60
485.34	266.12
485.71	266.71
486.07	267.31
486.44	267.86
486.80	268.60
487.17	269.32
487.53	270.13
487.90	270.97
488.26	271.90
488.62	272.92
488.99	273.90
489.35	274.93
489.72	276.06
490.08	277.30
490.44	278.56
490.81	279.92
491.17	281.29
491.54	282.80
491.90	284.35
492.26	285.99
492.63	287.70
492.99	289.53
493.36	291.47
493.72	293.59
494.08	295.72
494.45	298.00
494.81	300.35
495.17	302.81
495.54	305.39
495.90	308.07
496.26	310.89
496.63	313.85
496.99	316.96
497.35	320.22
497.72	323.64
498.08	327.16
498.44	330.81
498.80	334.74
499.17	338.79
499.53	342.98
499.89	347.42
500.26	351.93
500.62	356.61
500.98	361.52
501.34	366.53
501.71	371.92
502.07	377.39
502.43	383.04
502.79	388.84
503.16	394.86
503.52	401.13
503.88	407.52
504.24	414.18
504.60	421.04
504.97	428.17
505.33	435.48
505.69	443.20
506.05	450.98
506.41	458.82
506.78	466.99
507.14	475.46
507.50	484.08
507.86	493.15
508.22	502.37
508.59	511.58
508.95	521.15
509.31	530.91
509.67	541.00
510.03	551.26
510.39	561.80
510.75	572.58
511.12	583.51
511.48	594.75
511.84	606.15
512.20	617.65
512.56	629.60
512.92	641.80
513.28	654.11
513.64	666.53
514.00	679.27
514.37	692.14
514.73	705.08
515.09	718.09
515.45	731.26
515.81	744.73
516.17	758.66
516.53	772.67
516.89	786.78
517.25	800.87
517.61	815.19
517.97	829.61
518.33	844.02
518.69	858.77
519.05	873.69
519.41	888.82
519.77	904.26
520.13	919.60
520.49	934.84
520.85	950.06
521.21	965.71
521.57	981.82
521.93	997.45
522.29	1013.78
522.65	1030.05
523.01	1046.13
523.37	1062.13
523.73	1078.17
524.09	1094.21
524.45	1110.31
524.81	1126.84
525.17	1143.57
525.53	1160.22
525.89	1176.91
526.25	1193.63
526.61	1209.89
526.97	1226.56
527.33	1242.97
527.68	1259.45
528.04	1275.86
528.40	1292.35
528.76	1309.29
529.12	1325.76
529.48	1342.57
529.84	1358.50
530.20	1374.88
530.56	1391.69
530.91	1408.88
531.27	1425.59
531.63	1441.97
531.99	1458.47
532.35	1474.40
532.71	1490.19
533.07	1506.44
533.42	1522.27
533.78	1538.23
534.14	1554.34
534.50	1569.57
534.86	1585.23
535.21	1600.41
535.57	1616.03
535.93	1631.39
536.29	1645.97
536.65	1660.84
537.00	1675.43
537.36	1690.67
537.72	1705.01
538.08	1719.40
538.44	1733.16
538.79	1746.98
539.15	1760.34
539.51	1773.97
539.87	1788.09
540.22	1801.65
540.58	1815.20
540.94	1828.31
541.29	1840.84
541.65	1853.43
542.01	1866.51
542.37	1878.78
542.72	1890.89
543.08	1902.68
543.44	1914.99
543.79	1926.26
544.15	1937.21
544.51	1948.73
544.87	1959.45
545.22	1970.33
545.58	1980.46
545.94	1990.05
546.29	1999.76
546.65	2009.59
547.01	2018.77
547.36	2027.42
547.72	2035.93
548.07	2043.90
548.43	2051.96
548.79	2059.93
549.14	2067.50
549.50	2074.70
549.86	2082.22
550.21	2089.50
550.57	2096.66
550.92	2103.23
551.28	2110.14
551.64	2117.12
551.99	2123.58
552.35	2129.70
552.70	2135.71
553.06	2141.78
553.41	2148.10
553.77	2153.90
554.13	2159.90
554.48	2165.91
554.84	2171.52
555.19	2176.59
555.55	2181.60
555.90	2186.18
556.26	2191.10
556.61	2195.65
556.97	2200.11
557.32	2204.26
557.68	2208.26
558.03	2212.46
558.39	2216.04
558.74	2220.57
559.10	2224.46
559.45	2228.00
559.81	2232.12
560.16	2235.89
560.52	2238.91
560.87	2242.24
561.23	2245.06
561.58	2247.88
561.94	2250.54
562.29	2252.59
562.64	2255.43
563.00	2258.07
563.35	2261.57
563.71	2264.76
564.06	2267.94
564.42	2270.74
564.77	2273.43
565.12	2275.99
565.48	2277.90
565.83	2279.92
566.19	2281.46
566.54	2282.16
566.89	2283.55
567.25	2284.41
567.60	2285.68
567.96	2287.60
568.31	2288.57
568.66	2289.74
569.02	2290.59
569.37	2291.07
569.72	2292.17
570.08	2292.32
570.43	2292.41
570.78	2292.03
571.14	2290.56
571.49	2289.35
571.84	2288.95
572.20	2287.89
572.55	2286.93
572.90	2285.37
573.26	2284.01
573.61	2282.27
573.96	2280.96
574.31	2277.91
574.67	2274.90
575.02	2271.43
575.37	2268.02
575.72	2264.29
576.08	2260.92
576.43	2257.36
576.78	2253.74
577.13	2250.46
577.49	2247.27
577.84	2243.88
578.19	2239.91
578.54	2236.38
578.90	2232.45
579.25	2226.93
579.60	2222.05
579.95	2217.15
580.30	2212.30
580.66	2207.21
581.01	2202.24
581.36	2197.22
581.71	2193.33
582.06	2189.09
582.42	2184.86
582.77	2179.75
583.12	2175.32
583.47	2171.02
583.82	2166.41
584.17	2161.18
584.53	2155.80
584.88	2150.26
585.23	2144.67
585.58	2139.36
585.93	2133.93
586.28	2128.87
586.63	2123.97
586.98	2118.99
587.34	2114.08
587.69	2109.22
588.04	2104.11
588.39	2098.60
588.74	2092.20
589.09	2086.03
589.44	2079.41
589.79	2073.19
590.14	2067.41
590.49	2060.85
590.84	2054.18
591.19	2048.15
591.54	2041.66
591.89	2034.57
592.25	2028.14
592.60	2020.80
592.95	2013.37
593.30	2006.08
593.65	1998.54
594.00	1991.50
594.35	1984.21
594.70	1976.25
595.05	1969.34
595.40	1962.05
595.75	1954.60
596.10	1948.42
596.45	1941.77
596.80	1935.62
597.15	1929.06
597.50	1922.36
597.85	1915.91
598.19	1909.35
598.54	1902.51
598.89	1896.01
599.24	1889.98
599.59	1883.34
599.94	1877.09
600.29	1870.76
600.64	1864.09
600.99	1856.85
601.34	1850.12
601.69	1843.11
602.04	1836.43
602.39	1828.90
602.74	1822.17
603.08	1815.55
603.43	1808.93
603.78	1801.62
604.13	1794.36
604.48	1787.30
604.83	1780.38
605.18	1773.68
605.53	1765.77
605.87	1757.60
606.22	1750.26
606.57	1742.32
606.92	1734.75
607.27	1727.85
607.62	1721.07
607.96	1714.15
608.31	1707.71
608.66	1700.21
609.01	1692.86
609.36	1685.27
609.70	1677.46
610.05	1669.48
610.40	1661.90
610.75	1653.62
611.10	1645.99
611.44	1637.44
611.79	1629.43
612.14	1620.85
612.49	1611.61
612.83	1603.31
613.18	1595.22
613.53	1587.36
613.88	1578.96
614.22	1570.90
614.57	1562.10
614.92	1554.05
615.27	1546.54
615.61	1538.27
615.96	1530.22
616.31	1522.45
616.65	1515.10
617.00	1507.54
617.35	1499.78
617.70	1491.53
618.04	1483.20
618.39	1474.98
618.74	1467.59
619.08	1459.29
619.43	1451.76
619.78	1444.80
620.12	1437.74
620.47	1430.29
620.82	1422.05
621.16	1414.53
621.51	1406.83
621.85	1399.19
622.20	1390.78
622.55	1382.19
622.89	1374.38
623.24	1366.67
623.59	1359.30
623.93	1351.98
624.28	1344.73
624.62	1337.31
624.97	1330.09
625.32	1323.09
625.66	1316.02
626.01	1308.86
626.35	1301.48
626.70	1293.64
627.04	1286.05
627.39	1278.15
627.73	1270.83
628.08	1263.98
628.43	1257.01
628.77	1249.83
629.12	1242.58
629.46	1235.38
629.81	1227.97
630.15	1220.70
630.50	1213.44
630.84	1205.32
631.19	1197.27
631.53	1189.66
631.88	1182.11
632.22	1174.44
632.57	1167.19
632.91	1159.63
633.26	1152.17
633.60	1144.72
633.95	1137.58
634.29	1130.37
634.64	1123.70
634.98	1116.31
635.32	1109.12
635.67	1102.33
636.01	1095.60
636.36	1088.71
636.70	1082.14
637.05	1075.73
637.39	1069.29
637.73	1062.81
638.08	1056.90
638.42	1050.92
638.77	1044.47
639.11	1037.94
639.45	1031.57
639.80	1024.91
640.14	1018.67
640.49	1012.30
640.83	1006.04
641.17	999.90
641.52	993.60
641.86	987.06
642.20	981.21
642.55	974.88
642.89	968.44
643.23	961.79
643.58	956.00
643.92	949.84
644.26	943.74
644.61	937.53
644.95	931.50
645.29	924.94
645.64	918.22
645.98	911.94
646.32	905.88
646.66	899.86
647.01	894.08
647.35	888.32
647.69	882.36
648.04	876.77
648.38	870.95
648.72	865.07
649.06	859.11
649.41	853.09
649.75	847.24
650.09	841.18
650.43	835.51
650.78	829.39
651.12	823.46
651.46	817.74
651.80	812.20
652.14	806.78
652.49	801.43
652.83	796.23
653.17	790.67
653.51	785.09
653.85	779.66
654.20	774.04
654.54	768.05
654.88	762.26
655.22	756.38
655.56	750.63
655.90	745.09
656.25	739.86
656.59	734.63
656.93	729.44
657.27	724.37
657.61	718.89
657.95	713.73
658.29	708.63
658.64	703.41
658.98	698.00
659.32	692.51
659.66	687.29
660.00	682.03
660.34	676.98
660.68	672.05
661.02	667.00
661.36	662.31
661.70	657.85
662.05	653.55
662.39	649.25
662.73	644.80
663.07	640.49
663.41	636.04
663.75	631.53
664.09	627.01
664.43	622.64
664.77	618.54
665.11	614.41
665.45	610.24
665.79	606.16
666.13	602.11
666.47	598.00
666.81	593.81
667.15	589.62
667.49	585.73
667.83	581.82
668.17	577.90
668.51	573.86
668.85	569.74
669.19	565.87
669.53	562.15
669.87	558.34
670.21	554.68
670.55	551.01
670.89	547.59
671.23	544.12
671.57	540.57
671.91	537.13
672.25	533.55
672.58	530.04
672.92	526.55
673.26	523.32
673.60	520.20
673.94	517.13
674.28	514.20
674.62	511.27
674.96	508.28
675.30	505.37
675.64	502.46
675.97	499.71
676.31	496.85
676.65	493.81
676.99	491.09
677.33	488.12
677.67	485.30
678.01	482.28
678.34	479.31
678.68	476.45
679.02	473.62
679.36	470.85
679.70	468.14
680.04	465.46
680.37	462.67
680.71	459.88
681.05	457.26
681.39	454.52
681.73	451.86
682.06	449.31
682.40	446.80
682.74	444.28
683.08	441.72
683.42	439.06
683.75	436.56
684.09	433.99
684.43	431.55
684.77	429.07
685.10	426.72
685.44	424.43
685.78	422.12
686.12	419.81
686.45	417.50
686.79	415.24
687.13	412.99
687.46	410.75
687.80	408.57
688.14	406.37
688.48	404.34
688.81	402.11
689.15	399.86
689.49	397.65
689.82	395.54
690.16	393.41
690.50	391.49
690.83	389.57
691.17	387.53
691.51	385.61
691.84	383.75
692.18	381.87
692.52	379.89
692.85	377.97
693.19	376.09
693.52	374.22
693.86	372.31
694.20	370.52
694.53	368.73
694.87	366.88
695.21	365.04
695.54	363.21
695.88	361.44
696.21	359.76
696.55	358.10
696.88	356.38
697.22	354.73
697.56	353.07
697.89	351.38
698.23	349.88
698.56	348.32
698.90	346.78
699.23	345.11
699.57	343.57
699.90	342.01
700.24	340.47
700.58	338.98
700.91	337.57
701.25	336.14
701.58	334.78
701.92	333.44
702.25	332.11
702.59	330.78
702.92	329.52
703.26	328.25
703.59	326.98
703.93	325.78
704.26	324.57
704.60	323.32
704.93	322.06
705.26	320.78
705.60	319.56
705.93	318.33
706.27	317.30
706.60	316.26
706.94	315.18
707.27	313.99
707.61	312.94
707.94	311.88
708.27	310.81
708.61	309.70
708.94	308.68
709.28	307.70
709.61	306.72
709.94	305.74
710.28	304.71
710.61	303.68
710.95	302.60
711.28	301.68
711.61	300.72
711.95	299.82
712.28	298.89
712.61	297.95
712.95	297.09
713.28	296.16
713.61	295.26
713.95	294.41
714.28	293.63
714.61	292.75
714.95	291.92
715.28	291.07
715.61	290.25
715.95	289.43
716.28	288.53
716.61	287.66
716.95	286.84
717.28	286.09
717.61	285.34
717.94	284.64
718.28	283.81
718.61	283.10
718.94	282.39
719.27	281.76
719.61	281.08
719.94	280.37
720.27	279.67
720.60	279.00
720.94	278.33
721.27	277.74
721.60	277.17
721.93	276.56
722.27	275.98
722.60	275.40
722.93	274.80
723.26	274.29
723.59	273.78
723.93	273.24
724.26	272.69
724.59	272.15
724.92	271.60
725.25	271.10
725.59	270.58
725.92	270.08
726.25	269.51
726.58	269.01
726.91	268.49
727.24	268.04
727.57	267.53
727.91	267.01
728.24	266.52
728.57	266.00
728.90	265.51
729.23	265.03
729.56	264.57
729.89	264.09
730.22	263.60
730.55	263.11
730.89	262.66
731.22	262.23
731.55	261.79
731.88	261.35
732.21	260.91
732.54	260.45
732.87	260.03
733.20	259.65
733.53	259.26
733.86	258.93
734.19	258.54
734.52	258.17
734.85	257.88
735.18	257.46
735.51	257.11
735.84	256.72
736.17	256.36
736.50	255.96
736.83	255.74
737.16	255.40
737.49	255.08
737.82	254.70
738.15	254.35
738.48	254.03
738.81	253.73
739.14	253.42
739.47	253.10
739.80	252.75
740.13	252.42
740.46	252.12
740.79	251.74
741.12	251.41
741.45	251.09
741.78	250.72
742.11	250.44
742.44	250.12
742.77	249.84
743.10	249.55
743.43	249.27
743.75	248.87
744.08	248.70
744.41	248.44
744.74	248.19
745.07	247.88
745.40	247.62
745.73	247.37
746.06	247.08
746.39	246.80
746.71	246.55
747.04	246.31
747.37	246.01
747.70	245.80
748.03	245.55
748.36	245.33
748.68	245.12
749.01	244.90
749.34	244.70
749.67	244.48
750.00	244.27
750.33	244.11
750.65	243.92
750.98	243.60
751.31	243.39
751.64	243.17
751.97	243.04
752.29	242.81
752.62	242.59
752.95	242.37
753.28	242.19
753.60	242.00
753.93	241.82
754.26	241.66
754.59	241.45
754.91	241.23
755.24	241.02
755.57	240.82
755.90	240.58
756.22	240.38
756.55	240.20
756.88	240.00
757.20	239.77
757.53	239.58
757.86	239.41
758.19	239.25
758.51	239.08
758.84	238.86
759.17	238.69
759.49	238.53
759.82	238.44
760.15	238.30
760.47	238.15
760.80	237.97
761.13	237.84
761.45	237.70
761.78	237.59
762.11	237.45
762.43	237.33
762.76	237.22
763.08	237.08
763.41	236.92
763.74	236.81
764.06	236.67
764.39	236.51
764.71	236.38
765.04	236.22
765.37	236.11
765.69	236.00
766.02	235.90
766.34	235.77
766.67	235.63
767.00	235.54
767.32	235.46
767.65	235.41
767.97	235.27
768.30	235.16
768.62	235.05
768.95	234.91
769.27	234.78
769.60	234.69
769.92	234.56
770.25	234.44
770.57	234.31
770.90	234.22
771.22	234.12
771.55	234.01
771.87	233.89
772.20	233.77
772.52	233.73
772.85	233.72
773.17	233.61
773.50	233.50
773.82	233.37
774.15	233.21
774.47	233.02
774.80	232.93
775.12	232.83
775.45	232.71
775.77	232.63
776.09	232.56
776.42	232.44
776.74	232.39
777.07	232.30
777.39	232.22
777.72	232.11
778.04	232.04
778.36	231.98
778.69	231.94
779.01	231.86
779.33	231.70
779.66	231.49
779.98	231.43
780.31	231.33
780.63	231.33
780.95	231.30
781.28	231.28
781.60	231.22
781.92	231.15
782.25	231.10
782.57	231.07
782.89	231.03
783.22	231.01
783.54	230.92
783.86	230.89
784.19	230.86
784.51	230.86
784.83	230.79
785.16	230.73
785.48	230.70
785.80	230.67
786.12	230.70
786.45	230.69
786.77	230.65
787.09	230.64
