SpectraSuite Data File
++++++++++++++++++++++++++++++++++++
Date: Fri Feb 01 16:03:35 EST 2013
User: group
Dark Spectrum Present: No
Reference Spectrum Present: No
Number of Sampled Component Spectra: 1
Spectrometers: USB2E7196
Integration Time (usec): 35000 (USB2E7196)
Spectra Averaged: 100 (USB2E7196)
Boxcar Smoothing: 10 (USB2E7196)
Correct for Electrical Dark: No (USB2E7196)
Strobe/Lamp Enabled: No (USB2E7196)
Correct for Detector Non-linearity: No (USB2E7196)
Correct for Stray Light: No (USB2E7196)
Number of Pixels in Processed Spectrum: 2048
>>>>>Begin Processed Spectral Data<<<<<
339.09	0.00
339.48	214.76
339.86	216.71
340.24	217.49
340.63	219.27
341.01	222.04
341.39	222.22
341.78	223.33
342.16	224.38
342.54	224.82
342.93	213.19
343.31	223.97
343.69	224.52
344.07	224.95
344.46	225.37
344.84	225.72
345.22	225.94
345.60	226.15
345.99	226.33
346.37	226.45
346.75	226.56
347.13	226.67
347.52	226.73
347.90	226.80
348.28	226.83
348.66	226.87
349.05	226.88
349.43	226.92
349.81	227.01
350.19	227.06
350.57	227.11
350.96	227.19
351.34	227.26
351.72	227.35
352.10	227.46
352.48	227.55
352.87	227.62
353.25	227.70
353.63	227.78
354.01	227.84
354.39	227.94
354.77	227.99
355.15	228.08
355.54	228.12
355.92	228.17
356.30	228.22
356.68	228.38
357.06	228.45
357.44	228.49
357.82	228.50
358.20	228.55
358.58	228.61
358.97	228.67
359.35	228.73
359.73	228.79
360.11	228.86
360.49	228.93
360.87	228.98
361.25	229.02
361.63	229.10
362.01	229.16
362.39	229.15
362.77	229.18
363.15	229.19
363.53	229.23
363.91	229.26
364.29	229.25
364.67	229.15
365.05	229.16
365.43	229.18
365.81	229.20
366.19	229.25
366.57	229.27
366.95	229.22
367.33	229.21
367.71	229.18
368.09	229.16
368.47	229.11
368.85	229.08
369.23	229.06
369.61	228.98
369.99	228.95
370.37	228.94
370.75	228.95
371.13	228.89
371.51	228.85
371.89	228.78
372.27	228.74
372.65	228.70
373.03	228.67
373.41	228.62
373.78	228.56
374.16	228.48
374.54	228.39
374.92	228.36
375.30	228.29
375.68	228.21
376.06	228.16
376.44	228.08
376.82	228.03
377.19	227.97
377.57	227.92
377.95	227.84
378.33	227.77
378.71	227.66
379.09	227.62
379.47	227.56
379.84	227.48
380.22	227.42
380.60	227.37
380.98	227.29
381.36	227.23
381.73	227.16
382.11	227.09
382.49	227.03
382.87	226.95
383.25	226.88
383.62	226.95
384.00	226.86
384.38	226.83
384.76	226.77
385.13	226.73
385.51	226.68
385.89	226.60
386.27	226.55
386.64	226.52
387.02	226.45
387.40	226.40
387.78	226.37
388.15	226.34
388.53	226.29
388.91	226.24
389.29	226.17
389.66	226.16
390.04	226.10
390.42	226.09
390.79	226.10
391.17	226.10
391.55	225.97
391.92	226.00
392.30	225.99
392.68	225.97
393.05	225.95
393.43	225.94
393.81	225.96
394.18	225.98
394.56	225.99
394.94	226.06
395.31	226.08
395.69	226.15
396.06	226.20
396.44	226.24
396.82	226.29
397.19	226.39
397.57	226.44
397.95	226.53
398.32	226.56
398.70	226.59
399.07	226.66
399.45	226.73
399.82	226.79
400.20	226.86
400.58	226.95
400.95	227.01
401.33	227.14
401.70	227.29
402.08	227.37
402.45	227.47
402.83	227.59
403.20	227.74
403.58	227.82
403.95	227.95
404.33	228.08
404.71	228.21
405.08	228.39
405.46	228.52
405.83	228.71
406.21	228.89
406.58	229.05
406.96	229.19
407.33	229.39
407.70	229.61
408.08	229.88
408.45	230.09
408.83	230.35
409.20	230.56
409.58	230.73
409.95	231.02
410.33	231.28
410.70	231.51
411.08	231.77
411.45	232.08
411.82	232.39
412.20	232.74
412.57	233.14
412.95	233.45
413.32	233.88
413.69	234.26
414.07	234.65
414.44	235.14
414.82	235.65
415.19	236.18
415.56	236.69
415.94	237.23
416.31	237.90
416.68	238.51
417.06	239.23
417.43	239.91
417.81	240.65
418.18	241.46
418.55	242.28
418.93	243.16
419.30	244.03
419.67	244.96
420.04	245.91
420.42	246.90
420.79	248.03
421.16	249.17
421.54	250.34
421.91	251.58
422.28	252.86
422.66	254.17
423.03	255.48
423.40	256.82
423.77	258.23
424.15	259.63
424.52	261.12
424.89	262.74
425.26	264.29
425.64	265.69
426.01	267.27
426.38	268.89
426.75	270.59
427.13	272.31
427.50	274.10
427.87	275.97
428.24	277.77
428.61	279.56
428.99	281.50
429.36	283.56
429.73	285.63
430.10	287.61
430.47	289.65
430.85	291.77
431.22	293.99
431.59	296.36
431.96	298.57
432.33	301.06
432.70	303.41
433.08	306.23
433.45	308.92
433.82	311.53
434.19	314.40
434.56	317.21
434.93	319.90
435.30	322.54
435.68	325.42
436.05	328.30
436.42	331.05
436.79	333.55
437.16	336.29
437.53	339.09
437.90	341.87
438.27	344.58
438.64	347.37
439.01	349.95
439.38	352.13
439.75	354.30
440.13	356.77
440.50	359.13
440.87	360.94
441.24	362.87
441.61	365.00
441.98	366.53
442.35	368.29
442.72	370.14
443.09	371.92
443.46	372.94
443.83	373.52
444.20	374.04
444.57	374.87
444.94	375.14
445.31	375.48
445.68	375.85
446.05	375.95
446.42	375.58
446.79	375.14
447.16	374.72
447.53	374.38
447.90	373.20
448.27	372.02
448.64	370.44
449.01	369.27
449.37	367.33
449.74	365.42
450.11	363.18
450.48	360.69
450.85	358.17
451.22	356.05
451.59	354.07
451.96	352.09
452.33	349.48
452.70	347.11
453.07	344.33
453.43	341.48
453.80	338.75
454.17	336.08
454.54	333.55
454.91	330.86
455.28	328.25
455.65	325.81
456.02	323.37
456.38	321.26
456.75	318.63
457.12	316.38
457.49	314.21
457.86	312.07
458.23	310.20
458.59	308.19
458.96	306.07
459.33	304.20
459.70	302.40
460.07	300.90
460.43	299.19
460.80	297.54
461.17	296.09
461.54	294.58
461.91	293.16
462.27	291.76
462.64	290.48
463.01	289.12
463.38	287.80
463.74	286.46
464.11	285.27
464.48	284.26
464.85	283.20
465.21	282.31
465.58	281.37
465.95	280.32
466.32	279.43
466.68	278.55
467.05	277.64
467.42	276.73
467.78	275.82
468.15	274.98
468.52	274.33
468.88	273.48
469.25	272.69
469.62	272.09
469.98	271.40
470.35	270.80
470.72	270.19
471.08	269.55
471.45	269.02
471.82	268.46
472.18	267.86
472.55	267.42
472.92	266.87
473.28	266.43
473.65	265.95
474.02	265.48
474.38	265.10
474.75	264.74
475.11	264.42
475.48	264.15
475.85	263.89
476.21	263.70
476.58	263.52
476.94	263.39
477.31	263.20
477.67	263.06
478.04	262.94
478.41	262.85
478.77	262.88
479.14	262.76
479.50	262.80
479.87	262.86
480.23	262.91
480.60	263.00
480.96	263.09
481.33	263.34
481.69	263.59
482.06	263.82
482.42	264.06
482.79	264.31
483.15	264.65
483.52	265.06
483.88	265.37
484.25	265.73
484.61	266.17
484.98	266.66
485.34	267.21
485.71	267.81
486.07	268.50
486.44	269.08
486.80	269.81
487.17	270.53
487.53	271.33
487.90	272.17
488.26	273.14
488.62	274.09
488.99	275.04
489.35	276.04
489.72	277.15
490.08	278.38
490.44	279.60
490.81	280.90
491.17	282.22
491.54	283.71
491.90	285.27
492.26	286.91
492.63	288.58
492.99	290.37
493.36	292.25
493.72	294.28
494.08	296.37
494.45	298.66
494.81	301.03
495.17	303.48
495.54	306.06
495.90	308.72
496.26	311.56
496.63	314.56
496.99	317.70
497.35	320.96
497.72	324.34
498.08	327.89
498.44	331.56
498.80	335.54
499.17	339.59
499.53	343.75
499.89	348.14
500.26	352.70
500.62	357.39
500.98	362.37
501.34	367.40
501.71	372.74
502.07	378.17
502.43	383.78
502.79	389.64
503.16	395.74
503.52	402.05
503.88	408.46
504.24	415.09
504.60	421.95
504.97	429.07
505.33	436.36
505.69	444.07
506.05	451.88
506.41	459.80
506.78	467.98
507.14	476.46
507.50	485.17
507.86	494.14
508.22	503.32
508.59	512.52
508.95	522.10
509.31	531.94
509.67	542.05
510.03	552.35
510.39	562.88
510.75	573.70
511.12	584.57
511.48	595.84
511.84	607.28
512.20	618.83
512.56	630.73
512.92	642.96
513.28	655.29
513.64	667.73
514.00	680.44
514.37	693.34
514.73	706.36
515.09	719.38
515.45	732.72
515.81	746.30
516.17	760.29
516.53	774.44
516.89	788.57
517.25	802.71
517.61	817.18
517.97	831.60
518.33	845.99
518.69	860.87
519.05	875.91
519.41	891.14
519.77	906.64
520.13	922.14
520.49	937.52
520.85	952.98
521.21	968.76
521.57	984.87
521.93	1000.69
522.29	1017.09
522.65	1033.38
523.01	1049.56
523.37	1065.57
523.73	1081.78
524.09	1097.80
524.45	1114.12
524.81	1130.74
525.17	1147.51
525.53	1164.50
525.89	1181.34
526.25	1198.11
526.61	1214.50
526.97	1231.18
527.33	1247.57
527.68	1264.00
528.04	1280.51
528.40	1296.97
528.76	1313.93
529.12	1330.49
529.48	1347.31
529.84	1363.33
530.20	1379.88
530.56	1396.87
530.91	1414.40
531.27	1431.11
531.63	1447.51
531.99	1464.02
532.35	1479.90
532.71	1495.82
533.07	1511.92
533.42	1527.80
533.78	1543.74
534.14	1559.88
534.50	1575.17
534.86	1591.10
535.21	1606.34
535.57	1622.17
535.93	1637.77
536.29	1652.56
536.65	1667.63
537.00	1682.46
537.36	1697.60
537.72	1712.16
538.08	1726.51
538.44	1740.13
538.79	1753.98
539.15	1767.72
539.51	1781.41
539.87	1795.79
540.22	1809.46
540.58	1823.26
540.94	1836.49
541.29	1849.30
541.65	1861.92
542.01	1875.00
542.37	1887.29
542.72	1899.68
543.08	1911.43
543.44	1923.69
543.79	1934.82
544.15	1945.83
544.51	1957.32
544.87	1968.25
545.22	1978.98
545.58	1989.27
545.94	1999.04
546.29	2008.91
546.65	2018.85
547.01	2028.15
547.36	2036.83
547.72	2045.27
548.07	2052.97
548.43	2061.28
548.79	2069.46
549.14	2077.05
549.50	2084.43
549.86	2092.10
550.21	2099.46
550.57	2106.54
550.92	2113.06
551.28	2120.24
551.64	2127.18
551.99	2133.66
552.35	2139.91
552.70	2146.16
553.06	2152.12
553.41	2158.35
553.77	2164.37
554.13	2170.36
554.48	2176.55
554.84	2181.79
555.19	2187.02
555.55	2192.25
555.90	2196.60
556.26	2201.32
556.61	2206.09
556.97	2210.21
557.32	2214.33
557.68	2218.40
558.03	2222.83
558.39	2226.55
558.74	2231.24
559.10	2235.16
559.45	2238.88
559.81	2243.14
560.16	2246.94
560.52	2250.12
560.87	2253.60
561.23	2256.10
561.58	2259.04
561.94	2261.51
562.29	2264.11
562.64	2266.77
563.00	2269.19
563.35	2272.61
563.71	2275.81
564.06	2278.95
564.42	2281.97
564.77	2284.47
565.12	2286.76
565.48	2288.56
565.83	2290.47
566.19	2291.61
566.54	2292.70
566.89	2293.76
567.25	2294.30
567.60	2295.62
567.96	2297.34
568.31	2298.17
568.66	2299.41
569.02	2299.97
569.37	2300.28
569.72	2301.19
570.08	2301.37
570.43	2301.67
570.78	2301.24
571.14	2299.70
571.49	2298.47
571.84	2298.06
572.20	2296.95
572.55	2296.08
572.90	2294.55
573.26	2293.13
573.61	2291.57
573.96	2289.66
574.31	2286.83
574.67	2284.02
575.02	2280.40
575.37	2276.91
575.72	2273.13
576.08	2269.78
576.43	2266.49
576.78	2262.87
577.13	2259.71
577.49	2256.64
577.84	2253.18
578.19	2249.47
578.54	2245.83
578.90	2241.51
579.25	2236.01
579.60	2230.99
579.95	2225.84
580.30	2221.00
580.66	2215.95
581.01	2210.81
581.36	2205.91
581.71	2201.62
582.06	2197.09
582.42	2192.59
582.77	2187.45
583.12	2182.99
583.47	2178.30
583.82	2173.28
584.17	2167.91
584.53	2162.44
584.88	2156.87
585.23	2151.07
585.58	2145.60
585.93	2140.25
586.28	2135.52
586.63	2130.55
586.98	2125.63
587.34	2121.04
587.69	2116.12
588.04	2110.74
588.39	2105.23
588.74	2098.78
589.09	2092.76
589.44	2085.97
589.79	2080.10
590.14	2074.55
590.49	2067.90
590.84	2061.53
591.19	2055.59
591.54	2049.26
591.89	2041.87
592.25	2035.07
592.60	2027.78
592.95	2020.21
593.30	2012.85
593.65	2005.26
594.00	1998.25
594.35	1990.90
594.70	1982.78
595.05	1975.48
595.40	1968.23
595.75	1960.77
596.10	1954.58
596.45	1947.69
596.80	1941.45
597.15	1934.77
597.50	1927.66
597.85	1921.28
598.19	1914.68
598.54	1907.48
598.89	1900.92
599.24	1895.01
599.59	1888.24
599.94	1882.20
600.29	1875.89
600.64	1869.26
600.99	1861.90
601.34	1855.10
601.69	1848.20
602.04	1841.34
602.39	1833.90
602.74	1827.09
603.08	1820.32
603.43	1813.49
603.78	1806.28
604.13	1799.10
604.48	1791.83
604.83	1784.93
605.18	1777.92
605.53	1769.89
605.87	1761.80
606.22	1754.37
606.57	1746.40
606.92	1739.17
607.27	1731.84
607.62	1724.85
607.96	1717.61
608.31	1711.04
608.66	1703.46
609.01	1695.93
609.36	1688.38
609.70	1680.38
610.05	1672.41
610.40	1664.74
610.75	1656.49
611.10	1648.81
611.44	1640.45
611.79	1632.37
612.14	1623.64
612.49	1614.46
612.83	1606.12
613.18	1598.10
613.53	1590.12
613.88	1581.54
614.22	1573.17
614.57	1564.64
614.92	1556.55
615.27	1548.82
615.61	1540.41
615.96	1532.25
616.31	1524.57
616.65	1517.16
617.00	1509.67
617.35	1502.08
617.70	1493.64
618.04	1485.00
618.39	1476.65
618.74	1469.00
619.08	1460.72
619.43	1453.18
619.78	1446.22
620.12	1438.97
620.47	1431.40
620.82	1423.27
621.16	1416.00
621.51	1408.37
621.85	1400.78
622.20	1392.31
622.55	1384.00
622.89	1376.05
623.24	1368.46
623.59	1361.05
623.93	1353.49
624.28	1346.23
624.62	1338.50
624.97	1331.36
625.32	1324.80
625.66	1317.90
626.01	1310.82
626.35	1303.23
626.70	1295.47
627.04	1287.70
627.39	1279.95
627.73	1272.61
628.08	1265.60
628.43	1258.24
628.77	1250.85
629.12	1243.15
629.46	1235.98
629.81	1228.63
630.15	1221.49
630.50	1214.07
630.84	1205.86
631.19	1198.04
631.53	1190.64
631.88	1183.20
632.22	1175.70
632.57	1168.33
632.91	1160.68
633.26	1153.19
633.60	1145.91
633.95	1138.87
634.29	1131.93
634.64	1125.31
634.98	1117.88
635.32	1110.66
635.67	1104.14
636.01	1097.65
636.36	1090.88
636.70	1084.29
637.05	1077.73
637.39	1071.24
637.73	1064.78
638.08	1058.94
638.42	1052.94
638.77	1046.38
639.11	1039.77
639.45	1033.29
639.80	1026.66
640.14	1020.28
640.49	1013.81
640.83	1007.55
641.17	1001.22
641.52	994.85
641.86	988.30
642.20	982.55
642.55	976.41
642.89	969.76
643.23	963.13
643.58	957.46
643.92	951.30
644.26	945.17
644.61	939.16
644.95	933.00
645.29	926.44
645.64	919.66
645.98	913.33
646.32	907.47
646.66	901.36
647.01	895.52
647.35	889.78
647.69	883.91
648.04	878.34
648.38	872.56
648.72	866.54
649.06	860.47
649.41	854.54
649.75	848.46
650.09	842.55
650.43	836.80
650.78	830.56
651.12	824.63
651.46	818.97
651.80	813.22
652.14	807.80
652.49	802.33
652.83	797.19
653.17	791.53
653.51	785.75
653.85	780.45
654.20	774.80
654.54	768.89
654.88	763.13
655.22	757.23
655.56	751.55
655.90	746.15
656.25	740.95
656.59	735.55
656.93	730.46
657.27	725.30
657.61	719.79
657.95	714.78
658.29	709.73
658.64	704.45
658.98	699.10
659.32	693.75
659.66	688.60
660.00	683.14
660.34	678.17
660.68	673.25
661.02	668.18
661.36	663.38
661.70	658.85
662.05	654.52
662.39	650.13
662.73	645.72
663.07	641.32
663.41	636.83
663.75	632.39
664.09	627.80
664.43	623.42
664.77	619.37
665.11	615.05
665.45	610.88
665.79	606.75
666.13	602.61
666.47	598.53
666.81	594.35
667.15	590.29
667.49	586.40
667.83	582.66
668.17	578.75
668.51	574.76
668.85	570.68
669.19	566.79
669.53	562.97
669.87	559.00
670.21	555.35
670.55	551.75
670.89	548.30
671.23	544.93
671.57	541.39
671.91	537.77
672.25	534.23
672.58	530.80
672.92	527.49
673.26	524.34
673.60	521.13
673.94	518.05
674.28	515.14
674.62	512.15
674.96	508.95
675.30	505.96
675.64	503.02
675.97	500.25
676.31	497.39
676.65	494.49
676.99	491.84
677.33	488.93
677.67	486.05
678.01	483.01
678.34	479.99
678.68	477.15
679.02	474.31
679.36	471.61
679.70	468.82
680.04	466.04
680.37	463.21
680.71	460.41
681.05	457.76
681.39	455.04
681.73	452.41
682.06	449.93
682.40	447.41
682.74	444.83
683.08	442.27
683.42	439.69
683.75	437.18
684.09	434.60
684.43	432.12
684.77	429.68
685.10	427.31
685.44	424.93
685.78	422.63
686.12	420.37
686.45	418.05
686.79	415.76
687.13	413.56
687.46	411.35
687.80	409.24
688.14	406.97
688.48	404.92
688.81	402.66
689.15	400.50
689.49	398.36
689.82	396.32
690.16	394.27
690.50	392.28
690.83	390.30
691.17	388.33
691.51	386.46
691.84	384.60
692.18	382.70
692.52	380.78
692.85	378.85
693.19	377.05
693.52	375.21
693.86	373.38
694.20	371.58
694.53	369.81
694.87	367.95
695.21	366.23
695.54	364.43
695.88	362.70
696.21	360.98
696.55	359.29
696.88	357.60
697.22	355.93
697.56	354.35
697.89	352.73
698.23	351.14
698.56	349.51
698.90	347.94
699.23	346.30
699.57	344.75
699.90	343.26
700.24	341.71
700.58	340.20
700.91	338.73
701.25	337.30
701.58	335.92
701.92	334.56
702.25	333.19
702.59	331.81
702.92	330.53
703.26	329.26
703.59	327.99
703.93	326.88
704.26	325.67
704.60	324.37
704.93	323.08
705.26	321.79
705.60	320.63
705.93	319.47
706.27	318.46
706.60	317.40
706.94	316.26
707.27	315.13
707.61	314.08
707.94	313.08
708.27	311.97
708.61	310.88
708.94	309.89
709.28	308.93
709.61	307.97
709.94	306.97
710.28	305.94
710.61	304.96
710.95	303.84
711.28	302.89
711.61	301.93
711.95	301.03
712.28	300.11
712.61	299.09
712.95	298.15
713.28	297.25
713.61	296.35
713.95	295.48
714.28	294.62
714.61	293.74
714.95	292.85
715.28	292.02
715.61	291.17
715.95	290.30
716.28	289.41
716.61	288.58
716.95	287.79
717.28	287.04
717.61	286.24
717.94	285.50
718.28	284.69
718.61	283.96
718.94	283.27
719.27	282.60
719.61	281.96
719.94	281.32
720.27	280.58
720.60	279.90
720.94	279.28
721.27	278.69
721.60	278.12
721.93	277.54
722.27	276.95
722.60	276.34
722.93	275.79
723.26	275.25
723.59	274.69
723.93	274.11
724.26	273.55
724.59	273.02
724.92	272.48
725.25	271.97
725.59	271.43
725.92	270.88
726.25	270.39
726.58	269.92
726.91	269.41
727.24	268.93
727.57	268.48
727.91	267.97
728.24	267.47
728.57	266.95
728.90	266.51
729.23	266.04
729.56	265.65
729.89	265.15
730.22	264.64
730.55	264.14
730.89	263.68
731.22	263.20
731.55	262.77
731.88	262.37
732.21	261.94
732.54	261.53
732.87	261.11
733.20	260.68
733.53	260.22
733.86	259.86
734.19	259.45
734.52	259.08
734.85	258.78
735.18	258.37
735.51	258.02
735.84	257.62
736.17	257.31
736.50	256.90
736.83	256.69
737.16	256.40
737.49	256.09
737.82	255.79
738.15	255.48
738.48	255.14
738.81	254.81
739.14	254.50
739.47	254.17
739.80	253.91
740.13	253.60
740.46	253.29
740.79	252.95
741.12	252.67
741.45	252.36
741.78	252.01
742.11	251.75
742.44	251.43
742.77	251.13
743.10	250.78
743.43	250.48
743.75	250.05
744.08	249.88
744.41	249.65
744.74	249.36
745.07	249.09
745.40	248.87
745.73	248.62
746.06	248.36
746.39	248.11
746.71	247.82
747.04	247.58
747.37	247.35
747.70	247.14
748.03	246.88
748.36	246.64
748.68	246.41
749.01	246.14
749.34	245.95
749.67	245.73
750.00	245.55
750.33	245.41
750.65	245.23
750.98	244.91
751.31	244.67
751.64	244.51
751.97	244.37
752.29	244.16
752.62	243.94
752.95	243.73
753.28	243.55
753.60	243.34
753.93	243.18
754.26	242.97
754.59	242.76
754.91	242.55
755.24	242.37
755.57	242.17
755.90	241.99
756.22	241.75
756.55	241.55
756.88	241.35
757.20	241.13
757.53	240.91
757.86	240.71
758.19	240.56
758.51	240.34
758.84	240.08
759.17	239.91
759.49	239.71
759.82	239.61
760.15	239.45
760.47	239.32
760.80	239.12
761.13	238.99
761.45	238.79
761.78	238.66
762.11	238.49
762.43	238.35
762.76	238.19
763.08	238.08
763.41	237.96
763.74	237.82
764.06	237.68
764.39	237.54
764.71	237.40
765.04	237.24
765.37	237.14
765.69	237.03
766.02	236.86
766.34	236.76
766.67	236.58
767.00	236.44
767.32	236.37
767.65	236.31
767.97	236.17
768.30	236.08
768.62	235.95
768.95	235.83
769.27	235.68
769.60	235.60
769.92	235.47
770.25	235.34
770.57	235.22
770.90	235.10
771.22	235.03
771.55	234.94
771.87	234.85
772.20	234.73
772.52	234.71
772.85	234.76
773.17	234.67
773.50	234.55
773.82	234.45
774.15	234.30
774.47	234.15
774.80	234.05
775.12	233.97
775.45	233.87
775.77	233.82
776.09	233.79
776.42	233.71
776.74	233.68
777.07	233.59
777.39	233.52
777.72	233.43
778.04	233.38
778.36	233.30
778.69	233.24
779.01	233.19
779.33	233.05
779.66	232.88
779.98	232.81
780.31	232.77
780.63	232.76
780.95	232.71
781.28	232.66
781.60	232.62
781.92	232.57
782.25	232.54
782.57	232.47
782.89	232.40
783.22	232.33
783.54	232.25
783.86	232.22
784.19	232.17
784.51	232.17
784.83	232.10
785.16	232.07
785.48	232.05
785.80	231.97
786.12	231.95
786.45	231.92
786.77	231.87
787.09	231.84
