SpectraSuite Data File
++++++++++++++++++++++++++++++++++++
Date: Fri Feb 01 15:21:10 EST 2013
User: group
Dark Spectrum Present: No
Reference Spectrum Present: No
Number of Sampled Component Spectra: 1
Spectrometers: USB2E7196
Integration Time (usec): 35000 (USB2E7196)
Spectra Averaged: 100 (USB2E7196)
Boxcar Smoothing: 10 (USB2E7196)
Correct for Electrical Dark: No (USB2E7196)
Strobe/Lamp Enabled: No (USB2E7196)
Correct for Detector Non-linearity: No (USB2E7196)
Correct for Stray Light: No (USB2E7196)
Number of Pixels in Processed Spectrum: 2048
>>>>>Begin Processed Spectral Data<<<<<
339.09	0.00
339.48	214.94
339.86	216.95
340.24	217.76
340.63	219.08
341.01	221.84
341.39	222.08
341.78	223.49
342.16	224.65
342.54	225.67
342.93	213.51
343.31	224.31
343.69	224.86
344.07	225.31
344.46	225.76
344.84	226.13
345.22	226.36
345.60	226.62
345.99	226.79
346.37	226.92
346.75	226.99
347.13	227.06
347.52	227.13
347.90	227.21
348.28	227.25
348.66	227.32
349.05	227.30
349.43	227.35
349.81	227.39
350.19	227.43
350.57	227.48
350.96	227.53
351.34	227.61
351.72	227.70
352.10	227.79
352.48	227.85
352.87	227.93
353.25	227.99
353.63	228.03
354.01	228.10
354.39	228.18
354.77	228.29
355.15	228.37
355.54	228.39
355.92	228.40
356.30	228.50
356.68	228.62
357.06	228.69
357.44	228.70
357.82	228.76
358.20	228.84
358.58	228.88
358.97	228.94
359.35	228.99
359.73	229.08
360.11	229.12
360.49	229.19
360.87	229.24
361.25	229.31
361.63	229.41
362.01	229.45
362.39	229.43
362.77	229.44
363.15	229.47
363.53	229.49
363.91	229.51
364.29	229.49
364.67	229.40
365.05	229.39
365.43	229.42
365.81	229.44
366.19	229.46
366.57	229.52
366.95	229.49
367.33	229.48
367.71	229.43
368.09	229.43
368.47	229.39
368.85	229.36
369.23	229.36
369.61	229.25
369.99	229.23
370.37	229.22
370.75	229.20
371.13	229.14
371.51	229.12
371.89	229.09
372.27	229.03
372.65	228.99
373.03	228.92
373.41	228.87
373.78	228.75
374.16	228.66
374.54	228.56
374.92	228.49
375.30	228.43
375.68	228.34
376.06	228.24
376.44	228.15
376.82	228.08
377.19	227.98
377.57	227.94
377.95	227.87
378.33	227.82
378.71	227.68
379.09	227.58
379.47	227.53
379.84	227.44
380.22	227.37
380.60	227.29
380.98	227.25
381.36	227.17
381.73	227.14
382.11	227.07
382.49	227.02
382.87	226.94
383.25	226.89
383.62	226.95
384.00	226.89
384.38	226.86
384.76	226.82
385.13	226.80
385.51	226.74
385.89	226.70
386.27	226.66
386.64	226.66
387.02	226.66
387.40	226.59
387.78	226.59
388.15	226.58
388.53	226.53
388.91	226.49
389.29	226.46
389.66	226.43
390.04	226.42
390.42	226.43
390.79	226.44
391.17	226.42
391.55	226.29
391.92	226.32
392.30	226.32
392.68	226.33
393.05	226.37
393.43	226.36
393.81	226.39
394.18	226.40
394.56	226.43
394.94	226.47
395.31	226.50
395.69	226.53
396.06	226.59
396.44	226.67
396.82	226.71
397.19	226.79
397.57	226.84
397.95	226.93
398.32	226.94
398.70	226.99
399.07	227.08
399.45	227.14
399.82	227.22
400.20	227.28
400.58	227.33
400.95	227.37
401.33	227.49
401.70	227.63
402.08	227.72
402.45	227.80
402.83	227.91
403.20	228.03
403.58	228.15
403.95	228.28
404.33	228.42
404.71	228.57
405.08	228.79
405.46	228.93
405.83	229.07
406.21	229.23
406.58	229.41
406.96	229.59
407.33	229.78
407.70	229.95
408.08	230.26
408.45	230.50
408.83	230.72
409.20	230.93
409.58	231.10
409.95	231.36
410.33	231.65
410.70	231.91
411.08	232.23
411.45	232.53
411.82	232.82
412.20	233.16
412.57	233.57
412.95	233.81
413.32	234.21
413.69	234.63
414.07	235.08
414.44	235.55
414.82	236.04
415.19	236.57
415.56	237.17
415.94	237.67
416.31	238.30
416.68	238.92
417.06	239.66
417.43	240.35
417.81	241.12
418.18	241.91
418.55	242.73
418.93	243.59
419.30	244.45
419.67	245.38
420.04	246.32
420.42	247.32
420.79	248.52
421.16	249.69
421.54	250.86
421.91	252.05
422.28	253.29
422.66	254.58
423.03	255.92
423.40	257.21
423.77	258.64
424.15	260.07
424.52	261.53
424.89	263.12
425.26	264.66
425.64	266.10
426.01	267.68
426.38	269.33
426.75	271.00
427.13	272.76
427.50	274.58
427.87	276.47
428.24	278.31
428.61	280.04
428.99	281.95
429.36	284.05
429.73	286.16
430.10	288.21
430.47	290.32
430.85	292.42
431.22	294.70
431.59	297.08
431.96	299.31
432.33	301.86
432.70	304.29
433.08	307.14
433.45	309.80
433.82	312.41
434.19	315.30
434.56	318.11
434.93	320.77
435.30	323.41
435.68	326.34
436.05	329.25
436.42	332.05
436.79	334.59
437.16	337.33
437.53	340.14
437.90	342.97
438.27	345.72
438.64	348.54
439.01	351.16
439.38	353.43
439.75	355.64
440.13	358.13
440.50	360.40
440.87	362.21
441.24	364.17
441.61	366.31
441.98	367.82
442.35	369.64
442.72	371.49
443.09	373.28
443.46	374.27
443.83	374.80
444.20	375.31
444.57	376.17
444.94	376.43
445.31	376.76
445.68	377.09
446.05	377.11
446.42	376.69
446.79	376.22
447.16	375.74
447.53	375.44
447.90	374.26
448.27	373.12
448.64	371.57
449.01	370.38
449.37	368.43
449.74	366.53
450.11	364.28
450.48	361.79
450.85	359.25
451.22	357.08
451.59	355.06
451.96	353.12
452.33	350.49
452.70	348.13
453.07	345.29
453.43	342.39
453.80	339.66
454.17	337.03
454.54	334.46
454.91	331.75
455.28	329.01
455.65	326.51
456.02	324.07
456.38	321.89
456.75	319.23
457.12	316.98
457.49	314.76
457.86	312.62
458.23	310.79
458.59	308.74
458.96	306.64
459.33	304.78
459.70	302.92
460.07	301.38
460.43	299.64
460.80	298.01
461.17	296.55
461.54	295.00
461.91	293.53
462.27	292.12
462.64	290.86
463.01	289.53
463.38	288.23
463.74	286.81
464.11	285.61
464.48	284.57
464.85	283.44
465.21	282.55
465.58	281.55
465.95	280.46
466.32	279.54
466.68	278.66
467.05	277.76
467.42	276.88
467.78	275.97
468.15	275.10
468.52	274.46
468.88	273.61
469.25	272.87
469.62	272.26
469.98	271.57
470.35	270.93
470.72	270.29
471.08	269.65
471.45	269.12
471.82	268.58
472.18	268.04
472.55	267.63
472.92	267.10
473.28	266.70
473.65	266.24
474.02	265.78
474.38	265.39
474.75	265.05
475.11	264.71
475.48	264.41
475.85	264.20
476.21	263.95
476.58	263.78
476.94	263.60
477.31	263.48
477.67	263.31
478.04	263.20
478.41	263.17
478.77	263.18
479.14	263.16
479.50	263.19
479.87	263.24
480.23	263.32
480.60	263.39
480.96	263.46
481.33	263.65
481.69	263.85
482.06	264.05
482.42	264.29
482.79	264.52
483.15	264.89
483.52	265.28
483.88	265.65
484.25	266.06
484.61	266.50
484.98	266.92
485.34	267.50
485.71	268.06
486.07	268.67
486.44	269.27
486.80	269.95
487.17	270.64
487.53	271.43
487.90	272.28
488.26	273.20
488.62	274.16
488.99	275.14
489.35	276.19
489.72	277.32
490.08	278.50
490.44	279.70
490.81	281.02
491.17	282.36
491.54	283.80
491.90	285.28
492.26	286.98
492.63	288.74
492.99	290.52
493.36	292.38
493.72	294.41
494.08	296.51
494.45	298.76
494.81	301.12
495.17	303.58
495.54	306.13
495.90	308.81
496.26	311.62
496.63	314.59
496.99	317.70
497.35	320.95
497.72	324.33
498.08	327.88
498.44	331.56
498.80	335.44
499.17	339.47
499.53	343.59
499.89	347.89
500.26	352.35
500.62	357.03
500.98	362.02
501.34	367.11
501.71	372.41
502.07	377.87
502.43	383.49
502.79	389.30
503.16	395.39
503.52	401.69
503.88	408.13
504.24	414.76
504.60	421.66
504.97	428.73
505.33	436.05
505.69	443.72
506.05	451.44
506.41	459.37
506.78	467.56
507.14	476.10
507.50	484.88
507.86	493.90
508.22	503.11
508.59	512.35
508.95	521.92
509.31	531.74
509.67	541.78
510.03	552.11
510.39	562.59
510.75	573.40
511.12	584.32
511.48	595.58
511.84	607.04
512.20	618.57
512.56	630.54
512.92	642.77
513.28	655.08
513.64	667.64
514.00	680.35
514.37	693.29
514.73	706.40
515.09	719.46
515.45	732.76
515.81	746.35
516.17	760.31
516.53	774.44
516.89	788.60
517.25	802.90
517.61	817.26
517.97	831.84
518.33	846.33
518.69	861.12
519.05	876.14
519.41	891.37
519.77	906.98
520.13	922.52
520.49	937.91
520.85	953.42
521.21	969.15
521.57	985.33
521.93	1001.21
522.29	1017.72
522.65	1034.11
523.01	1050.43
523.37	1066.51
523.73	1082.84
524.09	1098.91
524.45	1115.39
524.81	1132.11
525.17	1149.02
525.53	1165.97
525.89	1182.86
526.25	1199.82
526.61	1216.30
526.97	1233.08
527.33	1249.66
527.68	1266.33
528.04	1282.93
528.40	1299.56
528.76	1316.59
529.12	1333.29
529.48	1350.26
529.84	1366.16
530.20	1382.64
530.56	1399.73
530.91	1417.20
531.27	1433.88
531.63	1450.43
531.99	1467.00
532.35	1483.00
532.71	1498.96
533.07	1515.33
533.42	1531.27
533.78	1547.27
534.14	1563.69
534.50	1579.04
534.86	1594.83
535.21	1610.06
535.57	1626.05
535.93	1641.63
536.29	1656.61
536.65	1671.86
537.00	1686.61
537.36	1701.93
537.72	1716.62
538.08	1731.12
538.44	1744.90
538.79	1758.90
539.15	1772.82
539.51	1786.65
539.87	1800.90
540.22	1814.69
540.58	1828.43
540.94	1841.94
541.29	1854.97
541.65	1867.60
542.01	1880.98
542.37	1893.33
542.72	1905.87
543.08	1917.77
543.44	1930.28
543.79	1941.47
544.15	1952.51
544.51	1964.15
544.87	1975.30
545.22	1986.19
545.58	1996.49
545.94	2006.38
546.29	2016.26
546.65	2026.09
547.01	2035.25
547.36	2044.20
547.72	2052.71
548.07	2060.66
548.43	2068.78
548.79	2076.92
549.14	2084.43
549.50	2091.71
549.86	2099.59
550.21	2106.83
550.57	2113.89
550.92	2120.49
551.28	2127.63
551.64	2134.71
551.99	2141.34
552.35	2147.54
552.70	2153.62
553.06	2159.51
553.41	2165.79
553.77	2171.90
554.13	2177.96
554.48	2184.03
554.84	2189.29
555.19	2194.66
555.55	2199.73
555.90	2204.26
556.26	2209.07
556.61	2213.87
556.97	2218.03
557.32	2222.12
557.68	2226.39
558.03	2230.82
558.39	2234.55
558.74	2239.10
559.10	2242.81
559.45	2246.38
559.81	2250.78
560.16	2254.60
560.52	2257.88
560.87	2261.41
561.23	2264.08
561.58	2267.03
561.94	2269.87
562.29	2272.44
562.64	2275.09
563.00	2277.83
563.35	2281.30
563.71	2284.34
564.06	2287.61
564.42	2290.54
564.77	2293.00
565.12	2295.09
565.48	2296.91
565.83	2298.71
566.19	2300.06
566.54	2301.16
566.89	2302.16
567.25	2302.46
567.60	2303.69
567.96	2305.25
568.31	2306.11
568.66	2307.03
569.02	2307.62
569.37	2307.75
569.72	2308.31
570.08	2308.27
570.43	2308.05
570.78	2307.39
571.14	2305.92
571.49	2304.46
571.84	2304.07
572.20	2302.78
572.55	2301.76
572.90	2300.17
573.26	2298.63
573.61	2296.94
573.96	2294.95
574.31	2291.97
574.67	2289.06
575.02	2285.49
575.37	2281.88
575.72	2277.87
576.08	2274.53
576.43	2271.01
576.78	2267.22
577.13	2264.10
577.49	2260.97
577.84	2257.43
578.19	2253.67
578.54	2249.84
578.90	2245.50
579.25	2239.91
579.60	2234.89
579.95	2229.82
580.30	2224.63
580.66	2219.52
581.01	2214.41
581.36	2209.32
581.71	2204.95
582.06	2200.31
582.42	2195.76
582.77	2190.49
583.12	2185.83
583.47	2180.86
583.82	2175.74
584.17	2170.47
584.53	2164.85
584.88	2159.07
585.23	2153.20
585.58	2147.67
585.93	2142.10
586.28	2137.27
586.63	2132.13
586.98	2126.97
587.34	2122.12
587.69	2117.12
588.04	2111.69
588.39	2105.95
588.74	2099.49
589.09	2093.34
589.44	2086.40
589.79	2080.26
590.14	2074.66
590.49	2068.00
590.84	2061.76
591.19	2055.66
591.54	2049.08
591.89	2041.47
592.25	2034.71
592.60	2027.50
592.95	2019.68
593.30	2012.32
593.65	2004.67
594.00	1997.56
594.35	1990.29
594.70	1982.25
595.05	1974.84
595.40	1967.48
595.75	1960.02
596.10	1953.64
596.45	1946.88
596.80	1940.78
597.15	1933.99
597.50	1926.83
597.85	1920.37
598.19	1913.59
598.54	1906.48
598.89	1899.80
599.24	1894.08
599.59	1887.28
599.94	1881.05
600.29	1874.75
600.64	1868.16
600.99	1860.59
601.34	1853.57
601.69	1846.54
602.04	1839.49
602.39	1832.20
602.74	1825.36
603.08	1818.52
603.43	1811.80
603.78	1804.48
604.13	1797.14
604.48	1789.78
604.83	1782.98
605.18	1775.93
605.53	1767.81
605.87	1759.76
606.22	1752.56
606.57	1744.44
606.92	1737.21
607.27	1729.82
607.62	1722.88
607.96	1715.45
608.31	1708.90
608.66	1701.33
609.01	1693.71
609.36	1686.20
609.70	1678.15
610.05	1669.93
610.40	1662.12
610.75	1653.85
611.10	1646.13
611.44	1637.88
611.79	1630.05
612.14	1621.15
612.49	1612.10
612.83	1603.83
613.18	1595.80
613.53	1587.73
613.88	1579.38
614.22	1571.07
614.57	1562.65
614.92	1554.54
615.27	1546.95
615.61	1538.57
615.96	1530.52
616.31	1522.97
616.65	1515.61
617.00	1508.07
617.35	1500.54
617.70	1492.11
618.04	1483.52
618.39	1475.20
618.74	1467.49
619.08	1459.10
619.43	1451.60
619.78	1444.63
620.12	1437.34
620.47	1429.79
620.82	1421.60
621.16	1414.19
621.51	1406.51
621.85	1398.84
622.20	1390.26
622.55	1381.99
622.89	1374.16
623.24	1366.70
623.59	1359.36
623.93	1351.64
624.28	1344.49
624.62	1336.88
624.97	1329.79
625.32	1323.14
625.66	1316.16
626.01	1308.95
626.35	1301.46
626.70	1293.71
627.04	1285.91
627.39	1278.27
627.73	1270.70
628.08	1263.72
628.43	1256.28
628.77	1248.93
629.12	1241.34
629.46	1234.21
629.81	1226.81
630.15	1219.47
630.50	1212.02
630.84	1203.72
631.19	1196.05
631.53	1188.48
631.88	1180.94
632.22	1173.36
632.57	1166.01
632.91	1158.51
633.26	1151.21
633.60	1143.93
633.95	1136.91
634.29	1129.87
634.64	1123.20
634.98	1115.96
635.32	1108.79
635.67	1102.30
636.01	1095.70
636.36	1089.01
636.70	1082.58
637.05	1076.05
637.39	1069.68
637.73	1063.18
638.08	1057.46
638.42	1051.34
638.77	1044.96
639.11	1038.39
639.45	1032.05
639.80	1025.41
640.14	1018.90
640.49	1012.30
640.83	1006.00
641.17	999.70
641.52	993.49
641.86	987.11
642.20	981.29
642.55	975.03
642.89	968.46
643.23	961.86
643.58	956.04
643.92	949.73
644.26	943.62
644.61	937.70
644.95	931.60
645.29	924.91
645.64	918.24
645.98	911.90
646.32	906.06
646.66	900.01
647.01	894.21
647.35	888.60
647.69	882.73
648.04	877.21
648.38	871.45
648.72	865.30
649.06	859.10
649.41	853.14
649.75	847.15
650.09	841.28
650.43	835.47
650.78	829.17
651.12	823.28
651.46	817.56
651.80	811.66
652.14	806.29
652.49	800.94
652.83	795.70
653.17	789.98
653.51	784.25
653.85	778.82
654.20	773.15
654.54	767.10
654.88	761.42
655.22	755.50
655.56	749.81
655.90	744.48
656.25	739.35
656.59	734.02
656.93	728.92
657.27	723.64
657.61	718.19
657.95	713.26
658.29	708.20
658.64	702.93
658.98	697.69
659.32	692.20
659.66	686.96
660.00	681.67
660.34	676.76
660.68	671.87
661.02	666.88
661.36	662.18
661.70	657.71
662.05	653.35
662.39	649.07
662.73	644.58
663.07	640.15
663.41	635.67
663.75	631.14
664.09	626.52
664.43	622.19
664.77	618.10
665.11	613.78
665.45	609.65
665.79	605.60
666.13	601.49
666.47	597.44
666.81	593.29
667.15	589.16
667.49	585.19
667.83	581.46
668.17	577.47
668.51	573.45
668.85	569.40
669.19	565.51
669.53	561.63
669.87	557.76
670.21	554.03
670.55	550.44
670.89	547.10
671.23	543.76
671.57	540.27
671.91	536.80
672.25	533.32
672.58	529.82
672.92	526.45
673.26	523.33
673.60	520.22
673.94	517.07
674.28	514.18
674.62	511.24
674.96	508.06
675.30	505.18
675.64	502.29
675.97	499.53
676.31	496.72
676.65	493.85
676.99	491.18
677.33	488.33
677.67	485.51
678.01	482.45
678.34	479.49
678.68	476.64
679.02	473.76
679.36	471.04
679.70	468.36
680.04	465.61
680.37	462.69
680.71	459.95
681.05	457.37
681.39	454.66
681.73	452.09
682.06	449.58
682.40	447.07
682.74	444.52
683.08	442.02
683.42	439.44
683.75	436.95
684.09	434.42
684.43	432.01
684.77	429.55
685.10	427.22
685.44	424.94
685.78	422.67
686.12	420.49
686.45	418.22
686.79	415.89
687.13	413.70
687.46	411.60
687.80	409.39
688.14	407.18
688.48	405.13
688.81	402.86
689.15	400.74
689.49	398.62
689.82	396.54
690.16	394.48
690.50	392.53
690.83	390.55
691.17	388.57
691.51	386.70
691.84	384.82
692.18	382.86
692.52	380.87
692.85	378.94
693.19	377.03
693.52	375.24
693.86	373.47
694.20	371.71
694.53	369.88
694.87	368.07
695.21	366.31
695.54	364.53
695.88	362.80
696.21	361.10
696.55	359.40
696.88	357.75
697.22	356.03
697.56	354.43
697.89	352.75
698.23	351.17
698.56	349.47
698.90	347.90
699.23	346.27
699.57	344.70
699.90	343.18
700.24	341.65
700.58	340.08
700.91	338.54
701.25	337.04
701.58	335.64
701.92	334.25
702.25	332.83
702.59	331.42
702.92	330.11
703.26	328.81
703.59	327.52
703.93	326.31
704.26	325.16
704.60	323.85
704.93	322.59
705.26	321.34
705.60	320.22
705.93	319.02
706.27	318.00
706.60	316.96
706.94	315.88
707.27	314.72
707.61	313.63
707.94	312.64
708.27	311.57
708.61	310.50
708.94	309.49
709.28	308.59
709.61	307.62
709.94	306.63
710.28	305.59
710.61	304.61
710.95	303.54
711.28	302.59
711.61	301.66
711.95	300.75
712.28	299.77
712.61	298.78
712.95	297.88
713.28	296.99
713.61	296.09
713.95	295.18
714.28	294.39
714.61	293.57
714.95	292.69
715.28	291.86
715.61	291.00
715.95	290.19
716.28	289.32
716.61	288.53
716.95	287.78
717.28	287.04
717.61	286.30
717.94	285.55
718.28	284.72
718.61	284.01
718.94	283.31
719.27	282.68
719.61	282.10
719.94	281.45
720.27	280.80
720.60	280.16
720.94	279.56
721.27	278.97
721.60	278.41
721.93	277.83
722.27	277.28
722.60	276.73
722.93	276.16
723.26	275.62
723.59	275.05
723.93	274.49
724.26	273.95
724.59	273.42
724.92	272.94
725.25	272.49
725.59	271.96
725.92	271.49
726.25	270.99
726.58	270.45
726.91	269.93
727.24	269.47
727.57	269.00
727.91	268.49
728.24	268.03
728.57	267.54
728.90	267.13
729.23	266.66
729.56	266.25
729.89	265.78
730.22	265.31
730.55	264.87
730.89	264.42
731.22	263.96
731.55	263.52
731.88	263.06
732.21	262.65
732.54	262.24
732.87	261.84
733.20	261.39
733.53	261.03
733.86	260.68
734.19	260.23
734.52	259.87
734.85	259.58
735.18	259.13
735.51	258.77
735.84	258.37
736.17	258.03
736.50	257.58
736.83	257.36
737.16	257.03
737.49	256.67
737.82	256.32
738.15	256.00
738.48	255.66
738.81	255.34
739.14	255.00
739.47	254.66
739.80	254.34
740.13	254.05
740.46	253.72
740.79	253.39
741.12	253.08
741.45	252.75
741.78	252.39
742.11	252.15
742.44	251.82
742.77	251.50
743.10	251.20
743.43	250.95
743.75	250.53
744.08	250.38
744.41	250.10
744.74	249.82
745.07	249.53
745.40	249.29
745.73	249.07
746.06	248.80
746.39	248.53
746.71	248.23
747.04	247.97
747.37	247.69
747.70	247.43
748.03	247.22
748.36	246.99
748.68	246.72
749.01	246.43
749.34	246.19
749.67	245.95
750.00	245.70
750.33	245.51
750.65	245.30
750.98	244.94
751.31	244.72
751.64	244.53
751.97	244.39
752.29	244.13
752.62	243.86
752.95	243.62
753.28	243.42
753.60	243.23
753.93	243.05
754.26	242.88
754.59	242.66
754.91	242.42
755.24	242.19
755.57	242.02
755.90	241.87
756.22	241.67
756.55	241.53
756.88	241.37
757.20	241.14
757.53	240.93
757.86	240.79
758.19	240.64
758.51	240.46
758.84	240.22
759.17	240.09
759.49	239.95
759.82	239.86
760.15	239.70
760.47	239.57
760.80	239.39
761.13	239.24
761.45	239.09
761.78	238.96
762.11	238.84
762.43	238.70
762.76	238.53
763.08	238.41
763.41	238.25
763.74	238.12
764.06	238.00
764.39	237.91
764.71	237.78
765.04	237.65
765.37	237.51
765.69	237.42
766.02	237.28
766.34	237.15
766.67	236.99
767.00	236.91
767.32	236.86
767.65	236.82
767.97	236.69
768.30	236.58
768.62	236.45
768.95	236.34
769.27	236.23
769.60	236.17
769.92	236.09
770.25	235.97
770.57	235.86
770.90	235.78
771.22	235.61
771.55	235.53
771.87	235.45
772.20	235.39
772.52	235.38
772.85	235.43
773.17	235.31
773.50	235.23
773.82	235.13
774.15	234.94
774.47	234.78
774.80	234.72
775.12	234.66
775.45	234.59
775.77	234.49
776.09	234.40
776.42	234.32
776.74	234.24
777.07	234.15
777.39	234.05
777.72	233.97
778.04	233.93
778.36	233.81
778.69	233.73
779.01	233.68
779.33	233.50
779.66	233.31
779.98	233.27
780.31	233.20
780.63	233.17
780.95	233.13
781.28	233.10
781.60	232.98
781.92	232.89
782.25	232.85
782.57	232.81
782.89	232.77
783.22	232.69
783.54	232.60
783.86	232.53
784.19	232.47
784.51	232.42
784.83	232.30
785.16	232.26
785.48	232.22
785.80	232.14
786.12	232.08
786.45	232.03
786.77	231.97
787.09	231.89
