SpectraSuite Data File
++++++++++++++++++++++++++++++++++++
Date: Fri Feb 01 14:56:14 EST 2013
User: group
Dark Spectrum Present: No
Reference Spectrum Present: No
Number of Sampled Component Spectra: 1
Spectrometers: USB2E7196
Integration Time (usec): 35000 (USB2E7196)
Spectra Averaged: 100 (USB2E7196)
Boxcar Smoothing: 10 (USB2E7196)
Correct for Electrical Dark: No (USB2E7196)
Strobe/Lamp Enabled: No (USB2E7196)
Correct for Detector Non-linearity: No (USB2E7196)
Correct for Stray Light: No (USB2E7196)
Number of Pixels in Processed Spectrum: 2048
>>>>>Begin Processed Spectral Data<<<<<
339.09	0.00
339.48	214.92
339.86	217.16
340.24	218.25
340.63	219.23
341.01	223.04
341.39	222.60
341.78	223.61
342.16	224.91
342.54	225.34
342.93	213.77
343.31	224.57
343.69	225.13
344.07	225.59
344.46	226.02
344.84	226.40
345.22	226.63
345.60	226.85
345.99	227.03
346.37	227.19
346.75	227.27
347.13	227.33
347.52	227.37
347.90	227.44
348.28	227.43
348.66	227.46
349.05	227.48
349.43	227.51
349.81	227.53
350.19	227.55
350.57	227.63
350.96	227.71
351.34	227.80
351.72	227.89
352.10	227.96
352.48	228.02
352.87	228.09
353.25	228.16
353.63	228.21
354.01	228.28
354.39	228.31
354.77	228.40
355.15	228.50
355.54	228.56
355.92	228.64
356.30	228.70
356.68	228.84
357.06	228.91
357.44	228.96
357.82	229.04
358.20	229.12
358.58	229.16
358.97	229.25
359.35	229.29
359.73	229.36
360.11	229.43
360.49	229.47
360.87	229.50
361.25	229.53
361.63	229.60
362.01	229.63
362.39	229.69
362.77	229.73
363.15	229.72
363.53	229.72
363.91	229.73
364.29	229.76
364.67	229.69
365.05	229.72
365.43	229.74
365.81	229.74
366.19	229.74
366.57	229.77
366.95	229.72
367.33	229.70
367.71	229.66
368.09	229.67
368.47	229.65
368.85	229.63
369.23	229.62
369.61	229.57
369.99	229.55
370.37	229.51
370.75	229.51
371.13	229.45
371.51	229.40
371.89	229.35
372.27	229.32
372.65	229.24
373.03	229.15
373.41	229.07
373.78	229.01
374.16	228.91
374.54	228.80
374.92	228.73
375.30	228.61
375.68	228.52
376.06	228.43
376.44	228.38
376.82	228.29
377.19	228.20
377.57	228.09
377.95	227.97
378.33	227.86
378.71	227.70
379.09	227.62
379.47	227.55
379.84	227.45
380.22	227.33
380.60	227.26
380.98	227.20
381.36	227.15
381.73	227.04
382.11	226.99
382.49	226.91
382.87	226.81
383.25	226.78
383.62	226.83
384.00	226.74
384.38	226.63
384.76	226.60
385.13	226.56
385.51	226.51
385.89	226.48
386.27	226.47
386.64	226.44
387.02	226.42
387.40	226.37
387.78	226.37
388.15	226.34
388.53	226.26
388.91	226.24
389.29	226.16
389.66	226.17
390.04	226.12
390.42	226.12
390.79	226.12
391.17	226.11
391.55	225.98
391.92	225.98
392.30	226.04
392.68	226.02
393.05	226.04
393.43	226.07
393.81	226.08
394.18	226.07
394.56	226.11
394.94	226.14
395.31	226.18
395.69	226.24
396.06	226.29
396.44	226.36
396.82	226.39
397.19	226.51
397.57	226.59
397.95	226.67
398.32	226.71
398.70	226.79
399.07	226.90
399.45	227.00
399.82	227.07
400.20	227.10
400.58	227.18
400.95	227.24
401.33	227.37
401.70	227.55
402.08	227.67
402.45	227.79
402.83	227.93
403.20	228.08
403.58	228.18
403.95	228.32
404.33	228.49
404.71	228.67
405.08	228.88
405.46	229.00
405.83	229.18
406.21	229.36
406.58	229.54
406.96	229.74
407.33	229.95
407.70	230.18
408.08	230.49
408.45	230.73
408.83	231.01
409.20	231.22
409.58	231.42
409.95	231.69
410.33	231.98
410.70	232.23
411.08	232.51
411.45	232.84
411.82	233.13
412.20	233.49
412.57	233.89
412.95	234.19
413.32	234.62
413.69	235.03
414.07	235.47
414.44	235.94
414.82	236.39
415.19	236.92
415.56	237.47
415.94	238.00
416.31	238.64
416.68	239.24
417.06	239.94
417.43	240.62
417.81	241.39
418.18	242.15
418.55	242.99
418.93	243.84
419.30	244.75
419.67	245.71
420.04	246.67
420.42	247.62
420.79	248.79
421.16	249.90
421.54	251.09
421.91	252.31
422.28	253.56
422.66	254.88
423.03	256.18
423.40	257.49
423.77	258.89
424.15	260.30
424.52	261.79
424.89	263.43
425.26	264.96
425.64	266.41
426.01	267.97
426.38	269.61
426.75	271.27
427.13	272.96
427.50	274.72
427.87	276.53
428.24	278.40
428.61	280.13
428.99	282.05
429.36	284.16
429.73	286.24
430.10	288.24
430.47	290.30
430.85	292.43
431.22	294.66
431.59	297.03
431.96	299.28
432.33	301.74
432.70	304.11
433.08	306.98
433.45	309.61
433.82	312.24
434.19	315.14
434.56	317.96
434.93	320.62
435.30	323.30
435.68	326.21
436.05	329.10
436.42	331.88
436.79	334.44
437.16	337.10
437.53	339.88
437.90	342.72
438.27	345.49
438.64	348.30
439.01	350.93
439.38	353.20
439.75	355.37
440.13	357.86
440.50	360.18
440.87	361.98
441.24	363.95
441.61	366.12
441.98	367.65
442.35	369.48
442.72	371.35
443.09	373.10
443.46	374.11
443.83	374.66
444.20	375.21
444.57	376.09
444.94	376.45
445.31	376.82
445.68	377.19
446.05	377.23
446.42	376.86
446.79	376.50
447.16	376.02
447.53	375.72
447.90	374.55
448.27	373.40
448.64	371.82
449.01	370.65
449.37	368.68
449.74	366.76
450.11	364.52
450.48	362.07
450.85	359.56
451.22	357.41
451.59	355.39
451.96	353.46
452.33	350.82
452.70	348.40
453.07	345.59
453.43	342.69
453.80	339.94
454.17	337.25
454.54	334.65
454.91	331.96
455.28	329.31
455.65	326.87
456.02	324.41
456.38	322.27
456.75	319.61
457.12	317.37
457.49	315.09
457.86	312.92
458.23	311.05
458.59	309.03
458.96	306.98
459.33	305.10
459.70	303.20
460.07	301.68
460.43	299.99
460.80	298.32
461.17	296.87
461.54	295.38
461.91	293.92
462.27	292.51
462.64	291.22
463.01	289.85
463.38	288.54
463.74	287.14
464.11	285.95
464.48	284.92
464.85	283.77
465.21	282.92
465.58	281.97
465.95	280.85
466.32	279.93
466.68	278.98
467.05	278.10
467.42	277.18
467.78	276.25
468.15	275.36
468.52	274.69
468.88	273.78
469.25	272.99
469.62	272.38
469.98	271.65
470.35	271.00
470.72	270.34
471.08	269.62
471.45	269.12
471.82	268.58
472.18	267.95
472.55	267.52
472.92	266.98
473.28	266.50
473.65	266.01
474.02	265.55
474.38	265.12
474.75	264.78
475.11	264.47
475.48	264.18
475.85	263.91
476.21	263.66
476.58	263.46
476.94	263.27
477.31	263.08
477.67	262.93
478.04	262.81
478.41	262.75
478.77	262.79
479.14	262.69
479.50	262.64
479.87	262.71
480.23	262.75
480.60	262.81
480.96	262.91
481.33	263.14
481.69	263.32
482.06	263.53
482.42	263.72
482.79	263.93
483.15	264.22
483.52	264.55
483.88	264.88
484.25	265.31
484.61	265.74
484.98	266.20
485.34	266.77
485.71	267.33
486.07	267.95
486.44	268.51
486.80	269.23
487.17	269.98
487.53	270.78
487.90	271.62
488.26	272.58
488.62	273.52
488.99	274.50
489.35	275.52
489.72	276.62
490.08	277.80
490.44	279.04
490.81	280.39
491.17	281.79
491.54	283.23
491.90	284.74
492.26	286.40
492.63	288.09
492.99	289.84
493.36	291.79
493.72	293.84
494.08	295.92
494.45	298.14
494.81	300.45
495.17	302.90
495.54	305.47
495.90	308.13
496.26	310.92
496.63	313.81
496.99	316.90
497.35	320.18
497.72	323.56
498.08	327.03
498.44	330.71
498.80	334.59
499.17	338.63
499.53	342.83
499.89	347.13
500.26	351.62
500.62	356.26
500.98	361.15
501.34	366.18
501.71	371.50
502.07	376.93
502.43	382.56
502.79	388.38
503.16	394.43
503.52	400.70
503.88	407.12
504.24	413.79
504.60	420.66
504.97	427.73
505.33	435.06
505.69	442.76
506.05	450.43
506.41	458.35
506.78	466.52
507.14	474.89
507.50	483.57
507.86	492.55
508.22	501.67
508.59	510.86
508.95	520.48
509.31	530.19
509.67	540.26
510.03	550.48
510.39	560.96
510.75	571.64
511.12	582.51
511.48	593.78
511.84	605.22
512.20	616.71
512.56	628.67
512.92	640.82
513.28	653.03
513.64	665.59
514.00	678.29
514.37	691.18
514.73	704.25
515.09	717.28
515.45	730.56
515.81	744.18
516.17	758.13
516.53	772.14
516.89	786.36
517.25	800.55
517.61	815.08
517.97	829.58
518.33	844.14
518.69	858.97
519.05	874.04
519.41	889.22
519.77	904.81
520.13	920.27
520.49	935.71
520.85	951.32
521.21	967.06
521.57	983.34
521.93	999.12
522.29	1015.57
522.65	1031.93
523.01	1048.30
523.37	1064.45
523.73	1080.81
524.09	1097.10
524.45	1113.62
524.81	1130.38
525.17	1147.32
525.53	1164.25
525.89	1181.19
526.25	1198.06
526.61	1214.43
526.97	1231.28
527.33	1247.89
527.68	1264.63
528.04	1281.15
528.40	1297.87
528.76	1315.07
529.12	1331.68
529.48	1348.71
529.84	1364.87
530.20	1381.61
530.56	1398.74
530.91	1416.21
531.27	1432.99
531.63	1449.48
531.99	1466.06
532.35	1482.10
532.71	1497.96
533.07	1514.33
533.42	1530.23
533.78	1546.40
534.14	1562.71
534.50	1578.06
534.86	1594.00
535.21	1609.18
535.57	1625.30
535.93	1640.85
536.29	1655.70
536.65	1670.88
537.00	1685.74
537.36	1701.05
537.72	1715.74
538.08	1730.21
538.44	1744.04
538.79	1758.04
539.15	1771.86
539.51	1785.67
539.87	1800.17
540.22	1814.11
540.58	1827.97
540.94	1841.52
541.29	1854.50
541.65	1867.42
542.01	1880.80
542.37	1893.18
542.72	1905.69
543.08	1917.49
543.44	1930.05
543.79	1941.28
544.15	1952.37
544.51	1964.10
544.87	1975.13
545.22	1985.85
545.58	1995.98
545.94	2005.82
546.29	2015.75
546.65	2025.62
547.01	2034.98
547.36	2043.68
547.72	2052.10
548.07	2060.04
548.43	2068.23
548.79	2076.27
549.14	2083.69
549.50	2091.01
549.86	2098.77
550.21	2106.11
550.57	2113.31
550.92	2119.75
551.28	2126.85
551.64	2133.96
551.99	2140.38
552.35	2146.59
552.70	2152.71
553.06	2158.69
553.41	2165.04
553.77	2171.08
554.13	2177.07
554.48	2183.16
554.84	2188.37
555.19	2193.70
555.55	2198.69
555.90	2203.04
556.26	2207.84
556.61	2212.49
556.97	2216.59
557.32	2220.64
557.68	2224.75
558.03	2229.01
558.39	2232.68
558.74	2237.28
559.10	2240.98
559.45	2244.54
559.81	2248.77
560.16	2252.53
560.52	2255.80
560.87	2259.07
561.23	2261.47
561.58	2264.53
561.94	2266.79
562.29	2269.31
562.64	2271.86
563.00	2274.48
563.35	2277.95
563.71	2280.87
564.06	2284.15
564.42	2287.04
564.77	2289.29
565.12	2291.37
565.48	2293.12
565.83	2294.78
566.19	2295.81
566.54	2296.61
566.89	2297.64
567.25	2298.05
567.60	2299.35
567.96	2300.77
568.31	2301.49
568.66	2302.42
569.02	2302.71
569.37	2302.89
569.72	2303.50
570.08	2303.54
570.43	2303.29
570.78	2302.38
571.14	2300.84
571.49	2299.28
571.84	2298.77
572.20	2297.49
572.55	2296.30
572.90	2294.52
573.26	2293.01
573.61	2291.33
573.96	2289.32
574.31	2286.18
574.67	2282.85
575.02	2279.00
575.37	2275.54
575.72	2271.58
576.08	2268.22
576.43	2264.69
576.78	2260.93
577.13	2257.62
577.49	2254.27
577.84	2250.62
578.19	2246.86
578.54	2242.95
578.90	2238.57
579.25	2232.85
579.60	2227.81
579.95	2222.73
580.30	2217.52
580.66	2212.21
581.01	2207.08
581.36	2202.10
581.71	2197.53
582.06	2193.11
582.42	2188.49
582.77	2183.02
583.12	2178.29
583.47	2173.27
583.82	2168.01
584.17	2162.68
584.53	2157.05
584.88	2151.26
585.23	2145.41
585.58	2139.82
585.93	2134.27
586.28	2129.32
586.63	2124.16
586.98	2119.06
587.34	2114.14
587.69	2109.22
588.04	2103.79
588.39	2097.89
588.74	2091.30
589.09	2085.23
589.44	2078.20
589.79	2072.06
590.14	2066.23
590.49	2059.50
590.84	2053.03
591.19	2046.95
591.54	2040.28
591.89	2032.62
592.25	2025.58
592.60	2018.22
592.95	2010.39
593.30	2002.93
593.65	1995.34
594.00	1988.20
594.35	1980.69
594.70	1972.49
595.05	1965.09
595.40	1957.67
595.75	1950.01
596.10	1943.64
596.45	1936.73
596.80	1930.44
597.15	1923.73
597.50	1916.67
597.85	1910.26
598.19	1903.60
598.54	1896.51
598.89	1889.86
599.24	1883.93
599.59	1877.33
599.94	1871.08
600.29	1864.79
600.64	1858.21
600.99	1850.58
601.34	1843.69
601.69	1836.77
602.04	1829.93
602.39	1822.49
602.74	1815.62
603.08	1808.93
603.43	1802.16
603.78	1794.86
604.13	1787.64
604.48	1780.21
604.83	1773.41
605.18	1766.30
605.53	1758.26
605.87	1750.11
606.22	1742.88
606.57	1735.00
606.92	1727.75
607.27	1720.54
607.62	1713.59
607.96	1706.25
608.31	1699.55
608.66	1691.88
609.01	1684.27
609.36	1676.65
609.70	1668.82
610.05	1660.78
610.40	1653.13
610.75	1644.85
611.10	1637.22
611.44	1628.89
611.79	1620.88
612.14	1612.01
612.49	1603.05
612.83	1594.78
613.18	1586.77
613.53	1578.74
613.88	1570.34
614.22	1562.08
614.57	1553.54
614.92	1545.56
615.27	1538.06
615.61	1529.85
615.96	1521.81
616.31	1514.19
616.65	1506.88
617.00	1499.22
617.35	1491.68
617.70	1483.38
618.04	1474.87
618.39	1466.76
618.74	1459.34
619.08	1451.17
619.43	1443.83
619.78	1436.84
620.12	1429.69
620.47	1422.22
620.82	1414.19
621.16	1406.79
621.51	1399.23
621.85	1391.78
622.20	1383.31
622.55	1375.07
622.89	1367.28
623.24	1359.88
623.59	1352.69
623.93	1345.12
624.28	1338.00
624.62	1330.51
624.97	1323.41
625.32	1316.73
625.66	1309.76
626.01	1302.56
626.35	1295.15
626.70	1287.38
627.04	1279.80
627.39	1272.05
627.73	1264.67
628.08	1257.62
628.43	1250.32
628.77	1242.86
629.12	1235.29
629.46	1228.21
629.81	1220.86
630.15	1213.80
630.50	1206.47
630.84	1198.23
631.19	1190.60
631.53	1183.16
631.88	1175.74
632.22	1168.14
632.57	1160.92
632.91	1153.45
633.26	1146.12
633.60	1138.81
633.95	1131.93
634.29	1124.94
634.64	1118.32
634.98	1111.01
635.32	1103.99
635.67	1097.49
636.01	1090.97
636.36	1084.18
636.70	1077.70
637.05	1071.11
637.39	1064.58
637.73	1057.96
638.08	1052.21
638.42	1046.14
638.77	1039.77
639.11	1033.09
639.45	1026.81
639.80	1020.16
640.14	1013.78
640.49	1007.25
640.83	1001.07
641.17	994.76
641.52	988.48
641.86	982.18
642.20	976.40
642.55	970.17
642.89	963.65
643.23	957.15
643.58	951.42
643.92	945.24
644.26	939.21
644.61	933.29
644.95	927.26
645.29	920.52
645.64	913.84
645.98	907.56
646.32	901.90
646.66	895.87
647.01	890.16
647.35	884.41
647.69	878.65
648.04	873.10
648.38	867.28
648.72	861.19
649.06	855.06
649.41	849.19
649.75	843.14
650.09	837.20
650.43	831.44
650.78	825.32
651.12	819.35
651.46	813.68
651.80	807.93
652.14	802.59
652.49	797.41
652.83	792.29
653.17	786.53
653.51	780.77
653.85	775.42
654.20	769.74
654.54	763.81
654.88	758.12
655.22	752.30
655.56	746.70
655.90	741.40
656.25	736.19
656.59	730.89
656.93	725.86
657.27	720.85
657.61	715.39
657.95	710.32
658.29	705.37
658.64	700.16
658.98	694.90
659.32	689.51
659.66	684.35
660.00	679.06
660.34	674.21
660.68	669.36
661.02	664.33
661.36	659.73
661.70	655.26
662.05	650.89
662.39	646.59
662.73	642.26
663.07	637.89
663.41	633.48
663.75	628.98
664.09	624.52
664.43	620.17
664.77	616.14
665.11	611.91
665.45	607.78
665.79	603.77
666.13	599.73
666.47	595.69
666.81	591.58
667.15	587.51
667.49	583.67
667.83	579.86
668.17	575.99
668.51	571.93
668.85	567.98
669.19	564.21
669.53	560.41
669.87	556.46
670.21	552.78
670.55	549.20
670.89	545.87
671.23	542.46
671.57	538.93
671.91	535.49
672.25	532.08
672.58	528.62
672.92	525.25
673.26	522.09
673.60	519.03
673.94	515.87
674.28	513.03
674.62	510.12
674.96	507.12
675.30	504.22
675.64	501.35
675.97	498.61
676.31	495.76
676.65	492.83
676.99	490.26
677.33	487.47
677.67	484.66
678.01	481.61
678.34	478.61
678.68	475.78
679.02	472.93
679.36	470.18
679.70	467.48
680.04	464.73
680.37	461.87
680.71	459.04
681.05	456.45
681.39	453.74
681.73	451.12
682.06	448.60
682.40	446.01
682.74	443.53
683.08	441.04
683.42	438.44
683.75	436.00
684.09	433.43
684.43	430.98
684.77	428.60
685.10	426.31
685.44	424.07
685.78	421.84
686.12	419.65
686.45	417.41
686.79	415.14
687.13	412.94
687.46	410.84
687.80	408.72
688.14	406.56
688.48	404.51
688.81	402.23
689.15	400.06
689.49	398.00
689.82	395.89
690.16	393.78
690.50	391.85
690.83	389.89
691.17	387.89
691.51	385.98
691.84	384.12
692.18	382.21
692.52	380.24
692.85	378.29
693.19	376.37
693.52	374.54
693.86	372.70
694.20	370.94
694.53	369.06
694.87	367.23
695.21	365.42
695.54	363.64
695.88	361.97
696.21	360.29
696.55	358.61
696.88	356.95
697.22	355.33
697.56	353.70
697.89	352.10
698.23	350.56
698.56	348.98
698.90	347.35
699.23	345.67
699.57	344.10
699.90	342.57
700.24	341.08
700.58	339.55
700.91	338.07
701.25	336.66
701.58	335.31
701.92	333.94
702.25	332.59
702.59	331.21
702.92	329.92
703.26	328.63
703.59	327.37
703.93	326.20
704.26	325.01
704.60	323.74
704.93	322.45
705.26	321.17
705.60	320.06
705.93	318.94
706.27	317.95
706.60	316.93
706.94	315.88
707.27	314.76
707.61	313.75
707.94	312.74
708.27	311.66
708.61	310.63
708.94	309.68
709.28	308.74
709.61	307.82
709.94	306.84
710.28	305.80
710.61	304.86
710.95	303.78
711.28	302.88
711.61	301.92
711.95	301.00
712.28	300.04
712.61	299.00
712.95	298.08
713.28	297.19
713.61	296.30
713.95	295.41
714.28	294.58
714.61	293.70
714.95	292.87
715.28	292.00
715.61	291.14
715.95	290.29
716.28	289.39
716.61	288.55
716.95	287.80
717.28	287.06
717.61	286.26
717.94	285.55
718.28	284.70
718.61	283.99
718.94	283.29
719.27	282.69
719.61	282.06
719.94	281.41
720.27	280.71
720.60	280.02
720.94	279.40
721.27	278.77
721.60	278.22
721.93	277.59
722.27	277.05
722.60	276.48
722.93	275.91
723.26	275.39
723.59	274.81
723.93	274.22
724.26	273.67
724.59	273.13
724.92	272.59
725.25	272.14
725.59	271.65
725.92	271.16
726.25	270.63
726.58	270.14
726.91	269.66
727.24	269.18
727.57	268.77
727.91	268.28
728.24	267.85
728.57	267.34
728.90	266.91
729.23	266.44
729.56	266.03
729.89	265.54
730.22	265.06
730.55	264.60
730.89	264.17
731.22	263.72
731.55	263.30
731.88	262.86
732.21	262.38
732.54	261.96
732.87	261.55
733.20	261.14
733.53	260.72
733.86	260.34
734.19	259.93
734.52	259.53
734.85	259.19
735.18	258.77
735.51	258.41
735.84	258.03
736.17	257.67
736.50	257.28
736.83	257.03
737.16	256.65
737.49	256.37
737.82	256.01
738.15	255.71
738.48	255.37
738.81	255.07
739.14	254.77
739.47	254.49
739.80	254.19
740.13	253.90
740.46	253.58
740.79	253.23
741.12	252.93
741.45	252.63
741.78	252.29
742.11	252.04
742.44	251.73
742.77	251.47
743.10	251.15
743.43	250.87
743.75	250.53
744.08	250.40
744.41	250.07
744.74	249.80
745.07	249.52
745.40	249.28
745.73	249.04
746.06	248.76
746.39	248.48
746.71	248.22
747.04	247.95
747.37	247.73
747.70	247.47
748.03	247.24
748.36	246.99
748.68	246.80
749.01	246.50
749.34	246.29
749.67	246.08
750.00	245.87
750.33	245.68
750.65	245.52
750.98	245.21
751.31	245.01
751.64	244.85
751.97	244.69
752.29	244.45
752.62	244.23
752.95	244.04
753.28	243.80
753.60	243.60
753.93	243.45
754.26	243.29
754.59	243.09
754.91	242.91
755.24	242.72
755.57	242.51
755.90	242.34
756.22	242.17
756.55	241.94
756.88	241.76
757.20	241.56
757.53	241.34
757.86	241.15
758.19	241.02
758.51	240.87
758.84	240.64
759.17	240.48
759.49	240.34
759.82	240.24
760.15	240.12
760.47	239.99
760.80	239.79
761.13	239.64
761.45	239.49
761.78	239.34
762.11	239.19
762.43	239.03
762.76	238.90
763.08	238.76
763.41	238.68
763.74	238.54
764.06	238.42
764.39	238.28
764.71	238.16
765.04	237.98
765.37	237.80
765.69	237.69
766.02	237.58
766.34	237.42
766.67	237.25
767.00	237.13
767.32	237.05
767.65	237.00
767.97	236.85
768.30	236.77
768.62	236.63
768.95	236.52
769.27	236.43
769.60	236.29
769.92	236.17
770.25	236.00
770.57	235.89
770.90	235.76
771.22	235.63
771.55	235.50
771.87	235.45
772.20	235.32
772.52	235.28
772.85	235.28
773.17	235.17
773.50	235.05
773.82	234.94
774.15	234.77
774.47	234.63
774.80	234.52
775.12	234.39
775.45	234.30
775.77	234.23
776.09	234.11
776.42	234.08
776.74	234.01
777.07	233.92
777.39	233.82
777.72	233.76
778.04	233.71
778.36	233.62
778.69	233.52
779.01	233.49
779.33	233.35
779.66	233.18
779.98	233.10
780.31	233.04
780.63	233.01
780.95	232.95
781.28	232.88
781.60	232.80
781.92	232.76
782.25	232.69
782.57	232.62
782.89	232.54
783.22	232.46
783.54	232.39
783.86	232.37
784.19	232.34
784.51	232.31
784.83	232.24
785.16	232.21
785.48	232.13
785.80	232.06
786.12	232.04
786.45	232.01
786.77	231.97
787.09	231.93
