SpectraSuite Data File
++++++++++++++++++++++++++++++++++++
Date: Fri Feb 01 16:06:09 EST 2013
User: group
Dark Spectrum Present: No
Reference Spectrum Present: No
Number of Sampled Component Spectra: 1
Spectrometers: USB2E7196
Integration Time (usec): 35000 (USB2E7196)
Spectra Averaged: 100 (USB2E7196)
Boxcar Smoothing: 10 (USB2E7196)
Correct for Electrical Dark: No (USB2E7196)
Strobe/Lamp Enabled: No (USB2E7196)
Correct for Detector Non-linearity: No (USB2E7196)
Correct for Stray Light: No (USB2E7196)
Number of Pixels in Processed Spectrum: 2048
>>>>>Begin Processed Spectral Data<<<<<
339.09	0.00
339.48	214.77
339.86	215.64
340.24	217.28
340.63	218.15
341.01	221.54
341.39	221.70
341.78	222.87
342.16	224.47
342.54	224.69
342.93	212.92
343.31	223.67
343.69	224.18
344.07	224.65
344.46	225.09
344.84	225.49
345.22	225.71
345.60	225.98
345.99	226.16
346.37	226.27
346.75	226.35
347.13	226.40
347.52	226.44
347.90	226.53
348.28	226.54
348.66	226.58
349.05	226.59
349.43	226.64
349.81	226.69
350.19	226.74
350.57	226.79
350.96	226.88
351.34	226.96
351.72	227.05
352.10	227.16
352.48	227.21
352.87	227.28
353.25	227.36
353.63	227.43
354.01	227.52
354.39	227.59
354.77	227.70
355.15	227.81
355.54	227.89
355.92	227.92
356.30	228.01
356.68	228.13
357.06	228.23
357.44	228.31
357.82	228.35
358.20	228.41
358.58	228.46
358.97	228.51
359.35	228.58
359.73	228.68
360.11	228.76
360.49	228.81
360.87	228.88
361.25	228.93
361.63	229.00
362.01	229.03
362.39	229.07
362.77	229.13
363.15	229.14
363.53	229.16
363.91	229.22
364.29	229.22
364.67	229.17
365.05	229.17
365.43	229.19
365.81	229.23
366.19	229.28
366.57	229.31
366.95	229.28
367.33	229.29
367.71	229.28
368.09	229.22
368.47	229.20
368.85	229.15
369.23	229.15
369.61	229.05
369.99	229.05
370.37	229.01
370.75	229.00
371.13	228.94
371.51	228.89
371.89	228.84
372.27	228.82
372.65	228.79
373.03	228.71
373.41	228.64
373.78	228.57
374.16	228.49
374.54	228.40
374.92	228.36
375.30	228.28
375.68	228.18
376.06	228.15
376.44	228.06
376.82	228.03
377.19	227.97
377.57	227.91
377.95	227.78
378.33	227.70
378.71	227.56
379.09	227.49
379.47	227.43
379.84	227.30
380.22	227.23
380.60	227.10
380.98	227.06
381.36	227.01
381.73	226.93
382.11	226.88
382.49	226.85
382.87	226.77
383.25	226.71
383.62	226.76
384.00	226.68
384.38	226.66
384.76	226.60
385.13	226.55
385.51	226.52
385.89	226.50
386.27	226.45
386.64	226.42
387.02	226.41
387.40	226.34
387.78	226.34
388.15	226.28
388.53	226.27
388.91	226.18
389.29	226.14
389.66	226.13
390.04	226.08
390.42	226.05
390.79	226.04
391.17	226.02
391.55	225.91
391.92	225.90
392.30	225.91
392.68	225.92
393.05	225.92
393.43	225.91
393.81	225.97
394.18	225.97
394.56	226.00
394.94	226.02
395.31	226.04
395.69	226.10
396.06	226.14
396.44	226.23
396.82	226.29
397.19	226.37
397.57	226.42
397.95	226.50
398.32	226.53
398.70	226.60
399.07	226.71
399.45	226.77
399.82	226.87
400.20	226.90
400.58	226.98
400.95	227.01
401.33	227.10
401.70	227.23
402.08	227.34
402.45	227.47
402.83	227.60
403.20	227.73
403.58	227.82
403.95	227.94
404.33	228.04
404.71	228.15
405.08	228.30
405.46	228.41
405.83	228.55
406.21	228.69
406.58	228.85
406.96	229.01
407.33	229.21
407.70	229.38
408.08	229.65
408.45	229.84
408.83	230.08
409.20	230.26
409.58	230.44
409.95	230.68
410.33	230.93
410.70	231.15
411.08	231.46
411.45	231.77
411.82	232.07
412.20	232.45
412.57	232.90
412.95	233.21
413.32	233.64
413.69	234.04
414.07	234.48
414.44	234.94
414.82	235.41
415.19	235.94
415.56	236.49
415.94	237.06
416.31	237.72
416.68	238.35
417.06	239.09
417.43	239.76
417.81	240.54
418.18	241.30
418.55	242.14
418.93	242.97
419.30	243.86
419.67	244.82
420.04	245.72
420.42	246.67
420.79	247.85
421.16	248.99
421.54	250.18
421.91	251.40
422.28	252.66
422.66	253.97
423.03	255.30
423.40	256.66
423.77	258.03
424.15	259.46
424.52	260.91
424.89	262.50
425.26	264.04
425.64	265.46
426.01	267.02
426.38	268.69
426.75	270.38
427.13	272.09
427.50	273.89
427.87	275.80
428.24	277.68
428.61	279.44
428.99	281.36
429.36	283.46
429.73	285.52
430.10	287.54
430.47	289.58
430.85	291.68
431.22	293.84
431.59	296.23
431.96	298.45
432.33	300.97
432.70	303.36
433.08	306.18
433.45	308.89
433.82	311.51
434.19	314.40
434.56	317.17
434.93	319.79
435.30	322.44
435.68	325.31
436.05	328.14
436.42	330.90
436.79	333.46
437.16	336.17
437.53	339.04
437.90	341.87
438.27	344.63
438.64	347.48
439.01	350.12
439.38	352.35
439.75	354.53
440.13	357.08
440.50	359.41
440.87	361.28
441.24	363.13
441.61	365.34
441.98	366.81
442.35	368.61
442.72	370.53
443.09	372.32
443.46	373.31
443.83	373.95
444.20	374.51
444.57	375.32
444.94	375.61
445.31	375.90
445.68	376.25
446.05	376.33
446.42	375.94
446.79	375.53
447.16	375.02
447.53	374.71
447.90	373.52
448.27	372.37
448.64	370.79
449.01	369.68
449.37	367.71
449.74	365.84
450.11	363.63
450.48	361.16
450.85	358.65
451.22	356.51
451.59	354.45
451.96	352.47
452.33	349.87
452.70	347.49
453.07	344.65
453.43	341.77
453.80	338.99
454.17	336.27
454.54	333.71
454.91	331.06
455.28	328.41
455.65	325.93
456.02	323.47
456.38	321.34
456.75	318.70
457.12	316.46
457.49	314.23
457.86	312.08
458.23	310.20
458.59	308.14
458.96	306.07
459.33	304.25
459.70	302.34
460.07	300.82
460.43	299.15
460.80	297.54
461.17	296.07
461.54	294.56
461.91	293.15
462.27	291.73
462.64	290.47
463.01	289.10
463.38	287.80
463.74	286.45
464.11	285.24
464.48	284.21
464.85	283.08
465.21	282.20
465.58	281.27
465.95	280.18
466.32	279.26
466.68	278.37
467.05	277.44
467.42	276.61
467.78	275.69
468.15	274.79
468.52	274.14
468.88	273.30
469.25	272.54
469.62	271.92
469.98	271.24
470.35	270.60
470.72	269.99
471.08	269.31
471.45	268.78
471.82	268.23
472.18	267.64
472.55	267.20
472.92	266.68
473.28	266.22
473.65	265.78
474.02	265.35
474.38	264.97
474.75	264.68
475.11	264.34
475.48	264.09
475.85	263.88
476.21	263.65
476.58	263.46
476.94	263.35
477.31	263.21
477.67	263.10
478.04	263.00
478.41	262.97
478.77	263.08
479.14	263.00
479.50	263.02
479.87	263.09
480.23	263.15
480.60	263.19
480.96	263.31
481.33	263.57
481.69	263.77
482.06	264.00
482.42	264.18
482.79	264.46
483.15	264.81
483.52	265.16
483.88	265.48
484.25	265.89
484.61	266.33
484.98	266.80
485.34	267.36
485.71	267.96
486.07	268.56
486.44	269.15
486.80	269.88
487.17	270.60
487.53	271.43
487.90	272.29
488.26	273.26
488.62	274.23
488.99	275.16
489.35	276.18
489.72	277.31
490.08	278.50
490.44	279.72
490.81	281.02
491.17	282.38
491.54	283.91
491.90	285.45
492.26	287.06
492.63	288.75
492.99	290.51
493.36	292.42
493.72	294.45
494.08	296.48
494.45	298.71
494.81	301.08
495.17	303.49
495.54	306.05
495.90	308.77
496.26	311.57
496.63	314.54
496.99	317.68
497.35	320.92
497.72	324.33
498.08	327.86
498.44	331.54
498.80	335.47
499.17	339.50
499.53	343.68
499.89	348.07
500.26	352.63
500.62	357.31
500.98	362.26
501.34	367.37
501.71	372.73
502.07	378.21
502.43	383.90
502.79	389.70
503.16	395.74
503.52	402.01
503.88	408.42
504.24	415.04
504.60	421.94
504.97	429.01
505.33	436.33
505.69	444.08
506.05	451.85
506.41	459.76
506.78	467.95
507.14	476.40
507.50	485.10
507.86	494.11
508.22	503.34
508.59	512.62
508.95	522.21
509.31	532.04
509.67	542.19
510.03	552.52
510.39	563.15
510.75	573.98
511.12	584.85
511.48	596.11
511.84	607.59
512.20	619.15
512.56	631.08
512.92	643.32
513.28	655.62
513.64	668.15
514.00	680.85
514.37	693.74
514.73	706.76
515.09	719.85
515.45	733.12
515.81	746.67
516.17	760.64
516.53	774.67
516.89	788.83
517.25	802.99
517.61	817.31
517.97	831.78
518.33	846.11
518.69	860.96
519.05	876.01
519.41	891.10
519.77	906.48
520.13	921.98
520.49	937.27
520.85	952.64
521.21	968.30
521.57	984.54
521.93	1000.30
522.29	1016.75
522.65	1032.96
523.01	1049.26
523.37	1065.24
523.73	1081.32
524.09	1097.36
524.45	1113.67
524.81	1130.18
525.17	1146.99
525.53	1163.80
525.89	1180.72
526.25	1197.54
526.61	1213.91
526.97	1230.67
527.33	1247.28
527.68	1263.83
528.04	1280.30
528.40	1296.92
528.76	1314.03
529.12	1330.53
529.48	1347.46
529.84	1363.42
530.20	1379.98
530.56	1396.90
530.91	1414.34
531.27	1431.10
531.63	1447.57
531.99	1464.17
532.35	1480.03
532.71	1495.77
533.07	1511.93
533.42	1527.75
533.78	1543.69
534.14	1559.86
534.50	1575.13
534.86	1590.97
535.21	1606.10
535.57	1622.04
535.93	1637.45
536.29	1652.05
536.65	1667.12
537.00	1681.76
537.36	1697.00
537.72	1711.63
538.08	1725.92
538.44	1739.66
538.79	1753.45
539.15	1767.03
539.51	1780.64
539.87	1795.14
540.22	1808.95
540.58	1822.75
540.94	1835.99
541.29	1848.82
541.65	1861.50
542.01	1874.78
542.37	1886.99
542.72	1899.40
543.08	1911.10
543.44	1923.41
543.79	1934.72
544.15	1945.57
544.51	1957.05
544.87	1968.00
545.22	1978.68
545.58	1988.96
545.94	1998.70
546.29	2008.63
546.65	2018.64
547.01	2027.94
547.36	2036.55
547.72	2044.97
548.07	2052.86
548.43	2061.09
548.79	2069.13
549.14	2076.75
549.50	2083.97
549.86	2091.56
550.21	2098.95
550.57	2106.14
550.92	2112.74
551.28	2119.73
551.64	2126.89
551.99	2133.41
552.35	2139.52
552.70	2145.61
553.06	2151.58
553.41	2157.87
553.77	2163.83
554.13	2169.79
554.48	2175.87
554.84	2181.38
555.19	2186.59
555.55	2191.59
555.90	2196.09
556.26	2200.90
556.61	2205.58
556.97	2209.97
557.32	2214.24
557.68	2218.35
558.03	2222.62
558.39	2226.26
558.74	2230.83
559.10	2234.65
559.45	2238.36
559.81	2242.61
560.16	2246.50
560.52	2249.73
560.87	2253.08
561.23	2255.78
561.58	2258.79
561.94	2261.32
562.29	2263.60
562.64	2266.47
563.00	2269.09
563.35	2272.67
563.71	2275.81
564.06	2278.88
564.42	2281.70
564.77	2284.14
565.12	2286.40
565.48	2288.40
565.83	2290.28
566.19	2291.74
566.54	2292.68
566.89	2293.86
567.25	2294.38
567.60	2295.71
567.96	2297.42
568.31	2298.37
568.66	2299.40
569.02	2299.90
569.37	2300.20
569.72	2301.20
570.08	2301.19
570.43	2301.19
570.78	2300.65
571.14	2299.30
571.49	2298.08
571.84	2297.69
572.20	2296.64
572.55	2295.60
572.90	2293.87
573.26	2292.61
573.61	2290.75
573.96	2289.00
574.31	2286.11
574.67	2283.33
575.02	2279.75
575.37	2276.32
575.72	2272.45
576.08	2269.29
576.43	2266.02
576.78	2262.46
577.13	2259.15
577.49	2256.09
577.84	2252.72
578.19	2248.92
578.54	2245.26
578.90	2241.06
579.25	2235.54
579.60	2230.61
579.95	2225.66
580.30	2220.63
580.66	2215.41
581.01	2210.50
581.36	2205.55
581.71	2201.30
582.06	2196.78
582.42	2192.31
582.77	2187.19
583.12	2182.74
583.47	2178.00
583.82	2173.05
584.17	2167.72
584.53	2162.34
584.88	2156.79
585.23	2151.01
585.58	2145.60
585.93	2140.23
586.28	2135.45
586.63	2130.56
586.98	2125.42
587.34	2120.78
587.69	2116.13
588.04	2110.94
588.39	2105.39
588.74	2098.97
589.09	2092.95
589.44	2086.21
589.79	2080.08
590.14	2074.35
590.49	2067.74
590.84	2061.31
591.19	2055.32
591.54	2049.00
591.89	2041.60
592.25	2034.81
592.60	2027.77
592.95	2020.12
593.30	2012.66
593.65	2004.98
594.00	1997.92
594.35	1990.70
594.70	1982.60
595.05	1975.42
595.40	1968.11
595.75	1960.51
596.10	1954.42
596.45	1947.50
596.80	1941.38
597.15	1934.85
597.50	1927.73
597.85	1921.42
598.19	1914.78
598.54	1907.60
598.89	1900.88
599.24	1894.96
599.59	1888.48
599.94	1882.20
600.29	1875.91
600.64	1869.20
600.99	1861.81
601.34	1855.01
601.69	1848.18
602.04	1841.33
602.39	1833.75
602.74	1826.93
603.08	1820.16
603.43	1813.36
603.78	1806.14
604.13	1798.95
604.48	1791.56
604.83	1784.79
605.18	1777.83
605.53	1769.81
605.87	1761.80
606.22	1754.64
606.57	1746.78
606.92	1739.24
607.27	1732.04
607.62	1725.13
607.96	1718.04
608.31	1711.46
608.66	1703.81
609.01	1696.07
609.36	1688.55
609.70	1680.65
610.05	1672.62
610.40	1665.06
610.75	1656.64
611.10	1648.97
611.44	1640.46
611.79	1632.57
612.14	1623.93
612.49	1614.65
612.83	1606.36
613.18	1598.30
613.53	1590.09
613.88	1581.53
614.22	1573.35
614.57	1564.70
614.92	1556.66
615.27	1549.09
615.61	1540.81
615.96	1532.76
616.31	1525.19
616.65	1517.65
617.00	1510.10
617.35	1502.47
617.70	1494.11
618.04	1485.50
618.39	1477.25
618.74	1469.70
619.08	1461.40
619.43	1453.85
619.78	1447.00
620.12	1439.79
620.47	1432.17
620.82	1424.03
621.16	1416.57
621.51	1408.85
621.85	1401.20
622.20	1392.71
622.55	1384.26
622.89	1376.45
623.24	1368.81
623.59	1361.40
623.93	1353.93
624.28	1346.73
624.62	1339.18
624.97	1331.90
625.32	1325.29
625.66	1318.30
626.01	1311.18
626.35	1303.77
626.70	1295.90
627.04	1288.15
627.39	1280.35
627.73	1272.98
628.08	1266.08
628.43	1258.82
628.77	1251.38
629.12	1243.84
629.46	1236.65
629.81	1229.26
630.15	1221.96
630.50	1214.58
630.84	1206.37
631.19	1198.38
631.53	1190.88
631.88	1183.31
632.22	1175.78
632.57	1168.51
632.91	1160.99
633.26	1153.45
633.60	1145.92
633.95	1138.82
634.29	1131.67
634.64	1125.03
634.98	1117.65
635.32	1110.48
635.67	1103.87
636.01	1097.25
636.36	1090.47
636.70	1083.89
637.05	1077.37
637.39	1070.99
637.73	1064.39
638.08	1058.55
638.42	1052.62
638.77	1046.10
639.11	1039.54
639.45	1033.15
639.80	1026.49
640.14	1019.99
640.49	1013.52
640.83	1007.39
641.17	1001.14
641.52	994.83
641.86	988.32
642.20	982.43
642.55	976.05
642.89	969.54
643.23	963.06
643.58	957.31
643.92	951.20
644.26	945.13
644.61	938.92
644.95	932.89
645.29	926.34
645.64	919.57
645.98	913.26
646.32	907.40
646.66	901.37
647.01	895.58
647.35	889.96
647.69	884.18
648.04	878.56
648.38	872.81
648.72	866.80
649.06	860.82
649.41	854.94
649.75	849.05
650.09	843.10
650.43	837.35
650.78	831.19
651.12	825.27
651.46	819.51
651.80	813.83
652.14	808.50
652.49	803.10
652.83	797.90
653.17	792.23
653.51	786.52
653.85	781.15
654.20	775.43
654.54	769.39
654.88	763.55
655.22	757.67
655.56	752.00
655.90	746.60
656.25	741.31
656.59	735.94
656.93	730.81
657.27	725.70
657.61	720.18
657.95	715.05
658.29	709.94
658.64	704.69
658.98	699.39
659.32	693.92
659.66	688.68
660.00	683.42
660.34	678.42
660.68	673.44
661.02	668.40
661.36	663.75
661.70	659.27
662.05	654.97
662.39	650.61
662.73	646.05
663.07	641.67
663.41	637.15
663.75	632.69
664.09	628.16
664.43	623.72
664.77	619.63
665.11	615.39
665.45	611.21
665.79	607.09
666.13	602.95
666.47	598.78
666.81	594.61
667.15	590.43
667.49	586.53
667.83	582.79
668.17	578.78
668.51	574.73
668.85	570.68
669.19	566.84
669.53	563.03
669.87	559.22
670.21	555.48
670.55	551.88
670.89	548.44
671.23	544.96
671.57	541.49
671.91	537.95
672.25	534.42
672.58	530.91
672.92	527.52
673.26	524.26
673.60	521.13
673.94	518.08
674.28	515.19
674.62	512.20
674.96	509.04
675.30	506.21
675.64	503.26
675.97	500.42
676.31	497.55
676.65	494.59
676.99	491.81
677.33	488.97
677.67	486.09
678.01	483.07
678.34	480.12
678.68	477.17
679.02	474.32
679.36	471.53
679.70	468.79
680.04	466.02
680.37	463.17
680.71	460.41
681.05	457.78
681.39	455.08
681.73	452.47
682.06	449.98
682.40	447.41
682.74	444.90
683.08	442.43
683.42	439.82
683.75	437.34
684.09	434.85
684.43	432.39
684.77	430.00
685.10	427.67
685.44	425.39
685.78	423.13
686.12	420.88
686.45	418.61
686.79	416.34
687.13	414.16
687.46	412.08
687.80	409.89
688.14	407.62
688.48	405.55
688.81	403.28
689.15	401.13
689.49	398.95
689.82	396.84
690.16	394.75
690.50	392.81
690.83	390.84
691.17	388.85
691.51	386.92
691.84	384.99
692.18	383.05
692.52	381.04
692.85	379.09
693.19	377.29
693.52	375.49
693.86	373.62
694.20	371.87
694.53	370.05
694.87	368.20
695.21	366.45
695.54	364.60
695.88	362.87
696.21	361.14
696.55	359.53
696.88	357.85
697.22	356.16
697.56	354.50
697.89	352.85
698.23	351.23
698.56	349.63
698.90	348.08
699.23	346.44
699.57	344.88
699.90	343.34
700.24	341.78
700.58	340.23
700.91	338.78
701.25	337.30
701.58	335.91
701.92	334.57
702.25	333.16
702.59	331.85
702.92	330.55
703.26	329.25
703.59	327.88
703.93	326.71
704.26	325.48
704.60	324.21
704.93	322.93
705.26	321.69
705.60	320.53
705.93	319.41
706.27	318.32
706.60	317.29
706.94	316.19
707.27	315.00
707.61	313.93
707.94	312.90
708.27	311.78
708.61	310.70
708.94	309.69
709.28	308.73
709.61	307.74
709.94	306.81
710.28	305.75
710.61	304.77
710.95	303.65
711.28	302.69
711.61	301.72
711.95	300.81
712.28	299.87
712.61	298.89
712.95	297.90
713.28	297.02
713.61	296.11
713.95	295.25
714.28	294.42
714.61	293.51
714.95	292.65
715.28	291.84
715.61	290.96
715.95	290.07
716.28	289.22
716.61	288.37
716.95	287.53
717.28	286.80
717.61	286.06
717.94	285.32
718.28	284.54
718.61	283.83
718.94	283.15
719.27	282.50
719.61	281.83
719.94	281.14
720.27	280.43
720.60	279.76
720.94	279.13
721.27	278.56
721.60	278.01
721.93	277.42
722.27	276.86
722.60	276.35
722.93	275.82
723.26	275.29
723.59	274.70
723.93	274.13
724.26	273.61
724.59	273.03
724.92	272.55
725.25	272.06
725.59	271.54
725.92	270.98
726.25	270.45
726.58	269.97
726.91	269.53
727.24	269.09
727.57	268.62
727.91	268.14
728.24	267.65
728.57	267.17
728.90	266.73
729.23	266.25
729.56	265.80
729.89	265.31
730.22	264.82
730.55	264.39
730.89	263.94
731.22	263.48
731.55	263.07
731.88	262.62
732.21	262.19
732.54	261.77
732.87	261.41
733.20	261.00
733.53	260.63
733.86	260.29
734.19	259.89
734.52	259.51
734.85	259.20
735.18	258.80
735.51	258.48
735.84	258.07
736.17	257.71
736.50	257.26
736.83	257.02
737.16	256.70
737.49	256.38
737.82	256.07
738.15	255.73
738.48	255.39
738.81	255.05
739.14	254.73
739.47	254.39
739.80	254.04
740.13	253.74
740.46	253.41
740.79	253.04
741.12	252.73
741.45	252.44
741.78	252.07
742.11	251.77
742.44	251.42
742.77	251.15
743.10	250.85
743.43	250.57
743.75	250.20
744.08	250.04
744.41	249.73
744.74	249.43
745.07	249.14
745.40	248.88
745.73	248.67
746.06	248.38
746.39	248.12
746.71	247.85
747.04	247.57
747.37	247.29
747.70	247.06
748.03	246.80
748.36	246.52
748.68	246.28
749.01	246.04
749.34	245.79
749.67	245.58
750.00	245.36
750.33	245.21
750.65	244.97
750.98	244.64
751.31	244.44
751.64	244.26
751.97	244.15
752.29	243.94
752.62	243.69
752.95	243.49
753.28	243.28
753.60	243.10
753.93	242.97
754.26	242.76
754.59	242.52
754.91	242.31
755.24	242.11
755.57	241.91
755.90	241.74
756.22	241.57
756.55	241.33
756.88	241.15
757.20	240.94
757.53	240.74
757.86	240.54
758.19	240.39
758.51	240.23
758.84	239.96
759.17	239.79
759.49	239.63
759.82	239.51
760.15	239.39
760.47	239.22
760.80	239.01
761.13	238.85
761.45	238.71
761.78	238.55
762.11	238.44
762.43	238.27
762.76	238.13
763.08	238.02
763.41	237.91
763.74	237.74
764.06	237.58
764.39	237.47
764.71	237.37
765.04	237.21
765.37	237.04
765.69	236.92
766.02	236.81
766.34	236.68
766.67	236.53
767.00	236.41
767.32	236.31
767.65	236.26
767.97	236.18
768.30	236.09
768.62	236.02
768.95	235.89
769.27	235.78
769.60	235.66
769.92	235.52
770.25	235.42
770.57	235.30
770.90	235.20
771.22	235.11
771.55	235.00
771.87	234.92
772.20	234.86
772.52	234.85
772.85	234.86
773.17	234.77
773.50	234.68
773.82	234.56
774.15	234.50
774.47	234.33
774.80	234.22
775.12	234.15
775.45	234.04
775.77	233.97
776.09	233.91
776.42	233.81
776.74	233.75
777.07	233.66
777.39	233.61
777.72	233.55
778.04	233.46
778.36	233.35
778.69	233.28
779.01	233.20
779.33	233.07
779.66	232.93
779.98	232.85
780.31	232.77
780.63	232.75
780.95	232.63
781.28	232.58
781.60	232.51
781.92	232.42
782.25	232.35
782.57	232.28
782.89	232.22
783.22	232.17
783.54	232.11
783.86	232.07
784.19	232.01
784.51	231.94
784.83	231.89
785.16	231.85
785.48	231.80
785.80	231.74
786.12	231.69
786.45	231.60
786.77	231.54
787.09	231.49
