SpectraSuite Data File
++++++++++++++++++++++++++++++++++++
Date: Fri Feb 01 16:02:15 EST 2013
User: group
Dark Spectrum Present: No
Reference Spectrum Present: No
Number of Sampled Component Spectra: 1
Spectrometers: USB2E7196
Integration Time (usec): 35000 (USB2E7196)
Spectra Averaged: 100 (USB2E7196)
Boxcar Smoothing: 10 (USB2E7196)
Correct for Electrical Dark: No (USB2E7196)
Strobe/Lamp Enabled: No (USB2E7196)
Correct for Detector Non-linearity: No (USB2E7196)
Correct for Stray Light: No (USB2E7196)
Number of Pixels in Processed Spectrum: 2048
>>>>>Begin Processed Spectral Data<<<<<
339.09	0.00
339.48	214.69
339.86	216.53
340.24	217.72
340.63	219.54
341.01	221.56
341.39	221.31
341.78	223.07
342.16	224.07
342.54	224.48
342.93	213.19
343.31	223.96
343.69	224.51
344.07	224.96
344.46	225.36
344.84	225.72
345.22	225.95
345.60	226.20
345.99	226.36
346.37	226.49
346.75	226.60
347.13	226.62
347.52	226.66
347.90	226.74
348.28	226.78
348.66	226.81
349.05	226.83
349.43	226.88
349.81	226.92
350.19	226.94
350.57	226.98
350.96	227.00
351.34	227.07
351.72	227.14
352.10	227.23
352.48	227.31
352.87	227.36
353.25	227.43
353.63	227.52
354.01	227.58
354.39	227.65
354.77	227.72
355.15	227.84
355.54	227.90
355.92	227.97
356.30	228.04
356.68	228.17
357.06	228.21
357.44	228.25
357.82	228.33
358.20	228.40
358.58	228.45
358.97	228.53
359.35	228.60
359.73	228.65
360.11	228.70
360.49	228.77
360.87	228.82
361.25	228.87
361.63	228.95
362.01	229.02
362.39	229.06
362.77	229.10
363.15	229.13
363.53	229.18
363.91	229.20
364.29	229.24
364.67	229.15
365.05	229.19
365.43	229.21
365.81	229.22
366.19	229.25
366.57	229.28
366.95	229.28
367.33	229.26
367.71	229.29
368.09	229.31
368.47	229.29
368.85	229.29
369.23	229.28
369.61	229.20
369.99	229.20
370.37	229.17
370.75	229.18
371.13	229.11
371.51	229.03
371.89	228.99
372.27	228.95
372.65	228.92
373.03	228.83
373.41	228.76
373.78	228.69
374.16	228.60
374.54	228.54
374.92	228.45
375.30	228.40
375.68	228.28
376.06	228.20
376.44	228.13
376.82	228.05
377.19	227.99
377.57	227.91
377.95	227.81
378.33	227.74
378.71	227.64
379.09	227.58
379.47	227.54
379.84	227.46
380.22	227.38
380.60	227.29
380.98	227.23
381.36	227.17
381.73	227.10
382.11	227.05
382.49	226.97
382.87	226.91
383.25	226.85
383.62	226.92
384.00	226.83
384.38	226.78
384.76	226.74
385.13	226.70
385.51	226.66
385.89	226.59
386.27	226.54
386.64	226.46
387.02	226.42
387.40	226.35
387.78	226.33
388.15	226.27
388.53	226.22
388.91	226.14
389.29	226.10
389.66	226.11
390.04	226.04
390.42	226.05
390.79	226.05
391.17	226.02
391.55	225.90
391.92	225.86
392.30	225.86
392.68	225.84
393.05	225.84
393.43	225.86
393.81	225.85
394.18	225.87
394.56	225.92
394.94	225.94
395.31	225.94
395.69	225.97
396.06	226.02
396.44	226.09
396.82	226.16
397.19	226.23
397.57	226.20
397.95	226.32
398.32	226.29
398.70	226.34
399.07	226.38
399.45	226.41
399.82	226.50
400.20	226.54
400.58	226.65
400.95	226.70
401.33	226.81
401.70	226.98
402.08	227.04
402.45	227.12
402.83	227.25
403.20	227.37
403.58	227.47
403.95	227.61
404.33	227.69
404.71	227.83
405.08	228.00
405.46	228.17
405.83	228.29
406.21	228.50
406.58	228.65
406.96	228.83
407.33	228.99
407.70	229.19
408.08	229.46
408.45	229.67
408.83	229.88
409.20	230.10
409.58	230.26
409.95	230.53
410.33	230.81
410.70	231.04
411.08	231.36
411.45	231.66
411.82	231.93
412.20	232.32
412.57	232.74
412.95	233.08
413.32	233.49
413.69	233.90
414.07	234.33
414.44	234.82
414.82	235.29
415.19	235.89
415.56	236.42
415.94	236.95
416.31	237.59
416.68	238.27
417.06	238.97
417.43	239.69
417.81	240.45
418.18	241.22
418.55	242.07
418.93	242.94
419.30	243.84
419.67	244.80
420.04	245.76
420.42	246.72
420.79	247.91
421.16	249.08
421.54	250.30
421.91	251.52
422.28	252.75
422.66	254.13
423.03	255.43
423.40	256.73
423.77	258.16
424.15	259.57
424.52	261.01
424.89	262.64
425.26	264.16
425.64	265.63
426.01	267.25
426.38	268.91
426.75	270.58
427.13	272.28
427.50	274.10
427.87	276.00
428.24	277.84
428.61	279.56
428.99	281.51
429.36	283.60
429.73	285.65
430.10	287.73
430.47	289.79
430.85	291.90
431.22	294.18
431.59	296.56
431.96	298.82
432.33	301.35
432.70	303.72
433.08	306.54
433.45	309.15
433.82	311.76
434.19	314.62
434.56	317.47
434.93	320.13
435.30	322.72
435.68	325.58
436.05	328.42
436.42	331.24
436.79	333.77
437.16	336.47
437.53	339.30
437.90	342.08
438.27	344.78
438.64	347.59
439.01	350.22
439.38	352.43
439.75	354.59
440.13	357.06
440.50	359.36
440.87	361.21
441.24	363.17
441.61	365.31
441.98	366.77
442.35	368.49
442.72	370.38
443.09	372.20
443.46	373.21
443.83	373.78
444.20	374.26
444.57	375.07
444.94	375.34
445.31	375.69
445.68	376.01
446.05	376.04
446.42	375.67
446.79	375.23
447.16	374.76
447.53	374.43
447.90	373.23
448.27	372.09
448.64	370.50
449.01	369.29
449.37	367.31
449.74	365.45
450.11	363.19
450.48	360.67
450.85	358.10
451.22	355.91
451.59	353.94
451.96	351.98
452.33	349.36
452.70	346.94
453.07	344.06
453.43	341.16
453.80	338.47
454.17	335.79
454.54	333.24
454.91	330.56
455.28	327.89
455.65	325.39
456.02	322.88
456.38	320.77
456.75	318.20
457.12	315.99
457.49	313.75
457.86	311.65
458.23	309.80
458.59	307.79
458.96	305.77
459.33	303.90
459.70	302.07
460.07	300.60
460.43	298.94
460.80	297.39
461.17	295.93
461.54	294.46
461.91	293.05
462.27	291.61
462.64	290.38
463.01	289.02
463.38	287.81
463.74	286.51
464.11	285.36
464.48	284.32
464.85	283.22
465.21	282.38
465.58	281.44
465.95	280.40
466.32	279.48
466.68	278.56
467.05	277.64
467.42	276.74
467.78	275.79
468.15	274.94
468.52	274.22
468.88	273.42
469.25	272.66
469.62	272.08
469.98	271.41
470.35	270.77
470.72	270.20
471.08	269.48
471.45	268.90
471.82	268.31
472.18	267.70
472.55	267.23
472.92	266.70
473.28	266.25
473.65	265.75
474.02	265.31
474.38	264.98
474.75	264.65
475.11	264.33
475.48	264.10
475.85	263.88
476.21	263.69
476.58	263.49
476.94	263.31
477.31	263.09
477.67	262.95
478.04	262.86
478.41	262.80
478.77	262.87
479.14	262.81
479.50	262.82
479.87	262.93
480.23	263.04
480.60	263.11
480.96	263.21
481.33	263.44
481.69	263.68
482.06	263.87
482.42	264.13
482.79	264.35
483.15	264.67
483.52	264.99
483.88	265.32
484.25	265.71
484.61	266.16
484.98	266.65
485.34	267.19
485.71	267.74
486.07	268.34
486.44	268.89
486.80	269.62
487.17	270.37
487.53	271.19
487.90	272.02
488.26	272.96
488.62	273.92
488.99	274.89
489.35	275.91
489.72	277.02
490.08	278.18
490.44	279.45
490.81	280.76
491.17	282.16
491.54	283.66
491.90	285.21
492.26	286.83
492.63	288.56
492.99	290.38
493.36	292.27
493.72	294.35
494.08	296.48
494.45	298.74
494.81	301.05
495.17	303.47
495.54	306.02
495.90	308.69
496.26	311.52
496.63	314.49
496.99	317.59
497.35	320.84
497.72	324.26
498.08	327.74
498.44	331.41
498.80	335.29
499.17	339.35
499.53	343.50
499.89	347.88
500.26	352.38
500.62	357.07
500.98	362.06
501.34	367.10
501.71	372.43
502.07	377.86
502.43	383.52
502.79	389.33
503.16	395.47
503.52	401.81
503.88	408.22
504.24	414.84
504.60	421.75
504.97	428.89
505.33	436.20
505.69	443.93
506.05	451.71
506.41	459.63
506.78	467.77
507.14	476.28
507.50	485.00
507.86	494.03
508.22	503.18
508.59	512.34
508.95	521.93
509.31	531.72
509.67	541.85
510.03	552.16
510.39	562.74
510.75	573.48
511.12	584.39
511.48	595.69
511.84	607.17
512.20	618.74
512.56	630.75
512.92	643.03
513.28	655.36
513.64	667.87
514.00	680.58
514.37	693.60
514.73	706.62
515.09	719.65
515.45	732.93
515.81	746.57
516.17	760.61
516.53	774.73
516.89	788.94
517.25	803.09
517.61	817.53
517.97	831.99
518.33	846.41
518.69	861.21
519.05	876.22
519.41	891.44
519.77	906.96
520.13	922.37
520.49	937.65
520.85	953.17
521.21	968.95
521.57	985.09
521.93	1000.65
522.29	1017.10
522.65	1033.33
523.01	1049.52
523.37	1065.52
523.73	1081.54
524.09	1097.55
524.45	1113.83
524.81	1130.50
525.17	1147.17
525.53	1164.01
525.89	1180.86
526.25	1197.57
526.61	1213.86
526.97	1230.49
527.33	1246.91
527.68	1263.46
528.04	1279.91
528.40	1296.44
528.76	1313.27
529.12	1329.89
529.48	1346.85
529.84	1362.78
530.20	1379.43
530.56	1396.45
530.91	1413.80
531.27	1430.71
531.63	1447.12
531.99	1463.55
532.35	1479.42
532.71	1495.43
533.07	1511.61
533.42	1527.45
533.78	1543.48
534.14	1559.74
534.50	1575.11
534.86	1590.86
535.21	1606.04
535.57	1621.95
535.93	1637.42
536.29	1652.34
536.65	1667.36
537.00	1682.08
537.36	1697.23
537.72	1711.69
538.08	1726.07
538.44	1739.80
538.79	1753.54
539.15	1767.20
539.51	1780.90
539.87	1795.26
540.22	1808.84
540.58	1822.67
540.94	1835.92
541.29	1848.90
541.65	1861.57
542.01	1874.73
542.37	1887.12
542.72	1899.47
543.08	1911.22
543.44	1923.47
543.79	1934.61
544.15	1945.60
544.51	1957.07
544.87	1968.21
545.22	1979.02
545.58	1989.10
545.94	1998.81
546.29	2008.70
546.65	2018.68
547.01	2028.04
547.36	2036.66
547.72	2045.22
548.07	2052.95
548.43	2061.22
548.79	2069.18
549.14	2076.68
549.50	2084.08
549.86	2091.57
550.21	2098.84
550.57	2106.03
550.92	2112.65
551.28	2119.67
551.64	2126.67
551.99	2133.23
552.35	2139.29
552.70	2145.43
553.06	2151.56
553.41	2157.94
553.77	2163.97
554.13	2170.01
554.48	2176.06
554.84	2181.49
555.19	2186.85
555.55	2191.97
555.90	2196.43
556.26	2201.30
556.61	2205.95
556.97	2210.20
557.32	2214.47
557.68	2218.68
558.03	2222.95
558.39	2226.59
558.74	2231.24
559.10	2235.14
559.45	2238.83
559.81	2243.15
560.16	2246.91
560.52	2250.17
560.87	2253.56
561.23	2256.35
561.58	2259.19
561.94	2261.71
562.29	2264.16
562.64	2266.65
563.00	2269.34
563.35	2272.81
563.71	2275.97
564.06	2279.45
564.42	2282.23
564.77	2284.74
565.12	2287.00
565.48	2289.11
565.83	2290.92
566.19	2292.15
566.54	2293.05
566.89	2294.23
567.25	2294.67
567.60	2296.07
567.96	2297.65
568.31	2298.70
568.66	2299.75
569.02	2300.38
569.37	2300.71
569.72	2301.55
570.08	2301.71
570.43	2301.88
570.78	2301.26
571.14	2299.59
571.49	2298.14
571.84	2297.88
572.20	2296.70
572.55	2295.71
572.90	2293.97
573.26	2292.76
573.61	2291.24
573.96	2289.50
574.31	2286.50
574.67	2283.70
575.02	2280.19
575.37	2276.82
575.72	2272.87
576.08	2269.55
576.43	2266.31
576.78	2262.73
577.13	2259.54
577.49	2256.53
577.84	2253.00
578.19	2249.36
578.54	2245.76
578.90	2241.40
579.25	2235.81
579.60	2230.77
579.95	2225.70
580.30	2220.66
580.66	2215.46
581.01	2210.50
581.36	2205.57
581.71	2201.35
582.06	2196.76
582.42	2192.23
582.77	2187.10
583.12	2182.65
583.47	2177.87
583.82	2172.77
584.17	2167.47
584.53	2162.04
584.88	2156.38
585.23	2150.49
585.58	2145.09
585.93	2139.73
586.28	2135.06
586.63	2130.03
586.98	2125.15
587.34	2120.58
587.69	2115.88
588.04	2110.50
588.39	2104.77
588.74	2098.40
589.09	2092.42
589.44	2085.73
589.79	2079.72
590.14	2074.15
590.49	2067.54
590.84	2061.15
591.19	2055.24
591.54	2048.73
591.89	2041.24
592.25	2034.50
592.60	2027.35
592.95	2019.65
593.30	2012.28
593.65	2004.65
594.00	1997.61
594.35	1990.47
594.70	1982.43
595.05	1975.13
595.40	1967.88
595.75	1960.42
596.10	1954.12
596.45	1947.33
596.80	1941.17
597.15	1934.44
597.50	1927.21
597.85	1920.85
598.19	1914.16
598.54	1906.94
598.89	1900.44
599.24	1894.74
599.59	1887.95
599.94	1881.80
600.29	1875.50
600.64	1868.95
600.99	1861.58
601.34	1854.80
601.69	1847.76
602.04	1840.84
602.39	1833.53
602.74	1826.74
603.08	1819.99
603.43	1813.40
603.78	1806.11
604.13	1798.92
604.48	1791.63
604.83	1784.76
605.18	1777.62
605.53	1769.59
605.87	1761.59
606.22	1754.30
606.57	1746.29
606.92	1739.02
607.27	1731.84
607.62	1724.93
607.96	1717.66
608.31	1711.06
608.66	1703.47
609.01	1695.81
609.36	1688.13
609.70	1680.05
610.05	1671.94
610.40	1664.10
610.75	1655.67
611.10	1647.99
611.44	1639.44
611.79	1631.53
612.14	1622.90
612.49	1613.69
612.83	1605.31
613.18	1597.21
613.53	1589.15
613.88	1580.61
614.22	1572.35
614.57	1563.77
614.92	1555.69
615.27	1547.99
615.61	1539.60
615.96	1531.60
616.31	1524.09
616.65	1516.87
617.00	1509.24
617.35	1501.75
617.70	1493.56
618.04	1485.11
618.39	1476.86
618.74	1469.40
619.08	1461.09
619.43	1453.52
619.78	1446.66
620.12	1439.57
620.47	1432.04
620.82	1423.85
621.16	1416.44
621.51	1408.98
621.85	1401.33
622.20	1392.84
622.55	1384.58
622.89	1376.72
623.24	1369.06
623.59	1361.54
623.93	1353.91
624.28	1346.79
624.62	1339.14
624.97	1331.94
625.32	1325.24
625.66	1318.14
626.01	1310.84
626.35	1303.38
626.70	1295.60
627.04	1287.98
627.39	1280.14
627.73	1272.72
628.08	1265.78
628.43	1258.53
628.77	1250.96
629.12	1243.30
629.46	1236.14
629.81	1228.75
630.15	1221.59
630.50	1214.14
630.84	1206.01
631.19	1198.00
631.53	1190.47
631.88	1183.04
632.22	1175.45
632.57	1168.00
632.91	1160.54
633.26	1153.21
633.60	1145.84
633.95	1138.86
634.29	1131.82
634.64	1125.22
634.98	1117.98
635.32	1110.76
635.67	1104.09
636.01	1097.38
636.36	1090.59
636.70	1084.06
637.05	1077.44
637.39	1070.90
637.73	1064.34
638.08	1058.43
638.42	1052.51
638.77	1046.11
639.11	1039.41
639.45	1032.98
639.80	1026.35
640.14	1019.95
640.49	1013.38
640.83	1007.09
641.17	1000.73
641.52	994.30
641.86	987.83
642.20	981.94
642.55	975.76
642.89	969.23
643.23	962.89
643.58	957.18
643.92	950.94
644.26	944.89
644.61	938.89
644.95	932.92
645.29	926.30
645.64	919.62
645.98	913.25
646.32	907.46
646.66	901.46
647.01	895.69
647.35	889.91
647.69	884.12
648.04	878.58
648.38	872.82
648.72	866.88
649.06	860.72
649.41	854.75
649.75	848.73
650.09	842.85
650.43	836.94
650.78	830.81
651.12	824.95
651.46	819.21
651.80	813.46
652.14	808.04
652.49	802.65
652.83	797.51
653.17	791.74
653.51	785.94
653.85	780.61
654.20	774.91
654.54	768.88
654.88	763.07
655.22	757.09
655.56	751.46
655.90	745.97
656.25	740.80
656.59	735.51
656.93	730.47
657.27	725.31
657.61	719.93
657.95	714.78
658.29	709.69
658.64	704.41
658.98	699.08
659.32	693.62
659.66	688.44
660.00	683.06
660.34	678.11
660.68	673.24
661.02	668.14
661.36	663.43
661.70	658.95
662.05	654.64
662.39	650.30
662.73	645.82
663.07	641.43
663.41	636.97
663.75	632.43
664.09	627.80
664.43	623.38
664.77	619.24
665.11	614.96
665.45	610.89
665.79	606.83
666.13	602.76
666.47	598.61
666.81	594.50
667.15	590.40
667.49	586.56
667.83	582.71
668.17	578.78
668.51	574.68
668.85	570.66
669.19	566.81
669.53	563.05
669.87	559.14
670.21	555.47
670.55	551.82
670.89	548.41
671.23	544.97
671.57	541.46
671.91	537.92
672.25	534.44
672.58	530.83
672.92	527.40
673.26	524.22
673.60	521.17
673.94	517.97
674.28	515.09
674.62	512.12
674.96	509.02
675.30	506.10
675.64	503.25
675.97	500.45
676.31	497.56
676.65	494.58
676.99	491.82
677.33	488.97
677.67	486.11
678.01	483.09
678.34	480.12
678.68	477.29
679.02	474.48
679.36	471.75
679.70	469.05
680.04	466.30
680.37	463.41
680.71	460.57
681.05	457.95
681.39	455.19
681.73	452.52
682.06	450.00
682.40	447.42
682.74	444.88
683.08	442.33
683.42	439.79
683.75	437.32
684.09	434.79
684.43	432.30
684.77	429.85
685.10	427.50
685.44	425.19
685.78	422.85
686.12	420.61
686.45	418.26
686.79	415.89
687.13	413.72
687.46	411.55
687.80	409.38
688.14	407.22
688.48	405.17
688.81	402.92
689.15	400.75
689.49	398.62
689.82	396.53
690.16	394.49
690.50	392.46
690.83	390.48
691.17	388.50
691.51	386.56
691.84	384.75
692.18	382.77
692.52	380.76
692.85	378.84
693.19	376.90
693.52	375.11
693.86	373.34
694.20	371.55
694.53	369.73
694.87	367.89
695.21	366.08
695.54	364.27
695.88	362.52
696.21	360.86
696.55	359.18
696.88	357.52
697.22	355.84
697.56	354.29
697.89	352.63
698.23	351.01
698.56	349.43
698.90	347.85
699.23	346.24
699.57	344.69
699.90	343.11
700.24	341.62
700.58	340.05
700.91	338.52
701.25	337.06
701.58	335.69
701.92	334.31
702.25	332.92
702.59	331.52
702.92	330.19
703.26	328.85
703.59	327.53
703.93	326.35
704.26	325.12
704.60	323.79
704.93	322.54
705.26	321.30
705.60	320.09
705.93	318.88
706.27	317.81
706.60	316.80
706.94	315.73
707.27	314.57
707.61	313.53
707.94	312.54
708.27	311.44
708.61	310.36
708.94	309.34
709.28	308.41
709.61	307.50
709.94	306.56
710.28	305.58
710.61	304.63
710.95	303.55
711.28	302.65
711.61	301.70
711.95	300.79
712.28	299.84
712.61	298.90
712.95	298.00
713.28	297.16
713.61	296.20
713.95	295.36
714.28	294.53
714.61	293.70
714.95	292.86
715.28	292.01
715.61	291.16
715.95	290.32
716.28	289.44
716.61	288.59
716.95	287.77
717.28	287.03
717.61	286.27
717.94	285.50
718.28	284.66
718.61	283.91
718.94	283.20
719.27	282.56
719.61	281.92
719.94	281.27
720.27	280.56
720.60	279.94
720.94	279.30
721.27	278.72
721.60	278.13
721.93	277.54
722.27	277.01
722.60	276.46
722.93	275.91
723.26	275.41
723.59	274.85
723.93	274.31
724.26	273.76
724.59	273.18
724.92	272.69
725.25	272.22
725.59	271.72
725.92	271.19
726.25	270.64
726.58	270.12
726.91	269.65
727.24	269.17
727.57	268.68
727.91	268.16
728.24	267.67
728.57	267.19
728.90	266.72
729.23	266.19
729.56	265.76
729.89	265.30
730.22	264.77
730.55	264.30
730.89	263.85
731.22	263.38
731.55	262.95
731.88	262.49
732.21	262.03
732.54	261.57
732.87	261.17
733.20	260.80
733.53	260.42
733.86	260.00
734.19	259.59
734.52	259.25
734.85	258.93
735.18	258.57
735.51	258.18
735.84	257.82
736.17	257.49
736.50	257.08
736.83	256.82
737.16	256.48
737.49	256.15
737.82	255.80
738.15	255.46
738.48	255.13
738.81	254.80
739.14	254.47
739.47	254.16
739.80	253.83
740.13	253.54
740.46	253.19
740.79	252.86
741.12	252.58
741.45	252.25
741.78	251.89
742.11	251.57
742.44	251.25
742.77	250.96
743.10	250.66
743.43	250.40
743.75	249.99
744.08	249.85
744.41	249.58
744.74	249.28
745.07	248.99
745.40	248.73
745.73	248.50
746.06	248.26
746.39	248.03
746.71	247.80
747.04	247.52
747.37	247.28
747.70	247.04
748.03	246.78
748.36	246.57
748.68	246.36
749.01	246.11
749.34	245.90
749.67	245.66
750.00	245.45
750.33	245.29
750.65	245.09
750.98	244.74
751.31	244.53
751.64	244.35
751.97	244.23
752.29	244.01
752.62	243.78
752.95	243.59
753.28	243.32
753.60	243.11
753.93	242.94
754.26	242.73
754.59	242.50
754.91	242.28
755.24	242.08
755.57	241.89
755.90	241.70
756.22	241.51
756.55	241.33
756.88	241.11
757.20	240.87
757.53	240.68
757.86	240.55
758.19	240.38
758.51	240.24
758.84	240.04
759.17	239.89
759.49	239.75
759.82	239.61
760.15	239.53
760.47	239.38
760.80	239.19
761.13	239.11
761.45	238.97
761.78	238.84
762.11	238.70
762.43	238.56
762.76	238.41
763.08	238.32
763.41	238.17
763.74	238.06
764.06	237.94
764.39	237.81
764.71	237.65
765.04	237.58
765.37	237.41
765.69	237.24
766.02	237.09
766.34	236.96
766.67	236.81
767.00	236.68
767.32	236.64
767.65	236.61
767.97	236.48
768.30	236.37
768.62	236.27
768.95	236.14
769.27	236.03
769.60	235.94
769.92	235.77
770.25	235.64
770.57	235.53
770.90	235.40
771.22	235.31
771.55	235.24
771.87	235.11
772.20	234.98
772.52	234.99
772.85	235.00
773.17	234.89
773.50	234.80
773.82	234.71
774.15	234.51
774.47	234.32
774.80	234.22
775.12	234.07
775.45	233.99
775.77	233.90
776.09	233.81
776.42	233.70
776.74	233.67
777.07	233.59
777.39	233.51
777.72	233.39
778.04	233.29
778.36	233.20
778.69	233.10
779.01	233.06
779.33	232.88
779.66	232.74
779.98	232.65
780.31	232.55
780.63	232.50
780.95	232.44
781.28	232.41
781.60	232.33
781.92	232.30
782.25	232.18
782.57	232.10
782.89	232.04
783.22	231.99
783.54	231.92
783.86	231.84
784.19	231.78
784.51	231.80
784.83	231.73
785.16	231.65
785.48	231.61
785.80	231.56
786.12	231.54
786.45	231.45
786.77	231.43
787.09	231.39
