SpectraSuite Data File
++++++++++++++++++++++++++++++++++++
Date: Fri Feb 01 15:45:48 EST 2013
User: group
Dark Spectrum Present: No
Reference Spectrum Present: No
Number of Sampled Component Spectra: 1
Spectrometers: USB2E7196
Integration Time (usec): 35000 (USB2E7196)
Spectra Averaged: 100 (USB2E7196)
Boxcar Smoothing: 10 (USB2E7196)
Correct for Electrical Dark: No (USB2E7196)
Strobe/Lamp Enabled: No (USB2E7196)
Correct for Detector Non-linearity: No (USB2E7196)
Correct for Stray Light: No (USB2E7196)
Number of Pixels in Processed Spectrum: 2048
>>>>>Begin Processed Spectral Data<<<<<
339.09	0.00
339.48	215.02
339.86	216.42
340.24	217.53
340.63	219.76
341.01	222.04
341.39	222.05
341.78	223.17
342.16	224.10
342.54	224.40
342.93	213.16
343.31	223.92
343.69	224.46
344.07	224.94
344.46	225.37
344.84	225.70
345.22	225.92
345.60	226.16
345.99	226.35
346.37	226.46
346.75	226.59
347.13	226.62
347.52	226.68
347.90	226.76
348.28	226.80
348.66	226.81
349.05	226.83
349.43	226.89
349.81	226.90
350.19	226.95
350.57	227.01
350.96	227.08
351.34	227.17
351.72	227.23
352.10	227.31
352.48	227.40
352.87	227.45
353.25	227.51
353.63	227.57
354.01	227.62
354.39	227.73
354.77	227.82
355.15	227.94
355.54	228.01
355.92	228.04
356.30	228.10
356.68	228.25
357.06	228.33
357.44	228.37
357.82	228.45
358.20	228.51
358.58	228.56
358.97	228.61
359.35	228.68
359.73	228.76
360.11	228.77
360.49	228.78
360.87	228.86
361.25	228.91
361.63	228.99
362.01	229.03
362.39	229.05
362.77	229.07
363.15	229.11
363.53	229.14
363.91	229.20
364.29	229.23
364.67	229.17
365.05	229.19
365.43	229.20
365.81	229.20
366.19	229.26
366.57	229.31
366.95	229.35
367.33	229.34
367.71	229.34
368.09	229.37
368.47	229.35
368.85	229.33
369.23	229.33
369.61	229.27
369.99	229.29
370.37	229.25
370.75	229.28
371.13	229.19
371.51	229.14
371.89	229.09
372.27	229.06
372.65	229.02
373.03	228.97
373.41	228.90
373.78	228.85
374.16	228.71
374.54	228.63
374.92	228.54
375.30	228.48
375.68	228.38
376.06	228.33
376.44	228.27
376.82	228.21
377.19	228.12
377.57	228.05
377.95	227.94
378.33	227.87
378.71	227.71
379.09	227.68
379.47	227.62
379.84	227.52
380.22	227.40
380.60	227.30
380.98	227.21
381.36	227.17
381.73	227.09
382.11	227.04
382.49	226.98
382.87	226.90
383.25	226.83
383.62	226.89
384.00	226.79
384.38	226.74
384.76	226.70
385.13	226.69
385.51	226.67
385.89	226.62
386.27	226.57
386.64	226.55
387.02	226.53
387.40	226.47
387.78	226.45
388.15	226.44
388.53	226.45
388.91	226.43
389.29	226.38
389.66	226.36
390.04	226.33
390.42	226.31
390.79	226.27
391.17	226.24
391.55	226.12
391.92	226.12
392.30	226.15
392.68	226.13
393.05	226.11
393.43	226.08
393.81	226.07
394.18	226.10
394.56	226.13
394.94	226.16
395.31	226.19
395.69	226.23
396.06	226.27
396.44	226.29
396.82	226.31
397.19	226.38
397.57	226.41
397.95	226.46
398.32	226.50
398.70	226.57
399.07	226.66
399.45	226.72
399.82	226.78
400.20	226.82
400.58	226.89
400.95	226.93
401.33	227.03
401.70	227.22
402.08	227.29
402.45	227.38
402.83	227.46
403.20	227.54
403.58	227.65
403.95	227.76
404.33	227.90
404.71	228.01
405.08	228.23
405.46	228.38
405.83	228.56
406.21	228.72
406.58	228.88
406.96	229.05
407.33	229.23
407.70	229.43
408.08	229.69
408.45	229.92
408.83	230.20
409.20	230.41
409.58	230.57
409.95	230.83
410.33	231.09
410.70	231.34
411.08	231.68
411.45	231.99
411.82	232.32
412.20	232.67
412.57	233.12
412.95	233.36
413.32	233.78
413.69	234.14
414.07	234.55
414.44	235.04
414.82	235.51
415.19	236.05
415.56	236.59
415.94	237.16
416.31	237.78
416.68	238.39
417.06	239.12
417.43	239.78
417.81	240.56
418.18	241.36
418.55	242.19
418.93	243.04
419.30	243.92
419.67	244.84
420.04	245.77
420.42	246.73
420.79	247.94
421.16	249.09
421.54	250.32
421.91	251.58
422.28	252.84
422.66	254.18
423.03	255.50
423.40	256.85
423.77	258.23
424.15	259.65
424.52	261.14
424.89	262.74
425.26	264.30
425.64	265.75
426.01	267.32
426.38	269.01
426.75	270.69
427.13	272.42
427.50	274.19
427.87	276.08
428.24	277.96
428.61	279.70
428.99	281.64
429.36	283.72
429.73	285.74
430.10	287.75
430.47	289.84
430.85	291.93
431.22	294.14
431.59	296.52
431.96	298.76
432.33	301.26
432.70	303.63
433.08	306.46
433.45	309.10
433.82	311.70
434.19	314.55
434.56	317.33
434.93	319.96
435.30	322.60
435.68	325.49
436.05	328.30
436.42	331.08
436.79	333.57
437.16	336.26
437.53	339.07
437.90	341.84
438.27	344.57
438.64	347.45
439.01	350.04
439.38	352.26
439.75	354.46
440.13	356.94
440.50	359.32
440.87	361.13
441.24	363.09
441.61	365.29
441.98	366.81
442.35	368.61
442.72	370.45
443.09	372.25
443.46	373.25
443.83	373.88
444.20	374.38
444.57	375.25
444.94	375.59
445.31	375.96
445.68	376.32
446.05	376.34
446.42	375.94
446.79	375.57
447.16	375.14
447.53	374.79
447.90	373.61
448.27	372.41
448.64	370.85
449.01	369.72
449.37	367.72
449.74	365.83
450.11	363.60
450.48	361.16
450.85	358.68
451.22	356.52
451.59	354.49
451.96	352.53
452.33	349.92
452.70	347.51
453.07	344.66
453.43	341.78
453.80	339.02
454.17	336.34
454.54	333.78
454.91	331.07
455.28	328.41
455.65	325.91
456.02	323.47
456.38	321.32
456.75	318.63
457.12	316.35
457.49	314.13
457.86	311.95
458.23	310.09
458.59	308.03
458.96	305.94
459.33	304.09
459.70	302.23
460.07	300.73
460.43	299.04
460.80	297.46
461.17	296.05
461.54	294.58
461.91	293.15
462.27	291.67
462.64	290.46
463.01	289.10
463.38	287.79
463.74	286.43
464.11	285.25
464.48	284.24
464.85	283.18
465.21	282.31
465.58	281.38
465.95	280.29
466.32	279.38
466.68	278.50
467.05	277.59
467.42	276.73
467.78	275.81
468.15	274.93
468.52	274.31
468.88	273.43
469.25	272.66
469.62	272.05
469.98	271.41
470.35	270.75
470.72	270.14
471.08	269.51
471.45	268.95
471.82	268.43
472.18	267.79
472.55	267.33
472.92	266.82
473.28	266.37
473.65	265.91
474.02	265.43
474.38	265.09
474.75	264.77
475.11	264.41
475.48	264.12
475.85	263.89
476.21	263.63
476.58	263.45
476.94	263.29
477.31	263.14
477.67	263.00
478.04	262.90
478.41	262.84
478.77	262.89
479.14	262.86
479.50	262.82
479.87	262.94
480.23	263.05
480.60	263.11
480.96	263.19
481.33	263.42
481.69	263.66
482.06	263.84
482.42	264.05
482.79	264.28
483.15	264.61
483.52	264.99
483.88	265.34
484.25	265.73
484.61	266.16
484.98	266.61
485.34	267.11
485.71	267.68
486.07	268.31
486.44	268.88
486.80	269.56
487.17	270.31
487.53	271.13
487.90	271.94
488.26	272.87
488.62	273.89
488.99	274.84
489.35	275.85
489.72	276.96
490.08	278.16
490.44	279.43
490.81	280.76
491.17	282.11
491.54	283.55
491.90	285.11
492.26	286.75
492.63	288.50
492.99	290.31
493.36	292.24
493.72	294.31
494.08	296.42
494.45	298.67
494.81	301.06
495.17	303.48
495.54	306.09
495.90	308.76
496.26	311.56
496.63	314.53
496.99	317.68
497.35	320.97
497.72	324.34
498.08	327.86
498.44	331.56
498.80	335.51
499.17	339.56
499.53	343.72
499.89	348.10
500.26	352.58
500.62	357.30
500.98	362.22
501.34	367.28
501.71	372.63
502.07	378.06
502.43	383.67
502.79	389.51
503.16	395.57
503.52	401.85
503.88	408.24
504.24	414.90
504.60	421.82
504.97	428.94
505.33	436.39
505.69	444.11
506.05	451.88
506.41	459.71
506.78	467.89
507.14	476.33
507.50	485.09
507.86	494.15
508.22	503.30
508.59	512.51
508.95	522.14
509.31	531.90
509.67	541.98
510.03	552.24
510.39	562.74
510.75	573.56
511.12	584.53
511.48	595.85
511.84	607.30
512.20	618.79
512.56	630.75
512.92	642.81
513.28	655.18
513.64	667.69
514.00	680.46
514.37	693.44
514.73	706.56
515.09	719.58
515.45	732.88
515.81	746.54
516.17	760.57
516.53	774.65
516.89	788.87
517.25	803.09
517.61	817.60
517.97	832.08
518.33	846.53
518.69	861.25
519.05	876.15
519.41	891.36
519.77	906.90
520.13	922.31
520.49	937.75
520.85	953.12
521.21	968.88
521.57	985.12
521.93	1000.87
522.29	1017.20
522.65	1033.52
523.01	1049.76
523.37	1065.82
523.73	1081.91
524.09	1098.00
524.45	1114.40
524.81	1131.01
525.17	1147.91
525.53	1164.85
525.89	1181.73
526.25	1198.57
526.61	1215.08
526.97	1231.77
527.33	1248.28
527.68	1264.82
528.04	1281.32
528.40	1297.97
528.76	1314.93
529.12	1331.47
529.48	1348.30
529.84	1364.36
530.20	1380.91
530.56	1397.92
530.91	1415.30
531.27	1432.20
531.63	1448.78
531.99	1465.23
532.35	1481.17
532.71	1496.93
533.07	1513.21
533.42	1529.09
533.78	1545.10
534.14	1561.28
534.50	1576.70
534.86	1592.55
535.21	1607.86
535.57	1623.87
535.93	1639.35
536.29	1654.18
536.65	1669.16
537.00	1683.96
537.36	1699.27
537.72	1713.83
538.08	1728.21
538.44	1741.99
538.79	1755.74
539.15	1769.36
539.51	1783.08
539.87	1797.47
540.22	1811.30
540.58	1825.02
540.94	1838.38
541.29	1851.44
541.65	1864.26
542.01	1877.40
542.37	1889.71
542.72	1902.14
543.08	1913.75
543.44	1926.06
543.79	1937.22
544.15	1948.41
544.51	1960.02
544.87	1971.00
545.22	1981.78
545.58	1991.87
545.94	2001.52
546.29	2011.32
546.65	2021.14
547.01	2030.43
547.36	2039.22
547.72	2047.50
548.07	2055.30
548.43	2063.46
548.79	2071.60
549.14	2079.06
549.50	2086.53
549.86	2094.27
550.21	2101.38
550.57	2108.60
550.92	2115.23
551.28	2122.26
551.64	2129.17
551.99	2135.51
552.35	2141.57
552.70	2147.72
553.06	2153.79
553.41	2160.22
553.77	2166.37
554.13	2172.49
554.48	2178.54
554.84	2183.77
555.19	2189.16
555.55	2194.31
555.90	2198.76
556.26	2203.41
556.61	2208.10
556.97	2212.28
557.32	2216.31
557.68	2220.45
558.03	2224.69
558.39	2228.42
558.74	2233.08
559.10	2236.92
559.45	2240.80
559.81	2245.29
560.16	2249.15
560.52	2252.38
560.87	2255.72
561.23	2258.34
561.58	2261.26
561.94	2263.89
562.29	2266.49
562.64	2269.04
563.00	2271.59
563.35	2275.01
563.71	2278.09
564.06	2281.34
564.42	2284.15
564.77	2286.63
565.12	2289.08
565.48	2291.01
565.83	2292.83
566.19	2294.15
566.54	2295.18
566.89	2296.13
567.25	2296.55
567.60	2297.83
567.96	2299.47
568.31	2300.35
568.66	2301.52
569.02	2302.01
569.37	2302.28
569.72	2303.07
570.08	2303.29
570.43	2303.37
570.78	2302.83
571.14	2301.39
571.49	2300.10
571.84	2299.65
572.20	2298.52
572.55	2297.37
572.90	2295.82
573.26	2294.67
573.61	2292.98
573.96	2291.17
574.31	2288.29
574.67	2285.29
575.02	2281.59
575.37	2278.43
575.72	2274.58
576.08	2271.18
576.43	2267.92
576.78	2264.20
577.13	2261.00
577.49	2257.93
577.84	2254.35
578.19	2250.63
578.54	2246.88
578.90	2242.69
579.25	2237.16
579.60	2232.22
579.95	2227.28
580.30	2222.15
580.66	2216.76
581.01	2211.99
581.36	2207.18
581.71	2202.92
582.06	2198.35
582.42	2193.90
582.77	2188.36
583.12	2183.92
583.47	2179.04
583.82	2173.82
584.17	2168.58
584.53	2163.01
584.88	2157.33
585.23	2151.60
585.58	2146.21
585.93	2140.88
586.28	2136.11
586.63	2131.07
586.98	2126.01
587.34	2121.31
587.69	2116.49
588.04	2111.12
588.39	2105.28
588.74	2098.68
589.09	2092.42
589.44	2085.67
589.79	2079.68
590.14	2074.26
590.49	2067.42
590.84	2061.16
591.19	2055.31
591.54	2048.80
591.89	2041.51
592.25	2034.71
592.60	2027.48
592.95	2019.67
593.30	2012.13
593.65	2004.48
594.00	1997.48
594.35	1990.17
594.70	1982.06
595.05	1974.76
595.40	1967.57
595.75	1960.04
596.10	1953.73
596.45	1947.06
596.80	1940.89
597.15	1934.27
597.50	1926.84
597.85	1920.60
598.19	1913.93
598.54	1906.77
598.89	1900.10
599.24	1894.20
599.59	1887.42
599.94	1881.21
600.29	1875.01
600.64	1868.50
600.99	1860.86
601.34	1853.96
601.69	1846.95
602.04	1840.06
602.39	1832.75
602.74	1825.92
603.08	1819.16
603.43	1812.42
603.78	1805.06
604.13	1797.79
604.48	1790.38
604.83	1783.78
605.18	1776.66
605.53	1768.68
605.87	1760.65
606.22	1753.50
606.57	1745.58
606.92	1738.33
607.27	1731.14
607.62	1724.11
607.96	1716.80
608.31	1710.27
608.66	1702.60
609.01	1695.14
609.36	1687.52
609.70	1679.50
610.05	1671.41
610.40	1663.56
610.75	1655.35
611.10	1647.75
611.44	1639.42
611.79	1631.50
612.14	1622.73
612.49	1613.62
612.83	1605.27
613.18	1597.14
613.53	1589.02
613.88	1580.42
614.22	1572.10
614.57	1563.56
614.92	1555.52
615.27	1548.04
615.61	1539.68
615.96	1531.85
616.31	1524.26
616.65	1516.96
617.00	1509.41
617.35	1501.76
617.70	1493.47
618.04	1484.85
618.39	1476.67
618.74	1469.10
619.08	1460.76
619.43	1453.20
619.78	1446.31
620.12	1439.04
620.47	1431.55
620.82	1423.39
621.16	1415.94
621.51	1408.42
621.85	1400.77
622.20	1392.23
622.55	1383.81
622.89	1375.97
623.24	1368.26
623.59	1360.79
623.93	1353.27
624.28	1346.10
624.62	1338.46
624.97	1331.34
625.32	1324.67
625.66	1317.67
626.01	1310.34
626.35	1302.87
626.70	1295.05
627.04	1287.36
627.39	1279.67
627.73	1272.23
628.08	1265.28
628.43	1257.91
628.77	1250.48
629.12	1242.90
629.46	1235.73
629.81	1228.35
630.15	1221.08
630.50	1213.69
630.84	1205.48
631.19	1197.59
631.53	1189.99
631.88	1182.52
632.22	1174.96
632.57	1167.61
632.91	1160.03
633.26	1152.64
633.60	1145.30
633.95	1138.20
634.29	1131.10
634.64	1124.33
634.98	1117.05
635.32	1109.89
635.67	1103.38
636.01	1096.69
636.36	1089.87
636.70	1083.34
637.05	1076.79
637.39	1070.37
637.73	1063.83
638.08	1057.89
638.42	1051.72
638.77	1045.26
639.11	1038.54
639.45	1032.18
639.80	1025.44
640.14	1019.03
640.49	1012.58
640.83	1006.28
641.17	1000.13
641.52	993.82
641.86	987.41
642.20	981.47
642.55	975.22
642.89	968.67
643.23	962.09
643.58	956.41
643.92	950.24
644.26	944.08
644.61	938.03
644.95	932.01
645.29	925.40
645.64	918.74
645.98	912.42
646.32	906.69
646.66	900.56
647.01	894.82
647.35	889.11
647.69	883.21
648.04	877.68
648.38	871.85
648.72	865.83
649.06	859.75
649.41	853.89
649.75	847.85
650.09	841.99
650.43	836.30
650.78	830.04
651.12	824.11
651.46	818.49
651.80	812.73
652.14	807.35
652.49	802.02
652.83	796.89
653.17	791.20
653.51	785.42
653.85	780.11
654.20	774.51
654.54	768.49
654.88	762.81
655.22	756.97
655.56	751.35
655.90	745.98
656.25	740.79
656.59	735.47
656.93	730.41
657.27	725.21
657.61	719.74
657.95	714.68
658.29	709.59
658.64	704.28
658.98	699.02
659.32	693.56
659.66	688.38
660.00	683.02
660.34	678.11
660.68	673.28
661.02	668.18
661.36	663.43
661.70	658.93
662.05	654.59
662.39	650.21
662.73	645.71
663.07	641.32
663.41	636.87
663.75	632.37
664.09	627.81
664.43	623.40
664.77	619.37
665.11	615.17
665.45	611.11
665.79	607.01
666.13	602.86
666.47	598.77
666.81	594.61
667.15	590.47
667.49	586.62
667.83	582.73
668.17	578.83
668.51	574.82
668.85	570.81
669.19	566.93
669.53	563.12
669.87	559.18
670.21	555.45
670.55	551.80
670.89	548.37
671.23	544.95
671.57	541.48
671.91	537.85
672.25	534.32
672.58	530.77
672.92	527.41
673.26	524.28
673.60	521.11
673.94	518.04
674.28	515.22
674.62	512.22
674.96	509.13
675.30	506.18
675.64	503.22
675.97	500.46
676.31	497.58
676.65	494.64
676.99	491.97
677.33	489.06
677.67	486.24
678.01	483.14
678.34	480.15
678.68	477.24
679.02	474.46
679.36	471.70
679.70	469.02
680.04	466.22
680.37	463.24
680.71	460.46
681.05	457.81
681.39	455.04
681.73	452.39
682.06	449.88
682.40	447.36
682.74	444.78
683.08	442.19
683.42	439.61
683.75	437.09
684.09	434.52
684.43	432.05
684.77	429.59
685.10	427.28
685.44	424.99
685.78	422.69
686.12	420.39
686.45	418.12
686.79	415.77
687.13	413.56
687.46	411.40
687.80	409.27
688.14	407.03
688.48	404.95
688.81	402.68
689.15	400.52
689.49	398.33
689.82	396.27
690.16	394.22
690.50	392.25
690.83	390.31
691.17	388.34
691.51	386.45
691.84	384.60
692.18	382.65
692.52	380.66
692.85	378.73
693.19	376.89
693.52	375.02
693.86	373.23
694.20	371.46
694.53	369.67
694.87	367.79
695.21	366.01
695.54	364.23
695.88	362.49
696.21	360.74
696.55	359.09
696.88	357.41
697.22	355.75
697.56	354.15
697.89	352.56
698.23	350.97
698.56	349.36
698.90	347.72
699.23	346.12
699.57	344.57
699.90	343.07
700.24	341.49
700.58	339.97
700.91	338.47
701.25	337.01
701.58	335.65
701.92	334.28
702.25	332.92
702.59	331.53
702.92	330.25
703.26	329.00
703.59	327.71
703.93	326.55
704.26	325.35
704.60	324.05
704.93	322.74
705.26	321.49
705.60	320.32
705.93	319.22
706.27	318.17
706.60	317.08
706.94	316.05
707.27	314.94
707.61	313.88
707.94	312.87
708.27	311.78
708.61	310.71
708.94	309.70
709.28	308.68
709.61	307.76
709.94	306.80
710.28	305.79
710.61	304.83
710.95	303.76
711.28	302.81
711.61	301.82
711.95	300.94
712.28	300.01
712.61	299.06
712.95	298.10
713.28	297.24
713.61	296.39
713.95	295.46
714.28	294.62
714.61	293.81
714.95	292.95
715.28	292.12
715.61	291.24
715.95	290.40
716.28	289.54
716.61	288.67
716.95	287.86
717.28	287.11
717.61	286.34
717.94	285.59
718.28	284.79
718.61	284.11
718.94	283.35
719.27	282.67
719.61	281.98
719.94	281.33
720.27	280.59
720.60	279.91
720.94	279.26
721.27	278.69
721.60	278.06
721.93	277.45
722.27	276.89
722.60	276.37
722.93	275.81
723.26	275.31
723.59	274.79
723.93	274.20
724.26	273.62
724.59	273.07
724.92	272.53
725.25	272.03
725.59	271.50
725.92	271.03
726.25	270.54
726.58	270.05
726.91	269.54
727.24	269.09
727.57	268.60
727.91	268.09
728.24	267.62
728.57	267.16
728.90	266.70
729.23	266.21
729.56	265.77
729.89	265.31
730.22	264.84
730.55	264.33
730.89	263.92
731.22	263.50
731.55	263.04
731.88	262.61
732.21	262.19
732.54	261.72
732.87	261.30
733.20	260.88
733.53	260.50
733.86	260.14
734.19	259.70
734.52	259.33
734.85	259.02
735.18	258.53
735.51	258.14
735.84	257.78
736.17	257.44
736.50	257.04
736.83	256.85
737.16	256.53
737.49	256.19
737.82	255.83
738.15	255.48
738.48	255.16
738.81	254.85
739.14	254.52
739.47	254.23
739.80	253.92
740.13	253.60
740.46	253.30
740.79	252.95
741.12	252.68
741.45	252.40
741.78	252.07
742.11	251.86
742.44	251.56
742.77	251.26
743.10	250.94
743.43	250.62
743.75	250.21
744.08	250.06
744.41	249.81
744.74	249.55
745.07	249.29
745.40	249.05
745.73	248.87
746.06	248.59
746.39	248.34
746.71	248.05
747.04	247.77
747.37	247.48
747.70	247.23
748.03	246.95
748.36	246.73
748.68	246.49
749.01	246.24
749.34	245.99
749.67	245.78
750.00	245.55
750.33	245.43
750.65	245.20
750.98	244.86
751.31	244.65
751.64	244.44
751.97	244.26
752.29	244.04
752.62	243.73
752.95	243.53
753.28	243.30
753.60	243.07
753.93	242.94
754.26	242.74
754.59	242.53
754.91	242.36
755.24	242.15
755.57	241.97
755.90	241.76
756.22	241.57
756.55	241.36
756.88	241.17
757.20	240.92
757.53	240.75
757.86	240.58
758.19	240.42
758.51	240.28
758.84	240.07
759.17	239.93
759.49	239.78
759.82	239.64
760.15	239.52
760.47	239.40
760.80	239.19
761.13	239.07
761.45	238.89
761.78	238.70
762.11	238.55
762.43	238.39
762.76	238.27
763.08	238.16
763.41	238.02
763.74	237.89
764.06	237.76
764.39	237.57
764.71	237.39
765.04	237.22
765.37	237.07
765.69	236.93
766.02	236.78
766.34	236.65
766.67	236.51
767.00	236.40
767.32	236.32
767.65	236.31
767.97	236.18
768.30	236.10
768.62	236.02
768.95	235.87
769.27	235.75
769.60	235.64
769.92	235.48
770.25	235.32
770.57	235.18
770.90	235.06
771.22	234.97
771.55	234.90
771.87	234.81
772.20	234.72
772.52	234.72
772.85	234.77
773.17	234.63
773.50	234.53
773.82	234.38
774.15	234.27
774.47	234.08
774.80	233.99
775.12	233.89
775.45	233.81
775.77	233.77
776.09	233.68
776.42	233.59
776.74	233.56
777.07	233.52
777.39	233.47
777.72	233.42
778.04	233.34
778.36	233.25
778.69	233.19
779.01	233.11
779.33	232.96
779.66	232.74
779.98	232.73
780.31	232.65
780.63	232.66
780.95	232.61
781.28	232.55
781.60	232.45
781.92	232.41
782.25	232.37
782.57	232.30
782.89	232.25
783.22	232.20
783.54	232.14
783.86	232.11
784.19	232.03
784.51	232.00
784.83	231.95
785.16	231.91
785.48	231.90
785.80	231.83
786.12	231.81
786.45	231.77
786.77	231.70
787.09	231.65
