SpectraSuite Data File
++++++++++++++++++++++++++++++++++++
Date: Fri Feb 01 16:51:02 EST 2013
User: group
Dark Spectrum Present: No
Reference Spectrum Present: No
Number of Sampled Component Spectra: 1
Spectrometers: USB2E7196
Integration Time (usec): 35000 (USB2E7196)
Spectra Averaged: 100 (USB2E7196)
Boxcar Smoothing: 10 (USB2E7196)
Correct for Electrical Dark: No (USB2E7196)
Strobe/Lamp Enabled: No (USB2E7196)
Correct for Detector Non-linearity: No (USB2E7196)
Correct for Stray Light: No (USB2E7196)
Number of Pixels in Processed Spectrum: 2048
>>>>>Begin Processed Spectral Data<<<<<
339.09	0.00
339.48	213.73
339.86	214.49
340.24	216.36
340.63	217.73
341.01	220.54
341.39	220.16
341.78	221.62
342.16	223.49
342.54	223.07
342.93	211.87
343.31	222.56
343.69	223.08
344.07	223.54
344.46	223.97
344.84	224.34
345.22	224.61
345.60	224.89
345.99	225.09
346.37	225.21
346.75	225.32
347.13	225.42
347.52	225.48
347.90	225.55
348.28	225.56
348.66	225.58
349.05	225.53
349.43	225.58
349.81	225.57
350.19	225.59
350.57	225.66
350.96	225.72
351.34	225.80
351.72	225.92
352.10	226.03
352.48	226.09
352.87	226.12
353.25	226.15
353.63	226.16
354.01	226.20
354.39	226.27
354.77	226.36
355.15	226.43
355.54	226.47
355.92	226.47
356.30	226.54
356.68	226.68
357.06	226.74
357.44	226.77
357.82	226.85
358.20	226.91
358.58	226.96
358.97	227.00
359.35	227.09
359.73	227.12
360.11	227.15
360.49	227.19
360.87	227.23
361.25	227.24
361.63	227.32
362.01	227.36
362.39	227.38
362.77	227.40
363.15	227.43
363.53	227.47
363.91	227.52
364.29	227.49
364.67	227.39
365.05	227.43
365.43	227.45
365.81	227.48
366.19	227.53
366.57	227.54
366.95	227.51
367.33	227.51
367.71	227.50
368.09	227.51
368.47	227.51
368.85	227.49
369.23	227.54
369.61	227.49
369.99	227.46
370.37	227.45
370.75	227.45
371.13	227.40
371.51	227.33
371.89	227.31
372.27	227.31
372.65	227.33
373.03	227.28
373.41	227.26
373.78	227.21
374.16	227.13
374.54	227.08
374.92	227.05
375.30	226.94
375.68	226.89
376.06	226.86
376.44	226.79
376.82	226.76
377.19	226.66
377.57	226.56
377.95	226.51
378.33	226.45
378.71	226.35
379.09	226.28
379.47	226.25
379.84	226.16
380.22	226.08
380.60	226.00
380.98	225.93
381.36	225.86
381.73	225.77
382.11	225.67
382.49	225.62
382.87	225.54
383.25	225.52
383.62	225.57
384.00	225.49
384.38	225.41
384.76	225.40
385.13	225.39
385.51	225.38
385.89	225.31
386.27	225.25
386.64	225.19
387.02	225.18
387.40	225.16
387.78	225.12
388.15	225.14
388.53	225.09
388.91	225.06
389.29	225.01
389.66	225.01
390.04	225.00
390.42	224.95
390.79	224.96
391.17	224.93
391.55	224.81
391.92	224.78
392.30	224.78
392.68	224.75
393.05	224.72
393.43	224.71
393.81	224.72
394.18	224.69
394.56	224.71
394.94	224.72
395.31	224.70
395.69	224.75
396.06	224.75
396.44	224.75
396.82	224.76
397.19	224.85
397.57	224.84
397.95	224.89
398.32	224.91
398.70	224.95
399.07	224.99
399.45	225.01
399.82	225.09
400.20	225.13
400.58	225.18
400.95	225.23
401.33	225.32
401.70	225.46
402.08	225.56
402.45	225.67
402.83	225.77
403.20	225.87
403.58	225.95
403.95	226.08
404.33	226.24
404.71	226.36
405.08	226.53
405.46	226.67
405.83	226.80
406.21	226.95
406.58	227.12
406.96	227.29
407.33	227.42
407.70	227.63
408.08	227.89
408.45	228.11
408.83	228.33
409.20	228.56
409.58	228.73
409.95	228.94
410.33	229.19
410.70	229.45
411.08	229.76
411.45	230.07
411.82	230.37
412.20	230.71
412.57	231.13
412.95	231.42
413.32	231.86
413.69	232.25
414.07	232.68
414.44	233.15
414.82	233.63
415.19	234.22
415.56	234.78
415.94	235.35
416.31	235.98
416.68	236.64
417.06	237.35
417.43	238.02
417.81	238.85
418.18	239.60
418.55	240.43
418.93	241.28
419.30	242.18
419.67	243.10
420.04	244.07
420.42	245.06
420.79	246.24
421.16	247.37
421.54	248.57
421.91	249.83
422.28	251.06
422.66	252.38
423.03	253.72
423.40	255.02
423.77	256.42
424.15	257.82
424.52	259.29
424.89	260.89
425.26	262.43
425.64	263.86
426.01	265.49
426.38	267.11
426.75	268.79
427.13	270.53
427.50	272.34
427.87	274.18
428.24	276.03
428.61	277.79
428.99	279.75
429.36	281.86
429.73	283.88
430.10	285.90
430.47	287.96
430.85	290.02
431.22	292.26
431.59	294.59
431.96	296.84
432.33	299.29
432.70	301.62
433.08	304.43
433.45	307.04
433.82	309.59
434.19	312.43
434.56	315.19
434.93	317.81
435.30	320.42
435.68	323.31
436.05	326.09
436.42	328.84
436.79	331.30
437.16	333.95
437.53	336.73
437.90	339.50
438.27	342.23
438.64	345.02
439.01	347.57
439.38	349.80
439.75	351.95
440.13	354.43
440.50	356.71
440.87	358.52
441.24	360.45
441.61	362.60
441.98	364.16
442.35	365.94
442.72	367.80
443.09	369.56
443.46	370.51
443.83	371.13
444.20	371.59
444.57	372.43
444.94	372.78
445.31	373.12
445.68	373.48
446.05	373.53
446.42	373.17
446.79	372.76
447.16	372.30
447.53	371.99
447.90	370.81
448.27	369.71
448.64	368.18
449.01	367.06
449.37	365.10
449.74	363.15
450.11	360.99
450.48	358.55
450.85	356.04
451.22	353.90
451.59	351.88
451.96	349.99
452.33	347.40
452.70	345.04
453.07	342.24
453.43	339.36
453.80	336.61
454.17	333.99
454.54	331.43
454.91	328.78
455.28	326.18
455.65	323.75
456.02	321.35
456.38	319.26
456.75	316.60
457.12	314.38
457.49	312.20
457.86	309.99
458.23	308.10
458.59	306.10
458.96	304.08
459.33	302.28
459.70	300.46
460.07	298.98
460.43	297.24
460.80	295.67
461.17	294.27
461.54	292.81
461.91	291.37
462.27	289.97
462.64	288.73
463.01	287.33
463.38	286.03
463.74	284.66
464.11	283.45
464.48	282.47
464.85	281.36
465.21	280.54
465.58	279.68
465.95	278.63
466.32	277.75
466.68	276.85
467.05	275.98
467.42	275.07
467.78	274.19
468.15	273.34
468.52	272.67
468.88	271.81
469.25	271.06
469.62	270.47
469.98	269.80
470.35	269.16
470.72	268.59
471.08	267.97
471.45	267.46
471.82	266.92
472.18	266.32
472.55	265.91
472.92	265.40
473.28	264.90
473.65	264.45
474.02	263.99
474.38	263.65
474.75	263.33
475.11	262.99
475.48	262.73
475.85	262.52
476.21	262.31
476.58	262.15
476.94	262.02
477.31	261.85
477.67	261.74
478.04	261.66
478.41	261.62
478.77	261.64
479.14	261.58
479.50	261.63
479.87	261.75
480.23	261.83
480.60	261.88
480.96	261.97
481.33	262.17
481.69	262.41
482.06	262.58
482.42	262.79
482.79	263.06
483.15	263.38
483.52	263.77
483.88	264.12
484.25	264.50
484.61	264.91
484.98	265.37
485.34	265.94
485.71	266.53
486.07	267.11
486.44	267.69
486.80	268.39
487.17	269.10
487.53	269.91
487.90	270.78
488.26	271.73
488.62	272.72
488.99	273.71
489.35	274.74
489.72	275.85
490.08	277.06
490.44	278.28
490.81	279.60
491.17	280.94
491.54	282.43
491.90	283.99
492.26	285.62
492.63	287.35
492.99	289.14
493.36	291.01
493.72	293.05
494.08	295.18
494.45	297.44
494.81	299.82
495.17	302.20
495.54	304.78
495.90	307.44
496.26	310.26
496.63	313.18
496.99	316.28
497.35	319.55
497.72	322.95
498.08	326.50
498.44	330.15
498.80	334.00
499.17	338.07
499.53	342.20
499.89	346.59
500.26	351.10
500.62	355.74
500.98	360.70
501.34	365.77
501.71	371.08
502.07	376.43
502.43	382.03
502.79	387.89
503.16	393.92
503.52	400.16
503.88	406.59
504.24	413.26
504.60	420.10
504.97	427.26
505.33	434.53
505.69	442.25
506.05	450.02
506.41	457.93
506.78	465.98
507.14	474.43
507.50	483.12
507.86	492.09
508.22	501.23
508.59	510.40
508.95	519.94
509.31	529.73
509.67	539.82
510.03	550.06
510.39	560.54
510.75	571.23
511.12	582.09
511.48	593.29
511.84	604.58
512.20	616.04
512.56	627.86
512.92	639.92
513.28	652.17
513.64	664.51
514.00	677.08
514.37	690.04
514.73	703.01
515.09	715.83
515.45	728.97
515.81	742.44
516.17	756.24
516.53	770.28
516.89	784.27
517.25	798.31
517.61	812.67
517.97	827.00
518.33	841.26
518.69	855.89
519.05	870.62
519.41	885.67
519.77	901.02
520.13	916.25
520.49	931.45
520.85	946.65
521.21	962.09
521.57	978.22
521.93	993.69
522.29	1009.76
522.65	1025.91
523.01	1041.79
523.37	1057.59
523.73	1073.63
524.09	1089.39
524.45	1105.41
524.81	1121.84
525.17	1138.23
525.53	1154.77
525.89	1171.55
526.25	1188.16
526.61	1204.35
526.97	1220.82
527.33	1237.08
527.68	1253.45
528.04	1269.75
528.40	1286.02
528.76	1302.79
529.12	1319.04
529.48	1335.73
529.84	1351.50
530.20	1367.81
530.56	1384.57
530.91	1401.73
531.27	1418.29
531.63	1434.67
531.99	1451.04
532.35	1466.75
532.71	1482.53
533.07	1498.60
533.42	1514.20
533.78	1529.99
534.14	1546.02
534.50	1561.24
534.86	1576.93
535.21	1591.91
535.57	1607.55
535.93	1622.84
536.29	1637.58
536.65	1652.35
537.00	1666.74
537.36	1681.96
537.72	1696.28
538.08	1710.63
538.44	1724.31
538.79	1737.90
539.15	1751.20
539.51	1764.75
539.87	1778.83
540.22	1792.25
540.58	1805.80
540.94	1818.80
541.29	1831.32
541.65	1843.78
542.01	1856.74
542.37	1868.84
542.72	1880.97
543.08	1892.62
543.44	1904.92
543.79	1916.04
544.15	1927.00
544.51	1938.54
544.87	1949.28
545.22	1959.98
545.58	1970.07
545.94	1979.59
546.29	1989.30
546.65	1999.21
547.01	2008.34
547.36	2016.89
547.72	2025.38
548.07	2033.16
548.43	2041.32
548.79	2049.39
549.14	2056.89
549.50	2064.10
549.86	2071.62
550.21	2078.99
550.57	2086.17
550.92	2092.55
551.28	2099.47
551.64	2106.44
551.99	2112.87
552.35	2119.06
552.70	2125.08
553.06	2131.11
553.41	2137.41
553.77	2143.49
554.13	2149.49
554.48	2155.76
554.84	2161.54
555.19	2166.75
555.55	2171.93
555.90	2176.33
556.26	2181.35
556.61	2186.16
556.97	2190.54
557.32	2194.75
557.68	2198.83
558.03	2203.04
558.39	2206.78
558.74	2211.32
559.10	2215.31
559.45	2218.89
559.81	2223.02
560.16	2226.99
560.52	2230.22
560.87	2233.75
561.23	2236.39
561.58	2239.22
561.94	2241.73
562.29	2243.84
562.64	2246.70
563.00	2249.27
563.35	2253.05
563.71	2256.06
564.06	2259.25
564.42	2262.16
564.77	2264.82
565.12	2267.24
565.48	2269.31
565.83	2271.40
566.19	2272.92
566.54	2273.86
566.89	2275.33
567.25	2276.33
567.60	2277.81
567.96	2279.70
568.31	2280.56
568.66	2281.88
569.02	2282.70
569.37	2282.95
569.72	2284.12
570.08	2284.30
570.43	2284.53
570.78	2283.92
571.14	2282.68
571.49	2281.49
571.84	2281.36
572.20	2280.44
572.55	2279.57
572.90	2278.08
573.26	2276.92
573.61	2275.30
573.96	2273.70
574.31	2270.79
574.67	2267.86
575.02	2264.30
575.37	2260.90
575.72	2257.36
576.08	2253.94
576.43	2250.71
576.78	2247.39
577.13	2244.24
577.49	2241.30
577.84	2238.02
578.19	2234.44
578.54	2231.07
578.90	2227.11
579.25	2221.67
579.60	2216.75
579.95	2211.93
580.30	2207.03
580.66	2201.79
581.01	2196.99
581.36	2192.27
581.71	2188.37
582.06	2183.97
582.42	2179.62
582.77	2174.62
583.12	2170.12
583.47	2165.66
583.82	2160.88
584.17	2155.74
584.53	2150.37
584.88	2144.88
585.23	2139.36
585.58	2134.05
585.93	2128.61
586.28	2123.84
586.63	2118.88
586.98	2113.94
587.34	2109.22
587.69	2104.48
588.04	2099.47
588.39	2093.96
588.74	2087.54
589.09	2081.49
589.44	2074.93
589.79	2068.97
590.14	2063.37
590.49	2056.93
590.84	2050.84
591.19	2044.94
591.54	2038.60
591.89	2031.49
592.25	2024.81
592.60	2017.63
592.95	2010.27
593.30	2003.09
593.65	1995.71
594.00	1988.87
594.35	1981.74
594.70	1973.87
595.05	1966.97
595.40	1959.79
595.75	1952.35
596.10	1946.39
596.45	1939.76
596.80	1933.71
597.15	1927.31
597.50	1920.54
597.85	1914.16
598.19	1907.52
598.54	1900.55
598.89	1894.07
599.24	1888.22
599.59	1881.71
599.94	1875.58
600.29	1869.32
600.64	1862.70
600.99	1855.37
601.34	1848.67
601.69	1841.71
602.04	1835.01
602.39	1827.58
602.74	1820.84
603.08	1814.23
603.43	1807.58
603.78	1800.29
604.13	1793.23
604.48	1786.02
604.83	1779.14
605.18	1772.47
605.53	1764.54
605.87	1756.58
606.22	1749.42
606.57	1741.62
606.92	1734.31
607.27	1727.27
607.62	1720.43
607.96	1713.42
608.31	1706.94
608.66	1699.33
609.01	1691.99
609.36	1684.38
609.70	1676.48
610.05	1668.51
610.40	1660.91
610.75	1652.64
611.10	1645.17
611.44	1636.63
611.79	1628.70
612.14	1620.02
612.49	1610.91
612.83	1602.62
613.18	1594.48
613.53	1586.46
613.88	1577.91
614.22	1569.63
614.57	1560.99
614.92	1553.02
615.27	1545.44
615.61	1537.14
615.96	1529.31
616.31	1521.56
616.65	1514.28
617.00	1506.84
617.35	1499.19
617.70	1490.89
618.04	1482.27
618.39	1473.94
618.74	1466.39
619.08	1458.07
619.43	1450.51
619.78	1443.47
620.12	1436.30
620.47	1428.83
620.82	1420.55
621.16	1413.08
621.51	1405.49
621.85	1397.93
622.20	1389.44
622.55	1381.10
622.89	1373.17
623.24	1365.38
623.59	1357.99
623.93	1350.48
624.28	1343.21
624.62	1335.76
624.97	1328.58
625.32	1321.91
625.66	1314.87
626.01	1307.65
626.35	1300.27
626.70	1292.57
627.04	1284.89
627.39	1277.17
627.73	1269.77
628.08	1262.94
628.43	1255.82
628.77	1248.52
629.12	1240.92
629.46	1233.80
629.81	1226.26
630.15	1219.10
630.50	1211.70
630.84	1203.65
631.19	1195.61
631.53	1187.95
631.88	1180.33
632.22	1172.85
632.57	1165.55
632.91	1158.05
633.26	1150.78
633.60	1143.38
633.95	1136.23
634.29	1129.18
634.64	1122.38
634.98	1115.07
635.32	1107.88
635.67	1101.17
636.01	1094.49
636.36	1087.80
636.70	1081.14
637.05	1074.68
637.39	1068.16
637.73	1061.68
638.08	1055.78
638.42	1049.96
638.77	1043.66
639.11	1037.16
639.45	1030.68
639.80	1024.06
640.14	1017.65
640.49	1011.12
640.83	1004.85
641.17	998.68
641.52	992.38
641.86	985.90
642.20	980.06
642.55	973.75
642.89	967.34
643.23	960.82
643.58	955.03
643.92	948.86
644.26	942.86
644.61	936.82
644.95	930.90
645.29	924.28
645.64	917.48
645.98	911.13
646.32	905.26
646.66	899.32
647.01	893.45
647.35	887.79
647.69	881.92
648.04	876.43
648.38	870.64
648.72	864.63
649.06	858.70
649.41	852.83
649.75	846.95
650.09	841.07
650.43	835.35
650.78	829.12
651.12	823.17
651.46	817.43
651.80	811.76
652.14	806.26
652.49	800.95
652.83	795.89
653.17	790.25
653.51	784.58
653.85	779.08
654.20	773.53
654.54	767.55
654.88	761.79
655.22	755.83
655.56	750.14
655.90	744.76
656.25	739.51
656.59	734.12
656.93	729.03
657.27	723.87
657.61	718.37
657.95	713.35
658.29	708.31
658.64	702.99
658.98	697.64
659.32	692.18
659.66	686.91
660.00	681.54
660.34	676.54
660.68	671.56
661.02	666.57
661.36	661.82
661.70	657.32
662.05	652.95
662.39	648.64
662.73	644.22
663.07	639.80
663.41	635.34
663.75	630.87
664.09	626.28
664.43	621.81
664.77	617.77
665.11	613.50
665.45	609.35
665.79	605.34
666.13	601.24
666.47	597.17
666.81	593.11
667.15	589.00
667.49	585.15
667.83	581.29
668.17	577.36
668.51	573.30
668.85	569.24
669.19	565.43
669.53	561.66
669.87	557.78
670.21	554.05
670.55	550.44
670.89	547.05
671.23	543.63
671.57	540.06
671.91	536.45
672.25	532.88
672.58	529.38
672.92	525.97
673.26	522.84
673.60	519.67
673.94	516.53
674.28	513.57
674.62	510.61
674.96	507.54
675.30	504.65
675.64	501.73
675.97	498.97
676.31	496.11
676.65	493.13
676.99	490.42
677.33	487.56
677.67	484.74
678.01	481.69
678.34	478.63
678.68	475.81
679.02	473.01
679.36	470.25
679.70	467.55
680.04	464.72
680.37	461.80
680.71	459.02
681.05	456.39
681.39	453.66
681.73	451.02
682.06	448.53
682.40	445.97
682.74	443.42
683.08	440.83
683.42	438.20
683.75	435.74
684.09	433.16
684.43	430.69
684.77	428.20
685.10	425.83
685.44	423.58
685.78	421.25
686.12	419.04
686.45	416.78
686.79	414.49
687.13	412.32
687.46	410.10
687.80	407.96
688.14	405.74
688.48	403.68
688.81	401.47
689.15	399.30
689.49	397.17
689.82	395.08
690.16	393.01
690.50	391.03
690.83	389.02
691.17	387.02
691.51	385.14
691.84	383.31
692.18	381.44
692.52	379.47
692.85	377.57
693.19	375.63
693.52	373.79
693.86	371.96
694.20	370.14
694.53	368.39
694.87	366.51
695.21	364.72
695.54	362.94
695.88	361.16
696.21	359.45
696.55	357.79
696.88	356.13
697.22	354.44
697.56	352.84
697.89	351.18
698.23	349.60
698.56	347.97
698.90	346.41
699.23	344.75
699.57	343.22
699.90	341.67
700.24	340.17
700.58	338.68
700.91	337.13
701.25	335.73
701.58	334.36
701.92	333.03
702.25	331.66
702.59	330.29
702.92	328.96
703.26	327.63
703.59	326.34
703.93	325.17
704.26	323.96
704.60	322.69
704.93	321.44
705.26	320.20
705.60	319.05
705.93	317.89
706.27	316.83
706.60	315.75
706.94	314.68
707.27	313.56
707.61	312.46
707.94	311.46
708.27	310.32
708.61	309.22
708.94	308.20
709.28	307.25
709.61	306.27
709.94	305.35
710.28	304.35
710.61	303.33
710.95	302.23
711.28	301.34
711.61	300.40
711.95	299.49
712.28	298.55
712.61	297.54
712.95	296.55
713.28	295.67
713.61	294.78
713.95	293.90
714.28	293.06
714.61	292.18
714.95	291.34
715.28	290.52
715.61	289.66
715.95	288.81
716.28	287.95
716.61	287.09
716.95	286.24
717.28	285.47
717.61	284.72
717.94	284.00
718.28	283.16
718.61	282.37
718.94	281.69
719.27	281.02
719.61	280.39
719.94	279.72
720.27	278.97
720.60	278.28
720.94	277.63
721.27	277.02
721.60	276.47
721.93	275.86
722.27	275.35
722.60	274.78
722.93	274.19
723.26	273.64
723.59	273.07
723.93	272.49
724.26	271.95
724.59	271.34
724.92	270.79
725.25	270.33
725.59	269.86
725.92	269.34
726.25	268.83
726.58	268.32
726.91	267.82
727.24	267.39
727.57	266.95
727.91	266.45
728.24	265.96
728.57	265.45
728.90	264.99
729.23	264.46
729.56	264.03
729.89	263.57
730.22	263.08
730.55	262.64
730.89	262.23
731.22	261.79
731.55	261.38
731.88	260.95
732.21	260.50
732.54	260.07
732.87	259.66
733.20	259.23
733.53	258.85
733.86	258.46
734.19	258.04
734.52	257.65
734.85	257.33
735.18	256.93
735.51	256.58
735.84	256.23
736.17	255.89
736.50	255.52
736.83	255.27
737.16	254.94
737.49	254.58
737.82	254.20
738.15	253.88
738.48	253.55
738.81	253.24
739.14	252.86
739.47	252.55
739.80	252.23
740.13	251.96
740.46	251.63
740.79	251.31
741.12	251.02
741.45	250.69
741.78	250.37
742.11	250.11
742.44	249.76
742.77	249.49
743.10	249.18
743.43	248.89
743.75	248.54
744.08	248.38
744.41	248.11
744.74	247.86
745.07	247.57
745.40	247.33
745.73	247.08
746.06	246.85
746.39	246.57
746.71	246.28
747.04	246.02
747.37	245.76
747.70	245.51
748.03	245.27
748.36	245.05
748.68	244.82
749.01	244.55
749.34	244.37
749.67	244.13
750.00	243.92
750.33	243.76
750.65	243.56
750.98	243.22
751.31	243.05
751.64	242.84
751.97	242.71
752.29	242.46
752.62	242.23
752.95	242.00
753.28	241.77
753.60	241.59
753.93	241.38
754.26	241.16
754.59	240.96
754.91	240.71
755.24	240.52
755.57	240.33
755.90	240.13
756.22	239.92
756.55	239.69
756.88	239.49
757.20	239.25
757.53	239.01
757.86	238.87
758.19	238.72
758.51	238.58
758.84	238.32
759.17	238.19
759.49	238.02
759.82	237.93
760.15	237.79
760.47	237.64
760.80	237.48
761.13	237.32
761.45	237.18
761.78	237.05
762.11	236.88
762.43	236.73
762.76	236.60
763.08	236.46
763.41	236.34
763.74	236.20
764.06	236.04
764.39	235.88
764.71	235.73
765.04	235.55
765.37	235.36
765.69	235.26
766.02	235.11
766.34	234.98
766.67	234.82
767.00	234.76
767.32	234.68
767.65	234.64
767.97	234.56
768.30	234.44
768.62	234.35
768.95	234.27
769.27	234.17
769.60	234.06
769.92	233.95
770.25	233.83
770.57	233.72
770.90	233.62
771.22	233.55
771.55	233.45
771.87	233.36
772.20	233.30
772.52	233.30
772.85	233.36
773.17	233.29
773.50	233.18
773.82	233.05
774.15	232.91
774.47	232.75
774.80	232.66
775.12	232.60
775.45	232.48
775.77	232.42
776.09	232.33
776.42	232.28
776.74	232.23
777.07	232.14
777.39	232.05
777.72	231.99
778.04	231.95
778.36	231.87
778.69	231.83
779.01	231.74
779.33	231.58
779.66	231.40
779.98	231.31
780.31	231.24
780.63	231.22
780.95	231.22
781.28	231.15
781.60	231.10
781.92	231.03
782.25	230.96
782.57	230.89
782.89	230.84
783.22	230.76
783.54	230.68
783.86	230.64
784.19	230.60
784.51	230.60
784.83	230.50
785.16	230.47
785.48	230.39
785.80	230.34
786.12	230.29
786.45	230.22
786.77	230.20
787.09	230.12
