SpectraSuite Data File
++++++++++++++++++++++++++++++++++++
Date: Fri Feb 01 16:18:05 EST 2013
User: group
Dark Spectrum Present: No
Reference Spectrum Present: No
Number of Sampled Component Spectra: 1
Spectrometers: USB2E7196
Integration Time (usec): 35000 (USB2E7196)
Spectra Averaged: 100 (USB2E7196)
Boxcar Smoothing: 10 (USB2E7196)
Correct for Electrical Dark: No (USB2E7196)
Strobe/Lamp Enabled: No (USB2E7196)
Correct for Detector Non-linearity: No (USB2E7196)
Correct for Stray Light: No (USB2E7196)
Number of Pixels in Processed Spectrum: 2048
>>>>>Begin Processed Spectral Data<<<<<
339.09	0.00
339.48	213.46
339.86	215.88
340.24	216.54
340.63	218.41
341.01	221.06
341.39	221.48
341.78	221.96
342.16	223.46
342.54	224.06
342.93	212.36
343.31	223.09
343.69	223.61
344.07	224.08
344.46	224.50
344.84	224.85
345.22	225.08
345.60	225.29
345.99	225.50
346.37	225.62
346.75	225.71
347.13	225.80
347.52	225.85
347.90	225.90
348.28	225.95
348.66	226.00
349.05	226.03
349.43	226.08
349.81	226.15
350.19	226.20
350.57	226.23
350.96	226.28
351.34	226.37
351.72	226.52
352.10	226.58
352.48	226.68
352.87	226.77
353.25	226.83
353.63	226.90
354.01	226.96
354.39	227.06
354.77	227.13
355.15	227.23
355.54	227.35
355.92	227.42
356.30	227.50
356.68	227.63
357.06	227.74
357.44	227.79
357.82	227.82
358.20	227.88
358.58	227.97
358.97	228.03
359.35	228.13
359.73	228.18
360.11	228.25
360.49	228.28
360.87	228.30
361.25	228.39
361.63	228.47
362.01	228.50
362.39	228.53
362.77	228.58
363.15	228.61
363.53	228.62
363.91	228.65
364.29	228.64
364.67	228.53
365.05	228.51
365.43	228.49
365.81	228.54
366.19	228.55
366.57	228.58
366.95	228.59
367.33	228.53
367.71	228.54
368.09	228.50
368.47	228.50
368.85	228.51
369.23	228.48
369.61	228.40
369.99	228.39
370.37	228.35
370.75	228.37
371.13	228.28
371.51	228.24
371.89	228.18
372.27	228.16
372.65	228.16
373.03	228.08
373.41	228.03
373.78	227.95
374.16	227.87
374.54	227.76
374.92	227.69
375.30	227.65
375.68	227.55
376.06	227.53
376.44	227.43
376.82	227.38
377.19	227.32
377.57	227.27
377.95	227.18
378.33	227.10
378.71	226.96
379.09	226.94
379.47	226.85
379.84	226.77
380.22	226.64
380.60	226.56
380.98	226.53
381.36	226.46
381.73	226.38
382.11	226.34
382.49	226.33
382.87	226.26
383.25	226.17
383.62	226.21
384.00	226.14
384.38	226.12
384.76	226.08
385.13	226.06
385.51	225.97
385.89	225.92
386.27	225.90
386.64	225.86
387.02	225.79
387.40	225.73
387.78	225.73
388.15	225.72
388.53	225.67
388.91	225.64
389.29	225.61
389.66	225.63
390.04	225.59
390.42	225.57
390.79	225.55
391.17	225.57
391.55	225.47
391.92	225.45
392.30	225.44
392.68	225.42
393.05	225.40
393.43	225.43
393.81	225.46
394.18	225.47
394.56	225.49
394.94	225.50
395.31	225.54
395.69	225.57
396.06	225.63
396.44	225.67
396.82	225.69
397.19	225.78
397.57	225.83
397.95	225.90
398.32	225.92
398.70	226.02
399.07	226.08
399.45	226.13
399.82	226.21
400.20	226.27
400.58	226.34
400.95	226.37
401.33	226.51
401.70	226.65
402.08	226.72
402.45	226.84
402.83	226.99
403.20	227.11
403.58	227.22
403.95	227.35
404.33	227.46
404.71	227.58
405.08	227.78
405.46	227.90
405.83	228.06
406.21	228.19
406.58	228.33
406.96	228.49
407.33	228.64
407.70	228.82
408.08	229.11
408.45	229.34
408.83	229.57
409.20	229.74
409.58	229.90
409.95	230.18
410.33	230.44
410.70	230.67
411.08	230.97
411.45	231.28
411.82	231.57
412.20	231.92
412.57	232.31
412.95	232.60
413.32	232.99
413.69	233.38
414.07	233.82
414.44	234.29
414.82	234.75
415.19	235.30
415.56	235.84
415.94	236.34
416.31	236.93
416.68	237.55
417.06	238.26
417.43	238.94
417.81	239.67
418.18	240.45
418.55	241.27
418.93	242.14
419.30	243.03
419.67	243.97
420.04	244.91
420.42	245.91
420.79	247.07
421.16	248.20
421.54	249.37
421.91	250.59
422.28	251.84
422.66	253.16
423.03	254.46
423.40	255.81
423.77	257.24
424.15	258.67
424.52	260.14
424.89	261.76
425.26	263.32
425.64	264.77
426.01	266.34
426.38	267.98
426.75	269.61
427.13	271.33
427.50	273.14
427.87	275.03
428.24	276.87
428.61	278.63
428.99	280.59
429.36	282.72
429.73	284.75
430.10	286.76
430.47	288.83
430.85	290.92
431.22	293.13
431.59	295.54
431.96	297.82
432.33	300.30
432.70	302.70
433.08	305.50
433.45	308.11
433.82	310.71
434.19	313.64
434.56	316.47
434.93	319.13
435.30	321.75
435.68	324.60
436.05	327.46
436.42	330.22
436.79	332.73
437.16	335.41
437.53	338.20
437.90	340.95
438.27	343.70
438.64	346.53
439.01	349.10
439.38	351.32
439.75	353.46
440.13	355.94
440.50	358.24
440.87	360.09
441.24	362.08
441.61	364.23
441.98	365.66
442.35	367.44
442.72	369.29
443.09	371.07
443.46	372.08
443.83	372.68
444.20	373.19
444.57	374.02
444.94	374.26
445.31	374.66
445.68	375.06
446.05	375.11
446.42	374.76
446.79	374.37
447.16	373.92
447.53	373.59
447.90	372.44
448.27	371.28
448.64	369.69
449.01	368.51
449.37	366.53
449.74	364.62
450.11	362.37
450.48	359.92
450.85	357.38
451.22	355.25
451.59	353.20
451.96	351.27
452.33	348.69
452.70	346.35
453.07	343.54
453.43	340.64
453.80	337.90
454.17	335.22
454.54	332.68
454.91	329.98
455.28	327.31
455.65	324.82
456.02	322.38
456.38	320.26
456.75	317.63
457.12	315.37
457.49	313.20
457.86	311.08
458.23	309.21
458.59	307.23
458.96	305.13
459.33	303.31
459.70	301.47
460.07	299.94
460.43	298.23
460.80	296.63
461.17	295.22
461.54	293.68
461.91	292.24
462.27	290.79
462.64	289.51
463.01	288.15
463.38	286.88
463.74	285.51
464.11	284.33
464.48	283.32
464.85	282.23
465.21	281.35
465.58	280.41
465.95	279.29
466.32	278.35
466.68	277.47
467.05	276.56
467.42	275.67
467.78	274.71
468.15	273.86
468.52	273.18
468.88	272.31
469.25	271.57
469.62	270.97
469.98	270.33
470.35	269.71
470.72	269.11
471.08	268.49
471.45	268.00
471.82	267.48
472.18	266.91
472.55	266.50
472.92	265.97
473.28	265.55
473.65	265.11
474.02	264.70
474.38	264.36
474.75	264.05
475.11	263.71
475.48	263.52
475.85	263.28
476.21	263.06
476.58	262.90
476.94	262.75
477.31	262.58
477.67	262.42
478.04	262.33
478.41	262.29
478.77	262.32
479.14	262.24
479.50	262.22
479.87	262.29
480.23	262.37
480.60	262.48
480.96	262.52
481.33	262.76
481.69	262.94
482.06	263.13
482.42	263.31
482.79	263.57
483.15	263.83
483.52	264.23
483.88	264.60
484.25	264.95
484.61	265.42
484.98	265.87
485.34	266.44
485.71	267.00
486.07	267.58
486.44	268.13
486.80	268.83
487.17	269.60
487.53	270.39
487.90	271.24
488.26	272.20
488.62	273.19
488.99	274.15
489.35	275.20
489.72	276.33
490.08	277.56
490.44	278.78
490.81	280.20
491.17	281.53
491.54	283.01
491.90	284.57
492.26	286.23
492.63	287.98
492.99	289.71
493.36	291.64
493.72	293.66
494.08	295.81
494.45	298.10
494.81	300.44
495.17	302.91
495.54	305.47
495.90	308.14
496.26	310.98
496.63	313.96
496.99	317.05
497.35	320.34
497.72	323.74
498.08	327.27
498.44	330.89
498.80	334.86
499.17	338.92
499.53	343.12
499.89	347.47
500.26	352.04
500.62	356.77
500.98	361.75
501.34	366.87
501.71	372.24
502.07	377.70
502.43	383.37
502.79	389.15
503.16	395.25
503.52	401.55
503.88	407.97
504.24	414.60
504.60	421.46
504.97	428.61
505.33	435.92
505.69	443.71
506.05	451.54
506.41	459.41
506.78	467.51
507.14	475.93
507.50	484.69
507.86	493.66
508.22	502.84
508.59	512.10
508.95	521.75
509.31	531.55
509.67	541.60
510.03	551.86
510.39	562.51
510.75	573.34
511.12	584.29
511.48	595.59
511.84	607.05
512.20	618.62
512.56	630.54
512.92	642.75
513.28	655.09
513.64	667.55
514.00	680.30
514.37	693.28
514.73	706.36
515.09	719.43
515.45	732.70
515.81	746.36
516.17	760.28
516.53	774.35
516.89	788.47
517.25	802.62
517.61	817.02
517.97	831.46
518.33	845.85
518.69	860.57
519.05	875.55
519.41	890.83
519.77	906.39
520.13	921.88
520.49	937.21
520.85	952.48
521.21	968.14
521.57	984.35
521.93	1000.09
522.29	1016.47
522.65	1032.67
523.01	1048.96
523.37	1064.98
523.73	1081.12
524.09	1097.14
524.45	1113.49
524.81	1130.08
525.17	1146.96
525.53	1163.89
525.89	1180.70
526.25	1197.56
526.61	1213.93
526.97	1230.51
527.33	1246.96
527.68	1263.50
528.04	1279.94
528.40	1296.58
528.76	1313.57
529.12	1330.07
529.48	1346.93
529.84	1362.88
530.20	1379.46
530.56	1396.39
530.91	1413.71
531.27	1430.40
531.63	1446.85
531.99	1463.38
532.35	1479.31
532.71	1495.05
533.07	1511.05
533.42	1526.92
533.78	1542.82
534.14	1559.06
534.50	1574.41
534.86	1590.22
535.21	1605.33
535.57	1621.18
535.93	1636.60
536.29	1651.40
536.65	1666.39
537.00	1681.12
537.36	1696.38
537.72	1710.74
538.08	1725.04
538.44	1738.73
538.79	1752.54
539.15	1766.14
539.51	1779.77
539.87	1794.07
540.22	1807.74
540.58	1821.50
540.94	1834.72
541.29	1847.66
541.65	1860.21
542.01	1873.38
542.37	1885.55
542.72	1897.87
543.08	1909.55
543.44	1921.99
543.79	1933.18
544.15	1944.17
544.51	1955.65
544.87	1966.42
545.22	1977.27
545.58	1987.47
545.94	1997.15
546.29	2007.00
546.65	2016.84
547.01	2026.06
547.36	2034.71
547.72	2043.09
548.07	2050.85
548.43	2059.00
548.79	2066.81
549.14	2074.37
549.50	2081.51
549.86	2089.17
550.21	2096.61
550.57	2103.77
550.92	2110.15
551.28	2117.28
551.64	2124.40
551.99	2130.84
552.35	2137.25
552.70	2143.37
553.06	2149.27
553.41	2155.62
553.77	2161.71
554.13	2167.78
554.48	2173.93
554.84	2179.51
555.19	2184.78
555.55	2189.89
555.90	2194.31
556.26	2199.23
556.61	2203.92
556.97	2208.42
557.32	2212.64
557.68	2216.73
558.03	2221.07
558.39	2224.94
558.74	2229.41
559.10	2233.16
559.45	2236.96
559.81	2241.16
560.16	2244.96
560.52	2248.13
560.87	2251.68
561.23	2254.31
561.58	2257.32
561.94	2259.77
562.29	2262.10
562.64	2264.79
563.00	2267.50
563.35	2271.13
563.71	2274.32
564.06	2277.49
564.42	2280.28
564.77	2282.72
565.12	2284.98
565.48	2286.93
565.83	2288.84
566.19	2290.23
566.54	2291.21
566.89	2292.21
567.25	2292.75
567.60	2294.12
567.96	2296.03
568.31	2296.63
568.66	2297.77
569.02	2298.31
569.37	2298.71
569.72	2299.50
570.08	2299.80
570.43	2299.82
570.78	2299.38
571.14	2298.00
571.49	2296.63
571.84	2296.40
572.20	2295.29
572.55	2294.38
572.90	2292.93
573.26	2291.46
573.61	2289.76
573.96	2288.01
574.31	2285.32
574.67	2282.45
575.02	2278.84
575.37	2275.46
575.72	2271.90
576.08	2268.43
576.43	2265.25
576.78	2261.66
577.13	2258.72
577.49	2255.58
577.84	2252.08
578.19	2248.36
578.54	2244.69
578.90	2240.52
579.25	2234.92
579.60	2230.04
579.95	2224.97
580.30	2219.91
580.66	2214.89
581.01	2210.03
581.36	2205.18
581.71	2200.94
582.06	2196.46
582.42	2192.11
582.77	2186.86
583.12	2182.36
583.47	2177.83
583.82	2172.73
584.17	2167.52
584.53	2162.03
584.88	2156.52
585.23	2150.90
585.58	2145.41
585.93	2139.96
586.28	2135.37
586.63	2130.32
586.98	2125.32
587.34	2120.58
587.69	2115.70
588.04	2110.41
588.39	2104.80
588.74	2098.39
589.09	2092.30
589.44	2085.52
589.79	2079.61
590.14	2074.05
590.49	2067.53
590.84	2061.15
591.19	2055.15
591.54	2048.72
591.89	2041.39
592.25	2034.57
592.60	2027.46
592.95	2019.86
593.30	2012.50
593.65	2004.93
594.00	1997.95
594.35	1990.70
594.70	1982.71
595.05	1975.55
595.40	1968.34
595.75	1960.77
596.10	1954.54
596.45	1947.79
596.80	1941.85
597.15	1935.08
597.50	1928.03
597.85	1921.59
598.19	1914.93
598.54	1907.81
598.89	1901.16
599.24	1895.13
599.59	1888.42
599.94	1882.15
600.29	1875.85
600.64	1869.34
600.99	1861.98
601.34	1855.09
601.69	1848.21
602.04	1841.37
602.39	1834.06
602.74	1827.15
603.08	1820.53
603.43	1813.79
603.78	1806.54
604.13	1799.16
604.48	1792.07
604.83	1785.17
605.18	1778.09
605.53	1770.14
605.87	1762.18
606.22	1754.99
606.57	1747.16
606.92	1739.89
607.27	1732.74
607.62	1725.88
607.96	1718.56
608.31	1711.95
608.66	1704.38
609.01	1696.87
609.36	1689.37
609.70	1681.44
610.05	1673.54
610.40	1665.72
610.75	1657.52
611.10	1649.83
611.44	1641.47
611.79	1633.40
612.14	1624.80
612.49	1615.69
612.83	1607.43
613.18	1599.35
613.53	1591.36
613.88	1582.78
614.22	1574.59
614.57	1565.99
614.92	1557.94
615.27	1550.40
615.61	1542.01
615.96	1533.99
616.31	1526.29
616.65	1518.94
617.00	1511.31
617.35	1503.49
617.70	1495.21
618.04	1486.61
618.39	1478.40
618.74	1470.81
619.08	1462.50
619.43	1454.99
619.78	1448.12
620.12	1440.79
620.47	1433.34
620.82	1425.09
621.16	1417.71
621.51	1410.04
621.85	1402.45
622.20	1393.88
622.55	1385.54
622.89	1377.70
623.24	1370.06
623.59	1362.61
623.93	1355.06
624.28	1347.78
624.62	1340.26
624.97	1333.13
625.32	1326.37
625.66	1319.33
626.01	1312.07
626.35	1304.58
626.70	1296.71
627.04	1288.93
627.39	1281.15
627.73	1273.75
628.08	1266.82
628.43	1259.48
628.77	1252.18
629.12	1244.57
629.46	1237.43
629.81	1229.94
630.15	1222.72
630.50	1215.34
630.84	1207.12
631.19	1199.09
631.53	1191.55
631.88	1183.98
632.22	1176.26
632.57	1168.88
632.91	1161.24
633.26	1153.80
633.60	1146.36
633.95	1139.24
634.29	1132.22
634.64	1125.53
634.98	1118.03
635.32	1110.80
635.67	1104.21
636.01	1097.55
636.36	1090.69
636.70	1084.09
637.05	1077.54
637.39	1071.04
637.73	1064.50
638.08	1058.63
638.42	1052.78
638.77	1046.28
639.11	1039.66
639.45	1033.32
639.80	1026.71
640.14	1020.30
640.49	1013.83
640.83	1007.56
641.17	1001.23
641.52	994.84
641.86	988.43
642.20	982.62
642.55	976.26
642.89	969.72
643.23	963.15
643.58	957.37
643.92	951.15
644.26	945.12
644.61	939.09
644.95	933.11
645.29	926.49
645.64	919.57
645.98	913.24
646.32	907.36
646.66	901.30
647.01	895.55
647.35	889.77
647.69	883.89
648.04	878.31
648.38	872.64
648.72	866.64
649.06	860.55
649.41	854.60
649.75	848.69
650.09	842.75
650.43	836.90
650.78	830.77
651.12	824.90
651.46	819.14
651.80	813.34
652.14	807.92
652.49	802.57
652.83	797.48
653.17	791.79
653.51	786.12
653.85	780.76
654.20	775.04
654.54	769.09
654.88	763.32
655.22	757.45
655.56	751.71
655.90	746.32
656.25	741.08
656.59	735.72
656.93	730.69
657.27	725.55
657.61	720.06
657.95	714.96
658.29	709.83
658.64	704.51
658.98	699.17
659.32	693.71
659.66	688.51
660.00	683.09
660.34	678.17
660.68	673.28
661.02	668.21
661.36	663.47
661.70	658.97
662.05	654.70
662.39	650.39
662.73	645.91
663.07	641.52
663.41	637.01
663.75	632.55
664.09	627.95
664.43	623.55
664.77	619.46
665.11	615.14
665.45	611.02
665.79	606.93
666.13	602.86
666.47	598.73
666.81	594.52
667.15	590.43
667.49	586.55
667.83	582.71
668.17	578.78
668.51	574.71
668.85	570.60
669.19	566.63
669.53	562.77
669.87	558.88
670.21	555.12
670.55	551.50
670.89	548.02
671.23	544.55
671.57	540.95
671.91	537.39
672.25	533.91
672.58	530.36
672.92	526.94
673.26	523.72
673.60	520.55
673.94	517.49
674.28	514.56
674.62	511.54
674.96	508.39
675.30	505.46
675.64	502.53
675.97	499.76
676.31	496.96
676.65	494.00
676.99	491.28
677.33	488.40
677.67	485.57
678.01	482.53
678.34	479.53
678.68	476.74
679.02	473.95
679.36	471.19
679.70	468.46
680.04	465.70
680.37	462.81
680.71	460.03
681.05	457.37
681.39	454.70
681.73	452.09
682.06	449.57
682.40	446.97
682.74	444.46
683.08	441.92
683.42	439.27
683.75	436.77
684.09	434.17
684.43	431.70
684.77	429.25
685.10	426.91
685.44	424.62
685.78	422.30
686.12	420.02
686.45	417.75
686.79	415.48
687.13	413.31
687.46	411.13
687.80	409.00
688.14	406.80
688.48	404.67
688.81	402.44
689.15	400.32
689.49	398.19
689.82	396.09
690.16	394.00
690.50	392.04
690.83	390.11
691.17	388.18
691.51	386.25
691.84	384.40
692.18	382.48
692.52	380.49
692.85	378.56
693.19	376.69
693.52	374.86
693.86	373.04
694.20	371.23
694.53	369.47
694.87	367.57
695.21	365.79
695.54	363.98
695.88	362.23
696.21	360.49
696.55	358.85
696.88	357.19
697.22	355.53
697.56	353.93
697.89	352.28
698.23	350.66
698.56	349.05
698.90	347.46
699.23	345.84
699.57	344.27
699.90	342.73
700.24	341.20
700.58	339.66
700.91	338.15
701.25	336.66
701.58	335.29
701.92	333.93
702.25	332.54
702.59	331.21
702.92	329.89
703.26	328.60
703.59	327.33
703.93	326.15
704.26	324.93
704.60	323.62
704.93	322.33
705.26	321.09
705.60	319.92
705.93	318.73
706.27	317.62
706.60	316.61
706.94	315.51
707.27	314.38
707.61	313.31
707.94	312.25
708.27	311.20
708.61	310.11
708.94	309.10
709.28	308.12
709.61	307.14
709.94	306.17
710.28	305.15
710.61	304.13
710.95	303.04
711.28	302.11
711.61	301.16
711.95	300.25
712.28	299.30
712.61	298.34
712.95	297.47
713.28	296.65
713.61	295.74
713.95	294.87
714.28	294.01
714.61	293.16
714.95	292.34
715.28	291.50
715.61	290.61
715.95	289.76
716.28	288.88
716.61	288.01
716.95	287.20
717.28	286.44
717.61	285.64
717.94	284.90
718.28	284.09
718.61	283.36
718.94	282.65
719.27	281.98
719.61	281.34
719.94	280.63
720.27	279.89
720.60	279.19
720.94	278.49
721.27	277.90
721.60	277.33
721.93	276.73
722.27	276.17
722.60	275.62
722.93	275.07
723.26	274.57
723.59	273.99
723.93	273.41
724.26	272.85
724.59	272.28
724.92	271.74
725.25	271.25
725.59	270.74
725.92	270.23
726.25	269.68
726.58	269.18
726.91	268.70
727.24	268.22
727.57	267.77
727.91	267.29
728.24	266.82
728.57	266.32
728.90	265.86
729.23	265.34
729.56	264.94
729.89	264.47
730.22	263.94
730.55	263.52
730.89	263.09
731.22	262.67
731.55	262.29
731.88	261.86
732.21	261.40
732.54	260.94
732.87	260.52
733.20	260.16
733.53	259.74
733.86	259.33
734.19	258.94
734.52	258.56
734.85	258.25
735.18	257.84
735.51	257.47
735.84	257.10
736.17	256.74
736.50	256.32
736.83	256.08
737.16	255.78
737.49	255.43
737.82	255.07
738.15	254.71
738.48	254.37
738.81	254.06
739.14	253.77
739.47	253.49
739.80	253.21
740.13	252.89
740.46	252.57
740.79	252.25
741.12	251.93
741.45	251.61
741.78	251.26
742.11	250.94
742.44	250.62
742.77	250.30
743.10	250.04
743.43	249.72
743.75	249.33
744.08	249.21
744.41	248.96
744.74	248.70
745.07	248.40
745.40	248.15
745.73	247.88
746.06	247.59
746.39	247.31
746.71	247.01
747.04	246.75
747.37	246.49
747.70	246.26
748.03	246.01
748.36	245.76
748.68	245.55
749.01	245.35
749.34	245.14
749.67	244.94
750.00	244.71
750.33	244.57
750.65	244.36
750.98	244.02
751.31	243.79
751.64	243.59
751.97	243.45
752.29	243.23
752.62	242.99
752.95	242.80
753.28	242.60
753.60	242.44
753.93	242.28
754.26	242.11
754.59	241.87
754.91	241.69
755.24	241.50
755.57	241.28
755.90	241.07
756.22	240.86
756.55	240.65
756.88	240.46
757.20	240.21
757.53	240.03
757.86	239.83
758.19	239.68
758.51	239.51
758.84	239.31
759.17	239.15
759.49	239.00
759.82	238.87
760.15	238.73
760.47	238.55
760.80	238.35
761.13	238.21
761.45	238.06
761.78	237.92
762.11	237.79
762.43	237.64
762.76	237.51
763.08	237.39
763.41	237.27
763.74	237.11
764.06	236.98
764.39	236.83
764.71	236.70
765.04	236.54
765.37	236.40
765.69	236.26
766.02	236.12
766.34	235.99
766.67	235.84
767.00	235.73
767.32	235.65
767.65	235.60
767.97	235.49
768.30	235.38
768.62	235.26
768.95	235.11
769.27	235.02
769.60	234.90
769.92	234.78
770.25	234.65
770.57	234.55
770.90	234.47
771.22	234.32
771.55	234.20
771.87	234.11
772.20	233.97
772.52	233.95
772.85	233.95
773.17	233.87
773.50	233.74
773.82	233.62
774.15	233.45
774.47	233.29
774.80	233.19
775.12	233.12
775.45	233.03
775.77	232.95
776.09	232.86
776.42	232.78
776.74	232.69
777.07	232.65
777.39	232.58
777.72	232.48
778.04	232.43
778.36	232.39
778.69	232.31
779.01	232.26
779.33	232.11
779.66	231.96
779.98	231.89
780.31	231.82
780.63	231.81
780.95	231.77
781.28	231.70
781.60	231.61
781.92	231.51
782.25	231.44
782.57	231.42
782.89	231.36
783.22	231.30
783.54	231.24
783.86	231.16
784.19	231.11
784.51	231.08
784.83	231.03
785.16	230.97
785.48	230.90
785.80	230.88
786.12	230.82
786.45	230.75
786.77	230.74
787.09	230.70
