SpectraSuite Data File
++++++++++++++++++++++++++++++++++++
Date: Fri Feb 01 17:29:39 EST 2013
User: group
Dark Spectrum Present: No
Reference Spectrum Present: No
Number of Sampled Component Spectra: 1
Spectrometers: USB2E7196
Integration Time (usec): 35000 (USB2E7196)
Spectra Averaged: 100 (USB2E7196)
Boxcar Smoothing: 10 (USB2E7196)
Correct for Electrical Dark: No (USB2E7196)
Strobe/Lamp Enabled: No (USB2E7196)
Correct for Detector Non-linearity: No (USB2E7196)
Correct for Stray Light: No (USB2E7196)
Number of Pixels in Processed Spectrum: 2048
>>>>>Begin Processed Spectral Data<<<<<
339.09	0.00
339.48	213.03
339.86	214.25
340.24	215.93
340.63	216.77
341.01	219.94
341.39	220.05
341.78	221.45
342.16	222.12
342.54	222.94
342.93	211.36
343.31	222.04
343.69	222.57
344.07	223.02
344.46	223.43
344.84	223.82
345.22	224.11
345.60	224.34
345.99	224.52
346.37	224.69
346.75	224.80
347.13	224.87
347.52	224.88
347.90	224.93
348.28	224.95
348.66	224.97
349.05	224.97
349.43	224.99
349.81	225.04
350.19	225.08
350.57	225.13
350.96	225.22
351.34	225.30
351.72	225.39
352.10	225.48
352.48	225.57
352.87	225.62
353.25	225.64
353.63	225.70
354.01	225.74
354.39	225.77
354.77	225.85
355.15	225.97
355.54	226.07
355.92	226.13
356.30	226.21
356.68	226.33
357.06	226.40
357.44	226.46
357.82	226.53
358.20	226.64
358.58	226.71
358.97	226.78
359.35	226.86
359.73	226.93
360.11	226.99
360.49	227.01
360.87	227.08
361.25	227.11
361.63	227.20
362.01	227.25
362.39	227.30
362.77	227.35
363.15	227.37
363.53	227.40
363.91	227.41
364.29	227.45
364.67	227.39
365.05	227.39
365.43	227.40
365.81	227.39
366.19	227.40
366.57	227.45
366.95	227.42
367.33	227.38
367.71	227.40
368.09	227.43
368.47	227.43
368.85	227.42
369.23	227.45
369.61	227.40
369.99	227.43
370.37	227.41
370.75	227.42
371.13	227.40
371.51	227.33
371.89	227.34
372.27	227.27
372.65	227.25
373.03	227.21
373.41	227.16
373.78	227.14
374.16	227.03
374.54	226.95
374.92	226.93
375.30	226.88
375.68	226.80
376.06	226.75
376.44	226.71
376.82	226.65
377.19	226.56
377.57	226.49
377.95	226.37
378.33	226.31
378.71	226.17
379.09	226.12
379.47	226.13
379.84	226.03
380.22	225.98
380.60	225.88
380.98	225.83
381.36	225.77
381.73	225.69
382.11	225.66
382.49	225.62
382.87	225.53
383.25	225.47
383.62	225.53
384.00	225.44
384.38	225.39
384.76	225.36
385.13	225.32
385.51	225.31
385.89	225.25
386.27	225.21
386.64	225.18
387.02	225.12
387.40	225.03
387.78	225.01
388.15	225.00
388.53	224.94
388.91	224.91
389.29	224.86
389.66	224.86
390.04	224.83
390.42	224.82
390.79	224.82
391.17	224.81
391.55	224.69
391.92	224.70
392.30	224.68
392.68	224.67
393.05	224.69
393.43	224.68
393.81	224.73
394.18	224.70
394.56	224.73
394.94	224.76
395.31	224.77
395.69	224.82
396.06	224.82
396.44	224.86
396.82	224.89
397.19	224.96
397.57	224.96
397.95	224.99
398.32	224.97
398.70	225.02
399.07	225.09
399.45	225.12
399.82	225.17
400.20	225.23
400.58	225.26
400.95	225.28
401.33	225.36
401.70	225.46
402.08	225.57
402.45	225.68
402.83	225.76
403.20	225.87
403.58	225.92
403.95	226.03
404.33	226.12
404.71	226.25
405.08	226.45
405.46	226.59
405.83	226.73
406.21	226.89
406.58	227.04
406.96	227.17
407.33	227.32
407.70	227.49
408.08	227.74
408.45	227.97
408.83	228.18
409.20	228.41
409.58	228.57
409.95	228.82
410.33	229.03
410.70	229.27
411.08	229.54
411.45	229.84
411.82	230.14
412.20	230.52
412.57	230.93
412.95	231.20
413.32	231.62
413.69	232.02
414.07	232.48
414.44	232.93
414.82	233.44
415.19	234.05
415.56	234.61
415.94	235.15
416.31	235.81
416.68	236.49
417.06	237.22
417.43	237.91
417.81	238.69
418.18	239.50
418.55	240.41
418.93	241.33
419.30	242.28
419.67	243.30
420.04	244.28
420.42	245.27
420.79	246.54
421.16	247.72
421.54	248.98
421.91	250.23
422.28	251.59
422.66	253.01
423.03	254.36
423.40	255.74
423.77	257.22
424.15	258.68
424.52	260.20
424.89	261.84
425.26	263.49
425.64	265.04
426.01	266.71
426.38	268.41
426.75	270.15
427.13	271.94
427.50	273.80
427.87	275.81
428.24	277.78
428.61	279.56
428.99	281.62
429.36	283.83
429.73	285.99
430.10	288.07
430.47	290.20
430.85	292.40
431.22	294.79
431.59	297.28
431.96	299.63
432.33	302.25
432.70	304.74
433.08	307.68
433.45	310.44
433.82	313.15
434.19	316.16
434.56	319.06
434.93	321.83
435.30	324.53
435.68	327.51
436.05	330.45
436.42	333.34
436.79	335.96
437.16	338.74
437.53	341.71
437.90	344.66
438.27	347.49
438.64	350.43
439.01	353.14
439.38	355.48
439.75	357.79
440.13	360.38
440.50	362.82
440.87	364.75
441.24	366.73
441.61	369.00
441.98	370.54
442.35	372.49
442.72	374.41
443.09	376.34
443.46	377.41
443.83	378.06
444.20	378.63
444.57	379.52
444.94	379.82
445.31	380.16
445.68	380.53
446.05	380.64
446.42	380.28
446.79	379.84
447.16	379.38
447.53	379.03
447.90	377.83
448.27	376.67
448.64	375.05
449.01	373.92
449.37	371.89
449.74	369.95
450.11	367.59
450.48	365.07
450.85	362.44
451.22	360.23
451.59	358.12
451.96	356.15
452.33	353.46
452.70	351.03
453.07	348.07
453.43	345.02
453.80	342.17
454.17	339.38
454.54	336.71
454.91	333.88
455.28	331.08
455.65	328.47
456.02	325.87
456.38	323.59
456.75	320.80
457.12	318.42
457.49	316.13
457.86	313.84
458.23	311.89
458.59	309.79
458.96	307.59
459.33	305.69
459.70	303.72
460.07	302.13
460.43	300.32
460.80	298.65
461.17	297.17
461.54	295.60
461.91	294.10
462.27	292.60
462.64	291.29
463.01	289.86
463.38	288.55
463.74	287.15
464.11	285.92
464.48	284.89
464.85	283.75
465.21	282.85
465.58	281.95
465.95	280.83
466.32	279.83
466.68	278.91
467.05	277.95
467.42	276.98
467.78	276.04
468.15	275.15
468.52	274.46
468.88	273.57
469.25	272.79
469.62	272.11
469.98	271.40
470.35	270.74
470.72	270.14
471.08	269.45
471.45	268.92
471.82	268.38
472.18	267.73
472.55	267.30
472.92	266.73
473.28	266.20
473.65	265.74
474.02	265.27
474.38	264.88
474.75	264.52
475.11	264.21
475.48	263.94
475.85	263.70
476.21	263.49
476.58	263.33
476.94	263.17
477.31	263.02
477.67	262.90
478.04	262.78
478.41	262.74
478.77	262.77
479.14	262.71
479.50	262.71
479.87	262.80
480.23	262.88
480.60	262.94
480.96	263.07
481.33	263.26
481.69	263.50
482.06	263.71
482.42	263.94
482.79	264.19
483.15	264.49
483.52	264.84
483.88	265.16
484.25	265.54
484.61	265.94
484.98	266.41
485.34	266.99
485.71	267.62
486.07	268.24
486.44	268.80
486.80	269.48
487.17	270.21
487.53	271.03
487.90	271.88
488.26	272.84
488.62	273.85
488.99	274.84
489.35	275.88
489.72	277.00
490.08	278.21
490.44	279.43
490.81	280.80
491.17	282.17
491.54	283.67
491.90	285.17
492.26	286.79
492.63	288.49
492.99	290.20
493.36	292.02
493.72	294.04
494.08	296.13
494.45	298.37
494.81	300.72
495.17	303.12
495.54	305.66
495.90	308.28
496.26	311.05
496.63	313.98
496.99	317.01
497.35	320.22
497.72	323.58
498.08	327.07
498.44	330.69
498.80	334.57
499.17	338.55
499.53	342.74
499.89	347.10
500.26	351.56
500.62	356.18
500.98	361.09
501.34	366.08
501.71	371.28
502.07	376.61
502.43	382.13
502.79	387.86
503.16	393.83
503.52	399.97
503.88	406.23
504.24	412.76
504.60	419.58
504.97	426.58
505.33	433.76
505.69	441.33
506.05	448.99
506.41	456.73
506.78	464.72
507.14	472.98
507.50	481.49
507.86	490.40
508.22	499.48
508.59	508.51
508.95	517.87
509.31	527.55
509.67	537.49
510.03	547.59
510.39	557.90
510.75	568.41
511.12	579.16
511.48	590.20
511.84	601.35
512.20	612.59
512.56	624.31
512.92	636.16
513.28	648.21
513.64	660.33
514.00	672.67
514.37	685.28
514.73	698.05
515.09	710.73
515.45	723.64
515.81	736.83
516.17	750.50
516.53	764.29
516.89	778.09
517.25	791.85
517.61	805.92
517.97	819.96
518.33	833.98
518.69	848.34
519.05	862.84
519.41	877.56
519.77	892.58
520.13	907.56
520.49	922.55
520.85	937.48
521.21	952.74
521.57	968.51
521.93	983.76
522.29	999.56
522.65	1015.39
523.01	1031.10
523.37	1046.65
523.73	1062.42
524.09	1078.06
524.45	1093.83
524.81	1109.97
525.17	1126.19
525.53	1142.59
525.89	1158.99
526.25	1175.34
526.61	1191.33
526.97	1207.68
527.33	1223.80
527.68	1239.87
528.04	1255.89
528.40	1272.03
528.76	1288.70
529.12	1304.83
529.48	1321.43
529.84	1337.07
530.20	1353.24
530.56	1369.80
530.91	1386.71
531.27	1402.99
531.63	1418.95
531.99	1435.28
532.35	1450.97
532.71	1466.45
533.07	1482.33
533.42	1497.95
533.78	1513.66
534.14	1529.63
534.50	1544.53
534.86	1560.09
535.21	1575.01
535.57	1590.56
535.93	1605.65
536.29	1620.01
536.65	1634.79
537.00	1648.98
537.36	1664.05
537.72	1678.20
538.08	1692.35
538.44	1705.88
538.79	1719.51
539.15	1732.90
539.51	1746.32
539.87	1760.33
540.22	1773.82
540.58	1787.32
540.94	1800.24
541.29	1812.78
541.65	1825.12
542.01	1838.20
542.37	1850.22
542.72	1862.48
543.08	1874.17
543.44	1886.48
543.79	1897.61
544.15	1908.42
544.51	1920.19
544.87	1930.98
545.22	1941.89
545.58	1952.17
545.94	1962.04
546.29	1971.89
546.65	1981.95
547.01	1991.25
547.36	2000.03
547.72	2008.64
548.07	2016.77
548.43	2025.23
548.79	2033.24
549.14	2041.13
549.50	2048.52
549.86	2056.33
550.21	2063.87
550.57	2071.29
550.92	2078.14
551.28	2085.41
551.64	2092.87
551.99	2099.63
552.35	2106.07
552.70	2112.47
553.06	2118.66
553.41	2125.29
553.77	2131.49
554.13	2137.68
554.48	2144.05
554.84	2149.89
555.19	2155.50
555.55	2160.92
555.90	2165.72
556.26	2171.25
556.61	2176.20
556.97	2180.97
557.32	2185.51
557.68	2189.88
558.03	2194.43
558.39	2198.28
558.74	2203.24
559.10	2207.31
559.45	2211.29
559.81	2215.73
560.16	2219.80
560.52	2223.38
560.87	2227.09
561.23	2230.13
561.58	2233.40
561.94	2236.30
562.29	2238.91
562.64	2242.09
563.00	2245.01
563.35	2248.85
563.71	2252.24
564.06	2255.73
564.42	2259.00
564.77	2261.96
565.12	2264.88
565.48	2267.30
565.83	2269.76
566.19	2271.64
566.54	2272.88
566.89	2274.42
567.25	2275.70
567.60	2277.39
567.96	2279.72
568.31	2281.02
568.66	2282.54
569.02	2283.59
569.37	2284.17
569.72	2285.49
570.08	2286.08
570.43	2286.50
570.78	2286.36
571.14	2285.33
571.49	2284.48
571.84	2284.36
572.20	2283.63
572.55	2282.77
572.90	2281.46
573.26	2280.49
573.61	2278.99
573.96	2278.01
574.31	2275.45
574.67	2272.78
575.02	2269.65
575.37	2266.44
575.72	2263.18
576.08	2260.20
576.43	2257.17
576.78	2254.13
577.13	2251.21
577.49	2248.31
577.84	2245.31
578.19	2241.94
578.54	2238.74
578.90	2235.01
579.25	2229.98
579.60	2225.53
579.95	2221.00
580.30	2216.29
580.66	2211.48
581.01	2206.92
581.36	2202.13
581.71	2198.37
582.06	2194.38
582.42	2190.32
582.77	2185.41
583.12	2181.00
583.47	2176.81
583.82	2172.34
584.17	2167.39
584.53	2162.28
584.88	2156.89
585.23	2151.51
585.58	2146.21
585.93	2141.06
586.28	2136.34
586.63	2131.59
586.98	2126.73
587.34	2122.10
587.69	2117.51
588.04	2112.62
588.39	2107.39
588.74	2101.24
589.09	2095.34
589.44	2088.89
589.79	2082.82
590.14	2077.41
590.49	2071.01
590.84	2064.73
591.19	2058.81
591.54	2052.62
591.89	2045.62
592.25	2039.17
592.60	2032.03
592.95	2024.82
593.30	2017.61
593.65	2010.22
594.00	2003.27
594.35	1996.09
594.70	1988.23
595.05	1981.36
595.40	1974.02
595.75	1966.57
596.10	1960.49
596.45	1953.96
596.80	1947.85
597.15	1941.55
597.50	1934.89
597.85	1928.61
598.19	1922.16
598.54	1915.44
598.89	1908.85
599.24	1902.91
599.59	1896.52
599.94	1890.34
600.29	1884.01
600.64	1877.48
600.99	1870.24
601.34	1863.61
601.69	1856.64
602.04	1850.12
602.39	1842.81
602.74	1836.22
603.08	1829.59
603.43	1822.92
603.78	1815.55
604.13	1808.47
604.48	1801.31
604.83	1794.27
605.18	1787.51
605.53	1779.52
605.87	1771.49
606.22	1764.19
606.57	1756.37
606.92	1748.71
607.27	1741.76
607.62	1734.95
607.96	1727.73
608.31	1721.34
608.66	1713.72
609.01	1706.34
609.36	1698.72
609.70	1690.76
610.05	1682.72
610.40	1675.07
610.75	1666.70
611.10	1658.97
611.44	1650.39
611.79	1642.32
612.14	1633.72
612.49	1624.33
612.83	1615.85
613.18	1607.55
613.53	1599.56
613.88	1590.94
614.22	1582.72
614.57	1573.78
614.92	1565.75
615.27	1558.31
615.61	1549.80
615.96	1541.67
616.31	1533.87
616.65	1526.41
617.00	1518.72
617.35	1510.87
617.70	1502.42
618.04	1493.95
618.39	1485.63
618.74	1477.96
619.08	1469.61
619.43	1461.87
619.78	1454.90
620.12	1447.81
620.47	1440.23
620.82	1431.82
621.16	1424.36
621.51	1416.73
621.85	1409.12
622.20	1400.47
622.55	1391.90
622.89	1383.95
623.24	1376.20
623.59	1368.74
623.93	1361.08
624.28	1353.73
624.62	1346.31
624.97	1339.10
625.32	1332.11
625.66	1325.01
626.01	1317.82
626.35	1310.41
626.70	1302.61
627.04	1294.92
627.39	1286.94
627.73	1279.40
628.08	1272.51
628.43	1265.17
628.77	1257.77
629.12	1250.31
629.46	1243.07
629.81	1235.45
630.15	1228.11
630.50	1220.78
630.84	1212.55
631.19	1204.49
631.53	1196.96
631.88	1189.25
632.22	1181.61
632.57	1174.36
632.91	1166.77
633.26	1159.34
633.60	1151.71
633.95	1144.46
634.29	1137.22
634.64	1130.33
634.98	1122.99
635.32	1115.80
635.67	1109.01
636.01	1102.28
636.36	1095.38
636.70	1088.75
637.05	1082.17
637.39	1075.70
637.73	1069.17
638.08	1063.14
638.42	1057.22
638.77	1050.68
639.11	1044.11
639.45	1037.54
639.80	1030.81
640.14	1024.44
640.49	1017.87
640.83	1011.56
641.17	1005.34
641.52	999.06
641.86	992.67
642.20	986.77
642.55	980.29
642.89	973.88
643.23	967.19
643.58	961.33
643.92	955.20
644.26	949.21
644.61	942.99
644.95	936.87
645.29	930.41
645.64	923.53
645.98	917.19
646.32	911.19
646.66	905.13
647.01	899.23
647.35	893.47
647.69	887.51
648.04	881.88
648.38	876.05
648.72	870.05
649.06	864.04
649.41	858.12
649.75	852.26
650.09	846.24
650.43	840.47
650.78	834.31
651.12	828.24
651.46	822.38
651.80	816.77
652.14	811.27
652.49	805.89
652.83	800.65
653.17	794.95
653.51	789.30
653.85	783.84
654.20	778.22
654.54	772.19
654.88	766.46
655.22	760.56
655.56	754.85
655.90	749.33
656.25	744.07
656.59	738.61
656.93	733.50
657.27	728.39
657.61	722.99
657.95	717.85
658.29	712.81
658.64	707.54
658.98	702.10
659.32	696.66
659.66	691.36
660.00	686.15
660.34	681.19
660.68	676.19
661.02	671.16
661.36	666.44
661.70	661.91
662.05	657.48
662.39	653.21
662.73	648.68
663.07	644.28
663.41	639.76
663.75	635.35
664.09	630.78
664.43	626.37
664.77	622.24
665.11	618.02
665.45	613.75
665.79	609.68
666.13	605.57
666.47	601.44
666.81	597.35
667.15	593.16
667.49	589.16
667.83	585.24
668.17	581.31
668.51	577.20
668.85	573.10
669.19	569.18
669.53	565.35
669.87	561.50
670.21	557.79
670.55	554.12
670.89	550.64
671.23	547.11
671.57	543.50
671.91	539.98
672.25	536.39
672.58	532.90
672.92	529.41
673.26	526.25
673.60	523.08
673.94	519.95
674.28	516.97
674.62	514.07
674.96	511.01
675.30	508.12
675.64	505.17
675.97	502.35
676.31	499.53
676.65	496.59
676.99	493.86
677.33	490.96
677.67	488.14
678.01	485.09
678.34	482.17
678.68	479.26
679.02	476.38
679.36	473.58
679.70	470.84
680.04	468.08
680.37	465.16
680.71	462.34
681.05	459.62
681.39	456.93
681.73	454.22
682.06	451.66
682.40	449.05
682.74	446.48
683.08	443.89
683.42	441.26
683.75	438.73
684.09	436.10
684.43	433.58
684.77	431.04
685.10	428.62
685.44	426.23
685.78	423.94
686.12	421.61
686.45	419.26
686.79	416.93
687.13	414.75
687.46	412.55
687.80	410.36
688.14	408.10
688.48	406.01
688.81	403.76
689.15	401.60
689.49	399.39
689.82	397.28
690.16	395.22
690.50	393.21
690.83	391.22
691.17	389.18
691.51	387.27
691.84	385.44
692.18	383.53
692.52	381.62
692.85	379.65
693.19	377.79
693.52	375.97
693.86	374.11
694.20	372.30
694.53	370.49
694.87	368.65
695.21	366.88
695.54	365.02
695.88	363.24
696.21	361.49
696.55	359.85
696.88	358.19
697.22	356.48
697.56	354.80
697.89	353.16
698.23	351.63
698.56	349.98
698.90	348.42
699.23	346.78
699.57	345.18
699.90	343.60
700.24	342.00
700.58	340.49
700.91	339.04
701.25	337.55
701.58	336.17
701.92	334.77
702.25	333.36
702.59	332.01
702.92	330.68
703.26	329.34
703.59	327.99
703.93	326.77
704.26	325.56
704.60	324.27
704.93	322.99
705.26	321.67
705.60	320.49
705.93	319.29
706.27	318.26
706.60	317.16
706.94	316.08
707.27	314.98
707.61	313.83
707.94	312.78
708.27	311.71
708.61	310.61
708.94	309.56
709.28	308.58
709.61	307.62
709.94	306.68
710.28	305.66
710.61	304.65
710.95	303.60
711.28	302.66
711.61	301.69
711.95	300.75
712.28	299.80
712.61	298.80
712.95	297.86
713.28	296.91
713.61	296.01
713.95	295.09
714.28	294.26
714.61	293.43
714.95	292.54
715.28	291.68
715.61	290.80
715.95	289.91
716.28	289.02
716.61	288.14
716.95	287.27
717.28	286.53
717.61	285.78
717.94	285.00
718.28	284.18
718.61	283.46
718.94	282.74
719.27	282.10
719.61	281.44
719.94	280.75
720.27	280.02
720.60	279.33
720.94	278.67
721.27	278.08
721.60	277.47
721.93	276.92
722.27	276.33
722.60	275.76
722.93	275.20
723.26	274.66
723.59	274.06
723.93	273.51
724.26	272.89
724.59	272.30
724.92	271.76
725.25	271.26
725.59	270.71
725.92	270.20
726.25	269.63
726.58	269.13
726.91	268.61
727.24	268.14
727.57	267.64
727.91	267.15
728.24	266.66
728.57	266.13
728.90	265.62
729.23	265.12
729.56	264.67
729.89	264.16
730.22	263.66
730.55	263.19
730.89	262.74
731.22	262.29
731.55	261.88
731.88	261.42
732.21	260.92
732.54	260.49
732.87	260.07
733.20	259.69
733.53	259.25
733.86	258.88
734.19	258.44
734.52	258.04
734.85	257.71
735.18	257.26
735.51	256.88
735.84	256.48
736.17	256.10
736.50	255.71
736.83	255.48
737.16	255.14
737.49	254.79
737.82	254.42
738.15	254.09
738.48	253.73
738.81	253.40
739.14	253.08
739.47	252.77
739.80	252.42
740.13	252.09
740.46	251.78
740.79	251.43
741.12	251.13
741.45	250.87
741.78	250.51
742.11	250.27
742.44	249.96
742.77	249.70
743.10	249.38
743.43	249.07
743.75	248.66
744.08	248.52
744.41	248.28
744.74	248.02
745.07	247.76
745.40	247.53
745.73	247.33
746.06	247.08
746.39	246.81
746.71	246.52
747.04	246.27
747.37	246.03
747.70	245.81
748.03	245.56
748.36	245.30
748.68	245.05
749.01	244.78
749.34	244.54
749.67	244.30
750.00	244.12
750.33	243.98
750.65	243.80
750.98	243.47
751.31	243.25
751.64	243.04
751.97	242.85
752.29	242.61
752.62	242.32
752.95	242.10
753.28	241.87
753.60	241.72
753.93	241.53
754.26	241.32
754.59	241.08
754.91	240.89
755.24	240.68
755.57	240.53
755.90	240.33
756.22	240.15
756.55	239.97
756.88	239.76
757.20	239.51
757.53	239.31
757.86	239.14
758.19	238.97
758.51	238.76
758.84	238.56
759.17	238.39
759.49	238.25
759.82	238.14
760.15	238.00
760.47	237.80
760.80	237.65
761.13	237.52
761.45	237.36
761.78	237.18
762.11	237.05
762.43	236.87
762.76	236.73
763.08	236.61
763.41	236.47
763.74	236.31
764.06	236.17
764.39	236.00
764.71	235.82
765.04	235.66
765.37	235.56
765.69	235.41
766.02	235.26
766.34	235.08
766.67	234.94
767.00	234.82
767.32	234.76
767.65	234.66
767.97	234.55
768.30	234.45
768.62	234.32
768.95	234.18
769.27	234.07
769.60	233.97
769.92	233.83
770.25	233.69
770.57	233.59
770.90	233.46
771.22	233.38
771.55	233.29
771.87	233.19
772.20	233.06
772.52	233.06
772.85	233.10
773.17	233.05
773.50	232.93
773.82	232.79
774.15	232.68
774.47	232.53
774.80	232.41
775.12	232.31
775.45	232.25
775.77	232.18
776.09	232.08
776.42	231.99
776.74	231.97
777.07	231.90
777.39	231.82
777.72	231.75
778.04	231.68
778.36	231.62
778.69	231.55
779.01	231.49
779.33	231.32
779.66	231.14
779.98	231.06
780.31	230.98
780.63	230.99
780.95	230.91
781.28	230.87
781.60	230.79
781.92	230.71
782.25	230.66
782.57	230.62
782.89	230.56
783.22	230.49
783.54	230.38
783.86	230.31
784.19	230.25
784.51	230.20
784.83	230.11
785.16	230.07
785.48	230.06
785.80	230.00
786.12	230.01
786.45	229.95
786.77	229.91
787.09	229.88
