SpectraSuite Data File
++++++++++++++++++++++++++++++++++++
Date: Fri Feb 01 15:29:23 EST 2013
User: group
Dark Spectrum Present: No
Reference Spectrum Present: No
Number of Sampled Component Spectra: 1
Spectrometers: USB2E7196
Integration Time (usec): 35000 (USB2E7196)
Spectra Averaged: 100 (USB2E7196)
Boxcar Smoothing: 10 (USB2E7196)
Correct for Electrical Dark: No (USB2E7196)
Strobe/Lamp Enabled: No (USB2E7196)
Correct for Detector Non-linearity: No (USB2E7196)
Correct for Stray Light: No (USB2E7196)
Number of Pixels in Processed Spectrum: 2048
>>>>>Begin Processed Spectral Data<<<<<
339.09	0.00
339.48	215.01
339.86	216.27
340.24	218.01
340.63	219.64
341.01	222.06
341.39	221.54
341.78	223.53
342.16	223.98
342.54	224.44
342.93	213.34
343.31	224.14
343.69	224.68
344.07	225.13
344.46	225.54
344.84	225.92
345.22	226.16
345.60	226.46
345.99	226.64
346.37	226.78
346.75	226.92
347.13	226.96
347.52	227.00
347.90	227.07
348.28	227.11
348.66	227.13
349.05	227.11
349.43	227.14
349.81	227.19
350.19	227.24
350.57	227.34
350.96	227.39
351.34	227.46
351.72	227.56
352.10	227.69
352.48	227.79
352.87	227.83
353.25	227.89
353.63	227.94
354.01	228.00
354.39	228.09
354.77	228.14
355.15	228.26
355.54	228.33
355.92	228.40
356.30	228.47
356.68	228.60
357.06	228.68
357.44	228.71
357.82	228.75
358.20	228.82
358.58	228.86
358.97	228.94
359.35	229.03
359.73	229.08
360.11	229.08
360.49	229.09
360.87	229.13
361.25	229.17
361.63	229.24
362.01	229.27
362.39	229.29
362.77	229.34
363.15	229.34
363.53	229.37
363.91	229.36
364.29	229.33
364.67	229.25
365.05	229.27
365.43	229.30
365.81	229.26
366.19	229.28
366.57	229.31
366.95	229.28
367.33	229.21
367.71	229.19
368.09	229.20
368.47	229.18
368.85	229.15
369.23	229.13
369.61	229.06
369.99	229.04
370.37	229.01
370.75	228.99
371.13	228.87
371.51	228.81
371.89	228.77
372.27	228.77
372.65	228.73
373.03	228.68
373.41	228.64
373.78	228.59
374.16	228.49
374.54	228.38
374.92	228.31
375.30	228.26
375.68	228.17
376.06	228.13
376.44	228.05
376.82	227.99
377.19	227.93
377.57	227.85
377.95	227.75
378.33	227.69
378.71	227.57
379.09	227.53
379.47	227.45
379.84	227.38
380.22	227.26
380.60	227.19
380.98	227.09
381.36	227.00
381.73	226.96
382.11	226.91
382.49	226.88
382.87	226.80
383.25	226.74
383.62	226.81
384.00	226.71
384.38	226.64
384.76	226.59
385.13	226.58
385.51	226.53
385.89	226.48
386.27	226.44
386.64	226.41
387.02	226.38
387.40	226.38
387.78	226.33
388.15	226.30
388.53	226.29
388.91	226.27
389.29	226.23
389.66	226.17
390.04	226.14
390.42	226.14
390.79	226.13
391.17	226.11
391.55	226.02
391.92	226.00
392.30	226.04
392.68	226.04
393.05	226.02
393.43	226.06
393.81	226.09
394.18	226.08
394.56	226.11
394.94	226.19
395.31	226.18
395.69	226.26
396.06	226.30
396.44	226.32
396.82	226.37
397.19	226.49
397.57	226.58
397.95	226.68
398.32	226.68
398.70	226.75
399.07	226.85
399.45	226.90
399.82	227.00
400.20	227.08
400.58	227.15
400.95	227.21
401.33	227.30
401.70	227.48
402.08	227.60
402.45	227.69
402.83	227.78
403.20	227.90
403.58	228.02
403.95	228.16
404.33	228.34
404.71	228.49
405.08	228.69
405.46	228.84
405.83	228.99
406.21	229.15
406.58	229.32
406.96	229.47
407.33	229.66
407.70	229.88
408.08	230.16
408.45	230.37
408.83	230.59
409.20	230.80
409.58	230.98
409.95	231.24
410.33	231.48
410.70	231.73
411.08	231.99
411.45	232.26
411.82	232.58
412.20	232.91
412.57	233.31
412.95	233.59
413.32	233.99
413.69	234.36
414.07	234.80
414.44	235.24
414.82	235.71
415.19	236.29
415.56	236.80
415.94	237.32
416.31	237.98
416.68	238.58
417.06	239.29
417.43	239.94
417.81	240.69
418.18	241.53
418.55	242.39
418.93	243.30
419.30	244.21
419.67	245.11
420.04	246.08
420.42	247.08
420.79	248.24
421.16	249.37
421.54	250.59
421.91	251.78
422.28	253.04
422.66	254.37
423.03	255.62
423.40	256.98
423.77	258.39
424.15	259.81
424.52	261.32
424.89	262.92
425.26	264.52
425.64	265.95
426.01	267.50
426.38	269.18
426.75	270.85
427.13	272.56
427.50	274.36
427.87	276.18
428.24	278.01
428.61	279.76
428.99	281.72
429.36	283.82
429.73	285.94
430.10	287.95
430.47	290.03
430.85	292.19
431.22	294.43
431.59	296.80
431.96	299.08
432.33	301.61
432.70	304.00
433.08	306.81
433.45	309.50
433.82	312.11
434.19	315.00
434.56	317.85
434.93	320.52
435.30	323.18
435.68	326.14
436.05	329.02
436.42	331.84
436.79	334.35
437.16	337.09
437.53	339.94
437.90	342.78
438.27	345.54
438.64	348.35
439.01	350.96
439.38	353.22
439.75	355.40
440.13	357.94
440.50	360.29
440.87	362.13
441.24	364.08
441.61	366.28
441.98	367.74
442.35	369.52
442.72	371.38
443.09	373.19
443.46	374.22
443.83	374.83
444.20	375.32
444.57	376.18
444.94	376.41
445.31	376.74
445.68	377.09
446.05	377.17
446.42	376.80
446.79	376.37
447.16	375.94
447.53	375.60
447.90	374.37
448.27	373.22
448.64	371.62
449.01	370.45
449.37	368.43
449.74	366.59
450.11	364.36
450.48	361.87
450.85	359.36
451.22	357.18
451.59	355.13
451.96	353.14
452.33	350.49
452.70	348.16
453.07	345.31
453.43	342.43
453.80	339.63
454.17	336.93
454.54	334.36
454.91	331.61
455.28	328.90
455.65	326.41
456.02	323.94
456.38	321.80
456.75	319.15
457.12	316.94
457.49	314.69
457.86	312.51
458.23	310.70
458.59	308.63
458.96	306.50
459.33	304.63
459.70	302.80
460.07	301.31
460.43	299.58
460.80	297.94
461.17	296.46
461.54	294.95
461.91	293.50
462.27	292.06
462.64	290.80
463.01	289.47
463.38	288.13
463.74	286.73
464.11	285.57
464.48	284.52
464.85	283.41
465.21	282.50
465.58	281.55
465.95	280.43
466.32	279.50
466.68	278.57
467.05	277.63
467.42	276.75
467.78	275.79
468.15	274.92
468.52	274.23
468.88	273.38
469.25	272.57
469.62	271.96
469.98	271.33
470.35	270.70
470.72	270.03
471.08	269.40
471.45	268.86
471.82	268.30
472.18	267.70
472.55	267.24
472.92	266.70
473.28	266.24
473.65	265.81
474.02	265.35
474.38	264.99
474.75	264.68
475.11	264.33
475.48	264.10
475.85	263.82
476.21	263.59
476.58	263.42
476.94	263.28
477.31	263.11
477.67	262.94
478.04	262.83
478.41	262.83
478.77	262.86
479.14	262.83
479.50	262.84
479.87	262.88
480.23	262.95
480.60	263.04
480.96	263.12
481.33	263.29
481.69	263.50
482.06	263.72
482.42	263.91
482.79	264.13
483.15	264.43
483.52	264.83
483.88	265.19
484.25	265.54
484.61	266.03
484.98	266.47
485.34	267.04
485.71	267.62
486.07	268.17
486.44	268.73
486.80	269.44
487.17	270.17
487.53	271.02
487.90	271.86
488.26	272.79
488.62	273.82
488.99	274.83
489.35	275.87
489.72	276.99
490.08	278.23
490.44	279.55
490.81	280.90
491.17	282.25
491.54	283.77
491.90	285.33
492.26	286.97
492.63	288.74
492.99	290.51
493.36	292.40
493.72	294.48
494.08	296.58
494.45	298.80
494.81	301.16
495.17	303.60
495.54	306.19
495.90	308.88
496.26	311.68
496.63	314.65
496.99	317.79
497.35	321.07
497.72	324.46
498.08	327.96
498.44	331.64
498.80	335.61
499.17	339.64
499.53	343.80
499.89	348.19
500.26	352.66
500.62	357.33
500.98	362.29
501.34	367.37
501.71	372.74
502.07	378.21
502.43	383.82
502.79	389.60
503.16	395.64
503.52	401.93
503.88	408.34
504.24	414.93
504.60	421.82
504.97	428.89
505.33	436.18
505.69	443.89
506.05	451.66
506.41	459.48
506.78	467.64
507.14	476.12
507.50	484.82
507.86	493.84
508.22	503.05
508.59	512.25
508.95	521.87
509.31	531.65
509.67	541.75
510.03	552.02
510.39	562.67
510.75	573.52
511.12	584.43
511.48	595.76
511.84	607.22
512.20	618.74
512.56	630.71
512.92	642.92
513.28	655.28
513.64	667.78
514.00	680.57
514.37	693.48
514.73	706.60
515.09	719.64
515.45	732.96
515.81	746.52
516.17	760.55
516.53	774.67
516.89	788.86
517.25	803.08
517.61	817.57
517.97	832.09
518.33	846.54
518.69	861.42
519.05	876.39
519.41	891.67
519.77	907.23
520.13	922.79
520.49	938.27
520.85	953.59
521.21	969.40
521.57	985.76
521.93	1001.60
522.29	1018.01
522.65	1034.35
523.01	1050.58
523.37	1066.65
523.73	1082.85
524.09	1099.07
524.45	1115.45
524.81	1132.14
525.17	1149.11
525.53	1165.91
525.89	1182.76
526.25	1199.56
526.61	1216.01
526.97	1232.68
527.33	1249.27
527.68	1265.94
528.04	1282.37
528.40	1299.31
528.76	1316.34
529.12	1332.82
529.48	1349.83
529.84	1365.89
530.20	1382.57
530.56	1399.75
530.91	1417.23
531.27	1434.07
531.63	1450.54
531.99	1467.25
532.35	1483.18
532.71	1499.00
533.07	1515.44
533.42	1531.50
533.78	1547.53
534.14	1563.75
534.50	1579.12
534.86	1595.06
535.21	1610.25
535.57	1626.36
535.93	1641.77
536.29	1656.64
536.65	1671.90
537.00	1686.72
537.36	1702.18
537.72	1716.76
538.08	1731.24
538.44	1745.22
538.79	1759.16
539.15	1772.94
539.51	1786.81
539.87	1801.31
540.22	1815.07
540.58	1828.86
540.94	1842.30
541.29	1855.31
541.65	1868.17
542.01	1881.53
542.37	1893.90
542.72	1906.46
543.08	1918.30
543.44	1930.81
543.79	1942.20
544.15	1953.14
544.51	1964.77
544.87	1975.73
545.22	1986.62
545.58	1996.70
545.94	2006.41
546.29	2016.32
546.65	2026.23
547.01	2035.44
547.36	2044.23
547.72	2052.76
548.07	2060.60
548.43	2068.81
548.79	2076.90
549.14	2084.53
549.50	2091.99
549.86	2099.73
550.21	2106.94
550.57	2114.00
550.92	2120.58
551.28	2127.62
551.64	2134.77
551.99	2141.36
552.35	2147.47
552.70	2153.60
553.06	2159.74
553.41	2166.26
553.77	2172.29
554.13	2178.21
554.48	2184.25
554.84	2189.59
555.19	2194.88
555.55	2200.16
555.90	2204.67
556.26	2209.70
556.61	2214.36
556.97	2218.61
557.32	2222.75
557.68	2226.93
558.03	2231.29
558.39	2235.03
558.74	2239.51
559.10	2243.29
559.45	2246.85
559.81	2251.16
560.16	2254.85
560.52	2257.95
560.87	2261.18
561.23	2263.82
561.58	2266.88
561.94	2269.31
562.29	2271.87
562.64	2274.63
563.00	2277.20
563.35	2280.63
563.71	2283.63
564.06	2286.81
564.42	2289.54
564.77	2291.92
565.12	2294.15
565.48	2295.90
565.83	2297.61
566.19	2299.01
566.54	2300.12
566.89	2301.21
567.25	2301.71
567.60	2303.24
567.96	2304.93
568.31	2305.63
568.66	2306.76
569.02	2307.32
569.37	2307.83
569.72	2308.56
570.08	2308.55
570.43	2308.48
570.78	2307.72
571.14	2306.23
571.49	2304.89
571.84	2304.54
572.20	2303.33
572.55	2302.28
572.90	2300.75
573.26	2299.35
573.61	2297.68
573.96	2295.76
574.31	2292.70
574.67	2289.61
575.02	2285.84
575.37	2282.36
575.72	2278.62
576.08	2275.13
576.43	2271.65
576.78	2267.85
577.13	2264.62
577.49	2261.47
577.84	2257.90
578.19	2254.15
578.54	2250.33
578.90	2246.20
579.25	2240.63
579.60	2235.61
579.95	2230.56
580.30	2225.43
580.66	2220.14
581.01	2215.03
581.36	2210.01
581.71	2205.90
582.06	2201.52
582.42	2197.02
582.77	2191.82
583.12	2187.11
583.47	2182.40
583.82	2177.44
584.17	2172.00
584.53	2166.27
584.88	2160.54
585.23	2154.71
585.58	2149.24
585.93	2143.69
586.28	2138.67
586.63	2133.54
586.98	2128.47
587.34	2123.71
587.69	2118.81
588.04	2113.51
588.39	2107.75
588.74	2101.14
589.09	2094.92
589.44	2088.02
589.79	2081.89
590.14	2076.22
590.49	2069.68
590.84	2063.15
591.19	2057.02
591.54	2050.67
591.89	2043.38
592.25	2036.44
592.60	2029.22
592.95	2021.45
593.30	2014.12
593.65	2006.45
594.00	1999.41
594.35	1991.99
594.70	1983.82
595.05	1976.57
595.40	1969.35
595.75	1961.77
596.10	1955.53
596.45	1948.54
596.80	1942.41
597.15	1935.60
597.50	1928.39
597.85	1921.98
598.19	1915.41
598.54	1908.37
598.89	1901.67
599.24	1895.70
599.59	1889.14
599.94	1882.84
600.29	1876.64
600.64	1869.94
600.99	1862.39
601.34	1855.46
601.69	1848.53
602.04	1841.62
602.39	1834.16
602.74	1827.24
603.08	1820.48
603.43	1813.65
603.78	1806.41
604.13	1799.05
604.48	1791.75
604.83	1784.86
605.18	1777.79
605.53	1769.64
605.87	1761.44
606.22	1754.17
606.57	1746.20
606.92	1738.91
607.27	1731.58
607.62	1724.59
607.96	1717.28
608.31	1710.67
608.66	1702.91
609.01	1695.27
609.36	1687.69
609.70	1679.67
610.05	1671.43
610.40	1663.71
610.75	1655.37
611.10	1647.74
611.44	1639.40
611.79	1631.41
612.14	1622.68
612.49	1613.54
612.83	1605.22
613.18	1597.15
613.53	1589.06
613.88	1580.49
614.22	1572.08
614.57	1563.59
614.92	1555.53
615.27	1547.95
615.61	1539.59
615.96	1531.65
616.31	1524.07
616.65	1516.64
617.00	1509.07
617.35	1501.52
617.70	1493.10
618.04	1484.60
618.39	1476.29
618.74	1468.76
619.08	1460.46
619.43	1452.96
619.78	1446.01
620.12	1438.82
620.47	1431.35
620.82	1423.07
621.16	1415.71
621.51	1408.17
621.85	1400.61
622.20	1391.96
622.55	1383.67
622.89	1375.85
623.24	1368.19
623.59	1360.89
623.93	1353.40
624.28	1346.20
624.62	1338.65
624.97	1331.45
625.32	1324.77
625.66	1317.78
626.01	1310.42
626.35	1302.90
626.70	1295.11
627.04	1287.32
627.39	1279.44
627.73	1272.00
628.08	1265.16
628.43	1257.74
628.77	1250.27
629.12	1242.68
629.46	1235.57
629.81	1228.06
630.15	1220.83
630.50	1213.42
630.84	1205.21
631.19	1197.25
631.53	1189.79
631.88	1182.16
632.22	1174.62
632.57	1167.33
632.91	1159.78
633.26	1152.33
633.60	1145.02
633.95	1137.90
634.29	1130.78
634.64	1124.13
634.98	1116.67
635.32	1109.46
635.67	1102.95
636.01	1096.35
636.36	1089.49
636.70	1083.02
637.05	1076.47
637.39	1070.01
637.73	1063.49
638.08	1057.54
638.42	1051.65
638.77	1045.10
639.11	1038.57
639.45	1032.18
639.80	1025.44
640.14	1018.99
640.49	1012.49
640.83	1006.20
641.17	1000.00
641.52	993.82
641.86	987.44
642.20	981.63
642.55	975.35
642.89	968.76
643.23	962.21
643.58	956.43
643.92	950.15
644.26	944.13
644.61	938.15
644.95	932.09
645.29	925.49
645.64	918.65
645.98	912.31
646.32	906.40
646.66	900.35
647.01	894.52
647.35	888.83
647.69	883.05
648.04	877.54
648.38	871.70
648.72	865.63
649.06	859.52
649.41	853.61
649.75	847.54
650.09	841.66
650.43	835.89
650.78	829.75
651.12	823.85
651.46	818.22
651.80	812.40
652.14	807.07
652.49	801.69
652.83	796.59
653.17	790.95
653.51	785.27
653.85	779.85
654.20	774.25
654.54	768.20
654.88	762.43
655.22	756.51
655.56	750.83
655.90	745.40
656.25	740.16
656.59	734.81
656.93	729.74
657.27	724.62
657.61	719.12
657.95	714.00
658.29	708.86
658.64	703.49
658.98	698.27
659.32	692.77
659.66	687.56
660.00	682.20
660.34	677.32
660.68	672.41
661.02	667.50
661.36	662.80
661.70	658.33
662.05	653.92
662.39	649.65
662.73	645.21
663.07	640.86
663.41	636.42
663.75	631.87
664.09	627.30
664.43	622.92
664.77	618.88
665.11	614.63
665.45	610.56
665.79	606.49
666.13	602.35
666.47	598.28
666.81	594.12
667.15	589.98
667.49	586.02
667.83	582.21
668.17	578.28
668.51	574.26
668.85	570.22
669.19	566.41
669.53	562.58
669.87	558.74
670.21	554.99
670.55	551.35
670.89	547.95
671.23	544.63
671.57	541.09
671.91	537.50
672.25	534.04
672.58	530.50
672.92	527.10
673.26	523.91
673.60	520.77
673.94	517.67
674.28	514.83
674.62	511.93
674.96	508.84
675.30	505.82
675.64	502.90
675.97	500.16
676.31	497.31
676.65	494.32
676.99	491.63
677.33	488.77
677.67	485.98
678.01	482.97
678.34	479.91
678.68	477.05
679.02	474.26
679.36	471.52
679.70	468.81
680.04	466.06
680.37	463.21
680.71	460.41
681.05	457.85
681.39	455.14
681.73	452.53
682.06	450.00
682.40	447.51
682.74	444.95
683.08	442.39
683.42	439.76
683.75	437.28
684.09	434.66
684.43	432.22
684.77	429.78
685.10	427.43
685.44	425.14
685.78	422.83
686.12	420.58
686.45	418.30
686.79	415.97
687.13	413.77
687.46	411.60
687.80	409.45
688.14	407.21
688.48	405.11
688.81	402.74
689.15	400.59
689.49	398.46
689.82	396.38
690.16	394.31
690.50	392.42
690.83	390.45
691.17	388.46
691.51	386.51
691.84	384.65
692.18	382.72
692.52	380.73
692.85	378.80
693.19	376.92
693.52	375.03
693.86	373.27
694.20	371.46
694.53	369.66
694.87	367.80
695.21	365.99
695.54	364.17
695.88	362.49
696.21	360.77
696.55	359.07
696.88	357.35
697.22	355.68
697.56	354.04
697.89	352.41
698.23	350.82
698.56	349.27
698.90	347.66
699.23	346.03
699.57	344.49
699.90	342.95
700.24	341.44
700.58	339.92
700.91	338.42
701.25	336.98
701.58	335.64
701.92	334.30
702.25	332.95
702.59	331.59
702.92	330.28
703.26	329.03
703.59	327.77
703.93	326.61
704.26	325.37
704.60	324.07
704.93	322.80
705.26	321.58
705.60	320.39
705.93	319.27
706.27	318.23
706.60	317.18
706.94	316.14
707.27	315.01
707.61	313.98
707.94	312.98
708.27	311.89
708.61	310.78
708.94	309.78
709.28	308.80
709.61	307.87
709.94	306.93
710.28	305.88
710.61	304.89
710.95	303.85
711.28	302.92
711.61	302.03
711.95	301.14
712.28	300.21
712.61	299.25
712.95	298.34
713.28	297.50
713.61	296.63
713.95	295.75
714.28	294.92
714.61	294.08
714.95	293.21
715.28	292.39
715.61	291.53
715.95	290.68
716.28	289.81
716.61	288.99
716.95	288.18
717.28	287.45
717.61	286.71
717.94	286.00
718.28	285.21
718.61	284.45
718.94	283.71
719.27	283.06
719.61	282.40
719.94	281.73
720.27	281.00
720.60	280.33
720.94	279.66
721.27	279.07
721.60	278.46
721.93	277.85
722.27	277.32
722.60	276.79
722.93	276.20
723.26	275.69
723.59	275.07
723.93	274.51
724.26	273.95
724.59	273.41
724.92	272.88
725.25	272.35
725.59	271.83
725.92	271.34
726.25	270.79
726.58	270.29
726.91	269.79
727.24	269.31
727.57	268.85
727.91	268.36
728.24	267.88
728.57	267.39
728.90	266.93
729.23	266.38
729.56	265.94
729.89	265.45
730.22	264.96
730.55	264.50
730.89	264.07
731.22	263.58
731.55	263.12
731.88	262.63
732.21	262.22
732.54	261.79
732.87	261.33
733.20	260.93
733.53	260.51
733.86	260.11
734.19	259.71
734.52	259.29
734.85	258.94
735.18	258.54
735.51	258.19
735.84	257.79
736.17	257.45
736.50	257.03
736.83	256.81
737.16	256.45
737.49	256.14
737.82	255.77
738.15	255.44
738.48	255.08
738.81	254.82
739.14	254.46
739.47	254.15
739.80	253.86
740.13	253.57
740.46	253.27
740.79	252.93
741.12	252.60
741.45	252.31
741.78	251.95
742.11	251.65
742.44	251.33
742.77	251.08
743.10	250.82
743.43	250.53
743.75	250.14
744.08	250.03
744.41	249.79
744.74	249.51
745.07	249.25
745.40	249.01
745.73	248.76
746.06	248.52
746.39	248.27
746.71	248.01
747.04	247.74
747.37	247.48
747.70	247.25
748.03	247.03
748.36	246.83
748.68	246.60
749.01	246.38
749.34	246.19
749.67	245.95
750.00	245.71
750.33	245.57
750.65	245.35
750.98	244.99
751.31	244.72
751.64	244.57
751.97	244.42
752.29	244.22
752.62	243.99
752.95	243.81
753.28	243.60
753.60	243.41
753.93	243.29
754.26	243.12
754.59	242.88
754.91	242.66
755.24	242.48
755.57	242.31
755.90	242.12
756.22	241.91
756.55	241.74
756.88	241.55
757.20	241.35
757.53	241.18
757.86	241.05
758.19	240.92
758.51	240.74
758.84	240.53
759.17	240.36
759.49	240.16
759.82	240.04
760.15	239.87
760.47	239.75
760.80	239.52
761.13	239.38
761.45	239.24
761.78	239.08
762.11	238.93
762.43	238.77
762.76	238.65
763.08	238.52
763.41	238.40
763.74	238.26
764.06	238.10
764.39	237.95
764.71	237.80
765.04	237.68
765.37	237.52
765.69	237.38
766.02	237.25
766.34	237.16
766.67	237.01
767.00	236.93
767.32	236.86
767.65	236.79
767.97	236.63
768.30	236.52
768.62	236.43
768.95	236.30
769.27	236.20
769.60	236.05
769.92	235.90
770.25	235.75
770.57	235.60
770.90	235.45
771.22	235.32
771.55	235.21
771.87	235.10
772.20	235.02
772.52	234.96
772.85	234.94
773.17	234.82
773.50	234.66
773.82	234.54
774.15	234.36
774.47	234.24
774.80	234.15
775.12	234.08
775.45	233.98
775.77	233.88
776.09	233.80
776.42	233.70
776.74	233.63
777.07	233.53
777.39	233.48
777.72	233.42
778.04	233.37
778.36	233.28
778.69	233.19
779.01	233.12
779.33	232.99
779.66	232.84
779.98	232.78
780.31	232.72
780.63	232.67
780.95	232.64
781.28	232.54
781.60	232.46
781.92	232.39
782.25	232.34
782.57	232.26
782.89	232.15
783.22	232.11
783.54	232.03
783.86	232.00
784.19	231.93
784.51	231.93
784.83	231.81
785.16	231.77
785.48	231.70
785.80	231.64
786.12	231.58
786.45	231.51
786.77	231.49
787.09	231.41
