SpectraSuite Data File
++++++++++++++++++++++++++++++++++++
Date: Fri Feb 01 16:00:23 EST 2013
User: group
Dark Spectrum Present: No
Reference Spectrum Present: No
Number of Sampled Component Spectra: 1
Spectrometers: USB2E7196
Integration Time (usec): 35000 (USB2E7196)
Spectra Averaged: 100 (USB2E7196)
Boxcar Smoothing: 10 (USB2E7196)
Correct for Electrical Dark: No (USB2E7196)
Strobe/Lamp Enabled: No (USB2E7196)
Correct for Detector Non-linearity: No (USB2E7196)
Correct for Stray Light: No (USB2E7196)
Number of Pixels in Processed Spectrum: 2048
>>>>>Begin Processed Spectral Data<<<<<
339.09	0.00
339.48	214.50
339.86	215.85
340.24	217.63
340.63	218.81
341.01	222.11
341.39	221.45
341.78	222.96
342.16	224.09
342.54	224.37
342.93	212.93
343.31	223.71
343.69	224.27
344.07	224.74
344.46	225.18
344.84	225.57
345.22	225.78
345.60	226.03
345.99	226.22
346.37	226.35
346.75	226.48
347.13	226.57
347.52	226.63
347.90	226.71
348.28	226.74
348.66	226.77
349.05	226.76
349.43	226.83
349.81	226.90
350.19	226.94
350.57	227.02
350.96	227.14
351.34	227.21
351.72	227.29
352.10	227.41
352.48	227.46
352.87	227.55
353.25	227.63
353.63	227.69
354.01	227.76
354.39	227.85
354.77	227.91
355.15	227.99
355.54	228.02
355.92	228.07
356.30	228.12
356.68	228.25
357.06	228.34
357.44	228.38
357.82	228.45
358.20	228.50
358.58	228.57
358.97	228.64
359.35	228.72
359.73	228.77
360.11	228.78
360.49	228.82
360.87	228.83
361.25	228.88
361.63	228.97
362.01	228.99
362.39	229.00
362.77	229.01
363.15	228.99
363.53	229.06
363.91	229.07
364.29	229.11
364.67	229.04
365.05	229.03
365.43	229.05
365.81	229.06
366.19	229.11
366.57	229.12
366.95	229.07
367.33	229.04
367.71	229.02
368.09	229.04
368.47	229.03
368.85	228.99
369.23	228.99
369.61	228.92
369.99	228.94
370.37	228.92
370.75	228.94
371.13	228.93
371.51	228.84
371.89	228.80
372.27	228.77
372.65	228.73
373.03	228.66
373.41	228.60
373.78	228.53
374.16	228.41
374.54	228.33
374.92	228.29
375.30	228.23
375.68	228.15
376.06	228.06
376.44	227.98
376.82	227.96
377.19	227.86
377.57	227.78
377.95	227.68
378.33	227.62
378.71	227.47
379.09	227.39
379.47	227.36
379.84	227.29
380.22	227.20
380.60	227.13
380.98	227.09
381.36	227.01
381.73	226.94
382.11	226.89
382.49	226.83
382.87	226.70
383.25	226.64
383.62	226.69
384.00	226.62
384.38	226.55
384.76	226.50
385.13	226.48
385.51	226.42
385.89	226.36
386.27	226.32
386.64	226.31
387.02	226.27
387.40	226.20
387.78	226.16
388.15	226.14
388.53	226.13
388.91	226.12
389.29	226.11
389.66	226.09
390.04	226.06
390.42	226.04
390.79	226.07
391.17	226.05
391.55	225.93
391.92	225.93
392.30	225.96
392.68	225.92
393.05	225.90
393.43	225.92
393.81	225.93
394.18	225.90
394.56	225.93
394.94	225.95
395.31	225.96
395.69	226.02
396.06	226.06
396.44	226.05
396.82	226.07
397.19	226.15
397.57	226.19
397.95	226.24
398.32	226.28
398.70	226.32
399.07	226.40
399.45	226.45
399.82	226.53
400.20	226.59
400.58	226.70
400.95	226.76
401.33	226.88
401.70	227.02
402.08	227.12
402.45	227.24
402.83	227.37
403.20	227.49
403.58	227.56
403.95	227.71
404.33	227.84
404.71	227.94
405.08	228.10
405.46	228.26
405.83	228.43
406.21	228.61
406.58	228.79
406.96	228.96
407.33	229.19
407.70	229.37
408.08	229.68
408.45	229.87
408.83	230.12
409.20	230.35
409.58	230.57
409.95	230.85
410.33	231.12
410.70	231.37
411.08	231.71
411.45	232.00
411.82	232.33
412.20	232.72
412.57	233.16
412.95	233.47
413.32	233.86
413.69	234.30
414.07	234.70
414.44	235.17
414.82	235.65
415.19	236.17
415.56	236.73
415.94	237.26
416.31	237.92
416.68	238.55
417.06	239.24
417.43	239.92
417.81	240.70
418.18	241.48
418.55	242.33
418.93	243.17
419.30	244.10
419.67	245.04
420.04	245.95
420.42	246.91
420.79	248.12
421.16	249.27
421.54	250.47
421.91	251.68
422.28	252.93
422.66	254.27
423.03	255.57
423.40	256.89
423.77	258.29
424.15	259.73
424.52	261.23
424.89	262.85
425.26	264.39
425.64	265.84
426.01	267.42
426.38	269.06
426.75	270.74
427.13	272.45
427.50	274.25
427.87	276.15
428.24	278.05
428.61	279.74
428.99	281.67
429.36	283.75
429.73	285.82
430.10	287.85
430.47	289.94
430.85	292.07
431.22	294.36
431.59	296.74
431.96	298.96
432.33	301.41
432.70	303.80
433.08	306.61
433.45	309.26
433.82	311.85
434.19	314.73
434.56	317.53
434.93	320.18
435.30	322.79
435.68	325.67
436.05	328.48
436.42	331.24
436.79	333.77
437.16	336.45
437.53	339.28
437.90	342.07
438.27	344.79
438.64	347.61
439.01	350.16
439.38	352.38
439.75	354.54
440.13	357.07
440.50	359.35
440.87	361.19
441.24	363.09
441.61	365.25
441.98	366.72
442.35	368.54
442.72	370.37
443.09	372.09
443.46	373.03
443.83	373.62
444.20	374.13
444.57	374.99
444.94	375.21
445.31	375.55
445.68	375.91
446.05	375.98
446.42	375.57
446.79	375.17
447.16	374.71
447.53	374.40
447.90	373.21
448.27	372.06
448.64	370.43
449.01	369.29
449.37	367.31
449.74	365.41
450.11	363.12
450.48	360.67
450.85	358.20
451.22	356.09
451.59	354.04
451.96	352.11
452.33	349.47
452.70	347.14
453.07	344.30
453.43	341.41
453.80	338.63
454.17	335.93
454.54	333.40
454.91	330.67
455.28	327.97
455.65	325.47
456.02	323.02
456.38	320.90
456.75	318.22
457.12	315.99
457.49	313.78
457.86	311.62
458.23	309.78
458.59	307.75
458.96	305.66
459.33	303.85
459.70	302.01
460.07	300.51
460.43	298.80
460.80	297.19
461.17	295.75
461.54	294.25
461.91	292.85
462.27	291.40
462.64	290.17
463.01	288.84
463.38	287.54
463.74	286.18
464.11	285.01
464.48	284.01
464.85	282.87
465.21	282.03
465.58	281.16
465.95	280.08
466.32	279.17
466.68	278.30
467.05	277.39
467.42	276.48
467.78	275.55
468.15	274.70
468.52	274.03
468.88	273.18
469.25	272.44
469.62	271.80
469.98	271.09
470.35	270.47
470.72	269.89
471.08	269.25
471.45	268.72
471.82	268.19
472.18	267.58
472.55	267.20
472.92	266.68
473.28	266.21
473.65	265.74
474.02	265.34
474.38	264.98
474.75	264.68
475.11	264.37
475.48	264.10
475.85	263.88
476.21	263.65
476.58	263.47
476.94	263.32
477.31	263.18
477.67	263.07
478.04	262.96
478.41	262.89
478.77	262.92
479.14	262.85
479.50	262.90
479.87	263.02
480.23	263.07
480.60	263.10
480.96	263.18
481.33	263.39
481.69	263.58
482.06	263.78
482.42	263.95
482.79	264.18
483.15	264.52
483.52	264.89
483.88	265.28
484.25	265.66
484.61	266.10
484.98	266.53
485.34	267.12
485.71	267.71
486.07	268.32
486.44	268.92
486.80	269.65
487.17	270.33
487.53	271.11
487.90	271.93
488.26	272.87
488.62	273.87
488.99	274.85
489.35	275.90
489.72	277.02
490.08	278.23
490.44	279.45
490.81	280.82
491.17	282.15
491.54	283.62
491.90	285.15
492.26	286.79
492.63	288.54
492.99	290.31
493.36	292.22
493.72	294.25
494.08	296.37
494.45	298.53
494.81	300.92
495.17	303.39
495.54	305.99
495.90	308.69
496.26	311.48
496.63	314.47
496.99	317.62
497.35	320.86
497.72	324.26
498.08	327.82
498.44	331.48
498.80	335.39
499.17	339.44
499.53	343.67
499.89	348.05
500.26	352.55
500.62	357.22
500.98	362.16
501.34	367.25
501.71	372.58
502.07	378.10
502.43	383.73
502.79	389.58
503.16	395.61
503.52	401.90
503.88	408.34
504.24	414.98
504.60	421.85
504.97	429.04
505.33	436.40
505.69	444.12
506.05	451.91
506.41	459.81
506.78	467.92
507.14	476.33
507.50	485.02
507.86	494.05
508.22	503.19
508.59	512.45
508.95	522.05
509.31	531.77
509.67	541.91
510.03	552.18
510.39	562.70
510.75	573.55
511.12	584.47
511.48	595.72
511.84	607.15
512.20	618.65
512.56	630.55
512.92	642.80
513.28	655.10
513.64	667.57
514.00	680.42
514.37	693.45
514.73	706.53
515.09	719.58
515.45	732.89
515.81	746.45
516.17	760.45
516.53	774.53
516.89	788.77
517.25	802.96
517.61	817.37
517.97	831.82
518.33	846.30
518.69	861.14
519.05	876.08
519.41	891.23
519.77	906.81
520.13	922.26
520.49	937.56
520.85	953.00
521.21	968.62
521.57	984.77
521.93	1000.51
522.29	1016.88
522.65	1033.15
523.01	1049.39
523.37	1065.45
523.73	1081.60
524.09	1097.61
524.45	1113.96
524.81	1130.41
525.17	1147.23
525.53	1164.05
525.89	1180.73
526.25	1197.44
526.61	1213.86
526.97	1230.61
527.33	1247.14
527.68	1263.73
528.04	1280.16
528.40	1296.71
528.76	1313.80
529.12	1330.39
529.48	1347.15
529.84	1363.11
530.20	1379.72
530.56	1396.71
530.91	1414.04
531.27	1430.64
531.63	1447.09
531.99	1463.64
532.35	1479.61
532.71	1495.39
533.07	1511.60
533.42	1527.45
533.78	1543.44
534.14	1559.72
534.50	1575.00
534.86	1590.73
535.21	1605.84
535.57	1621.79
535.93	1637.22
536.29	1651.89
536.65	1666.87
537.00	1681.60
537.36	1696.88
537.72	1711.33
538.08	1725.67
538.44	1739.51
538.79	1753.41
539.15	1767.11
539.51	1780.75
539.87	1795.14
540.22	1808.95
540.58	1822.83
540.94	1836.28
541.29	1849.16
541.65	1861.65
542.01	1874.85
542.37	1887.11
542.72	1899.43
543.08	1911.14
543.44	1923.55
543.79	1934.88
544.15	1945.95
544.51	1957.55
544.87	1968.37
545.22	1979.10
545.58	1989.19
545.94	1998.87
546.29	2008.76
546.65	2018.64
547.01	2027.98
547.36	2036.60
547.72	2044.97
548.07	2052.69
548.43	2060.84
548.79	2068.87
549.14	2076.50
549.50	2083.87
549.86	2091.49
550.21	2098.84
550.57	2106.01
550.92	2112.61
551.28	2119.51
551.64	2126.36
551.99	2132.92
552.35	2139.14
552.70	2145.39
553.06	2151.42
553.41	2157.87
553.77	2163.89
554.13	2169.87
554.48	2175.95
554.84	2181.32
555.19	2186.71
555.55	2191.81
555.90	2196.33
556.26	2201.25
556.61	2206.08
556.97	2210.31
557.32	2214.56
557.68	2218.81
558.03	2223.15
558.39	2226.98
558.74	2231.89
559.10	2235.87
559.45	2239.52
559.81	2243.86
560.16	2247.68
560.52	2250.94
560.87	2254.17
561.23	2256.73
561.58	2259.74
561.94	2262.22
562.29	2264.61
562.64	2267.07
563.00	2269.72
563.35	2273.24
563.71	2276.29
564.06	2279.39
564.42	2282.26
564.77	2284.67
565.12	2286.83
565.48	2288.69
565.83	2290.34
566.19	2291.47
566.54	2292.27
566.89	2293.20
567.25	2293.71
567.60	2295.01
567.96	2296.69
568.31	2297.60
568.66	2298.79
569.02	2299.32
569.37	2299.65
569.72	2300.56
570.08	2300.86
570.43	2300.91
570.78	2300.16
571.14	2298.64
571.49	2297.36
571.84	2297.09
572.20	2296.09
572.55	2295.11
572.90	2293.56
573.26	2292.16
573.61	2290.47
573.96	2288.75
574.31	2286.07
574.67	2283.16
575.02	2279.61
575.37	2276.27
575.72	2272.62
576.08	2269.30
576.43	2266.08
576.78	2262.40
577.13	2259.47
577.49	2256.41
577.84	2252.90
578.19	2249.22
578.54	2245.75
578.90	2241.46
579.25	2235.76
579.60	2230.68
579.95	2225.61
580.30	2220.53
580.66	2215.46
581.01	2210.48
581.36	2205.49
581.71	2201.28
582.06	2196.76
582.42	2192.24
582.77	2187.00
583.12	2182.43
583.47	2177.71
583.82	2172.52
584.17	2167.36
584.53	2161.79
584.88	2156.18
585.23	2150.46
585.58	2145.14
585.93	2139.62
586.28	2134.93
586.63	2129.96
586.98	2125.01
587.34	2120.34
587.69	2115.59
588.04	2110.35
588.39	2104.66
588.74	2098.37
589.09	2092.13
589.44	2085.48
589.79	2079.53
590.14	2073.86
590.49	2067.19
590.84	2060.84
591.19	2054.95
591.54	2048.51
591.89	2041.01
592.25	2034.21
592.60	2027.03
592.95	2019.40
593.30	2011.97
593.65	2004.41
594.00	1997.49
594.35	1990.21
594.70	1982.17
595.05	1974.90
595.40	1967.73
595.75	1960.40
596.10	1954.06
596.45	1947.40
596.80	1941.24
597.15	1934.60
597.50	1927.44
597.85	1921.12
598.19	1914.32
598.54	1907.22
598.89	1900.57
599.24	1894.72
599.59	1887.85
599.94	1881.69
600.29	1875.21
600.64	1868.77
600.99	1861.32
601.34	1854.48
601.69	1847.65
602.04	1840.86
602.39	1833.50
602.74	1826.57
603.08	1819.68
603.43	1813.05
603.78	1805.73
604.13	1798.44
604.48	1791.06
604.83	1784.19
605.18	1777.11
605.53	1769.28
605.87	1761.29
606.22	1754.11
606.57	1746.29
606.92	1739.15
607.27	1731.89
607.62	1725.00
607.96	1717.67
608.31	1711.05
608.66	1703.34
609.01	1695.63
609.36	1688.03
609.70	1680.01
610.05	1671.88
610.40	1664.32
610.75	1655.94
611.10	1648.23
611.44	1639.88
611.79	1632.01
612.14	1623.50
612.49	1614.37
612.83	1606.01
613.18	1597.88
613.53	1589.64
613.88	1580.97
614.22	1572.67
614.57	1564.18
614.92	1556.13
615.27	1548.49
615.61	1540.12
615.96	1532.11
616.31	1524.47
616.65	1517.11
617.00	1509.54
617.35	1501.89
617.70	1493.56
618.04	1485.04
618.39	1476.92
618.74	1469.24
619.08	1460.88
619.43	1453.28
619.78	1446.32
620.12	1439.10
620.47	1431.56
620.82	1423.51
621.16	1416.17
621.51	1408.59
621.85	1400.85
622.20	1392.33
622.55	1383.92
622.89	1376.09
623.24	1368.41
623.59	1360.97
623.93	1353.45
624.28	1346.22
624.62	1338.73
624.97	1331.54
625.32	1324.79
625.66	1317.81
626.01	1310.64
626.35	1303.24
626.70	1295.51
627.04	1287.77
627.39	1279.99
627.73	1272.62
628.08	1265.61
628.43	1258.22
628.77	1250.82
629.12	1243.34
629.46	1236.25
629.81	1229.06
630.15	1221.79
630.50	1214.38
630.84	1206.32
631.19	1198.37
631.53	1190.89
631.88	1183.31
632.22	1175.72
632.57	1168.40
632.91	1160.72
633.26	1153.31
633.60	1145.92
633.95	1138.78
634.29	1131.75
634.64	1125.16
634.98	1117.68
635.32	1110.54
635.67	1104.06
636.01	1097.44
636.36	1090.59
636.70	1084.01
637.05	1077.36
637.39	1070.82
637.73	1064.42
638.08	1058.47
638.42	1052.47
638.77	1045.98
639.11	1039.36
639.45	1032.86
639.80	1026.22
640.14	1019.83
640.49	1013.27
640.83	1006.92
641.17	1000.66
641.52	994.35
641.86	987.90
642.20	982.01
642.55	975.71
642.89	969.15
643.23	962.61
643.58	956.88
643.92	950.71
644.26	944.62
644.61	938.65
644.95	932.54
645.29	925.89
645.64	919.19
645.98	912.76
646.32	907.00
646.66	901.04
647.01	895.21
647.35	889.53
647.69	883.71
648.04	878.13
648.38	872.32
648.72	866.30
649.06	860.20
649.41	854.38
649.75	848.39
650.09	842.43
650.43	836.63
650.78	830.51
651.12	824.57
651.46	818.83
651.80	813.08
652.14	807.66
652.49	802.29
652.83	797.00
653.17	791.40
653.51	785.61
653.85	780.19
654.20	774.59
654.54	768.47
654.88	762.75
655.22	756.93
655.56	751.27
655.90	745.80
656.25	740.52
656.59	735.22
656.93	730.16
657.27	725.02
657.61	719.53
657.95	714.43
658.29	709.32
658.64	704.13
658.98	698.78
659.32	693.30
659.66	688.12
660.00	682.84
660.34	677.93
660.68	673.02
661.02	668.00
661.36	663.25
661.70	658.83
662.05	654.47
662.39	650.10
662.73	645.65
663.07	641.26
663.41	636.84
663.75	632.30
664.09	627.72
664.43	623.27
664.77	619.19
665.11	614.94
665.45	610.85
665.79	606.69
666.13	602.63
666.47	598.62
666.81	594.43
667.15	590.35
667.49	586.43
667.83	582.68
668.17	578.79
668.51	574.75
668.85	570.72
669.19	566.85
669.53	562.97
669.87	559.06
670.21	555.35
670.55	551.69
670.89	548.27
671.23	544.86
671.57	541.36
671.91	537.83
672.25	534.29
672.58	530.73
672.92	527.41
673.26	524.23
673.60	521.04
673.94	517.90
674.28	515.01
674.62	512.03
674.96	508.89
675.30	505.89
675.64	502.95
675.97	500.12
676.31	497.29
676.65	494.35
676.99	491.65
677.33	488.81
677.67	485.97
678.01	482.88
678.34	479.91
678.68	477.03
679.02	474.21
679.36	471.45
679.70	468.74
680.04	465.92
680.37	463.04
680.71	460.27
681.05	457.76
681.39	455.03
681.73	452.41
682.06	449.86
682.40	447.35
682.74	444.83
683.08	442.36
683.42	439.81
683.75	437.35
684.09	434.80
684.43	432.35
684.77	429.94
685.10	427.64
685.44	425.34
685.78	423.06
686.12	420.75
686.45	418.46
686.79	416.20
687.13	414.03
687.46	411.88
687.80	409.70
688.14	407.41
688.48	405.34
688.81	403.07
689.15	400.98
689.49	398.82
689.82	396.71
690.16	394.61
690.50	392.63
690.83	390.65
691.17	388.72
691.51	386.82
691.84	384.96
692.18	383.03
692.52	381.07
692.85	379.13
693.19	377.28
693.52	375.42
693.86	373.55
694.20	371.77
694.53	369.95
694.87	368.14
695.21	366.37
695.54	364.54
695.88	362.84
696.21	361.10
696.55	359.41
696.88	357.75
697.22	356.05
697.56	354.43
697.89	352.81
698.23	351.21
698.56	349.56
698.90	347.94
699.23	346.30
699.57	344.75
699.90	343.24
700.24	341.70
700.58	340.16
700.91	338.69
701.25	337.22
701.58	335.85
701.92	334.49
702.25	333.11
702.59	331.72
702.92	330.38
703.26	329.04
703.59	327.75
703.93	326.51
704.26	325.28
704.60	323.94
704.93	322.67
705.26	321.38
705.60	320.22
705.93	319.07
706.27	318.03
706.60	316.93
706.94	315.82
707.27	314.68
707.61	313.60
707.94	312.59
708.27	311.46
708.61	310.37
708.94	309.32
709.28	308.35
709.61	307.43
709.94	306.48
710.28	305.47
710.61	304.50
710.95	303.46
711.28	302.52
711.61	301.59
711.95	300.67
712.28	299.73
712.61	298.73
712.95	297.77
713.28	296.86
713.61	295.94
713.95	295.09
714.28	294.23
714.61	293.37
714.95	292.50
715.28	291.69
715.61	290.82
715.95	289.99
716.28	289.14
716.61	288.28
716.95	287.43
717.28	286.68
717.61	285.91
717.94	285.19
718.28	284.39
718.61	283.66
718.94	282.96
719.27	282.32
719.61	281.68
719.94	281.08
720.27	280.41
720.60	279.75
720.94	279.13
721.27	278.55
721.60	277.98
721.93	277.39
722.27	276.84
722.60	276.29
722.93	275.68
723.26	275.13
723.59	274.55
723.93	274.04
724.26	273.47
724.59	272.93
724.92	272.39
725.25	271.92
725.59	271.40
725.92	270.89
726.25	270.36
726.58	269.88
726.91	269.32
727.24	268.84
727.57	268.43
727.91	267.97
728.24	267.54
728.57	267.04
728.90	266.57
729.23	266.09
729.56	265.66
729.89	265.24
730.22	264.77
730.55	264.33
730.89	263.89
731.22	263.47
731.55	263.04
731.88	262.61
732.21	262.17
732.54	261.74
732.87	261.33
733.20	260.94
733.53	260.54
733.86	260.18
734.19	259.78
734.52	259.35
734.85	258.95
735.18	258.52
735.51	258.18
735.84	257.82
736.17	257.45
736.50	257.08
736.83	256.83
737.16	256.49
737.49	256.15
737.82	255.81
738.15	255.48
738.48	255.10
738.81	254.78
739.14	254.44
739.47	254.11
739.80	253.79
740.13	253.47
740.46	253.12
740.79	252.76
741.12	252.46
741.45	252.15
741.78	251.84
742.11	251.49
742.44	251.13
742.77	250.83
743.10	250.52
743.43	250.17
743.75	249.77
744.08	249.63
744.41	249.34
744.74	249.03
745.07	248.75
745.40	248.53
745.73	248.23
746.06	247.96
746.39	247.70
746.71	247.42
747.04	247.14
747.37	246.91
747.70	246.67
748.03	246.42
748.36	246.20
748.68	245.93
749.01	245.73
749.34	245.50
749.67	245.28
750.00	245.08
750.33	244.97
750.65	244.79
750.98	244.41
751.31	244.22
751.64	244.04
751.97	243.89
752.29	243.67
752.62	243.45
752.95	243.23
753.28	243.04
753.60	242.84
753.93	242.66
754.26	242.47
754.59	242.26
754.91	242.05
755.24	241.86
755.57	241.68
755.90	241.50
756.22	241.36
756.55	241.17
756.88	240.95
757.20	240.69
757.53	240.47
757.86	240.34
758.19	240.21
758.51	240.04
758.84	239.78
759.17	239.62
759.49	239.50
759.82	239.43
760.15	239.27
760.47	239.15
760.80	239.00
761.13	238.88
761.45	238.73
761.78	238.57
762.11	238.41
762.43	238.25
762.76	238.14
763.08	237.99
763.41	237.86
763.74	237.76
764.06	237.63
764.39	237.51
764.71	237.34
765.04	237.18
765.37	237.03
765.69	236.95
766.02	236.82
766.34	236.68
766.67	236.50
767.00	236.41
767.32	236.34
767.65	236.28
767.97	236.13
768.30	236.01
768.62	235.93
768.95	235.82
769.27	235.70
769.60	235.62
769.92	235.53
770.25	235.41
770.57	235.29
770.90	235.20
771.22	235.10
771.55	235.05
771.87	234.95
772.20	234.85
772.52	234.81
772.85	234.84
773.17	234.75
773.50	234.66
773.82	234.57
774.15	234.40
774.47	234.25
774.80	234.16
775.12	234.11
775.45	234.02
775.77	233.94
776.09	233.84
776.42	233.73
776.74	233.65
777.07	233.54
777.39	233.45
777.72	233.34
778.04	233.24
778.36	233.13
778.69	233.08
779.01	233.01
779.33	232.88
779.66	232.69
779.98	232.60
780.31	232.49
780.63	232.42
780.95	232.38
781.28	232.32
781.60	232.23
781.92	232.15
782.25	232.05
782.57	232.00
782.89	231.93
783.22	231.84
783.54	231.77
783.86	231.71
784.19	231.63
784.51	231.59
784.83	231.54
785.16	231.47
785.48	231.38
785.80	231.35
786.12	231.27
786.45	231.23
786.77	231.19
787.09	231.14
