SpectraSuite Data File
++++++++++++++++++++++++++++++++++++
Date: Fri Feb 01 14:58:43 EST 2013
User: group
Dark Spectrum Present: No
Reference Spectrum Present: No
Number of Sampled Component Spectra: 1
Spectrometers: USB2E7196
Integration Time (usec): 35000 (USB2E7196)
Spectra Averaged: 100 (USB2E7196)
Boxcar Smoothing: 10 (USB2E7196)
Correct for Electrical Dark: No (USB2E7196)
Strobe/Lamp Enabled: No (USB2E7196)
Correct for Detector Non-linearity: No (USB2E7196)
Correct for Stray Light: No (USB2E7196)
Number of Pixels in Processed Spectrum: 2048
>>>>>Begin Processed Spectral Data<<<<<
339.09	0.00
339.48	215.27
339.86	216.15
340.24	217.76
340.63	219.74
341.01	221.45
341.39	222.31
341.78	223.22
342.16	223.99
342.54	224.91
342.93	213.28
343.31	224.07
343.69	224.61
344.07	225.13
344.46	225.56
344.84	225.90
345.22	226.12
345.60	226.34
345.99	226.54
346.37	226.68
346.75	226.77
347.13	226.83
347.52	226.91
347.90	226.98
348.28	227.07
348.66	227.12
349.05	227.12
349.43	227.16
349.81	227.20
350.19	227.23
350.57	227.27
350.96	227.36
351.34	227.43
351.72	227.49
352.10	227.55
352.48	227.63
352.87	227.71
353.25	227.83
353.63	227.91
354.01	227.96
354.39	228.05
354.77	228.13
355.15	228.20
355.54	228.26
355.92	228.27
356.30	228.30
356.68	228.43
357.06	228.54
357.44	228.60
357.82	228.71
358.20	228.81
358.58	228.88
358.97	228.93
359.35	228.99
359.73	229.08
360.11	229.14
360.49	229.19
360.87	229.23
361.25	229.28
361.63	229.38
362.01	229.43
362.39	229.43
362.77	229.46
363.15	229.49
363.53	229.52
363.91	229.54
364.29	229.55
364.67	229.47
365.05	229.48
365.43	229.49
365.81	229.45
366.19	229.49
366.57	229.51
366.95	229.45
367.33	229.46
367.71	229.40
368.09	229.40
368.47	229.37
368.85	229.32
369.23	229.31
369.61	229.16
369.99	229.13
370.37	229.13
370.75	229.14
371.13	229.08
371.51	229.03
371.89	228.99
372.27	228.97
372.65	228.91
373.03	228.86
373.41	228.78
373.78	228.73
374.16	228.62
374.54	228.53
374.92	228.47
375.30	228.39
375.68	228.35
376.06	228.26
376.44	228.19
376.82	228.14
377.19	228.03
377.57	228.00
377.95	227.92
378.33	227.83
378.71	227.70
379.09	227.64
379.47	227.54
379.84	227.46
380.22	227.32
380.60	227.26
380.98	227.15
381.36	227.09
381.73	227.00
382.11	226.97
382.49	226.90
382.87	226.84
383.25	226.76
383.62	226.76
384.00	226.71
384.38	226.66
384.76	226.62
385.13	226.64
385.51	226.60
385.89	226.52
386.27	226.50
386.64	226.50
387.02	226.48
387.40	226.46
387.78	226.44
388.15	226.45
388.53	226.41
388.91	226.39
389.29	226.37
389.66	226.36
390.04	226.29
390.42	226.29
390.79	226.29
391.17	226.27
391.55	226.17
391.92	226.17
392.30	226.17
392.68	226.16
393.05	226.14
393.43	226.11
393.81	226.15
394.18	226.14
394.56	226.16
394.94	226.19
395.31	226.19
395.69	226.27
396.06	226.33
396.44	226.36
396.82	226.37
397.19	226.45
397.57	226.51
397.95	226.59
398.32	226.64
398.70	226.69
399.07	226.78
399.45	226.88
399.82	226.95
400.20	227.02
400.58	227.09
400.95	227.15
401.33	227.29
401.70	227.44
402.08	227.57
402.45	227.66
402.83	227.81
403.20	227.97
403.58	228.08
403.95	228.21
404.33	228.39
404.71	228.58
405.08	228.75
405.46	228.90
405.83	229.07
406.21	229.19
406.58	229.38
406.96	229.58
407.33	229.78
407.70	230.00
408.08	230.28
408.45	230.51
408.83	230.76
409.20	230.96
409.58	231.17
409.95	231.42
410.33	231.70
410.70	231.93
411.08	232.20
411.45	232.49
411.82	232.79
412.20	233.12
412.57	233.51
412.95	233.81
413.32	234.23
413.69	234.66
414.07	235.14
414.44	235.59
414.82	236.06
415.19	236.61
415.56	237.12
415.94	237.66
416.31	238.31
416.68	238.90
417.06	239.66
417.43	240.33
417.81	241.11
418.18	241.86
418.55	242.71
418.93	243.59
419.30	244.50
419.67	245.43
420.04	246.41
420.42	247.39
420.79	248.59
421.16	249.72
421.54	250.88
421.91	252.04
422.28	253.32
422.66	254.61
423.03	255.93
423.40	257.31
423.77	258.72
424.15	260.14
424.52	261.67
424.89	263.28
425.26	264.83
425.64	266.25
426.01	267.85
426.38	269.52
426.75	271.19
427.13	272.89
427.50	274.67
427.87	276.53
428.24	278.39
428.61	280.14
428.99	282.07
429.36	284.20
429.73	286.28
430.10	288.29
430.47	290.38
430.85	292.46
431.22	294.64
431.59	297.02
431.96	299.29
432.33	301.77
432.70	304.13
433.08	306.94
433.45	309.60
433.82	312.24
434.19	315.10
434.56	317.92
434.93	320.60
435.30	323.26
435.68	326.18
436.05	329.02
436.42	331.79
436.79	334.34
437.16	337.00
437.53	339.89
437.90	342.72
438.27	345.48
438.64	348.34
439.01	350.93
439.38	353.19
439.75	355.39
440.13	357.89
440.50	360.21
440.87	362.06
441.24	363.98
441.61	366.18
441.98	367.66
442.35	369.48
442.72	371.38
443.09	373.19
443.46	374.21
443.83	374.82
444.20	375.34
444.57	376.17
444.94	376.49
445.31	376.81
445.68	377.17
446.05	377.27
446.42	376.89
446.79	376.49
447.16	376.04
447.53	375.68
447.90	374.49
448.27	373.36
448.64	371.80
449.01	370.68
449.37	368.65
449.74	366.79
450.11	364.52
450.48	362.01
450.85	359.47
451.22	357.28
451.59	355.27
451.96	353.30
452.33	350.67
452.70	348.33
453.07	345.49
453.43	342.58
453.80	339.78
454.17	337.10
454.54	334.57
454.91	331.85
455.28	329.17
455.65	326.70
456.02	324.27
456.38	322.11
456.75	319.47
457.12	317.25
457.49	315.00
457.86	312.81
458.23	310.94
458.59	308.89
458.96	306.79
459.33	304.88
459.70	303.06
460.07	301.51
460.43	299.77
460.80	298.17
461.17	296.71
461.54	295.21
461.91	293.78
462.27	292.34
462.64	291.08
463.01	289.71
463.38	288.40
463.74	287.00
464.11	285.82
464.48	284.73
464.85	283.60
465.21	282.76
465.58	281.84
465.95	280.79
466.32	279.89
466.68	278.96
467.05	278.08
467.42	277.15
467.78	276.23
468.15	275.32
468.52	274.65
468.88	273.82
469.25	273.01
469.62	272.35
469.98	271.63
470.35	270.99
470.72	270.36
471.08	269.66
471.45	269.11
471.82	268.55
472.18	267.97
472.55	267.50
472.92	266.93
473.28	266.43
473.65	265.95
474.02	265.47
474.38	265.09
474.75	264.75
475.11	264.41
475.48	264.17
475.85	263.95
476.21	263.67
476.58	263.45
476.94	263.32
477.31	263.13
477.67	262.96
478.04	262.82
478.41	262.75
478.77	262.78
479.14	262.68
479.50	262.72
479.87	262.78
480.23	262.85
480.60	262.93
480.96	263.05
481.33	263.20
481.69	263.41
482.06	263.64
482.42	263.82
482.79	264.06
483.15	264.39
483.52	264.75
483.88	265.12
484.25	265.50
484.61	265.89
484.98	266.34
485.34	266.88
485.71	267.46
486.07	268.09
486.44	268.69
486.80	269.41
487.17	270.10
487.53	270.89
487.90	271.75
488.26	272.70
488.62	273.67
488.99	274.65
489.35	275.66
489.72	276.78
490.08	277.99
490.44	279.23
490.81	280.51
491.17	281.83
491.54	283.29
491.90	284.78
492.26	286.43
492.63	288.15
492.99	289.94
493.36	291.84
493.72	293.86
494.08	295.89
494.45	298.15
494.81	300.53
495.17	302.96
495.54	305.50
495.90	308.14
496.26	310.93
496.63	313.94
496.99	317.04
497.35	320.27
497.72	323.64
498.08	327.12
498.44	330.82
498.80	334.77
499.17	338.76
499.53	342.97
499.89	347.34
500.26	351.86
500.62	356.50
500.98	361.42
501.34	366.41
501.71	371.76
502.07	377.12
502.43	382.66
502.79	388.48
503.16	394.51
503.52	400.79
503.88	407.18
504.24	413.73
504.60	420.62
504.97	427.71
505.33	435.05
505.69	442.74
506.05	450.50
506.41	458.29
506.78	466.44
507.14	474.85
507.50	483.53
507.86	492.48
508.22	501.66
508.59	510.82
508.95	520.45
509.31	530.24
509.67	540.37
510.03	550.65
510.39	561.19
510.75	572.00
511.12	582.83
511.48	594.10
511.84	605.57
512.20	617.14
512.56	629.04
512.92	641.19
513.28	653.48
513.64	665.96
514.00	678.70
514.37	691.66
514.73	704.66
515.09	717.72
515.45	731.08
515.81	744.61
516.17	758.64
516.53	772.75
516.89	786.87
517.25	801.11
517.61	815.52
517.97	829.94
518.33	844.33
518.69	859.20
519.05	874.20
519.41	889.38
519.77	904.84
520.13	920.26
520.49	935.70
520.85	951.18
521.21	966.90
521.57	983.12
521.93	998.95
522.29	1015.46
522.65	1031.70
523.01	1047.93
523.37	1064.11
523.73	1080.27
524.09	1096.37
524.45	1112.91
524.81	1129.54
525.17	1146.52
525.53	1163.53
525.89	1180.53
526.25	1197.44
526.61	1213.93
526.97	1230.83
527.33	1247.41
527.68	1264.21
528.04	1280.87
528.40	1297.71
528.76	1314.90
529.12	1331.65
529.48	1348.65
529.84	1364.79
530.20	1381.63
530.56	1398.84
530.91	1416.33
531.27	1433.20
531.63	1449.90
531.99	1466.39
532.35	1482.47
532.71	1498.44
533.07	1514.73
533.42	1530.58
533.78	1546.57
534.14	1562.91
534.50	1578.28
534.86	1594.22
535.21	1609.41
535.57	1625.30
535.93	1640.79
536.29	1655.60
536.65	1670.80
537.00	1685.64
537.36	1700.97
537.72	1715.45
538.08	1729.83
538.44	1743.67
538.79	1757.68
539.15	1771.48
539.51	1785.43
539.87	1799.90
540.22	1813.75
540.58	1827.72
540.94	1841.35
541.29	1854.56
541.65	1867.36
542.01	1880.80
542.37	1893.29
542.72	1905.90
543.08	1917.74
543.44	1930.14
543.79	1941.44
544.15	1952.48
544.51	1964.07
544.87	1975.14
545.22	1985.99
545.58	1996.24
545.94	2006.03
546.29	2016.04
546.65	2025.81
547.01	2035.00
547.36	2043.87
547.72	2052.27
548.07	2060.03
548.43	2068.09
548.79	2076.02
549.14	2083.61
549.50	2091.02
549.86	2098.79
550.21	2106.09
550.57	2113.28
550.92	2120.01
551.28	2127.06
551.64	2134.05
551.99	2140.56
552.35	2146.68
552.70	2152.80
553.06	2158.61
553.41	2164.98
553.77	2170.97
554.13	2177.03
554.48	2183.09
554.84	2188.36
555.19	2193.70
555.55	2198.82
555.90	2203.29
556.26	2208.05
556.61	2212.74
556.97	2216.84
557.32	2220.80
557.68	2224.96
558.03	2229.35
558.39	2232.87
558.74	2237.46
559.10	2241.34
559.45	2244.92
559.81	2249.32
560.16	2253.17
560.52	2256.45
560.87	2259.78
561.23	2262.24
561.58	2265.18
561.94	2267.61
562.29	2269.99
562.64	2272.54
563.00	2275.12
563.35	2278.56
563.71	2281.63
564.06	2284.63
564.42	2287.34
564.77	2289.76
565.12	2291.67
565.48	2293.35
565.83	2295.05
566.19	2296.16
566.54	2297.03
566.89	2298.04
567.25	2298.34
567.60	2299.61
567.96	2301.14
568.31	2301.91
568.66	2303.01
569.02	2303.39
569.37	2303.70
569.72	2304.35
570.08	2304.22
570.43	2304.13
570.78	2303.31
571.14	2301.72
571.49	2300.22
571.84	2299.62
572.20	2298.30
572.55	2297.27
572.90	2295.57
573.26	2294.06
573.61	2292.27
573.96	2290.26
574.31	2287.10
574.67	2283.89
575.02	2280.02
575.37	2276.56
575.72	2272.45
576.08	2268.94
576.43	2265.48
576.78	2261.66
577.13	2258.36
577.49	2255.31
577.84	2251.60
578.19	2247.81
578.54	2243.90
578.90	2239.57
579.25	2234.06
579.60	2228.87
579.95	2223.53
580.30	2218.39
580.66	2213.09
581.01	2208.15
581.36	2203.03
581.71	2198.70
582.06	2194.21
582.42	2189.49
582.77	2184.14
583.12	2179.54
583.47	2174.57
583.82	2169.48
584.17	2164.10
584.53	2158.43
584.88	2152.59
585.23	2146.84
585.58	2141.19
585.93	2135.70
586.28	2130.85
586.63	2125.51
586.98	2120.45
587.34	2115.77
587.69	2110.69
588.04	2105.26
588.39	2099.28
588.74	2092.75
589.09	2086.56
589.44	2079.55
589.79	2073.54
590.14	2067.76
590.49	2061.06
590.84	2054.59
591.19	2048.25
591.54	2041.65
591.89	2034.10
592.25	2027.13
592.60	2019.73
592.95	2011.94
593.30	2004.49
593.65	1996.73
594.00	1989.73
594.35	1982.30
594.70	1974.16
595.05	1966.84
595.40	1959.57
595.75	1951.96
596.10	1945.53
596.45	1938.65
596.80	1932.55
597.15	1925.72
597.50	1918.57
597.85	1912.09
598.19	1905.43
598.54	1898.32
598.89	1891.62
599.24	1885.69
599.59	1878.97
599.94	1872.72
600.29	1866.54
600.64	1859.95
600.99	1852.46
601.34	1845.54
601.69	1838.47
602.04	1831.44
602.39	1824.09
602.74	1817.15
603.08	1810.44
603.43	1803.68
603.78	1796.27
604.13	1788.92
604.48	1781.70
604.83	1774.79
605.18	1767.76
605.53	1759.63
605.87	1751.64
606.22	1744.55
606.57	1736.73
606.92	1729.37
607.27	1722.10
607.62	1715.01
607.96	1707.63
608.31	1700.95
608.66	1693.27
609.01	1685.79
609.36	1678.42
609.70	1670.48
610.05	1662.50
610.40	1654.85
610.75	1646.58
611.10	1639.06
611.44	1630.82
611.79	1622.83
612.14	1614.25
612.49	1605.21
612.83	1596.88
613.18	1588.84
613.53	1580.63
613.88	1572.03
614.22	1563.82
614.57	1555.28
614.92	1547.41
615.27	1539.85
615.61	1531.55
615.96	1523.61
616.31	1516.07
616.65	1508.67
617.00	1501.14
617.35	1493.48
617.70	1485.15
618.04	1476.74
618.39	1468.56
618.74	1460.92
619.08	1452.70
619.43	1445.17
619.78	1438.20
620.12	1431.07
620.47	1423.57
620.82	1415.38
621.16	1408.04
621.51	1400.51
621.85	1393.00
622.20	1384.49
622.55	1376.31
622.89	1368.57
623.24	1361.02
623.59	1353.74
623.93	1346.17
624.28	1338.97
624.62	1331.47
624.97	1324.32
625.32	1317.64
625.66	1310.60
626.01	1303.37
626.35	1295.86
626.70	1288.09
627.04	1280.50
627.39	1272.96
627.73	1265.64
628.08	1258.96
628.43	1251.58
628.77	1244.17
629.12	1236.57
629.46	1229.41
629.81	1222.04
630.15	1214.85
630.50	1207.46
630.84	1199.23
631.19	1191.41
631.53	1183.88
631.88	1176.45
632.22	1168.88
632.57	1161.62
632.91	1154.10
633.26	1146.76
633.60	1139.61
633.95	1132.64
634.29	1125.53
634.64	1118.74
634.98	1111.33
635.32	1104.15
635.67	1097.73
636.01	1091.21
636.36	1084.45
636.70	1078.10
637.05	1071.46
637.39	1065.06
637.73	1058.58
638.08	1052.77
638.42	1046.85
638.77	1040.44
639.11	1033.75
639.45	1027.44
639.80	1020.77
640.14	1014.39
640.49	1007.89
640.83	1001.61
641.17	995.36
641.52	989.16
641.86	982.85
642.20	977.07
642.55	970.82
642.89	964.36
643.23	957.84
643.58	952.11
643.92	945.84
644.26	939.87
644.61	933.88
644.95	927.82
645.29	921.22
645.64	914.46
645.98	908.16
646.32	902.47
646.66	896.48
647.01	890.66
647.35	885.09
647.69	879.31
648.04	873.77
648.38	868.05
648.72	861.96
649.06	855.88
649.41	850.00
649.75	844.02
650.09	838.03
650.43	832.27
650.78	826.14
651.12	820.28
651.46	814.55
651.80	808.78
652.14	803.45
652.49	798.18
652.83	793.04
653.17	787.35
653.51	781.63
653.85	776.24
654.20	770.63
654.54	764.62
654.88	758.94
655.22	753.06
655.56	747.41
655.90	742.05
656.25	736.82
656.59	731.51
656.93	726.42
657.27	721.38
657.61	715.85
657.95	710.81
658.29	705.66
658.64	700.45
658.98	695.24
659.32	689.80
659.66	684.59
660.00	679.33
660.34	674.47
660.68	669.56
661.02	664.58
661.36	659.93
661.70	655.51
662.05	651.18
662.39	646.87
662.73	642.41
663.07	638.06
663.41	633.68
663.75	629.19
664.09	624.69
664.43	620.37
664.77	616.40
665.11	612.20
665.45	608.23
665.79	604.22
666.13	600.14
666.47	596.09
666.81	591.91
667.15	587.81
667.49	583.96
667.83	580.24
668.17	576.35
668.51	572.33
668.85	568.31
669.19	564.51
669.53	560.72
669.87	556.84
670.21	553.21
670.55	549.60
670.89	546.25
671.23	542.83
671.57	539.28
671.91	535.79
672.25	532.34
672.58	528.82
672.92	525.42
673.26	522.30
673.60	519.22
673.94	516.16
674.28	513.34
674.62	510.40
674.96	507.33
675.30	504.41
675.64	501.49
675.97	498.70
676.31	495.86
676.65	492.92
676.99	490.25
677.33	487.36
677.67	484.56
678.01	481.53
678.34	478.54
678.68	475.73
679.02	472.89
679.36	470.11
679.70	467.42
680.04	464.69
680.37	461.77
680.71	458.98
681.05	456.36
681.39	453.59
681.73	450.94
682.06	448.38
682.40	445.89
682.74	443.40
683.08	440.89
683.42	438.25
683.75	435.84
684.09	433.35
684.43	430.90
684.77	428.45
685.10	426.18
685.44	423.94
685.78	421.61
686.12	419.41
686.45	417.13
686.79	414.79
687.13	412.61
687.46	410.52
687.80	408.39
688.14	406.22
688.48	404.24
688.81	402.03
689.15	399.91
689.49	397.74
689.82	395.66
690.16	393.59
690.50	391.67
690.83	389.72
691.17	387.76
691.51	385.87
691.84	384.02
692.18	382.04
692.52	380.08
692.85	378.22
693.19	376.31
693.52	374.51
693.86	372.77
694.20	371.01
694.53	369.19
694.87	367.38
695.21	365.64
695.54	363.83
695.88	362.06
696.21	360.33
696.55	358.69
696.88	357.03
697.22	355.40
697.56	353.81
697.89	352.11
698.23	350.52
698.56	348.94
698.90	347.35
699.23	345.73
699.57	344.17
699.90	342.61
700.24	341.10
700.58	339.56
700.91	338.01
701.25	336.56
701.58	335.19
701.92	333.85
702.25	332.48
702.59	331.06
702.92	329.79
703.26	328.50
703.59	327.26
703.93	326.09
704.26	324.85
704.60	323.56
704.93	322.30
705.26	321.01
705.60	319.84
705.93	318.71
706.27	317.69
706.60	316.62
706.94	315.58
707.27	314.48
707.61	313.44
707.94	312.48
708.27	311.43
708.61	310.37
708.94	309.31
709.28	308.35
709.61	307.42
709.94	306.45
710.28	305.45
710.61	304.44
710.95	303.39
711.28	302.47
711.61	301.53
711.95	300.65
712.28	299.76
712.61	298.78
712.95	297.85
713.28	296.97
713.61	296.10
713.95	295.21
714.28	294.40
714.61	293.54
714.95	292.67
715.28	291.78
715.61	290.89
715.95	290.05
716.28	289.17
716.61	288.36
716.95	287.55
717.28	286.84
717.61	286.10
717.94	285.34
718.28	284.54
718.61	283.80
718.94	283.12
719.27	282.45
719.61	281.83
719.94	281.18
720.27	280.42
720.60	279.75
720.94	279.09
721.27	278.49
721.60	277.91
721.93	277.34
722.27	276.86
722.60	276.29
722.93	275.72
723.26	275.21
723.59	274.63
723.93	274.09
724.26	273.52
724.59	272.96
724.92	272.43
725.25	271.98
725.59	271.45
725.92	270.93
726.25	270.38
726.58	269.88
726.91	269.37
727.24	268.95
727.57	268.50
727.91	268.02
728.24	267.52
728.57	267.03
728.90	266.57
729.23	266.05
729.56	265.63
729.89	265.20
730.22	264.70
730.55	264.24
730.89	263.83
731.22	263.34
731.55	262.91
731.88	262.51
732.21	262.03
732.54	261.62
732.87	261.21
733.20	260.86
733.53	260.51
733.86	260.13
734.19	259.75
734.52	259.39
734.85	259.05
735.18	258.69
735.51	258.36
735.84	257.99
736.17	257.69
736.50	257.31
736.83	257.10
737.16	256.78
737.49	256.49
737.82	256.13
738.15	255.85
738.48	255.54
738.81	255.22
739.14	254.94
739.47	254.65
739.80	254.33
740.13	254.00
740.46	253.63
740.79	253.31
741.12	252.98
741.45	252.65
741.78	252.35
742.11	252.04
742.44	251.69
742.77	251.39
743.10	251.06
743.43	250.75
743.75	250.35
744.08	250.18
744.41	249.91
744.74	249.65
745.07	249.38
745.40	249.16
745.73	248.92
746.06	248.63
746.39	248.38
746.71	248.12
747.04	247.87
747.37	247.64
747.70	247.44
748.03	247.18
748.36	246.97
748.68	246.71
749.01	246.51
749.34	246.31
749.67	246.07
750.00	245.87
750.33	245.72
750.65	245.51
750.98	245.18
751.31	244.96
751.64	244.73
751.97	244.54
752.29	244.27
752.62	243.95
752.95	243.76
753.28	243.54
753.60	243.36
753.93	243.17
754.26	243.00
754.59	242.76
754.91	242.56
755.24	242.36
755.57	242.19
755.90	241.96
756.22	241.74
756.55	241.54
756.88	241.31
757.20	241.06
757.53	240.84
757.86	240.69
758.19	240.53
758.51	240.36
758.84	240.17
759.17	240.03
759.49	239.93
759.82	239.83
760.15	239.69
760.47	239.52
760.80	239.36
761.13	239.21
761.45	239.03
761.78	238.93
762.11	238.79
762.43	238.63
762.76	238.51
763.08	238.39
763.41	238.25
763.74	238.13
764.06	238.01
764.39	237.90
764.71	237.76
765.04	237.56
765.37	237.43
765.69	237.29
766.02	237.16
766.34	237.02
766.67	236.88
767.00	236.72
767.32	236.65
767.65	236.59
767.97	236.48
768.30	236.41
768.62	236.28
768.95	236.15
769.27	236.02
769.60	235.90
769.92	235.78
770.25	235.71
770.57	235.60
770.90	235.51
771.22	235.39
771.55	235.29
771.87	235.26
772.20	235.14
772.52	235.13
772.85	235.15
773.17	235.06
773.50	234.96
773.82	234.85
774.15	234.74
774.47	234.60
774.80	234.49
775.12	234.39
775.45	234.32
775.77	234.25
776.09	234.20
776.42	234.09
776.74	234.07
777.07	233.95
777.39	233.89
777.72	233.80
778.04	233.77
778.36	233.72
778.69	233.65
779.01	233.62
779.33	233.46
779.66	233.31
779.98	233.22
780.31	233.12
780.63	233.13
780.95	233.07
781.28	232.99
781.60	232.93
781.92	232.85
782.25	232.78
782.57	232.70
782.89	232.63
783.22	232.57
783.54	232.47
783.86	232.43
784.19	232.37
784.51	232.33
784.83	232.24
785.16	232.16
785.48	232.10
785.80	232.04
786.12	232.02
786.45	231.94
786.77	231.92
787.09	231.89
