SpectraSuite Data File
++++++++++++++++++++++++++++++++++++
Date: Fri Feb 01 15:34:07 EST 2013
User: group
Dark Spectrum Present: No
Reference Spectrum Present: No
Number of Sampled Component Spectra: 1
Spectrometers: USB2E7196
Integration Time (usec): 35000 (USB2E7196)
Spectra Averaged: 100 (USB2E7196)
Boxcar Smoothing: 10 (USB2E7196)
Correct for Electrical Dark: No (USB2E7196)
Strobe/Lamp Enabled: No (USB2E7196)
Correct for Detector Non-linearity: No (USB2E7196)
Correct for Stray Light: No (USB2E7196)
Number of Pixels in Processed Spectrum: 2048
>>>>>Begin Processed Spectral Data<<<<<
339.09	0.00
339.48	214.43
339.86	216.12
340.24	217.00
340.63	219.14
341.01	222.39
341.39	221.36
341.78	223.01
342.16	224.10
342.54	224.03
342.93	212.99
343.31	223.76
343.69	224.32
344.07	224.79
344.46	225.25
344.84	225.64
345.22	225.85
345.60	226.12
345.99	226.30
346.37	226.44
346.75	226.58
347.13	226.64
347.52	226.71
347.90	226.75
348.28	226.78
348.66	226.85
349.05	226.84
349.43	226.90
349.81	226.99
350.19	227.04
350.57	227.10
350.96	227.19
351.34	227.29
351.72	227.40
352.10	227.50
352.48	227.59
352.87	227.63
353.25	227.72
353.63	227.78
354.01	227.87
354.39	227.95
354.77	228.04
355.15	228.16
355.54	228.24
355.92	228.33
356.30	228.42
356.68	228.55
357.06	228.62
357.44	228.66
357.82	228.70
358.20	228.79
358.58	228.84
358.97	228.89
359.35	228.97
359.73	229.02
360.11	229.08
360.49	229.12
360.87	229.17
361.25	229.18
361.63	229.27
362.01	229.31
362.39	229.34
362.77	229.37
363.15	229.39
363.53	229.39
363.91	229.40
364.29	229.41
364.67	229.37
365.05	229.39
365.43	229.41
365.81	229.45
366.19	229.52
366.57	229.55
366.95	229.55
367.33	229.51
367.71	229.51
368.09	229.50
368.47	229.47
368.85	229.46
369.23	229.48
369.61	229.40
369.99	229.40
370.37	229.37
370.75	229.37
371.13	229.32
371.51	229.29
371.89	229.25
372.27	229.22
372.65	229.19
373.03	229.11
373.41	229.07
373.78	229.00
374.16	228.89
374.54	228.80
374.92	228.74
375.30	228.67
375.68	228.58
376.06	228.50
376.44	228.42
376.82	228.33
377.19	228.27
377.57	228.20
377.95	228.12
378.33	228.05
378.71	227.90
379.09	227.84
379.47	227.77
379.84	227.69
380.22	227.62
380.60	227.53
380.98	227.45
381.36	227.39
381.73	227.30
382.11	227.20
382.49	227.18
382.87	227.12
383.25	227.06
383.62	227.15
384.00	227.12
384.38	227.08
384.76	227.09
385.13	227.08
385.51	227.04
385.89	227.01
386.27	226.99
386.64	227.02
387.02	226.97
387.40	226.91
387.78	226.86
388.15	226.82
388.53	226.76
388.91	226.74
389.29	226.66
389.66	226.67
390.04	226.65
390.42	226.60
390.79	226.56
391.17	226.56
391.55	226.41
391.92	226.39
392.30	226.40
392.68	226.36
393.05	226.35
393.43	226.38
393.81	226.37
394.18	226.37
394.56	226.36
394.94	226.42
395.31	226.45
395.69	226.53
396.06	226.57
396.44	226.65
396.82	226.66
397.19	226.79
397.57	226.83
397.95	226.90
398.32	226.94
398.70	227.04
399.07	227.13
399.45	227.22
399.82	227.29
400.20	227.38
400.58	227.46
400.95	227.47
401.33	227.56
401.70	227.73
402.08	227.84
402.45	227.96
402.83	228.08
403.20	228.24
403.58	228.36
403.95	228.49
404.33	228.63
404.71	228.79
405.08	228.95
405.46	229.07
405.83	229.25
406.21	229.41
406.58	229.55
406.96	229.72
407.33	229.87
407.70	230.09
408.08	230.34
408.45	230.56
408.83	230.80
409.20	231.02
409.58	231.18
409.95	231.43
410.33	231.69
410.70	231.93
411.08	232.19
411.45	232.48
411.82	232.80
412.20	233.16
412.57	233.57
412.95	233.87
413.32	234.29
413.69	234.69
414.07	235.10
414.44	235.57
414.82	236.04
415.19	236.58
415.56	237.08
415.94	237.60
416.31	238.23
416.68	238.85
417.06	239.55
417.43	240.20
417.81	240.98
418.18	241.74
418.55	242.57
418.93	243.46
419.30	244.34
419.67	245.28
420.04	246.22
420.42	247.18
420.79	248.37
421.16	249.51
421.54	250.69
421.91	251.92
422.28	253.18
422.66	254.50
423.03	255.82
423.40	257.17
423.77	258.62
424.15	260.03
424.52	261.54
424.89	263.12
425.26	264.69
425.64	266.10
426.01	267.70
426.38	269.37
426.75	271.04
427.13	272.78
427.50	274.54
427.87	276.45
428.24	278.33
428.61	280.04
428.99	282.00
429.36	284.11
429.73	286.16
430.10	288.18
430.47	290.24
430.85	292.35
431.22	294.59
431.59	296.90
431.96	299.17
432.33	301.64
432.70	304.07
433.08	306.89
433.45	309.59
433.82	312.19
434.19	315.08
434.56	317.87
434.93	320.51
435.30	323.11
435.68	325.98
436.05	328.82
436.42	331.62
436.79	334.12
437.16	336.80
437.53	339.65
437.90	342.50
438.27	345.26
438.64	348.13
439.01	350.76
439.38	353.03
439.75	355.17
440.13	357.69
440.50	360.03
440.87	361.90
441.24	363.80
441.61	366.02
441.98	367.50
442.35	369.34
442.72	371.16
443.09	372.98
443.46	373.93
443.83	374.50
444.20	375.05
444.57	375.92
444.94	376.24
445.31	376.54
445.68	376.83
446.05	376.91
446.42	376.49
446.79	376.04
447.16	375.62
447.53	375.32
447.90	374.16
448.27	372.97
448.64	371.38
449.01	370.23
449.37	368.21
449.74	366.28
450.11	363.99
450.48	361.55
450.85	359.03
451.22	356.91
451.59	354.92
451.96	352.92
452.33	350.28
452.70	347.87
453.07	345.07
453.43	342.18
453.80	339.37
454.17	336.71
454.54	334.14
454.91	331.39
455.28	328.73
455.65	326.19
456.02	323.74
456.38	321.56
456.75	318.90
457.12	316.65
457.49	314.46
457.86	312.32
458.23	310.47
458.59	308.41
458.96	306.31
459.33	304.42
459.70	302.56
460.07	301.05
460.43	299.34
460.80	297.69
461.17	296.27
461.54	294.77
461.91	293.34
462.27	291.90
462.64	290.64
463.01	289.25
463.38	287.99
463.74	286.60
464.11	285.42
464.48	284.39
464.85	283.26
465.21	282.40
465.58	281.48
465.95	280.37
466.32	279.46
466.68	278.56
467.05	277.66
467.42	276.78
467.78	275.86
468.15	274.99
468.52	274.35
468.88	273.46
469.25	272.65
469.62	272.01
469.98	271.33
470.35	270.71
470.72	270.12
471.08	269.43
471.45	268.92
471.82	268.40
472.18	267.80
472.55	267.35
472.92	266.80
473.28	266.31
473.65	265.88
474.02	265.43
474.38	265.08
474.75	264.75
475.11	264.41
475.48	264.15
475.85	263.89
476.21	263.64
476.58	263.48
476.94	263.38
477.31	263.21
477.67	263.04
478.04	262.91
478.41	262.87
478.77	262.93
479.14	262.86
479.50	262.85
479.87	262.91
480.23	263.01
480.60	263.05
480.96	263.16
481.33	263.39
481.69	263.59
482.06	263.79
482.42	264.03
482.79	264.31
483.15	264.61
483.52	265.00
483.88	265.35
484.25	265.74
484.61	266.17
484.98	266.64
485.34	267.22
485.71	267.83
486.07	268.43
486.44	268.97
486.80	269.68
487.17	270.40
487.53	271.20
487.90	272.05
488.26	273.03
488.62	274.02
488.99	274.94
489.35	276.01
489.72	277.14
490.08	278.30
490.44	279.52
490.81	280.85
491.17	282.23
491.54	283.76
491.90	285.28
492.26	286.90
492.63	288.65
492.99	290.42
493.36	292.36
493.72	294.42
494.08	296.56
494.45	298.81
494.81	301.19
495.17	303.64
495.54	306.23
495.90	308.92
496.26	311.71
496.63	314.69
496.99	317.82
497.35	321.04
497.72	324.47
498.08	327.98
498.44	331.64
498.80	335.50
499.17	339.48
499.53	343.70
499.89	348.04
500.26	352.52
500.62	357.21
500.98	362.12
501.34	367.20
501.71	372.47
502.07	377.88
502.43	383.53
502.79	389.34
503.16	395.37
503.52	401.65
503.88	408.05
504.24	414.66
504.60	421.57
504.97	428.73
505.33	436.03
505.69	443.77
506.05	451.53
506.41	459.43
506.78	467.63
507.14	476.08
507.50	484.82
507.86	493.85
508.22	503.03
508.59	512.24
508.95	521.76
509.31	531.66
509.67	541.78
510.03	552.07
510.39	562.61
510.75	573.46
511.12	584.35
511.48	595.66
511.84	607.15
512.20	618.65
512.56	630.64
512.92	642.79
513.28	655.07
513.64	667.53
514.00	680.26
514.37	693.18
514.73	706.23
515.09	719.31
515.45	732.58
515.81	746.09
516.17	760.17
516.53	774.26
516.89	788.39
517.25	802.68
517.61	817.06
517.97	831.67
518.33	846.03
518.69	860.92
519.05	875.99
519.41	891.18
519.77	906.79
520.13	922.23
520.49	937.74
520.85	953.23
521.21	969.06
521.57	985.23
521.93	1000.96
522.29	1017.46
522.65	1033.81
523.01	1049.93
523.37	1066.15
523.73	1082.28
524.09	1098.45
524.45	1114.82
524.81	1131.41
525.17	1148.30
525.53	1165.15
525.89	1182.12
526.25	1199.00
526.61	1215.37
526.97	1232.09
527.33	1248.62
527.68	1265.21
528.04	1281.68
528.40	1298.35
528.76	1315.50
529.12	1332.28
529.48	1349.36
529.84	1365.44
530.20	1382.06
530.56	1399.17
530.91	1416.60
531.27	1433.38
531.63	1449.98
531.99	1466.54
532.35	1482.48
532.71	1498.42
533.07	1514.68
533.42	1530.57
533.78	1546.60
534.14	1562.96
534.50	1578.32
534.86	1594.25
535.21	1609.56
535.57	1625.60
535.93	1641.18
536.29	1655.85
536.65	1670.91
537.00	1685.67
537.36	1700.99
537.72	1715.55
538.08	1730.15
538.44	1743.91
538.79	1757.89
539.15	1771.55
539.51	1785.39
539.87	1799.79
540.22	1813.46
540.58	1827.30
540.94	1840.69
541.29	1853.62
541.65	1866.38
542.01	1879.78
542.37	1891.98
542.72	1904.38
543.08	1916.06
543.44	1928.47
543.79	1939.84
544.15	1950.86
544.51	1962.42
544.87	1973.33
545.22	1984.24
545.58	1994.44
545.94	2004.34
546.29	2014.13
546.65	2023.96
547.01	2033.17
547.36	2042.04
547.72	2050.63
548.07	2058.54
548.43	2066.78
548.79	2074.91
549.14	2082.37
549.50	2089.68
549.86	2097.47
550.21	2104.84
550.57	2112.11
550.92	2118.67
551.28	2125.77
551.64	2132.77
551.99	2139.39
552.35	2145.58
552.70	2151.68
553.06	2157.65
553.41	2163.87
553.77	2170.07
554.13	2176.21
554.48	2182.35
554.84	2187.72
555.19	2193.09
555.55	2198.16
555.90	2202.69
556.26	2207.56
556.61	2212.26
556.97	2216.49
557.32	2220.56
557.68	2224.75
558.03	2229.03
558.39	2232.67
558.74	2237.22
559.10	2241.16
559.45	2244.81
559.81	2249.25
560.16	2253.06
560.52	2256.35
560.87	2259.77
561.23	2262.32
561.58	2265.24
561.94	2267.75
562.29	2270.11
562.64	2272.79
563.00	2275.48
563.35	2278.96
563.71	2281.91
564.06	2285.13
564.42	2288.03
564.77	2290.52
565.12	2292.65
565.48	2294.48
565.83	2296.45
566.19	2297.65
566.54	2298.66
566.89	2299.60
567.25	2300.01
567.60	2301.32
567.96	2303.03
568.31	2303.88
568.66	2304.83
569.02	2305.33
569.37	2305.57
569.72	2306.48
570.08	2306.48
570.43	2306.37
570.78	2305.67
571.14	2304.25
571.49	2302.94
571.84	2302.53
572.20	2301.34
572.55	2300.39
572.90	2298.83
573.26	2297.32
573.61	2295.82
573.96	2293.89
574.31	2291.01
574.67	2287.96
575.02	2284.21
575.37	2280.68
575.72	2276.88
576.08	2273.66
576.43	2270.41
576.78	2266.69
577.13	2263.45
577.49	2260.33
577.84	2256.86
578.19	2253.04
578.54	2249.30
578.90	2245.01
579.25	2239.55
579.60	2234.47
579.95	2229.25
580.30	2224.18
580.66	2218.92
581.01	2213.82
581.36	2208.93
581.71	2204.63
582.06	2200.05
582.42	2195.51
582.77	2190.25
583.12	2185.62
583.47	2180.75
583.82	2175.74
584.17	2170.59
584.53	2164.91
584.88	2159.30
585.23	2153.41
585.58	2147.95
585.93	2142.28
586.28	2137.44
586.63	2132.18
586.98	2127.20
587.34	2122.58
587.69	2117.75
588.04	2112.54
588.39	2106.86
588.74	2100.22
589.09	2094.06
589.44	2087.35
589.79	2081.40
590.14	2075.85
590.49	2069.25
590.84	2062.93
591.19	2056.70
591.54	2050.25
591.89	2042.77
592.25	2035.89
592.60	2028.63
592.95	2020.95
593.30	2013.81
593.65	2006.19
594.00	1999.19
594.35	1991.92
594.70	1983.67
595.05	1976.26
595.40	1968.80
595.75	1961.20
596.10	1954.99
596.45	1948.13
596.80	1941.91
597.15	1935.11
597.50	1927.76
597.85	1921.32
598.19	1914.58
598.54	1907.40
598.89	1900.64
599.24	1894.84
599.59	1888.01
599.94	1881.77
600.29	1875.46
600.64	1868.75
600.99	1861.18
601.34	1854.11
601.69	1847.02
602.04	1840.19
602.39	1832.87
602.74	1826.05
603.08	1819.24
603.43	1812.46
603.78	1805.18
604.13	1797.93
604.48	1790.67
604.83	1783.94
605.18	1776.81
605.53	1768.66
605.87	1760.52
606.22	1753.29
606.57	1745.22
606.92	1738.00
607.27	1730.72
607.62	1723.89
607.96	1716.52
608.31	1709.98
608.66	1702.35
609.01	1694.75
609.36	1687.19
609.70	1679.14
610.05	1671.04
610.40	1663.33
610.75	1654.95
611.10	1647.20
611.44	1638.86
611.79	1630.84
612.14	1622.02
612.49	1612.87
612.83	1604.58
613.18	1596.57
613.53	1588.43
613.88	1580.04
614.22	1571.75
614.57	1563.23
614.92	1555.05
615.27	1547.40
615.61	1538.96
615.96	1531.00
616.31	1523.51
616.65	1516.13
617.00	1508.61
617.35	1501.08
617.70	1492.67
618.04	1484.13
618.39	1475.99
618.74	1468.38
619.08	1460.06
619.43	1452.55
619.78	1445.68
620.12	1438.54
620.47	1431.04
620.82	1422.85
621.16	1415.42
621.51	1407.80
621.85	1400.11
622.20	1391.57
622.55	1383.39
622.89	1375.63
623.24	1368.08
623.59	1360.67
623.93	1353.26
624.28	1346.01
624.62	1338.33
624.97	1331.26
625.32	1324.64
625.66	1317.61
626.01	1310.30
626.35	1302.89
626.70	1295.06
627.04	1287.26
627.39	1279.52
627.73	1272.13
628.08	1265.21
628.43	1257.87
628.77	1250.34
629.12	1242.85
629.46	1235.73
629.81	1228.26
630.15	1220.98
630.50	1213.59
630.84	1205.33
631.19	1197.33
631.53	1189.88
631.88	1182.38
632.22	1174.81
632.57	1167.48
632.91	1159.86
633.26	1152.48
633.60	1145.13
633.95	1138.17
634.29	1131.23
634.64	1124.44
634.98	1117.09
635.32	1110.03
635.67	1103.46
636.01	1096.95
636.36	1090.08
636.70	1083.55
637.05	1076.98
637.39	1070.52
637.73	1064.03
638.08	1058.21
638.42	1052.25
638.77	1045.70
639.11	1039.09
639.45	1032.68
639.80	1026.00
640.14	1019.59
640.49	1013.03
640.83	1006.76
641.17	1000.44
641.52	994.05
641.86	987.66
642.20	981.81
642.55	975.46
642.89	968.93
643.23	962.36
643.58	956.62
643.92	950.40
644.26	944.25
644.61	938.28
644.95	932.15
645.29	925.49
645.64	918.62
645.98	912.30
646.32	906.48
646.66	900.38
647.01	894.59
647.35	888.91
647.69	883.16
648.04	877.66
648.38	871.85
648.72	865.83
649.06	859.76
649.41	853.85
649.75	847.81
650.09	841.87
650.43	836.08
650.78	829.90
651.12	823.96
651.46	818.23
651.80	812.43
652.14	807.09
652.49	801.70
652.83	796.56
653.17	790.88
653.51	785.19
653.85	779.78
654.20	774.07
654.54	768.08
654.88	762.31
655.22	756.32
655.56	750.62
655.90	745.12
656.25	739.84
656.59	734.54
656.93	729.51
657.27	724.38
657.61	718.90
657.95	713.84
658.29	708.77
658.64	703.58
658.98	698.19
659.32	692.61
659.66	687.40
660.00	682.10
660.34	677.20
660.68	672.28
661.02	667.26
661.36	662.54
661.70	658.12
662.05	653.83
662.39	649.50
662.73	645.07
663.07	640.72
663.41	636.32
663.75	631.73
664.09	627.18
664.43	622.77
664.77	618.69
665.11	614.46
665.45	610.36
665.79	606.30
666.13	602.25
666.47	598.28
666.81	594.19
667.15	590.08
667.49	586.12
667.83	582.30
668.17	578.41
668.51	574.38
668.85	570.26
669.19	566.38
669.53	562.60
669.87	558.70
670.21	555.06
670.55	551.40
670.89	548.00
671.23	544.57
671.57	541.08
671.91	537.53
672.25	534.05
672.58	530.52
672.92	527.15
673.26	523.98
673.60	520.83
673.94	517.68
674.28	514.81
674.62	511.89
674.96	508.77
675.30	505.86
675.64	502.90
675.97	500.21
676.31	497.34
676.65	494.35
676.99	491.65
677.33	488.80
677.67	485.98
678.01	482.97
678.34	479.96
678.68	477.04
679.02	474.24
679.36	471.47
679.70	468.72
680.04	465.94
680.37	463.08
680.71	460.27
681.05	457.66
681.39	454.96
681.73	452.31
682.06	449.78
682.40	447.18
682.74	444.70
683.08	442.04
683.42	439.43
683.75	436.94
684.09	434.41
684.43	431.87
684.77	429.44
685.10	427.08
685.44	424.81
685.78	422.56
686.12	420.30
686.45	418.01
686.79	415.71
687.13	413.54
687.46	411.40
687.80	409.25
688.14	407.01
688.48	404.91
688.81	402.67
689.15	400.51
689.49	398.37
689.82	396.24
690.16	394.23
690.50	392.22
690.83	390.30
691.17	388.31
691.51	386.43
691.84	384.56
692.18	382.60
692.52	380.57
692.85	378.60
693.19	376.71
693.52	374.88
693.86	373.10
694.20	371.28
694.53	369.47
694.87	367.64
695.21	365.88
695.54	364.03
695.88	362.31
696.21	360.63
696.55	358.99
696.88	357.34
697.22	355.69
697.56	354.14
697.89	352.47
698.23	350.85
698.56	349.24
698.90	347.62
699.23	346.06
699.57	344.55
699.90	343.06
700.24	341.53
700.58	340.03
700.91	338.52
701.25	337.10
701.58	335.77
701.92	334.41
702.25	333.02
702.59	331.68
702.92	330.34
703.26	329.03
703.59	327.74
703.93	326.56
704.26	325.31
704.60	323.99
704.93	322.73
705.26	321.50
705.60	320.40
705.93	319.31
706.27	318.28
706.60	317.26
706.94	316.19
707.27	315.08
707.61	314.02
707.94	313.01
708.27	311.89
708.61	310.79
708.94	309.82
709.28	308.86
709.61	307.93
709.94	307.00
710.28	305.96
710.61	304.98
710.95	303.91
711.28	303.01
711.61	302.12
711.95	301.20
712.28	300.24
712.61	299.23
712.95	298.31
713.28	297.42
713.61	296.51
713.95	295.66
714.28	294.82
714.61	293.95
714.95	293.08
715.28	292.27
715.61	291.43
715.95	290.54
716.28	289.70
716.61	288.86
716.95	288.07
717.28	287.36
717.61	286.58
717.94	285.85
718.28	285.04
718.61	284.26
718.94	283.58
719.27	282.97
719.61	282.29
719.94	281.60
720.27	280.87
720.60	280.18
720.94	279.50
721.27	278.91
721.60	278.35
721.93	277.78
722.27	277.22
722.60	276.67
722.93	276.09
723.26	275.51
723.59	274.95
723.93	274.40
724.26	273.84
724.59	273.28
724.92	272.72
725.25	272.21
725.59	271.69
725.92	271.17
726.25	270.65
726.58	270.19
726.91	269.67
727.24	269.19
727.57	268.75
727.91	268.26
728.24	267.78
728.57	267.27
728.90	266.82
729.23	266.28
729.56	265.80
729.89	265.36
730.22	264.88
730.55	264.42
730.89	263.95
731.22	263.48
731.55	263.05
731.88	262.64
732.21	262.21
732.54	261.82
732.87	261.39
733.20	260.93
733.53	260.53
733.86	260.19
734.19	259.76
734.52	259.38
734.85	259.06
735.18	258.62
735.51	258.20
735.84	257.81
736.17	257.50
736.50	257.13
736.83	256.86
737.16	256.51
737.49	256.19
737.82	255.84
738.15	255.51
738.48	255.20
738.81	254.90
739.14	254.60
739.47	254.26
739.80	253.94
740.13	253.69
740.46	253.34
740.79	252.99
741.12	252.75
741.45	252.45
741.78	252.09
742.11	251.82
742.44	251.56
742.77	251.29
743.10	250.98
743.43	250.66
743.75	250.31
744.08	250.19
744.41	249.91
744.74	249.65
745.07	249.38
745.40	249.14
745.73	248.91
746.06	248.61
746.39	248.34
746.71	248.10
747.04	247.77
747.37	247.54
747.70	247.32
748.03	247.03
748.36	246.79
748.68	246.54
749.01	246.29
749.34	246.07
749.67	245.82
750.00	245.61
750.33	245.49
750.65	245.26
750.98	244.91
751.31	244.69
751.64	244.51
751.97	244.34
752.29	244.07
752.62	243.84
752.95	243.63
753.28	243.46
753.60	243.24
753.93	243.08
754.26	242.87
754.59	242.66
754.91	242.45
755.24	242.25
755.57	242.09
755.90	241.89
756.22	241.68
756.55	241.48
756.88	241.30
757.20	241.06
757.53	240.84
757.86	240.68
758.19	240.48
758.51	240.29
758.84	240.05
759.17	239.90
759.49	239.70
759.82	239.58
760.15	239.40
760.47	239.24
760.80	239.07
761.13	238.94
761.45	238.75
761.78	238.63
762.11	238.46
762.43	238.31
762.76	238.19
763.08	238.10
763.41	237.97
763.74	237.79
764.06	237.68
764.39	237.54
764.71	237.41
765.04	237.29
765.37	237.15
765.69	237.04
766.02	236.93
766.34	236.80
766.67	236.63
767.00	236.51
767.32	236.44
767.65	236.36
767.97	236.24
768.30	236.16
768.62	236.03
768.95	235.91
769.27	235.81
769.60	235.69
769.92	235.55
770.25	235.45
770.57	235.31
770.90	235.18
771.22	235.09
771.55	234.97
771.87	234.89
772.20	234.80
772.52	234.79
772.85	234.79
773.17	234.66
773.50	234.60
773.82	234.51
774.15	234.37
774.47	234.25
774.80	234.17
775.12	234.05
775.45	234.00
775.77	233.91
776.09	233.82
776.42	233.75
776.74	233.68
777.07	233.59
777.39	233.58
777.72	233.53
778.04	233.47
778.36	233.44
778.69	233.36
779.01	233.27
779.33	233.11
779.66	232.97
779.98	232.91
780.31	232.82
780.63	232.79
780.95	232.74
781.28	232.66
781.60	232.58
781.92	232.50
782.25	232.41
782.57	232.35
782.89	232.30
783.22	232.25
783.54	232.18
783.86	232.16
784.19	232.06
784.51	232.02
784.83	231.97
785.16	231.89
785.48	231.83
785.80	231.83
786.12	231.80
786.45	231.71
786.77	231.71
787.09	231.69
