SpectraSuite Data File
++++++++++++++++++++++++++++++++++++
Date: Fri Feb 01 15:58:45 EST 2013
User: group
Dark Spectrum Present: No
Reference Spectrum Present: No
Number of Sampled Component Spectra: 1
Spectrometers: USB2E7196
Integration Time (usec): 35000 (USB2E7196)
Spectra Averaged: 100 (USB2E7196)
Boxcar Smoothing: 10 (USB2E7196)
Correct for Electrical Dark: No (USB2E7196)
Strobe/Lamp Enabled: No (USB2E7196)
Correct for Detector Non-linearity: No (USB2E7196)
Correct for Stray Light: No (USB2E7196)
Number of Pixels in Processed Spectrum: 2048
>>>>>Begin Processed Spectral Data<<<<<
339.09	0.00
339.48	214.80
339.86	216.98
340.24	218.05
340.63	219.39
341.01	221.70
341.39	222.42
341.78	223.27
342.16	224.72
342.54	225.00
342.93	213.41
343.31	224.19
343.69	224.75
344.07	225.18
344.46	225.58
344.84	225.98
345.22	226.24
345.60	226.46
345.99	226.65
346.37	226.77
346.75	226.87
347.13	226.91
347.52	226.98
347.90	227.03
348.28	227.03
348.66	227.05
349.05	227.07
349.43	227.11
349.81	227.12
350.19	227.12
350.57	227.20
350.96	227.24
351.34	227.30
351.72	227.38
352.10	227.46
352.48	227.55
352.87	227.59
353.25	227.63
353.63	227.66
354.01	227.72
354.39	227.79
354.77	227.87
355.15	227.98
355.54	228.03
355.92	228.09
356.30	228.16
356.68	228.30
357.06	228.38
357.44	228.41
357.82	228.48
358.20	228.58
358.58	228.64
358.97	228.72
359.35	228.81
359.73	228.88
360.11	228.94
360.49	228.99
360.87	229.00
361.25	229.05
361.63	229.15
362.01	229.18
362.39	229.23
362.77	229.26
363.15	229.28
363.53	229.29
363.91	229.29
364.29	229.33
364.67	229.28
365.05	229.27
365.43	229.31
365.81	229.32
366.19	229.31
366.57	229.33
366.95	229.29
367.33	229.28
367.71	229.28
368.09	229.29
368.47	229.26
368.85	229.25
369.23	229.27
369.61	229.17
369.99	229.18
370.37	229.13
370.75	229.13
371.13	229.08
371.51	229.04
371.89	229.00
372.27	228.97
372.65	228.90
373.03	228.84
373.41	228.76
373.78	228.72
374.16	228.66
374.54	228.59
374.92	228.53
375.30	228.46
375.68	228.33
376.06	228.27
376.44	228.17
376.82	228.11
377.19	228.05
377.57	228.01
377.95	227.92
378.33	227.85
378.71	227.73
379.09	227.65
379.47	227.62
379.84	227.54
380.22	227.45
380.60	227.38
380.98	227.36
381.36	227.32
381.73	227.22
382.11	227.15
382.49	227.09
382.87	227.04
383.25	226.95
383.62	227.02
384.00	226.94
384.38	226.94
384.76	226.90
385.13	226.86
385.51	226.80
385.89	226.72
386.27	226.67
386.64	226.66
387.02	226.62
387.40	226.55
387.78	226.55
388.15	226.52
388.53	226.47
388.91	226.42
389.29	226.37
389.66	226.37
390.04	226.34
390.42	226.32
390.79	226.31
391.17	226.32
391.55	226.20
391.92	226.17
392.30	226.14
392.68	226.13
393.05	226.11
393.43	226.14
393.81	226.18
394.18	226.19
394.56	226.15
394.94	226.17
395.31	226.20
395.69	226.25
396.06	226.29
396.44	226.34
396.82	226.37
397.19	226.46
397.57	226.48
397.95	226.55
398.32	226.56
398.70	226.61
399.07	226.68
399.45	226.76
399.82	226.84
400.20	226.92
400.58	226.96
400.95	227.04
401.33	227.11
401.70	227.26
402.08	227.35
402.45	227.48
402.83	227.60
403.20	227.73
403.58	227.79
403.95	227.92
404.33	228.04
404.71	228.16
405.08	228.33
405.46	228.45
405.83	228.60
406.21	228.77
406.58	228.92
406.96	229.09
407.33	229.23
407.70	229.42
408.08	229.69
408.45	229.93
408.83	230.16
409.20	230.36
409.58	230.55
409.95	230.79
410.33	231.06
410.70	231.31
411.08	231.55
411.45	231.88
411.82	232.17
412.20	232.56
412.57	232.99
412.95	233.26
413.32	233.70
413.69	234.11
414.07	234.50
414.44	234.98
414.82	235.44
415.19	235.98
415.56	236.52
415.94	237.07
416.31	237.71
416.68	238.30
417.06	239.03
417.43	239.71
417.81	240.50
418.18	241.24
418.55	242.09
418.93	242.99
419.30	243.89
419.67	244.83
420.04	245.75
420.42	246.71
420.79	247.92
421.16	249.08
421.54	250.28
421.91	251.53
422.28	252.76
422.66	254.10
423.03	255.46
423.40	256.77
423.77	258.14
424.15	259.55
424.52	261.05
424.89	262.67
425.26	264.20
425.64	265.65
426.01	267.26
426.38	268.90
426.75	270.56
427.13	272.28
427.50	274.07
427.87	275.97
428.24	277.83
428.61	279.57
428.99	281.51
429.36	283.59
429.73	285.67
430.10	287.68
430.47	289.73
430.85	291.81
431.22	294.07
431.59	296.50
431.96	298.74
432.33	301.23
432.70	303.56
433.08	306.37
433.45	309.01
433.82	311.63
434.19	314.50
434.56	317.30
434.93	319.94
435.30	322.58
435.68	325.48
436.05	328.33
436.42	331.14
436.79	333.62
437.16	336.30
437.53	339.15
437.90	342.01
438.27	344.77
438.64	347.60
439.01	350.18
439.38	352.35
439.75	354.54
440.13	357.01
440.50	359.37
440.87	361.28
441.24	363.23
441.61	365.37
441.98	366.91
442.35	368.73
442.72	370.60
443.09	372.36
443.46	373.32
443.83	373.89
444.20	374.38
444.57	375.22
444.94	375.56
445.31	375.86
445.68	376.22
446.05	376.29
446.42	375.96
446.79	375.54
447.16	375.13
447.53	374.79
447.90	373.64
448.27	372.46
448.64	370.79
449.01	369.66
449.37	367.71
449.74	365.78
450.11	363.51
450.48	361.04
450.85	358.50
451.22	356.36
451.59	354.35
451.96	352.38
452.33	349.81
452.70	347.45
453.07	344.61
453.43	341.70
453.80	338.90
454.17	336.20
454.54	333.65
454.91	330.96
455.28	328.30
455.65	325.81
456.02	323.39
456.38	321.27
456.75	318.60
457.12	316.32
457.49	314.11
457.86	311.99
458.23	310.14
458.59	308.13
458.96	306.07
459.33	304.13
459.70	302.31
460.07	300.81
460.43	299.05
460.80	297.42
461.17	295.99
461.54	294.51
461.91	293.11
462.27	291.69
462.64	290.41
463.01	289.05
463.38	287.76
463.74	286.35
464.11	285.19
464.48	284.16
464.85	283.10
465.21	282.23
465.58	281.27
465.95	280.17
466.32	279.27
466.68	278.36
467.05	277.50
467.42	276.59
467.78	275.66
468.15	274.83
468.52	274.21
468.88	273.38
469.25	272.58
469.62	271.94
469.98	271.27
470.35	270.64
470.72	270.04
471.08	269.43
471.45	268.91
471.82	268.33
472.18	267.76
472.55	267.32
472.92	266.80
473.28	266.39
473.65	265.94
474.02	265.50
474.38	265.15
474.75	264.83
475.11	264.46
475.48	264.19
475.85	263.95
476.21	263.67
476.58	263.47
476.94	263.34
477.31	263.15
477.67	262.98
478.04	262.87
478.41	262.86
478.77	262.89
479.14	262.85
479.50	262.86
479.87	262.91
480.23	263.01
480.60	263.07
480.96	263.13
481.33	263.33
481.69	263.57
482.06	263.77
482.42	264.03
482.79	264.30
483.15	264.65
483.52	264.99
483.88	265.39
484.25	265.78
484.61	266.23
484.98	266.70
485.34	267.27
485.71	267.89
486.07	268.46
486.44	269.02
486.80	269.74
487.17	270.49
487.53	271.32
487.90	272.17
488.26	273.15
488.62	274.13
488.99	275.13
489.35	276.13
489.72	277.23
490.08	278.38
490.44	279.65
490.81	280.98
491.17	282.37
491.54	283.86
491.90	285.37
492.26	287.02
492.63	288.77
492.99	290.60
493.36	292.49
493.72	294.51
494.08	296.60
494.45	298.86
494.81	301.22
495.17	303.65
495.54	306.19
495.90	308.86
496.26	311.64
496.63	314.62
496.99	317.73
497.35	321.03
497.72	324.46
498.08	327.97
498.44	331.64
498.80	335.57
499.17	339.59
499.53	343.80
499.89	348.15
500.26	352.66
500.62	357.27
500.98	362.27
501.34	367.38
501.71	372.69
502.07	378.14
502.43	383.75
502.79	389.65
503.16	395.72
503.52	401.92
503.88	408.36
504.24	414.93
504.60	421.84
504.97	428.88
505.33	436.21
505.69	443.93
506.05	451.71
506.41	459.57
506.78	467.71
507.14	476.19
507.50	484.88
507.86	493.84
508.22	503.12
508.59	512.34
508.95	521.94
509.31	531.78
509.67	541.81
510.03	552.12
510.39	562.62
510.75	573.40
511.12	584.37
511.48	595.71
511.84	607.17
512.20	618.71
512.56	630.66
512.92	642.86
513.28	655.10
513.64	667.59
514.00	680.25
514.37	693.20
514.73	706.22
515.09	719.32
515.45	732.70
515.81	746.26
516.17	760.22
516.53	774.35
516.89	788.50
517.25	802.67
517.61	817.04
517.97	831.56
518.33	846.02
518.69	860.80
519.05	875.74
519.41	890.99
519.77	906.46
520.13	921.94
520.49	937.25
520.85	952.68
521.21	968.35
521.57	984.54
521.93	1000.34
522.29	1016.77
522.65	1032.91
523.01	1048.99
523.37	1064.98
523.73	1081.22
524.09	1097.28
524.45	1113.71
524.81	1130.42
525.17	1147.29
525.53	1164.07
525.89	1180.88
526.25	1197.67
526.61	1213.98
526.97	1230.61
527.33	1247.11
527.68	1263.65
528.04	1280.06
528.40	1296.61
528.76	1313.61
529.12	1330.23
529.48	1347.05
529.84	1363.00
530.20	1379.75
530.56	1396.80
530.91	1414.11
531.27	1430.73
531.63	1447.17
531.99	1463.62
532.35	1479.46
532.71	1495.25
533.07	1511.40
533.42	1527.19
533.78	1543.23
534.14	1559.59
534.50	1575.03
534.86	1590.87
535.21	1606.12
535.57	1622.10
535.93	1637.67
536.29	1652.43
536.65	1667.49
537.00	1682.26
537.36	1697.57
537.72	1712.02
538.08	1726.44
538.44	1740.19
538.79	1754.00
539.15	1767.59
539.51	1781.16
539.87	1795.42
540.22	1809.13
540.58	1822.92
540.94	1836.31
541.29	1849.22
541.65	1861.80
542.01	1874.85
542.37	1887.17
542.72	1899.52
543.08	1911.26
543.44	1923.51
543.79	1934.79
544.15	1945.77
544.51	1957.17
544.87	1968.02
545.22	1978.79
545.58	1988.84
545.94	1998.71
546.29	2008.64
546.65	2018.48
547.01	2027.80
547.36	2036.60
547.72	2045.10
548.07	2052.87
548.43	2061.03
548.79	2069.07
549.14	2076.54
549.50	2083.85
549.86	2091.46
550.21	2098.76
550.57	2105.92
550.92	2112.45
551.28	2119.44
551.64	2126.56
551.99	2133.11
552.35	2139.28
552.70	2145.49
553.06	2151.58
553.41	2157.85
553.77	2163.76
554.13	2169.94
554.48	2176.17
554.84	2181.50
555.19	2186.79
555.55	2192.05
555.90	2196.51
556.26	2201.36
556.61	2206.11
556.97	2210.30
557.32	2214.55
557.68	2218.60
558.03	2222.82
558.39	2226.63
558.74	2231.36
559.10	2235.18
559.45	2238.88
559.81	2243.21
560.16	2246.93
560.52	2250.11
560.87	2253.64
561.23	2256.36
561.58	2259.33
561.94	2261.66
562.29	2264.11
562.64	2266.76
563.00	2269.35
563.35	2272.88
563.71	2276.05
564.06	2279.24
564.42	2282.21
564.77	2284.69
565.12	2286.96
565.48	2288.96
565.83	2290.77
566.19	2291.92
566.54	2292.74
566.89	2293.85
567.25	2294.37
567.60	2295.59
567.96	2297.16
568.31	2297.83
568.66	2298.89
569.02	2299.39
569.37	2299.85
569.72	2300.73
570.08	2300.92
570.43	2301.01
570.78	2300.47
571.14	2298.81
571.49	2297.59
571.84	2297.23
572.20	2295.92
572.55	2294.82
572.90	2293.35
573.26	2291.92
573.61	2290.30
573.96	2288.62
574.31	2285.66
574.67	2282.76
575.02	2279.40
575.37	2276.23
575.72	2272.46
576.08	2269.22
576.43	2265.90
576.78	2262.17
577.13	2259.02
577.49	2255.99
577.84	2252.37
578.19	2248.60
578.54	2244.97
578.90	2240.67
579.25	2235.25
579.60	2230.42
579.95	2225.64
580.30	2220.58
580.66	2215.49
581.01	2210.53
581.36	2205.53
581.71	2201.41
582.06	2196.91
582.42	2192.26
582.77	2186.94
583.12	2182.42
583.47	2177.68
583.82	2172.57
584.17	2167.36
584.53	2161.91
584.88	2156.25
585.23	2150.53
585.58	2144.98
585.93	2139.64
586.28	2134.93
586.63	2129.85
586.98	2124.82
587.34	2119.97
587.69	2115.07
588.04	2109.86
588.39	2104.25
588.74	2097.88
589.09	2091.70
589.44	2084.92
589.79	2079.00
590.14	2073.48
590.49	2066.84
590.84	2060.46
591.19	2054.48
591.54	2048.04
591.89	2040.57
592.25	2033.74
592.60	2026.58
592.95	2018.95
593.30	2011.54
593.65	2003.97
594.00	1996.94
594.35	1989.68
594.70	1981.76
595.05	1974.45
595.40	1967.17
595.75	1959.55
596.10	1953.35
596.45	1946.68
596.80	1940.61
597.15	1933.89
597.50	1926.76
597.85	1920.45
598.19	1913.77
598.54	1906.66
598.89	1900.02
599.24	1894.22
599.59	1887.43
599.94	1881.33
600.29	1875.09
600.64	1868.50
600.99	1861.00
601.34	1854.17
601.69	1847.23
602.04	1840.35
602.39	1833.05
602.74	1826.24
603.08	1819.61
603.43	1812.73
603.78	1805.36
604.13	1797.97
604.48	1790.64
604.83	1783.74
605.18	1776.58
605.53	1768.66
605.87	1760.62
606.22	1753.48
606.57	1745.45
606.92	1738.21
607.27	1730.95
607.62	1724.07
607.96	1716.80
608.31	1710.14
608.66	1702.50
609.01	1694.75
609.36	1687.15
609.70	1679.18
610.05	1671.03
610.40	1663.29
610.75	1655.11
611.10	1647.45
611.44	1639.13
611.79	1631.22
612.14	1622.58
612.49	1613.48
612.83	1605.02
613.18	1596.98
613.53	1588.74
613.88	1580.23
614.22	1572.05
614.57	1563.46
614.92	1555.45
615.27	1547.79
615.61	1539.52
615.96	1531.59
616.31	1524.05
616.65	1516.75
617.00	1509.18
617.35	1501.61
617.70	1493.30
618.04	1484.85
618.39	1476.65
618.74	1469.10
619.08	1460.79
619.43	1453.21
619.78	1446.44
620.12	1439.30
620.47	1431.70
620.82	1423.59
621.16	1416.13
621.51	1408.45
621.85	1400.72
622.20	1392.09
622.55	1383.80
622.89	1375.95
623.24	1368.28
623.59	1360.95
623.93	1353.44
624.28	1346.29
624.62	1338.77
624.97	1331.58
625.32	1324.67
625.66	1317.70
626.01	1310.48
626.35	1302.99
626.70	1295.28
627.04	1287.46
627.39	1279.61
627.73	1272.30
628.08	1265.41
628.43	1258.06
628.77	1250.65
629.12	1243.14
629.46	1235.98
629.81	1228.63
630.15	1221.38
630.50	1213.88
630.84	1205.72
631.19	1197.73
631.53	1190.16
631.88	1182.50
632.22	1174.87
632.57	1167.65
632.91	1160.09
633.26	1152.65
633.60	1145.30
633.95	1138.18
634.29	1131.14
634.64	1124.57
634.98	1117.16
635.32	1109.89
635.67	1103.42
636.01	1096.78
636.36	1089.96
636.70	1083.58
637.05	1077.02
637.39	1070.52
637.73	1064.12
638.08	1058.16
638.42	1052.13
638.77	1045.72
639.11	1039.17
639.45	1032.81
639.80	1026.13
640.14	1019.63
640.49	1013.13
640.83	1006.81
641.17	1000.47
641.52	994.16
641.86	987.65
642.20	981.83
642.55	975.65
642.89	969.13
643.23	962.60
643.58	956.87
643.92	950.64
644.26	944.52
644.61	938.57
644.95	932.45
645.29	925.90
645.64	919.16
645.98	912.74
646.32	906.83
646.66	900.71
647.01	894.95
647.35	889.25
647.69	883.46
648.04	877.96
648.38	872.21
648.72	866.21
649.06	860.18
649.41	854.30
649.75	848.31
650.09	842.36
650.43	836.57
650.78	830.39
651.12	824.43
651.46	818.69
651.80	812.94
652.14	807.57
652.49	802.17
652.83	797.02
653.17	791.36
653.51	785.75
653.85	780.47
654.20	774.81
654.54	768.88
654.88	763.20
655.22	757.30
655.56	751.62
655.90	746.10
656.25	740.83
656.59	735.43
656.93	730.35
657.27	725.20
657.61	719.83
657.95	714.78
658.29	709.70
658.64	704.45
658.98	699.08
659.32	693.59
659.66	688.44
660.00	683.13
660.34	678.21
660.68	673.31
661.02	668.18
661.36	663.44
661.70	658.89
662.05	654.45
662.39	650.15
662.73	645.74
663.07	641.44
663.41	636.94
663.75	632.45
664.09	627.86
664.43	623.43
664.77	619.22
665.11	614.94
665.45	610.73
665.79	606.68
666.13	602.56
666.47	598.50
666.81	594.26
667.15	590.18
667.49	586.25
667.83	582.45
668.17	578.54
668.51	574.44
668.85	570.42
669.19	566.57
669.53	562.72
669.87	558.80
670.21	555.11
670.55	551.53
670.89	548.14
671.23	544.71
671.57	541.18
671.91	537.70
672.25	534.22
672.58	530.69
672.92	527.32
673.26	524.18
673.60	521.00
673.94	517.90
674.28	515.00
674.62	512.04
674.96	508.94
675.30	505.98
675.64	503.13
675.97	500.38
676.31	497.49
676.65	494.54
676.99	491.89
677.33	488.99
677.67	486.16
678.01	483.11
678.34	480.11
678.68	477.31
679.02	474.44
679.36	471.64
679.70	468.96
680.04	466.16
680.37	463.26
680.71	460.51
681.05	457.91
681.39	455.17
681.73	452.51
682.06	449.94
682.40	447.45
682.74	444.90
683.08	442.30
683.42	439.69
683.75	437.17
684.09	434.58
684.43	432.09
684.77	429.67
685.10	427.33
685.44	425.04
685.78	422.74
686.12	420.49
686.45	418.27
686.79	415.93
687.13	413.78
687.46	411.65
687.80	409.49
688.14	407.26
688.48	405.14
688.81	402.86
689.15	400.69
689.49	398.56
689.82	396.42
690.16	394.37
690.50	392.44
690.83	390.53
691.17	388.56
691.51	386.63
691.84	384.75
692.18	382.77
692.52	380.81
692.85	378.83
693.19	377.00
693.52	375.14
693.86	373.40
694.20	371.59
694.53	369.74
694.87	367.91
695.21	366.13
695.54	364.35
695.88	362.65
696.21	360.95
696.55	359.29
696.88	357.63
697.22	356.02
697.56	354.38
697.89	352.70
698.23	351.10
698.56	349.52
698.90	347.94
699.23	346.34
699.57	344.83
699.90	343.33
700.24	341.81
700.58	340.26
700.91	338.74
701.25	337.32
701.58	336.01
701.92	334.67
702.25	333.32
702.59	331.93
702.92	330.63
703.26	329.30
703.59	328.00
703.93	326.86
704.26	325.57
704.60	324.26
704.93	322.98
705.26	321.75
705.60	320.59
705.93	319.41
706.27	318.38
706.60	317.31
706.94	316.20
707.27	315.05
707.61	314.01
707.94	312.98
708.27	311.87
708.61	310.76
708.94	309.74
709.28	308.76
709.61	307.83
709.94	306.85
710.28	305.82
710.61	304.84
710.95	303.73
711.28	302.87
711.61	301.95
711.95	301.06
712.28	300.11
712.61	299.12
712.95	298.21
713.28	297.33
713.61	296.41
713.95	295.50
714.28	294.67
714.61	293.80
714.95	292.96
715.28	292.10
715.61	291.24
715.95	290.38
716.28	289.54
716.61	288.68
716.95	287.89
717.28	287.17
717.61	286.38
717.94	285.64
718.28	284.80
718.61	284.07
718.94	283.34
719.27	282.65
719.61	281.99
719.94	281.31
720.27	280.56
720.60	279.92
720.94	279.29
721.27	278.67
721.60	278.10
721.93	277.51
722.27	276.97
722.60	276.41
722.93	275.81
723.26	275.26
723.59	274.73
723.93	274.18
724.26	273.62
724.59	273.09
724.92	272.55
725.25	272.03
725.59	271.50
725.92	271.04
726.25	270.56
726.58	270.08
726.91	269.59
727.24	269.12
727.57	268.65
727.91	268.17
728.24	267.70
728.57	267.19
728.90	266.71
729.23	266.17
729.56	265.71
729.89	265.24
730.22	264.74
730.55	264.25
730.89	263.77
731.22	263.31
731.55	262.89
731.88	262.50
732.21	262.10
732.54	261.66
732.87	261.19
733.20	260.78
733.53	260.36
733.86	259.97
734.19	259.58
734.52	259.19
734.85	258.89
735.18	258.47
735.51	258.13
735.84	257.78
736.17	257.48
736.50	257.14
736.83	256.94
737.16	256.59
737.49	256.28
737.82	255.97
738.15	255.66
738.48	255.30
738.81	254.98
739.14	254.64
739.47	254.32
739.80	254.03
740.13	253.72
740.46	253.43
740.79	253.12
741.12	252.84
741.45	252.56
741.78	252.20
742.11	251.95
742.44	251.60
742.77	251.34
743.10	251.01
743.43	250.68
743.75	250.29
744.08	250.16
744.41	249.87
744.74	249.60
745.07	249.33
745.40	249.10
745.73	248.85
746.06	248.61
746.39	248.40
746.71	248.13
747.04	247.87
747.37	247.61
747.70	247.38
748.03	247.13
748.36	246.92
748.68	246.69
749.01	246.40
749.34	246.21
749.67	245.93
750.00	245.73
750.33	245.57
750.65	245.38
750.98	245.05
751.31	244.82
751.64	244.61
751.97	244.42
752.29	244.17
752.62	243.96
752.95	243.76
753.28	243.54
753.60	243.32
753.93	243.15
754.26	242.96
754.59	242.73
754.91	242.49
755.24	242.26
755.57	242.06
755.90	241.88
756.22	241.66
756.55	241.48
756.88	241.28
757.20	241.05
757.53	240.81
757.86	240.64
758.19	240.52
758.51	240.33
758.84	240.12
759.17	239.98
759.49	239.78
759.82	239.63
760.15	239.47
760.47	239.32
760.80	239.12
761.13	238.99
761.45	238.84
761.78	238.67
762.11	238.54
762.43	238.38
762.76	238.22
763.08	238.13
763.41	238.03
763.74	237.90
764.06	237.76
764.39	237.64
764.71	237.47
765.04	237.28
765.37	237.18
765.69	237.03
766.02	236.89
766.34	236.77
766.67	236.64
767.00	236.52
767.32	236.41
767.65	236.34
767.97	236.19
768.30	236.06
768.62	235.95
768.95	235.82
769.27	235.68
769.60	235.62
769.92	235.45
770.25	235.29
770.57	235.15
770.90	235.03
771.22	234.91
771.55	234.82
771.87	234.74
772.20	234.61
772.52	234.63
772.85	234.68
773.17	234.57
773.50	234.46
773.82	234.35
774.15	234.25
774.47	234.12
774.80	234.02
775.12	233.92
775.45	233.87
775.77	233.78
776.09	233.70
776.42	233.60
776.74	233.59
777.07	233.53
777.39	233.46
777.72	233.37
778.04	233.31
778.36	233.25
778.69	233.21
779.01	233.15
779.33	232.98
779.66	232.75
779.98	232.69
780.31	232.63
780.63	232.58
780.95	232.54
781.28	232.51
781.60	232.46
781.92	232.38
782.25	232.31
782.57	232.26
782.89	232.22
783.22	232.16
783.54	232.04
783.86	231.98
784.19	231.96
784.51	231.95
784.83	231.88
785.16	231.83
785.48	231.75
785.80	231.73
786.12	231.70
786.45	231.69
786.77	231.65
787.09	231.61
