SpectraSuite Data File
++++++++++++++++++++++++++++++++++++
Date: Fri Feb 01 15:31:38 EST 2013
User: group
Dark Spectrum Present: No
Reference Spectrum Present: No
Number of Sampled Component Spectra: 1
Spectrometers: USB2E7196
Integration Time (usec): 35000 (USB2E7196)
Spectra Averaged: 100 (USB2E7196)
Boxcar Smoothing: 10 (USB2E7196)
Correct for Electrical Dark: No (USB2E7196)
Strobe/Lamp Enabled: No (USB2E7196)
Correct for Detector Non-linearity: No (USB2E7196)
Correct for Stray Light: No (USB2E7196)
Number of Pixels in Processed Spectrum: 2048
>>>>>Begin Processed Spectral Data<<<<<
339.09	0.00
339.48	215.26
339.86	216.74
340.24	217.67
340.63	219.43
341.01	221.62
341.39	222.04
341.78	222.64
342.16	224.41
342.54	225.00
342.93	213.34
343.31	224.14
343.69	224.65
344.07	225.13
344.46	225.55
344.84	225.92
345.22	226.17
345.60	226.40
345.99	226.63
346.37	226.77
346.75	226.90
347.13	227.01
347.52	227.04
347.90	227.14
348.28	227.14
348.66	227.21
349.05	227.20
349.43	227.24
349.81	227.27
350.19	227.34
350.57	227.39
350.96	227.47
351.34	227.53
351.72	227.66
352.10	227.73
352.48	227.80
352.87	227.87
353.25	227.96
353.63	228.04
354.01	228.11
354.39	228.16
354.77	228.23
355.15	228.30
355.54	228.37
355.92	228.38
356.30	228.46
356.68	228.57
357.06	228.70
357.44	228.77
357.82	228.83
358.20	228.89
358.58	228.91
358.97	228.96
359.35	229.06
359.73	229.11
360.11	229.17
360.49	229.23
360.87	229.29
361.25	229.32
361.63	229.37
362.01	229.42
362.39	229.42
362.77	229.46
363.15	229.46
363.53	229.46
363.91	229.51
364.29	229.50
364.67	229.39
365.05	229.36
365.43	229.39
365.81	229.40
366.19	229.42
366.57	229.49
366.95	229.48
367.33	229.40
367.71	229.38
368.09	229.39
368.47	229.35
368.85	229.28
369.23	229.28
369.61	229.18
369.99	229.15
370.37	229.16
370.75	229.12
371.13	229.09
371.51	229.04
371.89	228.97
372.27	228.95
372.65	228.93
373.03	228.86
373.41	228.74
373.78	228.66
374.16	228.55
374.54	228.44
374.92	228.33
375.30	228.25
375.68	228.13
376.06	228.04
376.44	227.98
376.82	227.91
377.19	227.84
377.57	227.81
377.95	227.68
378.33	227.59
378.71	227.47
379.09	227.40
379.47	227.37
379.84	227.32
380.22	227.25
380.60	227.17
380.98	227.12
381.36	227.06
381.73	226.98
382.11	226.96
382.49	226.91
382.87	226.84
383.25	226.81
383.62	226.90
384.00	226.81
384.38	226.75
384.76	226.72
385.13	226.68
385.51	226.59
385.89	226.57
386.27	226.53
386.64	226.49
387.02	226.47
387.40	226.39
387.78	226.36
388.15	226.30
388.53	226.24
388.91	226.22
389.29	226.17
389.66	226.18
390.04	226.15
390.42	226.10
390.79	226.15
391.17	226.13
391.55	225.98
391.92	226.00
392.30	226.02
392.68	226.01
393.05	226.02
393.43	226.05
393.81	226.04
394.18	226.04
394.56	226.10
394.94	226.14
395.31	226.19
395.69	226.24
396.06	226.30
396.44	226.36
396.82	226.42
397.19	226.55
397.57	226.57
397.95	226.67
398.32	226.71
398.70	226.77
399.07	226.87
399.45	226.95
399.82	227.02
400.20	227.08
400.58	227.16
400.95	227.23
401.33	227.33
401.70	227.49
402.08	227.64
402.45	227.72
402.83	227.81
403.20	227.90
403.58	227.98
403.95	228.12
404.33	228.28
404.71	228.39
405.08	228.57
405.46	228.71
405.83	228.82
406.21	229.03
406.58	229.18
406.96	229.36
407.33	229.55
407.70	229.75
408.08	230.02
408.45	230.28
408.83	230.50
409.20	230.71
409.58	230.90
409.95	231.15
410.33	231.41
410.70	231.66
411.08	231.96
411.45	232.30
411.82	232.60
412.20	232.90
412.57	233.34
412.95	233.62
413.32	234.00
413.69	234.43
414.07	234.83
414.44	235.29
414.82	235.76
415.19	236.29
415.56	236.85
415.94	237.35
416.31	237.95
416.68	238.61
417.06	239.34
417.43	240.03
417.81	240.78
418.18	241.56
418.55	242.37
418.93	243.27
419.30	244.18
419.67	245.11
420.04	246.11
420.42	247.08
420.79	248.28
421.16	249.48
421.54	250.65
421.91	251.87
422.28	253.11
422.66	254.43
423.03	255.74
423.40	257.05
423.77	258.47
424.15	259.87
424.52	261.36
424.89	262.99
425.26	264.55
425.64	266.01
426.01	267.61
426.38	269.29
426.75	270.94
427.13	272.62
427.50	274.43
427.87	276.29
428.24	278.13
428.61	279.84
428.99	281.80
429.36	283.94
429.73	286.02
430.10	288.08
430.47	290.14
430.85	292.27
431.22	294.57
431.59	296.98
431.96	299.29
432.33	301.79
432.70	304.17
433.08	306.97
433.45	309.62
433.82	312.26
434.19	315.18
434.56	318.04
434.93	320.75
435.30	323.38
435.68	326.30
436.05	329.16
436.42	332.02
436.79	334.52
437.16	337.22
437.53	340.02
437.90	342.88
438.27	345.62
438.64	348.51
439.01	351.09
439.38	353.34
439.75	355.52
440.13	358.04
440.50	360.36
440.87	362.22
441.24	364.12
441.61	366.26
441.98	367.78
442.35	369.56
442.72	371.41
443.09	373.20
443.46	374.21
443.83	374.79
444.20	375.26
444.57	376.13
444.94	376.40
445.31	376.79
445.68	377.10
446.05	377.22
446.42	376.75
446.79	376.30
447.16	375.86
447.53	375.55
447.90	374.32
448.27	373.15
448.64	371.55
449.01	370.43
449.37	368.46
449.74	366.52
450.11	364.24
450.48	361.77
450.85	359.21
451.22	357.07
451.59	355.02
451.96	353.05
452.33	350.38
452.70	348.02
453.07	345.17
453.43	342.25
453.80	339.41
454.17	336.71
454.54	334.15
454.91	331.38
455.28	328.64
455.65	326.19
456.02	323.74
456.38	321.60
456.75	318.95
457.12	316.71
457.49	314.48
457.86	312.31
458.23	310.42
458.59	308.40
458.96	306.25
459.33	304.41
459.70	302.53
460.07	301.06
460.43	299.30
460.80	297.69
461.17	296.26
461.54	294.82
461.91	293.43
462.27	291.97
462.64	290.75
463.01	289.38
463.38	288.09
463.74	286.70
464.11	285.52
464.48	284.48
464.85	283.34
465.21	282.45
465.58	281.54
465.95	280.46
466.32	279.55
466.68	278.68
467.05	277.80
467.42	276.94
467.78	275.98
468.15	275.09
468.52	274.41
468.88	273.56
469.25	272.76
469.62	272.12
469.98	271.45
470.35	270.77
470.72	270.17
471.08	269.49
471.45	268.96
471.82	268.44
472.18	267.82
472.55	267.38
472.92	266.88
473.28	266.41
473.65	265.94
474.02	265.48
474.38	265.11
474.75	264.77
475.11	264.44
475.48	264.21
475.85	263.99
476.21	263.75
476.58	263.56
476.94	263.40
477.31	263.24
477.67	263.13
478.04	263.04
478.41	262.98
478.77	263.02
479.14	262.94
479.50	262.93
479.87	263.04
480.23	263.12
480.60	263.19
480.96	263.28
481.33	263.48
481.69	263.71
482.06	263.89
482.42	264.11
482.79	264.33
483.15	264.63
483.52	265.04
483.88	265.39
484.25	265.76
484.61	266.21
484.98	266.67
485.34	267.22
485.71	267.83
486.07	268.46
486.44	269.02
486.80	269.74
487.17	270.50
487.53	271.34
487.90	272.18
488.26	273.10
488.62	274.09
488.99	275.10
489.35	276.12
489.72	277.30
490.08	278.52
490.44	279.78
490.81	281.11
491.17	282.46
491.54	283.98
491.90	285.51
492.26	287.14
492.63	288.89
492.99	290.63
493.36	292.50
493.72	294.54
494.08	296.64
494.45	298.85
494.81	301.15
495.17	303.56
495.54	306.15
495.90	308.84
496.26	311.62
496.63	314.57
496.99	317.67
497.35	320.89
497.72	324.30
498.08	327.83
498.44	331.51
498.80	335.47
499.17	339.43
499.53	343.64
499.89	348.00
500.26	352.47
500.62	357.19
500.98	362.16
501.34	367.21
501.71	372.56
502.07	378.06
502.43	383.74
502.79	389.55
503.16	395.59
503.52	401.90
503.88	408.29
504.24	414.93
504.60	421.83
504.97	428.93
505.33	436.22
505.69	443.92
506.05	451.65
506.41	459.49
506.78	467.70
507.14	476.16
507.50	484.89
507.86	493.93
508.22	503.07
508.59	512.31
508.95	521.98
509.31	531.77
509.67	541.87
510.03	552.12
510.39	562.71
510.75	573.50
511.12	584.43
511.48	595.78
511.84	607.29
512.20	618.84
512.56	630.83
512.92	642.99
513.28	655.30
513.64	667.84
514.00	680.60
514.37	693.52
514.73	706.63
515.09	719.73
515.45	733.04
515.81	746.65
516.17	760.61
516.53	774.76
516.89	788.93
517.25	803.08
517.61	817.51
517.97	831.98
518.33	846.48
518.69	861.33
519.05	876.45
519.41	891.68
519.77	907.27
520.13	922.74
520.49	938.18
520.85	953.71
521.21	969.60
521.57	985.88
521.93	1001.69
522.29	1018.09
522.65	1034.29
523.01	1050.53
523.37	1066.68
523.73	1082.84
524.09	1098.97
524.45	1115.32
524.81	1132.06
525.17	1148.97
525.53	1165.99
525.89	1182.95
526.25	1199.71
526.61	1216.03
526.97	1232.73
527.33	1249.26
527.68	1265.94
528.04	1282.56
528.40	1299.17
528.76	1316.19
529.12	1332.84
529.48	1349.89
529.84	1365.91
530.20	1382.67
530.56	1399.79
530.91	1417.23
531.27	1434.10
531.63	1450.68
531.99	1467.30
532.35	1483.36
532.71	1499.35
533.07	1515.50
533.42	1531.46
533.78	1547.58
534.14	1563.99
534.50	1579.45
534.86	1595.36
535.21	1610.57
535.57	1626.56
535.93	1642.20
536.29	1657.03
536.65	1672.16
537.00	1686.97
537.36	1702.33
537.72	1716.91
538.08	1731.43
538.44	1745.27
538.79	1759.26
539.15	1772.99
539.51	1786.75
539.87	1800.94
540.22	1814.60
540.58	1828.62
540.94	1841.99
541.29	1855.06
541.65	1867.65
542.01	1880.91
542.37	1893.14
542.72	1905.57
543.08	1917.40
543.44	1929.79
543.79	1941.11
544.15	1952.04
544.51	1963.51
544.87	1974.63
545.22	1985.44
545.58	1995.58
545.94	2005.38
546.29	2015.21
546.65	2025.05
547.01	2034.44
547.36	2043.41
547.72	2052.05
548.07	2059.85
548.43	2067.98
548.79	2075.93
549.14	2083.52
549.50	2090.83
549.86	2098.84
550.21	2106.06
550.57	2113.19
550.92	2119.72
551.28	2126.77
551.64	2133.94
551.99	2140.66
552.35	2146.75
552.70	2152.94
553.06	2158.91
553.41	2165.23
553.77	2171.26
554.13	2177.28
554.48	2183.34
554.84	2188.74
555.19	2193.96
555.55	2199.11
555.90	2203.66
556.26	2208.56
556.61	2213.33
556.97	2217.60
557.32	2221.51
557.68	2225.87
558.03	2230.13
558.39	2233.92
558.74	2238.46
559.10	2242.34
559.45	2245.96
559.81	2250.33
560.16	2254.22
560.52	2257.46
560.87	2260.97
561.23	2263.74
561.58	2266.70
561.94	2269.16
562.29	2271.60
562.64	2274.36
563.00	2276.93
563.35	2280.48
563.71	2283.54
564.06	2286.78
564.42	2289.62
564.77	2292.10
565.12	2294.33
565.48	2296.15
565.83	2297.93
566.19	2299.17
566.54	2300.02
566.89	2301.12
567.25	2301.62
567.60	2303.10
567.96	2304.80
568.31	2305.57
568.66	2306.54
569.02	2307.10
569.37	2307.43
569.72	2308.15
570.08	2308.17
570.43	2308.01
570.78	2307.26
571.14	2305.76
571.49	2304.32
571.84	2304.04
572.20	2302.87
572.55	2301.75
572.90	2300.33
573.26	2298.88
573.61	2297.21
573.96	2295.41
574.31	2292.23
574.67	2289.18
575.02	2285.24
575.37	2281.76
575.72	2277.79
576.08	2274.45
576.43	2271.22
576.78	2267.55
577.13	2264.39
577.49	2261.44
577.84	2258.00
578.19	2254.19
578.54	2250.45
578.90	2246.16
579.25	2240.51
579.60	2235.46
579.95	2230.28
580.30	2225.05
580.66	2219.83
581.01	2214.87
581.36	2209.98
581.71	2205.75
582.06	2201.22
582.42	2196.58
582.77	2191.26
583.12	2186.65
583.47	2181.71
583.82	2176.40
584.17	2171.12
584.53	2165.47
584.88	2159.43
585.23	2153.62
585.58	2148.22
585.93	2142.73
586.28	2137.93
586.63	2132.62
586.98	2127.48
587.34	2122.88
587.69	2118.03
588.04	2112.67
588.39	2106.79
588.74	2100.11
589.09	2093.88
589.44	2087.02
589.79	2081.21
590.14	2075.59
590.49	2068.91
590.84	2062.61
591.19	2056.60
591.54	2050.01
591.89	2042.58
592.25	2035.91
592.60	2028.65
592.95	2020.84
593.30	2013.39
593.65	2005.74
594.00	1998.92
594.35	1991.83
594.70	1983.66
595.05	1976.26
595.40	1968.98
595.75	1961.49
596.10	1955.16
596.45	1948.42
596.80	1942.24
597.15	1935.36
597.50	1928.16
597.85	1921.79
598.19	1914.92
598.54	1907.70
598.89	1901.03
599.24	1895.09
599.59	1888.26
599.94	1882.07
600.29	1875.75
600.64	1869.22
600.99	1861.71
601.34	1854.66
601.69	1847.42
602.04	1840.35
602.39	1832.97
602.74	1826.08
603.08	1819.38
603.43	1812.61
603.78	1805.31
604.13	1798.00
604.48	1790.63
604.83	1783.70
605.18	1776.71
605.53	1768.79
605.87	1760.74
606.22	1753.56
606.57	1745.56
606.92	1738.23
607.27	1730.86
607.62	1724.00
607.96	1716.63
608.31	1710.01
608.66	1702.41
609.01	1694.90
609.36	1687.41
609.70	1679.36
610.05	1671.25
610.40	1663.46
610.75	1655.16
611.10	1647.39
611.44	1639.04
611.79	1631.03
612.14	1622.37
612.49	1613.12
612.83	1604.76
613.18	1596.80
613.53	1588.61
613.88	1580.10
614.22	1571.82
614.57	1563.30
614.92	1555.16
615.27	1547.59
615.61	1539.21
615.96	1531.16
616.31	1523.50
616.65	1516.15
617.00	1508.59
617.35	1501.04
617.70	1492.67
618.04	1484.26
618.39	1476.09
618.74	1468.41
619.08	1460.23
619.43	1452.74
619.78	1445.76
620.12	1438.57
620.47	1430.96
620.82	1422.83
621.16	1415.42
621.51	1407.83
621.85	1400.25
622.20	1391.72
622.55	1383.38
622.89	1375.57
623.24	1367.89
623.59	1360.49
623.93	1352.95
624.28	1345.79
624.62	1338.14
624.97	1331.03
625.32	1324.23
625.66	1317.20
626.01	1310.08
626.35	1302.60
626.70	1294.79
627.04	1287.16
627.39	1279.52
627.73	1272.09
628.08	1265.15
628.43	1257.80
628.77	1250.38
629.12	1242.75
629.46	1235.59
629.81	1228.15
630.15	1220.91
630.50	1213.59
630.84	1205.47
631.19	1197.55
631.53	1190.11
631.88	1182.59
632.22	1174.99
632.57	1167.69
632.91	1160.14
633.26	1152.65
633.60	1145.24
633.95	1138.14
634.29	1131.18
634.64	1124.38
634.98	1116.93
635.32	1109.75
635.67	1103.18
636.01	1096.66
636.36	1089.88
636.70	1083.39
637.05	1076.84
637.39	1070.41
637.73	1063.87
638.08	1057.98
638.42	1052.05
638.77	1045.54
639.11	1038.90
639.45	1032.55
639.80	1025.77
640.14	1019.33
640.49	1012.83
640.83	1006.52
641.17	1000.29
641.52	993.81
641.86	987.49
642.20	981.74
642.55	975.42
642.89	968.84
643.23	962.26
643.58	956.39
643.92	950.16
644.26	944.04
644.61	938.01
644.95	931.96
645.29	925.33
645.64	918.54
645.98	912.19
646.32	906.30
646.66	900.16
647.01	894.43
647.35	888.77
647.69	882.96
648.04	877.42
648.38	871.59
648.72	865.60
649.06	859.42
649.41	853.55
649.75	847.58
650.09	841.71
650.43	835.80
650.78	829.74
651.12	823.85
651.46	818.14
651.80	812.30
652.14	806.86
652.49	801.46
652.83	796.23
653.17	790.52
653.51	784.86
653.85	779.51
654.20	773.84
654.54	767.82
654.88	762.11
655.22	756.22
655.56	750.55
655.90	745.11
656.25	739.87
656.59	734.46
656.93	729.41
657.27	724.27
657.61	718.94
657.95	713.74
658.29	708.68
658.64	703.46
658.98	698.20
659.32	692.81
659.66	687.60
660.00	682.32
660.34	677.44
660.68	672.52
661.02	667.52
661.36	662.82
661.70	658.29
662.05	653.91
662.39	649.61
662.73	645.19
663.07	640.82
663.41	636.35
663.75	631.84
664.09	627.29
664.43	622.93
664.77	618.81
665.11	614.68
665.45	610.51
665.79	606.36
666.13	602.20
666.47	598.11
666.81	593.98
667.15	589.91
667.49	585.99
667.83	582.20
668.17	578.25
668.51	574.21
668.85	570.19
669.19	566.35
669.53	562.49
669.87	558.57
670.21	554.89
670.55	551.29
670.89	547.89
671.23	544.41
671.57	540.89
671.91	537.32
672.25	533.81
672.58	530.27
672.92	526.96
673.26	523.82
673.60	520.64
673.94	517.49
674.28	514.59
674.62	511.57
674.96	508.50
675.30	505.58
675.64	502.58
675.97	499.85
676.31	496.97
676.65	494.02
676.99	491.29
677.33	488.39
677.67	485.56
678.01	482.50
678.34	479.51
678.68	476.65
679.02	473.83
679.36	471.04
679.70	468.34
680.04	465.51
680.37	462.66
680.71	459.89
681.05	457.30
681.39	454.55
681.73	452.00
682.06	449.48
682.40	446.92
682.74	444.42
683.08	441.88
683.42	439.25
683.75	436.79
684.09	434.27
684.43	431.84
684.77	429.40
685.10	427.10
685.44	424.83
685.78	422.59
686.12	420.37
686.45	418.11
686.79	415.79
687.13	413.62
687.46	411.43
687.80	409.29
688.14	407.11
688.48	405.06
688.81	402.78
689.15	400.59
689.49	398.51
689.82	396.48
690.16	394.41
690.50	392.48
690.83	390.53
691.17	388.55
691.51	386.66
691.84	384.80
692.18	382.85
692.52	380.87
692.85	378.93
693.19	377.03
693.52	375.18
693.86	373.40
694.20	371.64
694.53	369.85
694.87	368.02
695.21	366.24
695.54	364.44
695.88	362.72
696.21	361.01
696.55	359.33
696.88	357.66
697.22	356.03
697.56	354.43
697.89	352.79
698.23	351.20
698.56	349.57
698.90	347.97
699.23	346.35
699.57	344.83
699.90	343.26
700.24	341.73
700.58	340.20
700.91	338.72
701.25	337.31
701.58	335.97
701.92	334.62
702.25	333.19
702.59	331.80
702.92	330.46
703.26	329.16
703.59	327.81
703.93	326.61
704.26	325.36
704.60	324.07
704.93	322.81
705.26	321.58
705.60	320.43
705.93	319.30
706.27	318.29
706.60	317.21
706.94	316.17
707.27	315.06
707.61	314.05
707.94	313.01
708.27	311.91
708.61	310.82
708.94	309.80
709.28	308.88
709.61	307.91
709.94	306.98
710.28	305.97
710.61	305.05
710.95	303.95
711.28	303.03
711.61	302.06
711.95	301.16
712.28	300.20
712.61	299.20
712.95	298.26
713.28	297.35
713.61	296.47
713.95	295.54
714.28	294.74
714.61	293.87
714.95	293.01
715.28	292.16
715.61	291.29
715.95	290.43
716.28	289.60
716.61	288.83
716.95	288.04
717.28	287.30
717.61	286.51
717.94	285.78
718.28	284.97
718.61	284.24
718.94	283.54
719.27	282.91
719.61	282.31
719.94	281.62
720.27	280.93
720.60	280.28
720.94	279.68
721.27	279.02
721.60	278.46
721.93	277.86
722.27	277.30
722.60	276.73
722.93	276.16
723.26	275.53
723.59	274.93
723.93	274.37
724.26	273.85
724.59	273.30
724.92	272.78
725.25	272.25
725.59	271.77
725.92	271.24
726.25	270.71
726.58	270.17
726.91	269.68
727.24	269.20
727.57	268.71
727.91	268.17
728.24	267.71
728.57	267.19
728.90	266.75
729.23	266.26
729.56	265.85
729.89	265.38
730.22	264.94
730.55	264.53
730.89	264.07
731.22	263.56
731.55	263.12
731.88	262.71
732.21	262.29
732.54	261.82
732.87	261.41
733.20	261.02
733.53	260.64
733.86	260.27
734.19	259.82
734.52	259.45
734.85	259.17
735.18	258.76
735.51	258.38
735.84	258.04
736.17	257.68
736.50	257.28
736.83	257.07
737.16	256.74
737.49	256.38
737.82	256.04
738.15	255.72
738.48	255.39
738.81	255.03
739.14	254.73
739.47	254.42
739.80	254.11
740.13	253.79
740.46	253.51
740.79	253.19
741.12	252.95
741.45	252.64
741.78	252.26
742.11	251.99
742.44	251.70
742.77	251.38
743.10	251.09
743.43	250.81
743.75	250.42
744.08	250.26
744.41	250.00
744.74	249.72
745.07	249.45
745.40	249.21
745.73	248.99
746.06	248.71
746.39	248.46
746.71	248.16
747.04	247.92
747.37	247.60
747.70	247.34
748.03	247.04
748.36	246.78
748.68	246.58
749.01	246.31
749.34	246.07
749.67	245.86
750.00	245.65
750.33	245.48
750.65	245.28
750.98	244.92
751.31	244.69
751.64	244.51
751.97	244.35
752.29	244.14
752.62	243.94
752.95	243.72
753.28	243.49
753.60	243.33
753.93	243.12
754.26	242.95
754.59	242.78
754.91	242.61
755.24	242.42
755.57	242.23
755.90	242.08
756.22	241.88
756.55	241.65
756.88	241.45
757.20	241.20
757.53	240.99
757.86	240.84
758.19	240.68
758.51	240.48
758.84	240.26
759.17	240.08
759.49	239.86
759.82	239.74
760.15	239.61
760.47	239.43
760.80	239.29
761.13	239.15
761.45	238.99
761.78	238.79
762.11	238.63
762.43	238.46
762.76	238.32
763.08	238.19
763.41	238.08
763.74	237.94
764.06	237.79
764.39	237.64
764.71	237.53
765.04	237.38
765.37	237.27
765.69	237.16
766.02	237.03
766.34	236.89
766.67	236.73
767.00	236.63
767.32	236.55
767.65	236.49
767.97	236.35
768.30	236.18
768.62	236.10
768.95	235.98
769.27	235.88
769.60	235.78
769.92	235.67
770.25	235.56
770.57	235.43
770.90	235.32
771.22	235.22
771.55	235.11
771.87	235.00
772.20	234.90
772.52	234.86
772.85	234.90
773.17	234.81
773.50	234.72
773.82	234.61
774.15	234.49
774.47	234.34
774.80	234.26
775.12	234.20
775.45	234.14
775.77	234.06
776.09	233.97
776.42	233.88
776.74	233.83
777.07	233.74
777.39	233.68
777.72	233.60
778.04	233.55
778.36	233.48
778.69	233.41
779.01	233.34
779.33	233.20
779.66	233.01
779.98	232.96
780.31	232.89
780.63	232.85
780.95	232.78
781.28	232.73
781.60	232.67
781.92	232.58
782.25	232.52
782.57	232.45
782.89	232.37
783.22	232.32
783.54	232.23
783.86	232.20
784.19	232.13
784.51	232.11
784.83	232.07
785.16	231.99
785.48	231.95
785.80	231.93
786.12	231.88
786.45	231.79
786.77	231.78
787.09	231.73
