SpectraSuite Data File
++++++++++++++++++++++++++++++++++++
Date: Fri Feb 01 15:07:23 EST 2013
User: group
Dark Spectrum Present: No
Reference Spectrum Present: No
Number of Sampled Component Spectra: 1
Spectrometers: USB2E7196
Integration Time (usec): 35000 (USB2E7196)
Spectra Averaged: 100 (USB2E7196)
Boxcar Smoothing: 10 (USB2E7196)
Correct for Electrical Dark: No (USB2E7196)
Strobe/Lamp Enabled: No (USB2E7196)
Correct for Detector Non-linearity: No (USB2E7196)
Correct for Stray Light: No (USB2E7196)
Number of Pixels in Processed Spectrum: 2048
>>>>>Begin Processed Spectral Data<<<<<
339.09	0.00
339.48	215.06
339.86	216.91
340.24	217.23
340.63	219.80
341.01	222.19
341.39	222.29
341.78	223.47
342.16	224.08
342.54	224.61
342.93	213.39
343.31	224.18
343.69	224.74
344.07	225.19
344.46	225.65
344.84	226.00
345.22	226.22
345.60	226.46
345.99	226.66
346.37	226.82
346.75	226.94
347.13	227.02
347.52	227.09
347.90	227.14
348.28	227.20
348.66	227.27
349.05	227.28
349.43	227.29
349.81	227.37
350.19	227.38
350.57	227.46
350.96	227.51
351.34	227.60
351.72	227.66
352.10	227.76
352.48	227.81
352.87	227.85
353.25	227.91
353.63	227.98
354.01	228.03
354.39	228.10
354.77	228.17
355.15	228.26
355.54	228.31
355.92	228.35
356.30	228.43
356.68	228.54
357.06	228.61
357.44	228.67
357.82	228.72
358.20	228.81
358.58	228.86
358.97	228.96
359.35	229.03
359.73	229.08
360.11	229.15
360.49	229.22
360.87	229.30
361.25	229.39
361.63	229.46
362.01	229.52
362.39	229.56
362.77	229.60
363.15	229.62
363.53	229.66
363.91	229.71
364.29	229.73
364.67	229.65
365.05	229.66
365.43	229.66
365.81	229.70
366.19	229.79
366.57	229.84
366.95	229.78
367.33	229.77
367.71	229.80
368.09	229.79
368.47	229.79
368.85	229.77
369.23	229.73
369.61	229.66
369.99	229.64
370.37	229.62
370.75	229.63
371.13	229.58
371.51	229.53
371.89	229.48
372.27	229.42
372.65	229.40
373.03	229.35
373.41	229.32
373.78	229.26
374.16	229.12
374.54	229.02
374.92	228.96
375.30	228.88
375.68	228.75
376.06	228.67
376.44	228.58
376.82	228.49
377.19	228.43
377.57	228.36
377.95	228.22
378.33	228.15
378.71	228.04
379.09	227.97
379.47	227.90
379.84	227.79
380.22	227.75
380.60	227.64
380.98	227.58
381.36	227.49
381.73	227.38
382.11	227.31
382.49	227.23
382.87	227.15
383.25	227.08
383.62	227.17
384.00	227.12
384.38	227.06
384.76	227.04
385.13	227.04
385.51	226.99
385.89	226.94
386.27	226.91
386.64	226.88
387.02	226.84
387.40	226.77
387.78	226.73
388.15	226.66
388.53	226.64
388.91	226.57
389.29	226.52
389.66	226.52
390.04	226.47
390.42	226.47
390.79	226.45
391.17	226.44
391.55	226.33
391.92	226.31
392.30	226.30
392.68	226.26
393.05	226.22
393.43	226.22
393.81	226.24
394.18	226.21
394.56	226.19
394.94	226.21
395.31	226.24
395.69	226.32
396.06	226.37
396.44	226.43
396.82	226.47
397.19	226.59
397.57	226.64
397.95	226.73
398.32	226.75
398.70	226.83
399.07	226.91
399.45	226.96
399.82	227.04
400.20	227.13
400.58	227.23
400.95	227.26
401.33	227.36
401.70	227.53
402.08	227.63
402.45	227.73
402.83	227.89
403.20	228.00
403.58	228.11
403.95	228.24
404.33	228.35
404.71	228.49
405.08	228.70
405.46	228.84
405.83	228.99
406.21	229.14
406.58	229.34
406.96	229.52
407.33	229.72
407.70	229.91
408.08	230.16
408.45	230.40
408.83	230.68
409.20	230.91
409.58	231.09
409.95	231.38
410.33	231.72
410.70	231.97
411.08	232.28
411.45	232.60
411.82	232.93
412.20	233.28
412.57	233.72
412.95	234.02
413.32	234.44
413.69	234.87
414.07	235.32
414.44	235.74
414.82	236.21
415.19	236.73
415.56	237.28
415.94	237.85
416.31	238.51
416.68	239.15
417.06	239.88
417.43	240.60
417.81	241.36
418.18	242.11
418.55	242.97
418.93	243.85
419.30	244.75
419.67	245.69
420.04	246.67
420.42	247.66
420.79	248.85
421.16	249.97
421.54	251.16
421.91	252.38
422.28	253.67
422.66	255.01
423.03	256.31
423.40	257.64
423.77	259.04
424.15	260.47
424.52	261.98
424.89	263.58
425.26	265.11
425.64	266.54
426.01	268.13
426.38	269.77
426.75	271.46
427.13	273.18
427.50	274.98
427.87	276.82
428.24	278.70
428.61	280.39
428.99	282.33
429.36	284.45
429.73	286.49
430.10	288.47
430.47	290.55
430.85	292.70
431.22	294.94
431.59	297.35
431.96	299.53
432.33	301.99
432.70	304.37
433.08	307.19
433.45	309.91
433.82	312.51
434.19	315.40
434.56	318.18
434.93	320.83
435.30	323.45
435.68	326.38
436.05	329.20
436.42	332.00
436.79	334.56
437.16	337.26
437.53	340.15
437.90	342.99
438.27	345.67
438.64	348.49
439.01	351.10
439.38	353.26
439.75	355.47
440.13	357.98
440.50	360.29
440.87	362.15
441.24	364.07
441.61	366.25
441.98	367.69
442.35	369.55
442.72	371.44
443.09	373.25
443.46	374.22
443.83	374.81
444.20	375.35
444.57	376.16
444.94	376.42
445.31	376.75
445.68	377.09
446.05	377.20
446.42	376.78
446.79	376.30
447.16	375.90
447.53	375.57
447.90	374.39
448.27	373.23
448.64	371.62
449.01	370.43
449.37	368.43
449.74	366.54
450.11	364.24
450.48	361.74
450.85	359.18
451.22	357.04
451.59	355.01
451.96	353.05
452.33	350.43
452.70	348.07
453.07	345.23
453.43	342.35
453.80	339.59
454.17	336.90
454.54	334.43
454.91	331.71
455.28	329.05
455.65	326.59
456.02	324.13
456.38	321.97
456.75	319.31
457.12	317.04
457.49	314.80
457.86	312.60
458.23	310.78
458.59	308.74
458.96	306.62
459.33	304.77
459.70	302.91
460.07	301.44
460.43	299.73
460.80	298.09
461.17	296.62
461.54	295.13
461.91	293.74
462.27	292.31
462.64	291.04
463.01	289.63
463.38	288.30
463.74	286.96
464.11	285.82
464.48	284.80
464.85	283.71
465.21	282.86
465.58	281.95
465.95	280.84
466.32	279.96
466.68	279.11
467.05	278.16
467.42	277.27
467.78	276.30
468.15	275.44
468.52	274.75
468.88	273.90
469.25	273.09
469.62	272.42
469.98	271.68
470.35	271.04
470.72	270.46
471.08	269.84
471.45	269.31
471.82	268.71
472.18	268.10
472.55	267.66
472.92	267.13
473.28	266.64
473.65	266.15
474.02	265.72
474.38	265.33
474.75	265.01
475.11	264.62
475.48	264.34
475.85	264.06
476.21	263.86
476.58	263.65
476.94	263.52
477.31	263.35
477.67	263.20
478.04	263.11
478.41	263.04
478.77	263.03
479.14	262.93
479.50	262.96
479.87	263.06
480.23	263.12
480.60	263.20
480.96	263.31
481.33	263.52
481.69	263.65
482.06	263.84
482.42	264.00
482.79	264.29
483.15	264.62
483.52	265.03
483.88	265.37
484.25	265.75
484.61	266.13
484.98	266.58
485.34	267.18
485.71	267.79
486.07	268.37
486.44	268.94
486.80	269.64
487.17	270.32
487.53	271.09
487.90	271.94
488.26	272.88
488.62	273.81
488.99	274.80
489.35	275.90
489.72	277.04
490.08	278.29
490.44	279.52
490.81	280.85
491.17	282.19
491.54	283.66
491.90	285.20
492.26	286.88
492.63	288.62
492.99	290.32
493.36	292.17
493.72	294.19
494.08	296.24
494.45	298.48
494.81	300.85
495.17	303.26
495.54	305.80
495.90	308.46
496.26	311.30
496.63	314.27
496.99	317.32
497.35	320.54
497.72	323.89
498.08	327.38
498.44	331.02
498.80	334.92
499.17	338.94
499.53	343.08
499.89	347.44
500.26	351.94
500.62	356.64
500.98	361.57
501.34	366.66
501.71	371.96
502.07	377.36
502.43	382.97
502.79	388.86
503.16	394.93
503.52	401.21
503.88	407.58
504.24	414.12
504.60	420.98
504.97	428.13
505.33	435.43
505.69	443.14
506.05	450.90
506.41	458.77
506.78	466.95
507.14	475.35
507.50	484.07
507.86	493.04
508.22	502.14
508.59	511.32
508.95	520.89
509.31	530.69
509.67	540.79
510.03	551.07
510.39	561.56
510.75	572.38
511.12	583.23
511.48	594.55
511.84	606.01
512.20	617.56
512.56	629.48
512.92	641.67
513.28	653.96
513.64	666.48
514.00	679.18
514.37	692.00
514.73	705.15
515.09	718.29
515.45	731.58
515.81	745.26
516.17	759.29
516.53	773.36
516.89	787.59
517.25	801.80
517.61	816.25
517.97	830.73
518.33	845.09
518.69	859.89
519.05	874.90
519.41	890.10
519.77	905.64
520.13	921.18
520.49	936.61
520.85	952.08
521.21	967.78
521.57	984.06
521.93	1000.00
522.29	1016.48
522.65	1032.67
523.01	1049.03
523.37	1065.10
523.73	1081.34
524.09	1097.47
524.45	1113.81
524.81	1130.57
525.17	1147.53
525.53	1164.50
525.89	1181.43
526.25	1198.45
526.61	1214.88
526.97	1231.69
527.33	1248.21
527.68	1264.78
528.04	1281.29
528.40	1298.01
528.76	1315.08
529.12	1331.67
529.48	1348.58
529.84	1364.68
530.20	1381.40
530.56	1398.47
530.91	1415.98
531.27	1432.84
531.63	1449.49
531.99	1466.06
532.35	1482.14
532.71	1497.94
533.07	1514.19
533.42	1530.28
533.78	1546.30
534.14	1562.68
534.50	1578.11
534.86	1594.18
535.21	1609.49
535.57	1625.59
535.93	1641.24
536.29	1656.15
536.65	1671.34
537.00	1686.28
537.36	1701.59
537.72	1716.13
538.08	1730.52
538.44	1744.45
538.79	1758.42
539.15	1772.21
539.51	1786.18
539.87	1800.57
540.22	1814.42
540.58	1828.39
540.94	1841.83
541.29	1854.97
541.65	1867.76
542.01	1881.09
542.37	1893.46
542.72	1905.96
543.08	1917.91
543.44	1930.29
543.79	1941.57
544.15	1952.69
544.51	1964.28
544.87	1975.31
545.22	1986.25
545.58	1996.66
545.94	2006.32
546.29	2016.16
546.65	2025.91
547.01	2035.06
547.36	2043.78
547.72	2052.27
548.07	2060.22
548.43	2068.46
548.79	2076.40
549.14	2083.93
549.50	2091.36
549.86	2099.07
550.21	2106.37
550.57	2113.45
550.92	2120.05
551.28	2127.26
551.64	2134.24
551.99	2140.85
552.35	2146.94
552.70	2153.05
553.06	2158.96
553.41	2165.29
553.77	2171.38
554.13	2177.48
554.48	2183.67
554.84	2189.09
555.19	2194.38
555.55	2199.25
555.90	2203.55
556.26	2208.37
556.61	2213.00
556.97	2217.07
557.32	2221.13
557.68	2225.28
558.03	2229.52
558.39	2233.23
558.74	2237.89
559.10	2241.84
559.45	2245.22
559.81	2249.67
560.16	2253.40
560.52	2256.65
560.87	2260.17
561.23	2262.88
561.58	2265.84
561.94	2268.29
562.29	2270.71
562.64	2273.50
563.00	2276.28
563.35	2279.81
563.71	2282.83
564.06	2286.08
564.42	2288.89
564.77	2291.32
565.12	2293.31
565.48	2295.09
565.83	2296.80
566.19	2297.82
566.54	2298.73
566.89	2299.93
567.25	2300.22
567.60	2301.53
567.96	2302.94
568.31	2303.72
568.66	2304.67
569.02	2305.30
569.37	2305.70
569.72	2306.35
570.08	2306.33
570.43	2306.09
570.78	2305.29
571.14	2303.62
571.49	2302.19
571.84	2301.95
572.20	2300.51
572.55	2299.47
572.90	2297.81
573.26	2296.21
573.61	2294.59
573.96	2292.62
574.31	2289.48
574.67	2286.33
575.02	2282.60
575.37	2279.12
575.72	2275.08
576.08	2271.66
576.43	2267.99
576.78	2264.15
577.13	2260.94
577.49	2257.75
577.84	2254.31
578.19	2250.57
578.54	2246.70
578.90	2242.26
579.25	2236.57
579.60	2231.71
579.95	2226.68
580.30	2221.52
580.66	2216.35
581.01	2211.04
581.36	2205.95
581.71	2201.67
582.06	2197.05
582.42	2192.41
582.77	2187.10
583.12	2182.35
583.47	2177.30
583.82	2172.33
584.17	2166.84
584.53	2161.19
584.88	2155.43
585.23	2149.35
585.58	2143.69
585.93	2138.31
586.28	2133.55
586.63	2128.32
586.98	2122.99
587.34	2118.13
587.69	2113.25
588.04	2107.95
588.39	2102.26
588.74	2095.68
589.09	2089.41
589.44	2082.74
589.79	2076.78
590.14	2071.07
590.49	2064.51
590.84	2058.10
591.19	2051.92
591.54	2045.44
591.89	2037.82
592.25	2030.87
592.60	2023.72
592.95	2016.05
593.30	2008.54
593.65	2000.77
594.00	1993.53
594.35	1986.21
594.70	1978.04
595.05	1970.52
595.40	1963.07
595.75	1955.56
596.10	1949.19
596.45	1942.27
596.80	1935.88
597.15	1928.99
597.50	1921.75
597.85	1915.26
598.19	1908.51
598.54	1901.38
598.89	1894.70
599.24	1888.82
599.59	1882.12
599.94	1875.88
600.29	1869.64
600.64	1863.08
600.99	1855.63
601.34	1848.78
601.69	1841.93
602.04	1835.06
602.39	1827.82
602.74	1821.04
603.08	1814.20
603.43	1807.51
603.78	1800.26
604.13	1793.00
604.48	1785.68
604.83	1778.95
605.18	1771.94
605.53	1763.99
605.87	1755.88
606.22	1748.57
606.57	1740.74
606.92	1733.37
607.27	1726.08
607.62	1718.98
607.96	1711.66
608.31	1704.88
608.66	1697.34
609.01	1689.70
609.36	1682.13
609.70	1674.08
610.05	1665.96
610.40	1658.36
610.75	1650.02
611.10	1642.44
611.44	1634.25
611.79	1626.35
612.14	1617.55
612.49	1608.48
612.83	1600.14
613.18	1591.99
613.53	1583.98
613.88	1575.36
614.22	1566.95
614.57	1558.41
614.92	1550.49
615.27	1542.88
615.61	1534.65
615.96	1526.63
616.31	1519.04
616.65	1511.68
617.00	1504.08
617.35	1496.43
617.70	1487.95
618.04	1479.47
618.39	1471.18
618.74	1463.60
619.08	1455.28
619.43	1447.77
619.78	1440.82
620.12	1433.56
620.47	1426.16
620.82	1418.07
621.16	1410.76
621.51	1403.31
621.85	1395.74
622.20	1387.16
622.55	1379.00
622.89	1371.21
623.24	1363.62
623.59	1356.30
623.93	1348.73
624.28	1341.60
624.62	1334.17
624.97	1327.21
625.32	1320.45
625.66	1313.55
626.01	1306.14
626.35	1298.73
626.70	1291.00
627.04	1283.36
627.39	1275.64
627.73	1268.13
628.08	1261.20
628.43	1253.76
628.77	1246.29
629.12	1238.77
629.46	1231.67
629.81	1224.25
630.15	1217.14
630.50	1209.73
630.84	1201.57
631.19	1193.79
631.53	1186.25
631.88	1178.63
632.22	1171.01
632.57	1163.75
632.91	1156.15
633.26	1148.94
633.60	1141.60
633.95	1134.49
634.29	1127.41
634.64	1120.77
634.98	1113.52
635.32	1106.32
635.67	1099.82
636.01	1093.35
636.36	1086.54
636.70	1080.08
637.05	1073.40
637.39	1066.89
637.73	1060.47
638.08	1054.64
638.42	1048.68
638.77	1042.23
639.11	1035.68
639.45	1029.30
639.80	1022.60
640.14	1016.18
640.49	1009.58
640.83	1003.34
641.17	997.11
641.52	990.82
641.86	984.50
642.20	978.64
642.55	972.40
642.89	966.00
643.23	959.48
643.58	953.68
643.92	947.41
644.26	941.30
644.61	935.31
644.95	929.24
645.29	922.57
645.64	915.79
645.98	909.57
646.32	903.77
646.66	897.76
647.01	892.04
647.35	886.38
647.69	880.60
648.04	875.10
648.38	869.36
648.72	863.31
649.06	857.17
649.41	851.31
649.75	845.31
650.09	839.38
650.43	833.60
650.78	827.49
651.12	821.59
651.46	815.98
651.80	810.24
652.14	804.81
652.49	799.52
652.83	794.37
653.17	788.63
653.51	782.86
653.85	777.48
654.20	771.85
654.54	765.87
654.88	760.18
655.22	754.29
655.56	748.62
655.90	743.19
656.25	738.01
656.59	732.63
656.93	727.56
657.27	722.42
657.61	717.00
657.95	711.98
658.29	706.94
658.64	701.78
658.98	696.53
659.32	691.14
659.66	685.94
660.00	680.60
660.34	675.71
660.68	670.88
661.02	665.87
661.36	661.14
661.70	656.72
662.05	652.37
662.39	648.05
662.73	643.70
663.07	639.35
663.41	634.91
663.75	630.49
664.09	625.95
664.43	621.52
664.77	617.40
665.11	613.09
665.45	609.03
665.79	604.98
666.13	600.83
666.47	596.73
666.81	592.59
667.15	588.57
667.49	584.73
667.83	580.92
668.17	577.03
668.51	573.00
668.85	568.97
669.19	565.19
669.53	561.35
669.87	557.43
670.21	553.78
670.55	550.16
670.89	546.82
671.23	543.44
671.57	539.98
671.91	536.51
672.25	533.08
672.58	529.57
672.92	526.21
673.26	523.08
673.60	519.96
673.94	516.90
674.28	514.04
674.62	511.14
674.96	508.05
675.30	505.17
675.64	502.32
675.97	499.57
676.31	496.71
676.65	493.79
676.99	491.17
677.33	488.37
677.67	485.61
678.01	482.53
678.34	479.57
678.68	476.73
679.02	473.89
679.36	471.15
679.70	468.41
680.04	465.57
680.37	462.70
680.71	459.96
681.05	457.35
681.39	454.64
681.73	451.95
682.06	449.40
682.40	446.82
682.74	444.26
683.08	441.67
683.42	439.09
683.75	436.65
684.09	434.06
684.43	431.58
684.77	429.09
685.10	426.73
685.44	424.47
685.78	422.18
686.12	419.94
686.45	417.63
686.79	415.38
687.13	413.21
687.46	411.07
687.80	408.87
688.14	406.66
688.48	404.61
688.81	402.35
689.15	400.22
689.49	398.11
689.82	396.08
690.16	394.01
690.50	392.04
690.83	390.08
691.17	388.12
691.51	386.14
691.84	384.26
692.18	382.31
692.52	380.32
692.85	378.37
693.19	376.53
693.52	374.75
693.86	372.90
694.20	371.16
694.53	369.36
694.87	367.52
695.21	365.71
695.54	363.90
695.88	362.19
696.21	360.50
696.55	358.82
696.88	357.15
697.22	355.52
697.56	353.92
697.89	352.28
698.23	350.67
698.56	349.12
698.90	347.55
699.23	345.93
699.57	344.42
699.90	342.92
700.24	341.37
700.58	339.80
700.91	338.33
701.25	336.84
701.58	335.47
701.92	334.13
702.25	332.80
702.59	331.43
702.92	330.14
703.26	328.85
703.59	327.56
703.93	326.37
704.26	325.17
704.60	323.87
704.93	322.61
705.26	321.39
705.60	320.23
705.93	319.10
706.27	318.08
706.60	317.00
706.94	315.94
707.27	314.84
707.61	313.80
707.94	312.79
708.27	311.76
708.61	310.74
708.94	309.80
709.28	308.85
709.61	307.88
709.94	306.93
710.28	305.92
710.61	304.98
710.95	303.93
711.28	303.01
711.61	302.05
711.95	301.14
712.28	300.20
712.61	299.22
712.95	298.31
713.28	297.45
713.61	296.56
713.95	295.67
714.28	294.87
714.61	294.02
714.95	293.17
715.28	292.29
715.61	291.44
715.95	290.55
716.28	289.67
716.61	288.87
716.95	288.08
717.28	287.37
717.61	286.60
717.94	285.85
718.28	285.05
718.61	284.33
718.94	283.65
719.27	282.99
719.61	282.34
719.94	281.65
720.27	280.94
720.60	280.31
720.94	279.69
721.27	279.04
721.60	278.47
721.93	277.85
722.27	277.35
722.60	276.75
722.93	276.16
723.26	275.61
723.59	275.04
723.93	274.48
724.26	273.91
724.59	273.35
724.92	272.80
725.25	272.29
725.59	271.80
725.92	271.31
726.25	270.78
726.58	270.30
726.91	269.82
727.24	269.33
727.57	268.83
727.91	268.31
728.24	267.83
728.57	267.31
728.90	266.88
729.23	266.38
729.56	265.93
729.89	265.45
730.22	264.98
730.55	264.51
730.89	264.04
731.22	263.58
731.55	263.17
731.88	262.77
732.21	262.34
732.54	261.91
732.87	261.48
733.20	261.07
733.53	260.66
733.86	260.27
734.19	259.87
734.52	259.48
734.85	259.19
735.18	258.79
735.51	258.43
735.84	258.02
736.17	257.64
736.50	257.26
736.83	257.03
737.16	256.70
737.49	256.39
737.82	256.03
738.15	255.71
738.48	255.34
738.81	255.00
739.14	254.69
739.47	254.37
739.80	254.06
740.13	253.78
740.46	253.46
740.79	253.13
741.12	252.84
741.45	252.56
741.78	252.20
742.11	251.92
742.44	251.64
742.77	251.42
743.10	251.15
743.43	250.87
743.75	250.49
744.08	250.37
744.41	250.07
744.74	249.81
745.07	249.54
745.40	249.34
745.73	249.09
746.06	248.81
746.39	248.56
746.71	248.29
747.04	248.01
747.37	247.79
747.70	247.56
748.03	247.31
748.36	247.07
748.68	246.84
749.01	246.61
749.34	246.39
749.67	246.15
750.00	245.92
750.33	245.77
750.65	245.57
750.98	245.19
751.31	244.99
751.64	244.81
751.97	244.64
752.29	244.44
752.62	244.20
752.95	244.01
753.28	243.80
753.60	243.61
753.93	243.45
754.26	243.27
754.59	243.05
754.91	242.85
755.24	242.65
755.57	242.48
755.90	242.27
756.22	242.06
756.55	241.84
756.88	241.63
757.20	241.38
757.53	241.21
757.86	241.08
758.19	240.91
758.51	240.73
758.84	240.54
759.17	240.34
759.49	240.22
759.82	240.08
760.15	239.95
760.47	239.79
760.80	239.63
761.13	239.46
761.45	239.32
761.78	239.18
762.11	239.03
762.43	238.85
762.76	238.70
763.08	238.59
763.41	238.49
763.74	238.38
764.06	238.24
764.39	238.09
764.71	237.95
765.04	237.83
765.37	237.68
765.69	237.54
766.02	237.40
766.34	237.24
766.67	237.09
767.00	236.96
767.32	236.89
767.65	236.80
767.97	236.72
768.30	236.58
768.62	236.49
768.95	236.37
769.27	236.28
769.60	236.19
769.92	236.07
770.25	235.92
770.57	235.80
770.90	235.71
771.22	235.58
771.55	235.45
771.87	235.35
772.20	235.26
772.52	235.26
772.85	235.29
773.17	235.21
773.50	235.11
773.82	235.02
774.15	234.84
774.47	234.71
774.80	234.58
775.12	234.50
775.45	234.37
775.77	234.28
776.09	234.19
776.42	234.12
776.74	234.06
777.07	233.95
777.39	233.85
777.72	233.77
778.04	233.72
778.36	233.64
778.69	233.59
779.01	233.52
779.33	233.36
779.66	233.19
779.98	233.10
780.31	233.01
780.63	232.96
780.95	232.93
781.28	232.87
781.60	232.79
781.92	232.71
782.25	232.66
782.57	232.62
782.89	232.56
783.22	232.49
783.54	232.39
783.86	232.36
784.19	232.29
784.51	232.27
784.83	232.18
785.16	232.11
785.48	232.02
785.80	231.97
786.12	231.92
786.45	231.84
786.77	231.81
787.09	231.78
