SpectraSuite Data File
++++++++++++++++++++++++++++++++++++
Date: Fri Feb 01 18:16:16 EST 2013
User: group
Dark Spectrum Present: No
Reference Spectrum Present: No
Number of Sampled Component Spectra: 1
Spectrometers: USB2E7196
Integration Time (usec): 35000 (USB2E7196)
Spectra Averaged: 100 (USB2E7196)
Boxcar Smoothing: 10 (USB2E7196)
Correct for Electrical Dark: No (USB2E7196)
Strobe/Lamp Enabled: No (USB2E7196)
Correct for Detector Non-linearity: No (USB2E7196)
Correct for Stray Light: No (USB2E7196)
Number of Pixels in Processed Spectrum: 2048
>>>>>Begin Processed Spectral Data<<<<<
339.09	0.00
339.48	212.84
339.86	215.30
340.24	216.46
340.63	217.78
341.01	220.94
341.39	219.56
341.78	221.36
342.16	222.98
342.54	223.08
342.93	211.72
343.31	222.43
343.69	222.98
344.07	223.43
344.46	223.82
344.84	224.21
345.22	224.42
345.60	224.69
345.99	224.88
346.37	225.00
346.75	225.10
347.13	225.16
347.52	225.23
347.90	225.29
348.28	225.32
348.66	225.38
349.05	225.40
349.43	225.43
349.81	225.47
350.19	225.53
350.57	225.58
350.96	225.67
351.34	225.72
351.72	225.81
352.10	225.90
352.48	226.00
352.87	226.02
353.25	226.10
353.63	226.18
354.01	226.25
354.39	226.31
354.77	226.40
355.15	226.50
355.54	226.55
355.92	226.60
356.30	226.66
356.68	226.76
357.06	226.81
357.44	226.88
357.82	226.92
358.20	226.99
358.58	227.04
358.97	227.08
359.35	227.17
359.73	227.25
360.11	227.27
360.49	227.30
360.87	227.37
361.25	227.39
361.63	227.45
362.01	227.49
362.39	227.51
362.77	227.53
363.15	227.55
363.53	227.56
363.91	227.58
364.29	227.59
364.67	227.53
365.05	227.56
365.43	227.56
365.81	227.60
366.19	227.63
366.57	227.63
366.95	227.62
367.33	227.56
367.71	227.55
368.09	227.57
368.47	227.55
368.85	227.53
369.23	227.56
369.61	227.50
369.99	227.48
370.37	227.48
370.75	227.48
371.13	227.43
371.51	227.40
371.89	227.37
372.27	227.36
372.65	227.32
373.03	227.29
373.41	227.25
373.78	227.21
374.16	227.12
374.54	227.05
374.92	227.00
375.30	226.97
375.68	226.87
376.06	226.83
376.44	226.81
376.82	226.73
377.19	226.61
377.57	226.56
377.95	226.50
378.33	226.44
378.71	226.33
379.09	226.26
379.47	226.18
379.84	226.11
380.22	226.03
380.60	225.97
380.98	225.90
381.36	225.83
381.73	225.74
382.11	225.69
382.49	225.64
382.87	225.58
383.25	225.53
383.62	225.62
384.00	225.53
384.38	225.46
384.76	225.49
385.13	225.48
385.51	225.42
385.89	225.33
386.27	225.30
386.64	225.29
387.02	225.29
387.40	225.28
387.78	225.25
388.15	225.22
388.53	225.18
388.91	225.15
389.29	225.12
389.66	225.08
390.04	225.09
390.42	225.10
390.79	225.08
391.17	225.08
391.55	224.95
391.92	224.95
392.30	224.94
392.68	224.90
393.05	224.93
393.43	224.96
393.81	224.99
394.18	224.97
394.56	224.99
394.94	225.03
395.31	225.04
395.69	225.11
396.06	225.14
396.44	225.18
396.82	225.20
397.19	225.30
397.57	225.38
397.95	225.44
398.32	225.46
398.70	225.55
399.07	225.61
399.45	225.68
399.82	225.76
400.20	225.81
400.58	225.88
400.95	225.90
401.33	226.00
401.70	226.17
402.08	226.28
402.45	226.37
402.83	226.47
403.20	226.59
403.58	226.70
403.95	226.84
404.33	227.00
404.71	227.16
405.08	227.34
405.46	227.48
405.83	227.62
406.21	227.80
406.58	228.00
406.96	228.17
407.33	228.39
407.70	228.59
408.08	228.92
408.45	229.19
408.83	229.48
409.20	229.73
409.58	229.96
409.95	230.29
410.33	230.64
410.70	231.01
411.08	231.37
411.45	231.74
411.82	232.17
412.20	232.62
412.57	233.14
412.95	233.55
413.32	234.09
413.69	234.67
414.07	235.26
414.44	235.88
414.82	236.57
415.19	237.33
415.56	238.07
415.94	238.82
416.31	239.69
416.68	240.58
417.06	241.62
417.43	242.56
417.81	243.64
418.18	244.71
418.55	245.82
418.93	247.06
419.30	248.34
419.67	249.65
420.04	251.01
420.42	252.40
420.79	254.03
421.16	255.68
421.54	257.33
421.91	259.02
422.28	260.79
422.66	262.65
423.03	264.48
423.40	266.37
423.77	268.36
424.15	270.37
424.52	272.44
424.89	274.70
425.26	276.87
425.64	278.93
426.01	281.21
426.38	283.59
426.75	285.94
427.13	288.35
427.50	290.87
427.87	293.51
428.24	296.19
428.61	298.68
428.99	301.38
429.36	304.38
429.73	307.33
430.10	310.23
430.47	313.14
430.85	316.14
431.22	319.30
431.59	322.66
431.96	325.82
432.33	329.32
432.70	332.63
433.08	336.63
433.45	340.29
433.82	343.91
434.19	347.95
434.56	351.90
434.93	355.61
435.30	359.29
435.68	363.39
436.05	367.37
436.42	371.34
436.79	374.87
437.16	378.62
437.53	382.61
437.90	386.56
438.27	390.43
438.64	394.45
439.01	398.12
439.38	401.30
439.75	404.38
440.13	407.93
440.50	411.29
440.87	413.93
441.24	416.74
441.61	419.88
441.98	421.99
442.35	424.57
442.72	427.25
443.09	429.81
443.46	431.24
443.83	432.08
444.20	432.79
444.57	434.03
444.94	434.54
445.31	435.02
445.68	435.46
446.05	435.53
446.42	434.94
446.79	434.37
447.16	433.75
447.53	433.30
447.90	431.69
448.27	430.01
448.64	427.71
449.01	426.12
449.37	423.29
449.74	420.65
450.11	417.41
450.48	413.89
450.85	410.35
451.22	407.33
451.59	404.46
451.96	401.72
452.33	398.04
452.70	394.67
453.07	390.66
453.43	386.63
453.80	382.78
454.17	379.02
454.54	375.43
454.91	371.58
455.28	367.84
455.65	364.29
456.02	360.74
456.38	357.73
456.75	353.90
457.12	350.70
457.49	347.55
457.86	344.55
458.23	341.96
458.59	339.08
458.96	336.06
459.33	333.40
459.70	330.76
460.07	328.63
460.43	326.16
460.80	323.86
461.17	321.76
461.54	319.61
461.91	317.57
462.27	315.44
462.64	313.66
463.01	311.71
463.38	309.87
463.74	307.99
464.11	306.31
464.48	304.89
464.85	303.32
465.21	302.07
465.58	300.70
465.95	299.14
466.32	297.84
466.68	296.59
467.05	295.35
467.42	294.05
467.78	292.68
468.15	291.46
468.52	290.47
468.88	289.29
469.25	288.19
469.62	287.27
469.98	286.33
470.35	285.40
470.72	284.52
471.08	283.60
471.45	282.86
471.82	282.08
472.18	281.15
472.55	280.48
472.92	279.71
473.28	279.05
473.65	278.35
474.02	277.66
474.38	277.09
474.75	276.56
475.11	276.06
475.48	275.62
475.85	275.21
476.21	274.86
476.58	274.52
476.94	274.24
477.31	273.96
477.67	273.71
478.04	273.51
478.41	273.33
478.77	273.25
479.14	273.01
479.50	272.91
479.87	272.93
480.23	272.96
480.60	272.99
480.96	273.01
481.33	273.20
481.69	273.39
482.06	273.54
482.42	273.68
482.79	273.88
483.15	274.17
483.52	274.52
483.88	274.86
484.25	275.21
484.61	275.61
484.98	276.04
485.34	276.60
485.71	277.19
486.07	277.82
486.44	278.41
486.80	279.18
487.17	279.97
487.53	280.84
487.90	281.75
488.26	282.69
488.62	283.74
488.99	284.71
489.35	285.76
489.72	286.96
490.08	288.23
490.44	289.54
490.81	290.97
491.17	292.40
491.54	293.91
491.90	295.52
492.26	297.28
492.63	299.14
492.99	301.05
493.36	303.02
493.72	305.22
494.08	307.41
494.45	309.79
494.81	312.29
495.17	314.89
495.54	317.60
495.90	320.48
496.26	323.41
496.63	326.63
496.99	329.98
497.35	333.45
497.72	337.11
498.08	340.84
498.44	344.77
498.80	348.92
499.17	353.31
499.53	357.85
499.89	362.59
500.26	367.40
500.62	372.38
500.98	377.72
501.34	383.14
501.71	388.96
502.07	394.82
502.43	400.83
502.79	407.07
503.16	413.58
503.52	420.33
503.88	427.27
504.24	434.38
504.60	441.81
504.97	449.45
505.33	457.32
505.69	465.65
506.05	474.03
506.41	482.60
506.78	491.37
507.14	500.54
507.50	509.96
507.86	519.72
508.22	529.66
508.59	539.65
508.95	549.98
509.31	560.53
509.67	571.48
510.03	582.69
510.39	594.17
510.75	605.84
511.12	617.70
511.48	630.04
511.84	642.53
512.20	655.04
512.56	668.05
512.92	681.37
513.28	694.86
513.64	708.48
514.00	722.39
514.37	736.50
514.73	750.71
515.09	764.89
515.45	779.44
515.81	794.36
516.17	809.68
516.53	825.30
516.89	840.94
517.25	856.49
517.61	872.35
517.97	888.19
518.33	904.11
518.69	920.42
519.05	936.86
519.41	953.63
519.77	970.77
520.13	987.98
520.49	1005.06
520.85	1022.02
521.21	1039.47
521.57	1057.50
521.93	1075.05
522.29	1093.30
522.65	1111.45
523.01	1129.54
523.37	1147.52
523.73	1165.58
524.09	1183.54
524.45	1201.77
524.81	1220.45
525.17	1239.24
525.53	1258.23
525.89	1277.27
526.25	1296.14
526.61	1314.72
526.97	1333.57
527.33	1352.25
527.68	1370.91
528.04	1389.49
528.40	1408.25
528.76	1427.66
529.12	1446.58
529.48	1465.85
529.84	1484.07
530.20	1503.09
530.56	1522.46
530.91	1542.21
531.27	1561.35
531.63	1580.21
531.99	1599.15
532.35	1617.49
532.71	1635.89
533.07	1654.70
533.42	1673.04
533.78	1691.70
534.14	1710.65
534.50	1728.53
534.86	1746.94
535.21	1764.67
535.57	1783.17
535.93	1801.26
536.29	1818.44
536.65	1836.03
537.00	1853.20
537.36	1871.16
537.72	1888.18
538.08	1905.25
538.44	1921.57
538.79	1938.13
539.15	1954.27
539.51	1970.52
539.87	1987.63
540.22	2003.97
540.58	2020.39
540.94	2036.38
541.29	2051.75
541.65	2066.90
542.01	2082.82
542.37	2097.75
542.72	2112.96
543.08	2127.48
543.44	2142.75
543.79	2156.67
544.15	2170.16
544.51	2184.53
544.87	2198.05
545.22	2211.58
545.58	2224.37
545.94	2236.66
546.29	2248.94
546.65	2261.62
547.01	2273.44
547.36	2284.61
547.72	2295.40
548.07	2305.57
548.43	2316.18
548.79	2326.58
549.14	2336.50
549.50	2346.07
549.86	2356.07
550.21	2365.52
550.57	2375.02
550.92	2383.82
551.28	2393.15
551.64	2402.48
551.99	2411.15
552.35	2419.53
552.70	2427.70
553.06	2435.81
553.41	2444.35
553.77	2452.60
554.13	2460.53
554.48	2469.01
554.84	2476.61
555.19	2483.89
555.55	2491.08
555.90	2497.40
556.26	2504.44
556.61	2511.00
556.97	2517.24
557.32	2523.27
557.68	2529.12
558.03	2535.24
558.39	2540.53
558.74	2547.05
559.10	2552.82
559.45	2558.21
559.81	2564.21
560.16	2569.81
560.52	2574.65
560.87	2579.76
561.23	2583.97
561.58	2588.58
561.94	2592.43
562.29	2596.10
562.64	2600.55
563.00	2604.60
563.35	2609.76
563.71	2614.34
564.06	2619.19
564.42	2623.65
564.77	2627.56
565.12	2631.46
565.48	2634.64
565.83	2637.98
566.19	2640.63
566.54	2642.52
566.89	2644.87
567.25	2646.54
567.60	2649.12
567.96	2652.07
568.31	2653.95
568.66	2656.20
569.02	2657.72
569.37	2659.02
569.72	2661.01
570.08	2661.95
570.43	2662.97
570.78	2663.25
571.14	2662.42
571.49	2661.52
571.84	2661.63
572.20	2661.17
572.55	2660.66
572.90	2659.55
573.26	2658.81
573.61	2657.30
573.96	2656.15
574.31	2653.39
574.67	2650.76
575.02	2647.21
575.37	2643.89
575.72	2640.24
576.08	2636.85
576.43	2633.55
576.78	2629.95
577.13	2626.83
577.49	2623.75
577.84	2620.26
578.19	2616.21
578.54	2612.50
578.90	2608.20
579.25	2602.30
579.60	2597.08
579.95	2591.83
580.30	2586.51
580.66	2580.92
581.01	2575.74
581.36	2570.37
581.71	2566.05
582.06	2561.22
582.42	2556.44
582.77	2550.84
583.12	2545.92
583.47	2541.00
583.82	2535.64
584.17	2529.93
584.53	2523.79
584.88	2517.41
585.23	2510.94
585.58	2505.05
585.93	2498.99
586.28	2493.62
586.63	2488.05
586.98	2482.41
587.34	2477.03
587.69	2471.48
588.04	2465.48
588.39	2458.99
588.74	2451.50
589.09	2444.58
589.44	2436.82
589.79	2429.73
590.14	2423.33
590.49	2415.69
590.84	2408.24
591.19	2401.33
591.54	2393.92
591.89	2385.57
592.25	2377.83
592.60	2369.53
592.95	2360.87
593.30	2352.29
593.65	2343.57
594.00	2335.45
594.35	2326.92
594.70	2317.52
595.05	2309.31
595.40	2300.72
595.75	2292.05
596.10	2285.04
596.45	2277.04
596.80	2270.00
597.15	2262.47
597.50	2254.20
597.85	2246.55
598.19	2238.67
598.54	2230.40
598.89	2222.58
599.24	2215.55
599.59	2207.84
599.94	2200.49
600.29	2192.89
600.64	2185.04
600.99	2176.31
601.34	2168.10
601.69	2159.79
602.04	2151.69
602.39	2142.85
602.74	2134.89
603.08	2126.87
603.43	2118.68
603.78	2109.89
604.13	2101.25
604.48	2092.46
604.83	2084.15
605.18	2075.99
605.53	2066.44
605.87	2056.89
606.22	2048.19
606.57	2038.54
606.92	2029.69
607.27	2021.10
607.62	2012.87
607.96	2004.16
608.31	1996.12
608.66	1987.12
609.01	1978.13
609.36	1969.09
609.70	1959.44
610.05	1949.68
610.40	1940.31
610.75	1930.46
611.10	1921.28
611.44	1911.08
611.79	1901.60
612.14	1891.20
612.49	1880.24
612.83	1870.21
613.18	1860.38
613.53	1850.67
613.88	1840.47
614.22	1830.54
614.57	1820.21
614.92	1810.47
615.27	1801.53
615.61	1791.61
615.96	1781.91
616.31	1772.70
616.65	1763.79
617.00	1754.86
617.35	1745.64
617.70	1735.75
618.04	1725.44
618.39	1715.53
618.74	1706.47
619.08	1696.42
619.43	1687.20
619.78	1678.77
620.12	1670.16
620.47	1660.99
620.82	1651.10
621.16	1642.21
621.51	1632.85
621.85	1623.57
622.20	1613.26
622.55	1603.01
622.89	1593.54
623.24	1584.29
623.59	1575.39
623.93	1566.35
624.28	1557.50
624.62	1548.45
624.97	1539.78
625.32	1531.56
625.66	1523.15
626.01	1514.46
626.35	1505.45
626.70	1496.12
627.04	1486.77
627.39	1477.36
627.73	1468.59
628.08	1460.19
628.43	1451.38
628.77	1442.60
629.12	1433.50
629.46	1424.90
629.81	1415.93
630.15	1407.13
630.50	1398.24
630.84	1388.38
631.19	1378.78
631.53	1369.74
631.88	1360.72
632.22	1351.55
632.57	1342.82
632.91	1333.67
633.26	1324.76
633.60	1315.91
633.95	1307.41
634.29	1299.01
634.64	1291.03
634.98	1282.17
635.32	1273.69
635.67	1265.62
636.01	1257.73
636.36	1249.54
636.70	1241.71
637.05	1233.77
637.39	1226.04
637.73	1218.28
638.08	1211.10
638.42	1203.89
638.77	1196.15
639.11	1188.09
639.45	1180.37
639.80	1172.33
640.14	1164.85
640.49	1157.02
640.83	1149.49
641.17	1142.04
641.52	1134.44
641.86	1126.59
642.20	1119.57
642.55	1112.07
642.89	1104.49
643.23	1096.54
643.58	1089.81
643.92	1082.40
644.26	1075.37
644.61	1068.18
644.95	1060.98
645.29	1053.28
645.64	1045.29
645.98	1037.78
646.32	1030.85
646.66	1023.68
647.01	1016.89
647.35	1009.97
647.69	1003.00
648.04	996.38
648.38	989.53
648.72	982.50
649.06	975.33
649.41	968.40
649.75	961.20
650.09	954.15
650.43	947.32
650.78	939.88
651.12	932.80
651.46	925.99
651.80	919.18
652.14	912.80
652.49	906.35
652.83	900.19
653.17	893.40
653.51	886.60
653.85	880.22
654.20	873.52
654.54	866.34
654.88	859.47
655.22	852.50
655.56	845.69
655.90	839.09
656.25	833.00
656.59	826.51
656.93	820.59
657.27	814.51
657.61	808.03
657.95	802.04
658.29	796.01
658.64	789.80
658.98	783.47
659.32	776.92
659.66	770.83
660.00	764.56
660.34	758.74
660.68	753.02
661.02	747.07
661.36	741.48
661.70	736.28
662.05	731.12
662.39	726.01
662.73	720.71
663.07	715.59
663.41	710.25
663.75	705.00
664.09	699.50
664.43	694.23
664.77	689.41
665.11	684.37
665.45	679.51
665.79	674.66
666.13	669.81
666.47	665.07
666.81	660.20
667.15	655.34
667.49	650.68
667.83	646.15
668.17	641.56
668.51	636.76
668.85	631.96
669.19	627.44
669.53	622.88
669.87	618.39
670.21	614.05
670.55	609.81
670.89	605.78
671.23	601.77
671.57	597.63
671.91	593.44
672.25	589.34
672.58	585.18
672.92	581.10
673.26	577.32
673.60	573.57
673.94	569.84
674.28	566.44
674.62	563.01
674.96	559.31
675.30	555.90
675.64	552.44
675.97	549.17
676.31	545.80
676.65	542.39
676.99	539.18
677.33	535.82
677.67	532.48
678.01	528.96
678.34	525.45
678.68	522.08
679.02	518.79
679.36	515.55
679.70	512.41
680.04	509.22
680.37	505.85
680.71	502.58
681.05	499.51
681.39	496.29
681.73	493.19
682.06	490.26
682.40	487.24
682.74	484.26
683.08	481.25
683.42	478.20
683.75	475.21
684.09	472.18
684.43	469.29
684.77	466.39
685.10	463.56
685.44	460.86
685.78	458.14
686.12	455.52
686.45	452.81
686.79	450.01
687.13	447.36
687.46	444.80
687.80	442.19
688.14	439.54
688.48	437.07
688.81	434.32
689.15	431.68
689.49	429.10
689.82	426.60
690.16	424.15
690.50	421.81
690.83	419.53
691.17	417.22
691.51	414.89
691.84	412.64
692.18	410.36
692.52	408.01
692.85	405.69
693.19	403.42
693.52	401.18
693.86	399.07
694.20	396.91
694.53	394.78
694.87	392.60
695.21	390.47
695.54	388.29
695.88	386.27
696.21	384.28
696.55	382.31
696.88	380.31
697.22	378.28
697.56	376.32
697.89	374.30
698.23	372.34
698.56	370.44
698.90	368.59
699.23	366.69
699.57	364.84
699.90	363.01
700.24	361.17
700.58	359.35
700.91	357.55
701.25	355.87
701.58	354.25
701.92	352.63
702.25	351.02
702.59	349.44
702.92	347.86
703.26	346.31
703.59	344.77
703.93	343.36
704.26	341.96
704.60	340.46
704.93	338.98
705.26	337.49
705.60	336.06
705.93	334.69
706.27	333.37
706.60	332.11
706.94	330.84
707.27	329.46
707.61	328.22
707.94	326.99
708.27	325.68
708.61	324.42
708.94	323.19
709.28	322.02
709.61	320.84
709.94	319.72
710.28	318.51
710.61	317.33
710.95	316.06
711.28	314.88
711.61	313.73
711.95	312.67
712.28	311.58
712.61	310.43
712.95	309.31
713.28	308.30
713.61	307.23
713.95	306.21
714.28	305.25
714.61	304.24
714.95	303.20
715.28	302.25
715.61	301.21
715.95	300.23
716.28	299.22
716.61	298.24
716.95	297.23
717.28	296.34
717.61	295.45
717.94	294.61
718.28	293.70
718.61	292.86
718.94	292.02
719.27	291.24
719.61	290.49
719.94	289.74
720.27	288.91
720.60	288.13
720.94	287.38
721.27	286.66
721.60	285.99
721.93	285.30
722.27	284.60
722.60	283.96
722.93	283.27
723.26	282.65
723.59	282.04
723.93	281.44
724.26	280.78
724.59	280.12
724.92	279.45
725.25	278.88
725.59	278.24
725.92	277.63
726.25	277.00
726.58	276.39
726.91	275.78
727.24	275.20
727.57	274.65
727.91	274.05
728.24	273.46
728.57	272.83
728.90	272.29
729.23	271.71
729.56	271.20
729.89	270.64
730.22	270.05
730.55	269.45
730.89	268.86
731.22	268.32
731.55	267.80
731.88	267.30
732.21	266.73
732.54	266.23
732.87	265.73
733.20	265.26
733.53	264.76
733.86	264.32
734.19	263.85
734.52	263.39
734.85	262.97
735.18	262.52
735.51	262.10
735.84	261.66
736.17	261.24
736.50	260.74
736.83	260.42
737.16	260.01
737.49	259.63
737.82	259.22
738.15	258.82
738.48	258.42
738.81	258.02
739.14	257.66
739.47	257.26
739.80	256.91
740.13	256.55
740.46	256.19
740.79	255.78
741.12	255.42
741.45	255.01
741.78	254.61
742.11	254.29
742.44	253.87
742.77	253.51
743.10	253.17
743.43	252.84
743.75	252.38
744.08	252.22
744.41	251.89
744.74	251.60
745.07	251.28
745.40	250.98
745.73	250.70
746.06	250.37
746.39	250.08
746.71	249.73
747.04	249.38
747.37	249.09
747.70	248.82
748.03	248.51
748.36	248.27
748.68	248.05
749.01	247.74
749.34	247.49
749.67	247.22
750.00	246.91
750.33	246.67
750.65	246.47
750.98	246.05
751.31	245.77
751.64	245.52
751.97	245.36
752.29	245.09
752.62	244.83
752.95	244.61
753.28	244.35
753.60	244.12
753.93	243.95
754.26	243.73
754.59	243.47
754.91	243.24
755.24	243.00
755.57	242.76
755.90	242.54
756.22	242.31
756.55	242.09
756.88	241.89
757.20	241.67
757.53	241.43
757.86	241.29
758.19	241.11
758.51	240.93
758.84	240.68
759.17	240.52
759.49	240.32
759.82	240.18
760.15	240.01
760.47	239.85
760.80	239.66
761.13	239.45
761.45	239.27
761.78	239.11
762.11	238.97
762.43	238.78
762.76	238.62
763.08	238.50
763.41	238.39
763.74	238.24
764.06	238.05
764.39	237.92
764.71	237.73
765.04	237.57
765.37	237.42
765.69	237.30
766.02	237.13
766.34	236.98
766.67	236.77
767.00	236.67
767.32	236.59
767.65	236.50
767.97	236.36
768.30	236.21
768.62	236.08
768.95	235.93
769.27	235.81
769.60	235.69
769.92	235.53
770.25	235.36
770.57	235.22
770.90	235.11
771.22	234.98
771.55	234.89
771.87	234.77
772.20	234.67
772.52	234.59
772.85	234.59
773.17	234.49
773.50	234.38
773.82	234.23
774.15	234.07
774.47	233.90
774.80	233.80
775.12	233.73
775.45	233.61
775.77	233.53
776.09	233.40
776.42	233.27
776.74	233.20
777.07	233.12
777.39	233.05
777.72	232.95
778.04	232.84
778.36	232.75
778.69	232.63
779.01	232.56
779.33	232.40
779.66	232.22
779.98	232.12
780.31	232.05
780.63	232.05
780.95	231.99
781.28	231.90
781.60	231.81
781.92	231.72
782.25	231.65
782.57	231.54
782.89	231.48
783.22	231.46
783.54	231.39
783.86	231.33
784.19	231.22
784.51	231.21
784.83	231.16
785.16	231.08
785.48	231.05
785.80	230.98
786.12	230.93
786.45	230.88
