SpectraSuite Data File
++++++++++++++++++++++++++++++++++++
Date: Fri Feb 01 14:54:54 EST 2013
User: group
Dark Spectrum Present: No
Reference Spectrum Present: No
Number of Sampled Component Spectra: 1
Spectrometers: USB2E7196
Integration Time (usec): 35000 (USB2E7196)
Spectra Averaged: 100 (USB2E7196)
Boxcar Smoothing: 10 (USB2E7196)
Correct for Electrical Dark: No (USB2E7196)
Strobe/Lamp Enabled: No (USB2E7196)
Correct for Detector Non-linearity: No (USB2E7196)
Correct for Stray Light: No (USB2E7196)
Number of Pixels in Processed Spectrum: 2048
>>>>>Begin Processed Spectral Data<<<<<
339.09	0.00
339.48	215.65
339.86	216.79
340.24	218.31
340.63	219.54
341.01	222.41
341.39	222.71
341.78	223.76
342.16	225.06
342.54	226.16
342.93	213.86
343.31	224.66
343.69	225.23
344.07	225.73
344.46	226.15
344.84	226.54
345.22	226.81
345.60	227.04
345.99	227.25
346.37	227.39
346.75	227.47
347.13	227.55
347.52	227.61
347.90	227.68
348.28	227.70
348.66	227.68
349.05	227.66
349.43	227.71
349.81	227.77
350.19	227.81
350.57	227.87
350.96	227.94
351.34	228.03
351.72	228.07
352.10	228.14
352.48	228.21
352.87	228.27
353.25	228.32
353.63	228.42
354.01	228.45
354.39	228.50
354.77	228.57
355.15	228.69
355.54	228.73
355.92	228.74
356.30	228.82
356.68	229.01
357.06	229.06
357.44	229.13
357.82	229.17
358.20	229.22
358.58	229.25
358.97	229.28
359.35	229.31
359.73	229.36
360.11	229.41
360.49	229.48
360.87	229.53
361.25	229.55
361.63	229.55
362.01	229.57
362.39	229.60
362.77	229.62
363.15	229.57
363.53	229.58
363.91	229.61
364.29	229.58
364.67	229.50
365.05	229.51
365.43	229.51
365.81	229.51
366.19	229.54
366.57	229.57
366.95	229.55
367.33	229.52
367.71	229.46
368.09	229.43
368.47	229.38
368.85	229.29
369.23	229.23
369.61	229.18
369.99	229.19
370.37	229.13
370.75	229.12
371.13	229.07
371.51	229.00
371.89	228.95
372.27	228.90
372.65	228.83
373.03	228.77
373.41	228.69
373.78	228.64
374.16	228.47
374.54	228.39
374.92	228.32
375.30	228.24
375.68	228.18
376.06	228.12
376.44	228.01
376.82	227.94
377.19	227.89
377.57	227.84
377.95	227.72
378.33	227.62
378.71	227.47
379.09	227.42
379.47	227.33
379.84	227.24
380.22	227.16
380.60	227.05
380.98	227.00
381.36	226.88
381.73	226.79
382.11	226.76
382.49	226.67
382.87	226.56
383.25	226.50
383.62	226.55
384.00	226.46
384.38	226.42
384.76	226.40
385.13	226.38
385.51	226.33
385.89	226.27
386.27	226.23
386.64	226.19
387.02	226.12
387.40	226.10
387.78	226.08
388.15	226.05
388.53	226.03
388.91	226.01
389.29	226.00
389.66	226.03
390.04	226.03
390.42	226.06
390.79	226.07
391.17	226.07
391.55	225.97
391.92	226.02
392.30	226.03
392.68	226.03
393.05	226.05
393.43	226.09
393.81	226.13
394.18	226.21
394.56	226.22
394.94	226.30
395.31	226.36
395.69	226.43
396.06	226.53
396.44	226.59
396.82	226.63
397.19	226.78
397.57	226.83
397.95	226.92
398.32	226.96
398.70	227.07
399.07	227.19
399.45	227.26
399.82	227.36
400.20	227.45
400.58	227.52
400.95	227.58
401.33	227.72
401.70	227.88
402.08	227.96
402.45	228.14
402.83	228.28
403.20	228.41
403.58	228.54
403.95	228.65
404.33	228.82
404.71	228.96
405.08	229.13
405.46	229.28
405.83	229.45
406.21	229.61
406.58	229.81
406.96	229.96
407.33	230.15
407.70	230.34
408.08	230.64
408.45	230.90
408.83	231.14
409.20	231.31
409.58	231.52
409.95	231.78
410.33	232.02
410.70	232.28
411.08	232.59
411.45	232.90
411.82	233.21
412.20	233.56
412.57	234.01
412.95	234.31
413.32	234.67
413.69	235.05
414.07	235.49
414.44	235.88
414.82	236.36
415.19	236.92
415.56	237.46
415.94	237.95
416.31	238.55
416.68	239.17
417.06	239.86
417.43	240.54
417.81	241.33
418.18	242.03
418.55	242.85
418.93	243.67
419.30	244.52
419.67	245.43
420.04	246.36
420.42	247.32
420.79	248.46
421.16	249.62
421.54	250.77
421.91	251.98
422.28	253.25
422.66	254.58
423.03	255.86
423.40	257.16
423.77	258.57
424.15	260.00
424.52	261.44
424.89	263.06
425.26	264.55
425.64	265.95
426.01	267.58
426.38	269.25
426.75	270.92
427.13	272.63
427.50	274.44
427.87	276.32
428.24	278.17
428.61	279.94
428.99	281.87
429.36	284.02
429.73	286.07
430.10	288.08
430.47	290.15
430.85	292.27
431.22	294.51
431.59	296.89
431.96	299.13
432.33	301.65
432.70	304.04
433.08	306.88
433.45	309.56
433.82	312.17
434.19	315.06
434.56	317.85
434.93	320.56
435.30	323.18
435.68	326.09
436.05	328.90
436.42	331.69
436.79	334.27
437.16	336.99
437.53	339.87
437.90	342.71
438.27	345.41
438.64	348.24
439.01	350.87
439.38	353.12
439.75	355.27
440.13	357.75
440.50	360.11
440.87	361.94
441.24	363.89
441.61	366.04
441.98	367.53
442.35	369.42
442.72	371.30
443.09	373.12
443.46	374.10
443.83	374.69
444.20	375.21
444.57	376.03
444.94	376.30
445.31	376.66
445.68	377.01
446.05	377.11
446.42	376.73
446.79	376.30
447.16	375.89
447.53	375.61
447.90	374.45
448.27	373.25
448.64	371.68
449.01	370.55
449.37	368.61
449.74	366.72
450.11	364.45
450.48	361.98
450.85	359.46
451.22	357.34
451.59	355.35
451.96	353.44
452.33	350.84
452.70	348.49
453.07	345.65
453.43	342.72
453.80	339.96
454.17	337.29
454.54	334.75
454.91	332.04
455.28	329.39
455.65	326.90
456.02	324.43
456.38	322.29
456.75	319.63
457.12	317.36
457.49	315.15
457.86	312.94
458.23	311.07
458.59	309.05
458.96	306.94
459.33	305.06
459.70	303.14
460.07	301.61
460.43	299.88
460.80	298.21
461.17	296.79
461.54	295.30
461.91	293.84
462.27	292.40
462.64	291.11
463.01	289.70
463.38	288.41
463.74	287.07
464.11	285.91
464.48	284.89
464.85	283.76
465.21	282.84
465.58	281.90
465.95	280.74
466.32	279.78
466.68	278.86
467.05	277.97
467.42	277.11
467.78	276.14
468.15	275.24
468.52	274.55
468.88	273.70
469.25	272.91
469.62	272.30
469.98	271.58
470.35	270.94
470.72	270.33
471.08	269.68
471.45	269.14
471.82	268.55
472.18	267.90
472.55	267.45
472.92	266.93
473.28	266.46
473.65	266.02
474.02	265.55
474.38	265.18
474.75	264.84
475.11	264.37
475.48	264.07
475.85	263.83
476.21	263.61
476.58	263.37
476.94	263.21
477.31	262.98
477.67	262.86
478.04	262.71
478.41	262.63
478.77	262.63
479.14	262.57
479.50	262.54
479.87	262.61
480.23	262.70
480.60	262.75
480.96	262.84
481.33	263.06
481.69	263.27
482.06	263.45
482.42	263.65
482.79	263.97
483.15	264.33
483.52	264.67
483.88	265.02
484.25	265.42
484.61	265.84
484.98	266.27
485.34	266.80
485.71	267.38
486.07	268.01
486.44	268.57
486.80	269.24
487.17	269.99
487.53	270.78
487.90	271.62
488.26	272.58
488.62	273.57
488.99	274.54
489.35	275.59
489.72	276.70
490.08	277.93
490.44	279.18
490.81	280.48
491.17	281.86
491.54	283.31
491.90	284.84
492.26	286.49
492.63	288.26
492.99	290.03
493.36	291.93
493.72	293.96
494.08	296.06
494.45	298.30
494.81	300.64
495.17	303.06
495.54	305.58
495.90	308.23
496.26	310.98
496.63	313.94
496.99	317.01
497.35	320.26
497.72	323.64
498.08	327.12
498.44	330.74
498.80	334.64
499.17	338.64
499.53	342.85
499.89	347.18
500.26	351.64
500.62	356.31
500.98	361.25
501.34	366.30
501.71	371.60
502.07	377.03
502.43	382.61
502.79	388.45
503.16	394.52
503.52	400.79
503.88	407.23
504.24	413.83
504.60	420.72
504.97	427.87
505.33	435.11
505.69	442.79
506.05	450.57
506.41	458.38
506.78	466.50
507.14	474.88
507.50	483.59
507.86	492.58
508.22	501.70
508.59	510.90
508.95	520.45
509.31	530.22
509.67	540.35
510.03	550.68
510.39	561.15
510.75	571.98
511.12	582.80
511.48	594.03
511.84	605.47
512.20	616.90
512.56	628.74
512.92	640.92
513.28	653.20
513.64	665.65
514.00	678.29
514.37	691.16
514.73	704.16
515.09	717.20
515.45	730.54
515.81	744.19
516.17	758.17
516.53	772.26
516.89	786.37
517.25	800.51
517.61	814.90
517.97	829.35
518.33	843.69
518.69	858.58
519.05	873.62
519.41	888.80
519.77	904.47
520.13	919.97
520.49	935.36
520.85	950.86
521.21	966.71
521.57	983.04
521.93	998.94
522.29	1015.39
522.65	1031.67
523.01	1047.97
523.37	1064.01
523.73	1080.20
524.09	1096.38
524.45	1112.72
524.81	1129.41
525.17	1146.36
525.53	1163.36
525.89	1180.35
526.25	1197.23
526.61	1213.60
526.97	1230.33
527.33	1246.72
527.68	1263.38
528.04	1280.00
528.40	1296.80
528.76	1313.88
529.12	1330.63
529.48	1347.63
529.84	1363.85
530.20	1380.65
530.56	1397.75
530.91	1415.21
531.27	1431.97
531.63	1448.55
531.99	1465.33
532.35	1481.31
532.71	1497.27
533.07	1513.56
533.42	1529.55
533.78	1545.63
534.14	1562.05
534.50	1577.49
534.86	1593.56
535.21	1608.80
535.57	1624.81
535.93	1640.27
536.29	1655.11
536.65	1670.30
537.00	1685.10
537.36	1700.29
537.72	1714.88
538.08	1729.31
538.44	1743.33
538.79	1757.39
539.15	1771.25
539.51	1785.15
539.87	1799.64
540.22	1813.36
540.58	1827.35
540.94	1840.84
541.29	1853.82
541.65	1866.55
542.01	1879.95
542.37	1892.21
542.72	1904.73
543.08	1916.45
543.44	1928.93
543.79	1940.18
544.15	1951.10
544.51	1962.71
544.87	1973.87
545.22	1984.75
545.58	1995.02
545.94	2004.84
546.29	2014.89
546.65	2024.60
547.01	2033.77
547.36	2042.53
547.72	2051.13
548.07	2058.94
548.43	2067.02
548.79	2075.12
549.14	2082.72
549.50	2090.08
549.86	2097.91
550.21	2105.29
550.57	2112.52
550.92	2119.05
551.28	2126.29
551.64	2133.45
551.99	2139.98
552.35	2146.06
552.70	2152.14
553.06	2157.99
553.41	2164.15
553.77	2170.07
554.13	2176.13
554.48	2182.13
554.84	2187.45
555.19	2192.78
555.55	2197.89
555.90	2202.29
556.26	2206.95
556.61	2211.58
556.97	2215.74
557.32	2219.85
557.68	2223.83
558.03	2228.09
558.39	2231.86
558.74	2236.31
559.10	2240.03
559.45	2243.47
559.81	2247.77
560.16	2251.47
560.52	2254.73
560.87	2258.22
561.23	2260.63
561.58	2263.49
561.94	2265.92
562.29	2268.25
562.64	2270.60
563.00	2273.12
563.35	2276.71
563.71	2279.82
564.06	2282.84
564.42	2285.73
564.77	2287.98
565.12	2290.08
565.48	2291.82
565.83	2293.45
566.19	2294.49
566.54	2295.42
566.89	2296.55
567.25	2296.87
567.60	2298.06
567.96	2299.48
568.31	2299.97
568.66	2300.95
569.02	2301.40
569.37	2301.60
569.72	2302.20
570.08	2302.17
570.43	2301.90
570.78	2300.84
571.14	2299.07
571.49	2297.54
571.84	2296.83
572.20	2295.46
572.55	2294.22
572.90	2292.57
573.26	2290.89
573.61	2289.04
573.96	2286.93
574.31	2283.71
574.67	2280.54
575.02	2276.63
575.37	2273.13
575.72	2269.20
576.08	2265.83
576.43	2262.36
576.78	2258.54
577.13	2255.35
577.49	2252.18
577.84	2248.60
578.19	2244.91
578.54	2241.09
578.90	2236.75
579.25	2231.01
579.60	2225.78
579.95	2220.60
580.30	2215.44
580.66	2210.21
581.01	2205.17
581.36	2200.12
581.71	2195.71
582.06	2191.12
582.42	2186.61
582.77	2181.16
583.12	2176.42
583.47	2171.39
583.82	2166.10
584.17	2160.73
584.53	2155.02
584.88	2149.20
585.23	2143.32
585.58	2137.66
585.93	2132.19
586.28	2127.34
586.63	2122.17
586.98	2117.13
587.34	2112.44
587.69	2107.34
588.04	2101.91
588.39	2096.06
588.74	2089.35
589.09	2083.19
589.44	2076.23
589.79	2070.13
590.14	2064.38
590.49	2057.74
590.84	2051.29
591.19	2045.18
591.54	2038.64
591.89	2030.94
592.25	2024.04
592.60	2016.66
592.95	2008.92
593.30	2001.45
593.65	1993.69
594.00	1986.59
594.35	1979.35
594.70	1971.19
595.05	1963.76
595.40	1956.40
595.75	1948.77
596.10	1942.52
596.45	1935.57
596.80	1929.44
597.15	1922.62
597.50	1915.42
597.85	1908.99
598.19	1902.26
598.54	1895.18
598.89	1888.47
599.24	1882.64
599.59	1875.87
599.94	1869.55
600.29	1863.26
600.64	1856.64
600.99	1849.10
601.34	1842.07
601.69	1834.97
602.04	1828.04
602.39	1820.83
602.74	1814.03
603.08	1807.42
603.43	1800.68
603.78	1793.51
604.13	1786.23
604.48	1778.87
604.83	1771.97
605.18	1764.71
605.53	1756.57
605.87	1748.61
606.22	1741.45
606.57	1733.62
606.92	1726.28
607.27	1719.08
607.62	1712.11
607.96	1704.76
608.31	1698.22
608.66	1690.84
609.01	1683.36
609.36	1675.76
609.70	1667.64
610.05	1659.58
610.40	1651.67
610.75	1643.48
611.10	1635.76
611.44	1627.32
611.79	1619.43
612.14	1610.87
612.49	1601.96
612.83	1593.76
613.18	1585.69
613.53	1577.53
613.88	1568.98
614.22	1560.86
614.57	1552.34
614.92	1544.35
615.27	1536.81
615.61	1528.54
615.96	1520.50
616.31	1512.84
616.65	1505.55
617.00	1498.01
617.35	1490.33
617.70	1482.14
618.04	1473.58
618.39	1465.45
618.74	1457.97
619.08	1449.76
619.43	1442.11
619.78	1435.15
620.12	1428.02
620.47	1420.56
620.82	1412.50
621.16	1405.17
621.51	1397.50
621.85	1390.05
622.20	1381.64
622.55	1373.36
622.89	1365.64
623.24	1358.04
623.59	1350.75
623.93	1343.37
624.28	1336.26
624.62	1328.86
624.97	1321.83
625.32	1315.22
625.66	1308.27
626.01	1301.05
626.35	1293.60
626.70	1286.10
627.04	1278.50
627.39	1270.87
627.73	1263.42
628.08	1256.50
628.43	1249.29
628.77	1242.05
629.12	1234.38
629.46	1227.17
629.81	1219.91
630.15	1212.68
630.50	1205.40
630.84	1197.27
631.19	1189.31
631.53	1181.96
631.88	1174.42
632.22	1166.92
632.57	1159.65
632.91	1152.19
633.26	1144.87
633.60	1137.62
633.95	1130.64
634.29	1123.69
634.64	1117.03
634.98	1109.70
635.32	1102.72
635.67	1096.18
636.01	1089.62
636.36	1082.93
636.70	1076.55
637.05	1069.98
637.39	1063.63
637.73	1057.18
638.08	1051.41
638.42	1045.49
638.77	1039.04
639.11	1032.52
639.45	1026.12
639.80	1019.45
640.14	1013.05
640.49	1006.57
640.83	1000.44
641.17	994.17
641.52	987.91
641.86	981.57
642.20	975.84
642.55	969.61
642.89	963.14
643.23	956.64
643.58	950.93
643.92	944.76
644.26	938.80
644.61	932.84
644.95	926.79
645.29	920.21
645.64	913.55
645.98	907.29
646.32	901.55
646.66	895.57
647.01	889.83
647.35	884.19
647.69	878.50
648.04	872.97
648.38	867.19
648.72	861.10
649.06	854.96
649.41	849.18
649.75	843.20
650.09	837.26
650.43	831.50
650.78	825.30
651.12	819.41
651.46	813.67
651.80	807.85
652.14	802.61
652.49	797.28
652.83	792.12
653.17	786.45
653.51	780.70
653.85	775.30
654.20	769.70
654.54	763.73
654.88	758.02
655.22	752.12
655.56	746.46
655.90	741.12
656.25	735.99
656.59	730.61
656.93	725.58
657.27	720.52
657.61	715.14
657.95	710.14
658.29	705.03
658.64	699.90
658.98	694.74
659.32	689.24
659.66	684.11
660.00	678.80
660.34	673.87
660.68	669.01
661.02	664.05
661.36	659.39
661.70	654.97
662.05	650.56
662.39	646.28
662.73	641.87
663.07	637.49
663.41	633.01
663.75	628.48
664.09	623.86
664.43	619.49
664.77	615.40
665.11	611.19
665.45	607.15
665.79	603.05
666.13	598.92
666.47	594.87
666.81	590.76
667.15	586.71
667.49	582.90
667.83	579.16
668.17	575.29
668.51	571.26
668.85	567.24
669.19	563.48
669.53	559.64
669.87	555.80
670.21	552.19
670.55	548.62
670.89	545.23
671.23	541.87
671.57	538.39
671.91	534.90
672.25	531.53
672.58	528.07
672.92	524.76
673.26	521.65
673.60	518.51
673.94	515.43
674.28	512.57
674.62	509.62
674.96	506.57
675.30	503.68
675.64	500.77
675.97	498.12
676.31	495.30
676.65	492.40
676.99	489.75
677.33	486.93
677.67	484.15
678.01	481.22
678.34	478.27
678.68	475.49
679.02	472.65
679.36	469.86
679.70	467.17
680.04	464.42
680.37	461.58
680.71	458.89
681.05	456.30
681.39	453.63
681.73	451.01
682.06	448.53
682.40	446.06
682.74	443.60
683.08	441.08
683.42	438.53
683.75	436.06
684.09	433.53
684.43	431.12
684.77	428.73
685.10	426.39
685.44	424.13
685.78	421.84
686.12	419.67
686.45	417.43
686.79	415.15
687.13	412.97
687.46	410.83
687.80	408.70
688.14	406.53
688.48	404.45
688.81	402.20
689.15	400.04
689.49	397.88
689.82	395.79
690.16	393.67
690.50	391.71
690.83	389.78
691.17	387.88
691.51	385.93
691.84	384.06
692.18	382.15
692.52	380.19
692.85	378.27
693.19	376.40
693.52	374.60
693.86	372.79
694.20	370.99
694.53	369.21
694.87	367.37
695.21	365.58
695.54	363.78
695.88	362.10
696.21	360.37
696.55	358.71
696.88	357.02
697.22	355.40
697.56	353.82
697.89	352.15
698.23	350.51
698.56	348.97
698.90	347.33
699.23	345.70
699.57	344.17
699.90	342.65
700.24	341.12
700.58	339.55
700.91	338.05
701.25	336.63
701.58	335.30
701.92	333.90
702.25	332.52
702.59	331.16
702.92	329.85
703.26	328.57
703.59	327.28
703.93	326.09
704.26	324.84
704.60	323.51
704.93	322.30
705.26	321.07
705.60	319.88
705.93	318.80
706.27	317.78
706.60	316.74
706.94	315.64
707.27	314.49
707.61	313.47
707.94	312.47
708.27	311.39
708.61	310.26
708.94	309.27
709.28	308.31
709.61	307.36
709.94	306.40
710.28	305.40
710.61	304.46
710.95	303.42
711.28	302.56
711.61	301.62
711.95	300.68
712.28	299.72
712.61	298.74
712.95	297.82
713.28	296.93
713.61	296.05
713.95	295.20
714.28	294.37
714.61	293.49
714.95	292.66
715.28	291.84
715.61	291.02
715.95	290.20
716.28	289.39
716.61	288.59
716.95	287.82
717.28	287.12
717.61	286.33
717.94	285.59
718.28	284.77
718.61	284.13
718.94	283.47
719.27	282.87
719.61	282.25
719.94	281.57
720.27	280.85
720.60	280.19
720.94	279.58
721.27	279.02
721.60	278.50
721.93	277.92
722.27	277.37
722.60	276.84
722.93	276.27
723.26	275.70
723.59	275.15
723.93	274.57
724.26	274.01
724.59	273.50
724.92	272.99
725.25	272.49
725.59	271.97
725.92	271.47
726.25	270.97
726.58	270.49
726.91	270.02
727.24	269.56
727.57	269.10
727.91	268.60
728.24	268.13
728.57	267.65
728.90	267.18
729.23	266.67
729.56	266.20
729.89	265.74
730.22	265.26
730.55	264.83
730.89	264.41
731.22	263.96
731.55	263.55
731.88	263.09
732.21	262.62
732.54	262.12
732.87	261.68
733.20	261.24
733.53	260.84
733.86	260.45
734.19	260.05
734.52	259.64
734.85	259.36
735.18	258.94
735.51	258.56
735.84	258.20
736.17	257.82
736.50	257.41
736.83	257.15
737.16	256.82
737.49	256.45
737.82	256.09
738.15	255.75
738.48	255.34
738.81	255.03
739.14	254.74
739.47	254.47
739.80	254.17
740.13	253.87
740.46	253.52
740.79	253.17
741.12	252.84
741.45	252.53
741.78	252.12
742.11	251.83
742.44	251.51
742.77	251.19
743.10	250.88
743.43	250.59
743.75	250.22
744.08	250.06
744.41	249.76
744.74	249.48
745.07	249.21
745.40	248.96
745.73	248.72
746.06	248.45
746.39	248.17
746.71	247.88
747.04	247.61
747.37	247.38
747.70	247.17
748.03	246.95
748.36	246.75
748.68	246.52
749.01	246.26
749.34	246.01
749.67	245.80
750.00	245.58
750.33	245.44
750.65	245.20
750.98	244.88
751.31	244.68
751.64	244.49
751.97	244.33
752.29	244.12
752.62	243.89
752.95	243.67
753.28	243.49
753.60	243.33
753.93	243.17
754.26	242.98
754.59	242.76
754.91	242.57
755.24	242.32
755.57	242.13
755.90	241.95
756.22	241.78
756.55	241.60
756.88	241.44
757.20	241.23
757.53	241.07
757.86	240.89
758.19	240.76
758.51	240.59
758.84	240.41
759.17	240.26
759.49	240.10
759.82	239.99
760.15	239.85
760.47	239.68
760.80	239.50
761.13	239.38
761.45	239.26
761.78	239.13
762.11	238.99
762.43	238.90
762.76	238.77
763.08	238.67
763.41	238.58
763.74	238.46
764.06	238.31
764.39	238.21
764.71	238.10
765.04	237.96
765.37	237.85
765.69	237.71
766.02	237.58
766.34	237.44
766.67	237.30
767.00	237.20
767.32	237.12
767.65	237.07
767.97	236.96
768.30	236.83
768.62	236.66
768.95	236.58
769.27	236.44
769.60	236.35
769.92	236.20
770.25	236.04
770.57	235.93
770.90	235.81
771.22	235.67
771.55	235.57
771.87	235.45
772.20	235.34
772.52	235.32
772.85	235.33
773.17	235.21
773.50	235.11
773.82	234.98
774.15	234.85
774.47	234.70
774.80	234.60
775.12	234.50
775.45	234.46
775.77	234.37
776.09	234.30
776.42	234.22
776.74	234.16
777.07	234.11
777.39	234.02
777.72	233.92
778.04	233.89
778.36	233.82
778.69	233.77
779.01	233.69
779.33	233.52
779.66	233.36
779.98	233.33
780.31	233.27
780.63	233.24
780.95	233.19
781.28	233.13
781.60	233.05
781.92	232.99
782.25	232.89
782.57	232.78
782.89	232.69
783.22	232.62
783.54	232.54
783.86	232.48
784.19	232.39
784.51	232.38
784.83	232.30
785.16	232.21
785.48	232.15
785.80	232.09
786.12	232.08
786.45	232.04
786.77	231.98
787.09	231.92
