SpectraSuite Data File
++++++++++++++++++++++++++++++++++++
Date: Fri Feb 01 15:57:10 EST 2013
User: group
Dark Spectrum Present: No
Reference Spectrum Present: No
Number of Sampled Component Spectra: 1
Spectrometers: USB2E7196
Integration Time (usec): 35000 (USB2E7196)
Spectra Averaged: 100 (USB2E7196)
Boxcar Smoothing: 10 (USB2E7196)
Correct for Electrical Dark: No (USB2E7196)
Strobe/Lamp Enabled: No (USB2E7196)
Correct for Detector Non-linearity: No (USB2E7196)
Correct for Stray Light: No (USB2E7196)
Number of Pixels in Processed Spectrum: 2048
>>>>>Begin Processed Spectral Data<<<<<
339.09	0.00
339.48	214.98
339.86	216.19
340.24	217.38
340.63	219.00
341.01	221.72
341.39	221.22
341.78	222.91
342.16	224.11
342.54	225.10
342.93	212.91
343.31	223.67
343.69	224.20
344.07	224.68
344.46	225.10
344.84	225.48
345.22	225.70
345.60	225.98
345.99	226.16
346.37	226.28
346.75	226.35
347.13	226.39
347.52	226.46
347.90	226.51
348.28	226.60
348.66	226.66
349.05	226.65
349.43	226.71
349.81	226.75
350.19	226.80
350.57	226.90
350.96	226.97
351.34	227.07
351.72	227.16
352.10	227.24
352.48	227.31
352.87	227.36
353.25	227.45
353.63	227.50
354.01	227.58
354.39	227.69
354.77	227.76
355.15	227.88
355.54	227.93
355.92	227.98
356.30	228.04
356.68	228.20
357.06	228.31
357.44	228.35
357.82	228.44
358.20	228.55
358.58	228.59
358.97	228.69
359.35	228.76
359.73	228.84
360.11	228.90
360.49	228.94
360.87	228.99
361.25	229.06
361.63	229.15
362.01	229.20
362.39	229.23
362.77	229.27
363.15	229.32
363.53	229.34
363.91	229.40
364.29	229.43
364.67	229.35
365.05	229.34
365.43	229.34
365.81	229.35
366.19	229.39
366.57	229.44
366.95	229.43
367.33	229.37
367.71	229.37
368.09	229.38
368.47	229.40
368.85	229.39
369.23	229.39
369.61	229.33
369.99	229.31
370.37	229.31
370.75	229.33
371.13	229.30
371.51	229.26
371.89	229.24
372.27	229.18
372.65	229.15
373.03	229.10
373.41	229.07
373.78	229.01
374.16	228.88
374.54	228.77
374.92	228.71
375.30	228.67
375.68	228.58
376.06	228.52
376.44	228.46
376.82	228.43
377.19	228.31
377.57	228.25
377.95	228.19
378.33	228.14
378.71	228.01
379.09	227.91
379.47	227.86
379.84	227.76
380.22	227.70
380.60	227.60
380.98	227.53
381.36	227.44
381.73	227.37
382.11	227.33
382.49	227.27
382.87	227.19
383.25	227.13
383.62	227.15
384.00	227.08
384.38	227.02
384.76	226.95
385.13	226.95
385.51	226.90
385.89	226.82
386.27	226.67
386.64	226.64
387.02	226.62
387.40	226.56
387.78	226.51
388.15	226.45
388.53	226.41
388.91	226.37
389.29	226.36
389.66	226.34
390.04	226.30
390.42	226.31
390.79	226.32
391.17	226.28
391.55	226.18
391.92	226.16
392.30	226.18
392.68	226.15
393.05	226.13
393.43	226.11
393.81	226.14
394.18	226.14
394.56	226.16
394.94	226.21
395.31	226.25
395.69	226.31
396.06	226.37
396.44	226.41
396.82	226.46
397.19	226.55
397.57	226.58
397.95	226.64
398.32	226.64
398.70	226.66
399.07	226.76
399.45	226.82
399.82	226.87
400.20	226.91
400.58	226.98
400.95	227.00
401.33	227.12
401.70	227.29
402.08	227.41
402.45	227.50
402.83	227.60
403.20	227.69
403.58	227.81
403.95	227.93
404.33	228.07
404.71	228.19
405.08	228.36
405.46	228.50
405.83	228.67
406.21	228.84
406.58	229.02
406.96	229.18
407.33	229.34
407.70	229.57
408.08	229.86
408.45	230.10
408.83	230.39
409.20	230.60
409.58	230.75
409.95	231.01
410.33	231.29
410.70	231.52
411.08	231.84
411.45	232.13
411.82	232.44
412.20	232.79
412.57	233.22
412.95	233.52
413.32	233.91
413.69	234.32
414.07	234.77
414.44	235.23
414.82	235.71
415.19	236.30
415.56	236.83
415.94	237.34
416.31	237.98
416.68	238.59
417.06	239.29
417.43	240.00
417.81	240.81
418.18	241.59
418.55	242.44
418.93	243.32
419.30	244.21
419.67	245.14
420.04	246.10
420.42	247.05
420.79	248.23
421.16	249.40
421.54	250.58
421.91	251.78
422.28	253.04
422.66	254.38
423.03	255.67
423.40	257.01
423.77	258.42
424.15	259.86
424.52	261.36
424.89	262.98
425.26	264.49
425.64	265.89
426.01	267.51
426.38	269.14
426.75	270.84
427.13	272.58
427.50	274.38
427.87	276.26
428.24	278.14
428.61	279.86
428.99	281.83
429.36	283.90
429.73	285.97
430.10	287.95
430.47	290.00
430.85	292.08
431.22	294.31
431.59	296.70
431.96	298.90
432.33	301.37
432.70	303.73
433.08	306.55
433.45	309.16
433.82	311.71
434.19	314.59
434.56	317.34
434.93	319.99
435.30	322.58
435.68	325.44
436.05	328.28
436.42	331.08
436.79	333.57
437.16	336.27
437.53	339.06
437.90	341.86
438.27	344.59
438.64	347.45
439.01	350.05
439.38	352.24
439.75	354.39
440.13	356.84
440.50	359.18
440.87	361.03
441.24	362.96
441.61	365.16
441.98	366.64
442.35	368.43
442.72	370.25
443.09	372.06
443.46	373.04
443.83	373.61
444.20	374.09
444.57	374.90
444.94	375.18
445.31	375.51
445.68	375.90
446.05	375.98
446.42	375.55
446.79	375.09
447.16	374.66
447.53	374.33
447.90	373.17
448.27	371.97
448.64	370.39
449.01	369.30
449.37	367.27
449.74	365.39
450.11	363.18
450.48	360.68
450.85	358.14
451.22	355.99
451.59	353.92
451.96	352.03
452.33	349.46
452.70	347.10
453.07	344.32
453.43	341.38
453.80	338.62
454.17	335.94
454.54	333.40
454.91	330.68
455.28	328.04
455.65	325.60
456.02	323.21
456.38	321.07
456.75	318.45
457.12	316.24
457.49	314.03
457.86	311.88
458.23	310.06
458.59	308.04
458.96	306.00
459.33	304.18
459.70	302.29
460.07	300.77
460.43	299.11
460.80	297.52
461.17	296.11
461.54	294.62
461.91	293.21
462.27	291.79
462.64	290.55
463.01	289.21
463.38	287.91
463.74	286.51
464.11	285.38
464.48	284.33
464.85	283.22
465.21	282.37
465.58	281.43
465.95	280.35
466.32	279.44
466.68	278.53
467.05	277.65
467.42	276.79
467.78	275.90
468.15	275.02
468.52	274.37
468.88	273.54
469.25	272.81
469.62	272.22
469.98	271.56
470.35	270.94
470.72	270.33
471.08	269.71
471.45	269.21
471.82	268.62
472.18	268.00
472.55	267.58
472.92	267.05
473.28	266.61
473.65	266.16
474.02	265.72
474.38	265.35
474.75	265.04
475.11	264.73
475.48	264.44
475.85	264.20
476.21	263.96
476.58	263.75
476.94	263.54
477.31	263.38
477.67	263.26
478.04	263.16
478.41	263.11
478.77	263.16
479.14	263.08
479.50	263.12
479.87	263.21
480.23	263.27
480.60	263.35
480.96	263.43
481.33	263.64
481.69	263.85
482.06	264.08
482.42	264.28
482.79	264.51
483.15	264.85
483.52	265.18
483.88	265.50
484.25	265.91
484.61	266.38
484.98	266.83
485.34	267.36
485.71	267.90
486.07	268.49
486.44	269.04
486.80	269.75
487.17	270.44
487.53	271.25
487.90	272.12
488.26	273.04
488.62	274.01
488.99	275.01
489.35	276.03
489.72	277.16
490.08	278.32
490.44	279.55
490.81	280.84
491.17	282.21
491.54	283.72
491.90	285.26
492.26	286.88
492.63	288.58
492.99	290.34
493.36	292.24
493.72	294.27
494.08	296.37
494.45	298.63
494.81	301.04
495.17	303.48
495.54	306.01
495.90	308.69
496.26	311.50
496.63	314.46
496.99	317.61
497.35	320.83
497.72	324.24
498.08	327.74
498.44	331.43
498.80	335.35
499.17	339.39
499.53	343.53
499.89	347.89
500.26	352.42
500.62	357.10
500.98	362.11
501.34	367.22
501.71	372.57
502.07	378.01
502.43	383.64
502.79	389.45
503.16	395.58
503.52	401.89
503.88	408.29
504.24	414.89
504.60	421.78
504.97	428.94
505.33	436.28
505.69	443.99
506.05	451.75
506.41	459.65
506.78	467.81
507.14	476.27
507.50	484.96
507.86	493.97
508.22	503.18
508.59	512.38
508.95	522.00
509.31	531.83
509.67	541.93
510.03	552.14
510.39	562.70
510.75	573.51
511.12	584.46
511.48	595.73
511.84	607.17
512.20	618.69
512.56	630.60
512.92	642.82
513.28	655.18
513.64	667.68
514.00	680.33
514.37	693.25
514.73	706.26
515.09	719.39
515.45	732.70
515.81	746.26
516.17	760.23
516.53	774.30
516.89	788.40
517.25	802.59
517.61	817.09
517.97	831.49
518.33	845.88
518.69	860.63
519.05	875.63
519.41	890.74
519.77	906.26
520.13	921.75
520.49	937.13
520.85	952.49
521.21	968.18
521.57	984.41
521.93	1000.15
522.29	1016.55
522.65	1032.78
523.01	1049.01
523.37	1065.06
523.73	1081.31
524.09	1097.27
524.45	1113.63
524.81	1130.16
525.17	1146.90
525.53	1163.73
525.89	1180.61
526.25	1197.31
526.61	1213.70
526.97	1230.42
527.33	1246.87
527.68	1263.36
528.04	1279.89
528.40	1296.49
528.76	1313.53
529.12	1330.08
529.48	1346.92
529.84	1362.90
530.20	1379.54
530.56	1396.46
530.91	1413.79
531.27	1430.29
531.63	1446.84
531.99	1463.32
532.35	1479.30
532.71	1495.20
533.07	1511.59
533.42	1527.29
533.78	1543.38
534.14	1559.54
534.50	1574.94
534.86	1590.81
535.21	1606.06
535.57	1621.88
535.93	1637.24
536.29	1651.95
536.65	1666.89
537.00	1681.65
537.36	1697.02
537.72	1711.37
538.08	1725.73
538.44	1739.50
538.79	1753.53
539.15	1767.26
539.51	1780.94
539.87	1795.18
540.22	1808.77
540.58	1822.40
540.94	1835.86
541.29	1848.75
541.65	1861.44
542.01	1874.60
542.37	1886.88
542.72	1899.17
543.08	1910.81
543.44	1923.11
543.79	1934.29
544.15	1945.37
544.51	1956.88
544.87	1967.72
545.22	1978.47
545.58	1988.52
545.94	1998.33
546.29	2008.10
546.65	2017.87
547.01	2027.10
547.36	2035.87
547.72	2044.27
548.07	2052.06
548.43	2060.10
548.79	2068.08
549.14	2075.64
549.50	2082.90
549.86	2090.44
550.21	2097.75
550.57	2105.00
550.92	2111.61
551.28	2118.60
551.64	2125.59
551.99	2132.18
552.35	2138.33
552.70	2144.55
553.06	2150.67
553.41	2156.89
553.77	2162.99
554.13	2169.03
554.48	2175.23
554.84	2180.62
555.19	2186.06
555.55	2191.03
555.90	2195.56
556.26	2200.41
556.61	2205.13
556.97	2209.41
557.32	2213.60
557.68	2217.67
558.03	2222.03
558.39	2225.85
558.74	2230.71
559.10	2234.57
559.45	2238.13
559.81	2242.48
560.16	2246.35
560.52	2249.56
560.87	2253.08
561.23	2255.75
561.58	2258.66
561.94	2261.20
562.29	2263.56
562.64	2266.27
563.00	2269.04
563.35	2272.58
563.71	2275.81
564.06	2279.00
564.42	2281.89
564.77	2284.42
565.12	2286.82
565.48	2288.60
565.83	2290.64
566.19	2291.66
566.54	2292.68
566.89	2293.92
567.25	2294.47
567.60	2295.73
567.96	2297.44
568.31	2298.28
568.66	2299.35
569.02	2299.93
569.37	2300.12
569.72	2301.06
570.08	2301.18
570.43	2301.27
570.78	2300.65
571.14	2299.03
571.49	2297.79
571.84	2297.51
572.20	2296.45
572.55	2295.35
572.90	2293.77
573.26	2292.30
573.61	2290.85
573.96	2289.02
574.31	2286.03
574.67	2283.10
575.02	2279.46
575.37	2276.09
575.72	2272.21
576.08	2268.90
576.43	2265.51
576.78	2261.91
577.13	2258.73
577.49	2255.55
577.84	2252.09
578.19	2248.40
578.54	2244.81
578.90	2240.49
579.25	2234.91
579.60	2229.76
579.95	2224.71
580.30	2219.86
580.66	2214.56
581.01	2209.53
581.36	2204.62
581.71	2200.48
582.06	2195.92
582.42	2191.53
582.77	2186.32
583.12	2181.83
583.47	2177.05
583.82	2172.15
584.17	2166.76
584.53	2161.16
584.88	2155.55
585.23	2149.83
585.58	2144.37
585.93	2138.88
586.28	2134.14
586.63	2129.02
586.98	2124.15
587.34	2119.46
587.69	2114.42
588.04	2109.12
588.39	2103.47
588.74	2097.15
589.09	2090.99
589.44	2084.23
589.79	2078.27
590.14	2072.66
590.49	2066.04
590.84	2059.69
591.19	2053.63
591.54	2047.34
591.89	2040.04
592.25	2033.24
592.60	2025.94
592.95	2018.39
593.30	2011.07
593.65	2003.53
594.00	1996.58
594.35	1989.28
594.70	1981.28
595.05	1974.07
595.40	1967.00
595.75	1959.52
596.10	1953.09
596.45	1946.37
596.80	1940.19
597.15	1933.50
597.50	1926.26
597.85	1919.92
598.19	1913.19
598.54	1906.03
598.89	1899.41
599.24	1893.50
599.59	1886.81
599.94	1880.67
600.29	1874.29
600.64	1867.77
600.99	1860.26
601.34	1853.60
601.69	1846.63
602.04	1839.85
602.39	1832.53
602.74	1825.55
603.08	1818.83
603.43	1812.19
603.78	1804.80
604.13	1797.60
604.48	1790.27
604.83	1783.50
605.18	1776.42
605.53	1768.43
605.87	1760.41
606.22	1753.26
606.57	1745.47
606.92	1738.31
607.27	1731.09
607.62	1724.14
607.96	1716.75
608.31	1710.24
608.66	1702.47
609.01	1694.95
609.36	1687.33
609.70	1679.29
610.05	1671.30
610.40	1663.60
610.75	1655.35
611.10	1647.76
611.44	1639.32
611.79	1631.35
612.14	1622.65
612.49	1613.56
612.83	1605.29
613.18	1597.24
613.53	1589.02
613.88	1580.35
614.22	1571.89
614.57	1563.30
614.92	1555.24
615.27	1547.63
615.61	1539.34
615.96	1531.39
616.31	1523.80
616.65	1516.42
617.00	1508.97
617.35	1501.33
617.70	1492.92
618.04	1484.30
618.39	1476.05
618.74	1468.52
619.08	1460.28
619.43	1452.70
619.78	1445.67
620.12	1438.47
620.47	1430.96
620.82	1422.90
621.16	1415.56
621.51	1407.98
621.85	1400.43
622.20	1391.97
622.55	1383.65
622.89	1375.72
623.24	1368.00
623.59	1360.55
623.93	1353.05
624.28	1345.75
624.62	1338.21
624.97	1331.14
625.32	1324.43
625.66	1317.39
626.01	1310.17
626.35	1302.68
626.70	1295.07
627.04	1287.44
627.39	1279.69
627.73	1272.33
628.08	1265.30
628.43	1257.95
628.77	1250.55
629.12	1242.95
629.46	1235.69
629.81	1228.37
630.15	1221.11
630.50	1213.73
630.84	1205.49
631.19	1197.66
631.53	1190.09
631.88	1182.47
632.22	1174.73
632.57	1167.43
632.91	1159.94
633.26	1152.52
633.60	1145.28
633.95	1138.13
634.29	1131.17
634.64	1124.44
634.98	1117.01
635.32	1109.92
635.67	1103.40
636.01	1096.83
636.36	1090.00
636.70	1083.56
637.05	1076.95
637.39	1070.52
637.73	1064.01
638.08	1058.23
638.42	1052.05
638.77	1045.69
639.11	1039.14
639.45	1032.88
639.80	1026.20
640.14	1019.76
640.49	1013.36
640.83	1006.94
641.17	1000.72
641.52	994.30
641.86	987.84
642.20	982.01
642.55	975.67
642.89	969.14
643.23	962.57
643.58	956.83
643.92	950.63
644.26	944.46
644.61	938.38
644.95	932.30
645.29	925.64
645.64	919.02
645.98	912.58
646.32	906.75
646.66	900.62
647.01	894.86
647.35	889.11
647.69	883.13
648.04	877.57
648.38	871.68
648.72	865.69
649.06	859.65
649.41	853.78
649.75	847.89
650.09	842.02
650.43	836.33
650.78	830.19
651.12	824.29
651.46	818.63
651.80	812.90
652.14	807.52
652.49	802.17
652.83	796.96
653.17	791.24
653.51	785.56
653.85	780.19
654.20	774.42
654.54	768.52
654.88	762.89
655.22	757.10
655.56	751.46
655.90	746.01
656.25	740.79
656.59	735.35
656.93	730.26
657.27	725.05
657.61	719.55
657.95	714.44
658.29	709.30
658.64	704.04
658.98	698.68
659.32	693.26
659.66	688.03
660.00	682.67
660.34	677.86
660.68	672.97
661.02	667.99
661.36	663.39
661.70	658.78
662.05	654.30
662.39	649.89
662.73	645.47
663.07	641.08
663.41	636.61
663.75	632.14
664.09	627.51
664.43	623.11
664.77	619.00
665.11	614.73
665.45	610.62
665.79	606.53
666.13	602.44
666.47	598.34
666.81	594.15
667.15	590.05
667.49	586.14
667.83	582.28
668.17	578.32
668.51	574.24
668.85	570.24
669.19	566.46
669.53	562.62
669.87	558.70
670.21	555.04
670.55	551.38
670.89	547.97
671.23	544.56
671.57	541.03
671.91	537.46
672.25	533.94
672.58	530.39
672.92	527.03
673.26	523.93
673.60	520.81
673.94	517.76
674.28	514.87
674.62	511.88
674.96	508.77
675.30	505.85
675.64	502.92
675.97	500.18
676.31	497.35
676.65	494.41
676.99	491.73
677.33	488.88
677.67	486.05
678.01	483.04
678.34	480.07
678.68	477.22
679.02	474.40
679.36	471.68
679.70	468.99
680.04	466.21
680.37	463.34
680.71	460.50
681.05	457.87
681.39	455.20
681.73	452.55
682.06	450.05
682.40	447.50
682.74	444.99
683.08	442.42
683.42	439.82
683.75	437.31
684.09	434.75
684.43	432.26
684.77	429.81
685.10	427.51
685.44	425.25
685.78	422.92
686.12	420.73
686.45	418.40
686.79	416.14
687.13	413.98
687.46	411.79
687.80	409.66
688.14	407.45
688.48	405.36
688.81	403.13
689.15	400.98
689.49	398.83
689.82	396.71
690.16	394.63
690.50	392.67
690.83	390.74
691.17	388.76
691.51	386.85
691.84	385.02
692.18	383.01
692.52	381.00
692.85	379.10
693.19	377.18
693.52	375.42
693.86	373.63
694.20	371.82
694.53	370.04
694.87	368.18
695.21	366.41
695.54	364.61
695.88	362.88
696.21	361.17
696.55	359.53
696.88	357.87
697.22	356.21
697.56	354.58
697.89	352.99
698.23	351.38
698.56	349.75
698.90	348.12
699.23	346.51
699.57	344.99
699.90	343.48
700.24	341.94
700.58	340.37
700.91	338.82
701.25	337.36
701.58	335.97
701.92	334.59
702.25	333.22
702.59	331.83
702.92	330.49
703.26	329.14
703.59	327.85
703.93	326.66
704.26	325.42
704.60	324.10
704.93	322.79
705.26	321.54
705.60	320.36
705.93	319.26
706.27	318.25
706.60	317.14
706.94	316.01
707.27	314.90
707.61	313.80
707.94	312.75
708.27	311.66
708.61	310.61
708.94	309.61
709.28	308.57
709.61	307.59
709.94	306.63
710.28	305.58
710.61	304.58
710.95	303.49
711.28	302.52
711.61	301.60
711.95	300.70
712.28	299.79
712.61	298.79
712.95	297.82
713.28	296.90
713.61	295.99
713.95	295.11
714.28	294.23
714.61	293.39
714.95	292.55
715.28	291.69
715.61	290.77
715.95	289.93
716.28	289.11
716.61	288.31
716.95	287.54
717.28	286.87
717.61	286.11
717.94	285.38
718.28	284.62
718.61	283.89
718.94	283.15
719.27	282.45
719.61	281.86
719.94	281.18
720.27	280.50
720.60	279.87
720.94	279.22
721.27	278.65
721.60	278.08
721.93	277.49
722.27	276.93
722.60	276.42
722.93	275.80
723.26	275.25
723.59	274.69
723.93	274.12
724.26	273.56
724.59	273.00
724.92	272.47
725.25	271.97
725.59	271.43
725.92	270.95
726.25	270.45
726.58	269.91
726.91	269.46
727.24	268.96
727.57	268.47
727.91	267.99
728.24	267.50
728.57	267.00
728.90	266.55
729.23	266.07
729.56	265.62
729.89	265.19
730.22	264.72
730.55	264.24
730.89	263.77
731.22	263.31
731.55	262.86
731.88	262.46
732.21	262.05
732.54	261.61
732.87	261.18
733.20	260.76
733.53	260.38
733.86	259.99
734.19	259.62
734.52	259.24
734.85	258.93
735.18	258.54
735.51	258.18
735.84	257.84
736.17	257.46
736.50	257.07
736.83	256.80
737.16	256.51
737.49	256.19
737.82	255.87
738.15	255.57
738.48	255.24
738.81	254.89
739.14	254.54
739.47	254.24
739.80	253.97
740.13	253.69
740.46	253.37
740.79	253.05
741.12	252.73
741.45	252.38
741.78	252.03
742.11	251.76
742.44	251.43
742.77	251.15
743.10	250.88
743.43	250.57
743.75	250.21
744.08	250.05
744.41	249.77
744.74	249.48
745.07	249.18
745.40	248.97
745.73	248.76
746.06	248.50
746.39	248.24
746.71	247.97
747.04	247.68
747.37	247.45
747.70	247.23
748.03	246.99
748.36	246.79
748.68	246.57
749.01	246.30
749.34	246.11
749.67	245.85
750.00	245.63
750.33	245.48
750.65	245.29
750.98	244.94
751.31	244.73
751.64	244.54
751.97	244.38
752.29	244.16
752.62	243.90
752.95	243.68
753.28	243.49
753.60	243.26
753.93	243.08
754.26	242.88
754.59	242.64
754.91	242.44
755.24	242.24
755.57	242.03
755.90	241.89
756.22	241.66
756.55	241.47
756.88	241.28
757.20	241.07
757.53	240.85
757.86	240.66
758.19	240.50
758.51	240.32
758.84	240.09
759.17	239.88
759.49	239.74
759.82	239.66
760.15	239.53
760.47	239.37
760.80	239.19
761.13	239.06
761.45	238.92
761.78	238.77
762.11	238.63
762.43	238.51
762.76	238.37
763.08	238.27
763.41	238.13
763.74	238.02
764.06	237.89
764.39	237.77
764.71	237.64
765.04	237.51
765.37	237.38
765.69	237.27
766.02	237.17
766.34	237.01
766.67	236.85
767.00	236.72
767.32	236.67
767.65	236.65
767.97	236.51
768.30	236.39
768.62	236.30
768.95	236.17
769.27	236.02
769.60	235.92
769.92	235.80
770.25	235.68
770.57	235.58
770.90	235.45
771.22	235.33
771.55	235.25
771.87	235.17
772.20	235.08
772.52	235.10
772.85	235.09
773.17	235.02
773.50	234.93
773.82	234.78
774.15	234.65
774.47	234.47
774.80	234.39
775.12	234.27
775.45	234.21
775.77	234.15
776.09	234.06
776.42	233.98
776.74	233.91
777.07	233.83
777.39	233.75
777.72	233.68
778.04	233.65
778.36	233.55
778.69	233.45
779.01	233.38
779.33	233.21
779.66	233.03
779.98	233.00
780.31	232.94
780.63	232.94
780.95	232.89
781.28	232.83
781.60	232.77
781.92	232.73
782.25	232.63
782.57	232.55
782.89	232.51
783.22	232.42
783.54	232.36
783.86	232.31
784.19	232.21
784.51	232.19
784.83	232.09
785.16	232.05
785.48	232.00
785.80	231.97
786.12	231.91
786.45	231.84
786.77	231.75
787.09	231.65
