SpectraSuite Data File
++++++++++++++++++++++++++++++++++++
Date: Fri Feb 01 16:02:48 EST 2013
User: group
Dark Spectrum Present: No
Reference Spectrum Present: No
Number of Sampled Component Spectra: 1
Spectrometers: USB2E7196
Integration Time (usec): 35000 (USB2E7196)
Spectra Averaged: 100 (USB2E7196)
Boxcar Smoothing: 10 (USB2E7196)
Correct for Electrical Dark: No (USB2E7196)
Strobe/Lamp Enabled: No (USB2E7196)
Correct for Detector Non-linearity: No (USB2E7196)
Correct for Stray Light: No (USB2E7196)
Number of Pixels in Processed Spectrum: 2048
>>>>>Begin Processed Spectral Data<<<<<
339.09	0.00
339.48	214.47
339.86	216.64
340.24	217.60
340.63	219.38
341.01	221.89
341.39	221.84
341.78	223.12
342.16	223.55
342.54	223.84
342.93	212.99
343.31	223.76
343.69	224.29
344.07	224.72
344.46	225.12
344.84	225.45
345.22	225.65
345.60	225.88
345.99	226.02
346.37	226.15
346.75	226.25
347.13	226.31
347.52	226.35
347.90	226.43
348.28	226.44
348.66	226.44
349.05	226.45
349.43	226.49
349.81	226.52
350.19	226.56
350.57	226.60
350.96	226.68
351.34	226.73
351.72	226.81
352.10	226.88
352.48	226.95
352.87	227.03
353.25	227.12
353.63	227.18
354.01	227.27
354.39	227.36
354.77	227.46
355.15	227.51
355.54	227.59
355.92	227.61
356.30	227.73
356.68	227.87
357.06	227.95
357.44	228.00
357.82	228.06
358.20	228.13
358.58	228.18
358.97	228.23
359.35	228.32
359.73	228.42
360.11	228.49
360.49	228.54
360.87	228.56
361.25	228.61
361.63	228.68
362.01	228.74
362.39	228.77
362.77	228.84
363.15	228.90
363.53	228.92
363.91	228.96
364.29	228.99
364.67	228.95
365.05	228.97
365.43	229.01
365.81	229.05
366.19	229.11
366.57	229.16
366.95	229.17
367.33	229.14
367.71	229.16
368.09	229.19
368.47	229.17
368.85	229.20
369.23	229.21
369.61	229.20
369.99	229.19
370.37	229.20
370.75	229.21
371.13	229.17
371.51	229.13
371.89	229.12
372.27	229.08
372.65	229.05
373.03	229.02
373.41	228.97
373.78	228.89
374.16	228.78
374.54	228.70
374.92	228.65
375.30	228.60
375.68	228.50
376.06	228.46
376.44	228.43
376.82	228.36
377.19	228.29
377.57	228.22
377.95	228.14
378.33	228.05
378.71	227.93
379.09	227.87
379.47	227.83
379.84	227.73
380.22	227.63
380.60	227.54
380.98	227.44
381.36	227.36
381.73	227.30
382.11	227.27
382.49	227.21
382.87	227.13
383.25	227.05
383.62	227.09
384.00	226.96
384.38	226.91
384.76	226.86
385.13	226.84
385.51	226.77
385.89	226.70
386.27	226.66
386.64	226.63
387.02	226.57
387.40	226.51
387.78	226.50
388.15	226.48
388.53	226.40
388.91	226.40
389.29	226.37
389.66	226.38
390.04	226.32
390.42	226.31
390.79	226.28
391.17	226.28
391.55	226.15
391.92	226.15
392.30	226.13
392.68	226.09
393.05	226.08
393.43	226.06
393.81	226.03
394.18	226.05
394.56	226.03
394.94	226.08
395.31	226.09
395.69	226.12
396.06	226.16
396.44	226.22
396.82	226.25
397.19	226.33
397.57	226.35
397.95	226.41
398.32	226.45
398.70	226.54
399.07	226.60
399.45	226.68
399.82	226.75
400.20	226.79
400.58	226.87
400.95	226.91
401.33	227.02
401.70	227.16
402.08	227.23
402.45	227.31
402.83	227.40
403.20	227.50
403.58	227.59
403.95	227.70
404.33	227.82
404.71	227.92
405.08	228.07
405.46	228.18
405.83	228.32
406.21	228.43
406.58	228.58
406.96	228.74
407.33	228.92
407.70	229.11
408.08	229.40
408.45	229.62
408.83	229.86
409.20	230.07
409.58	230.28
409.95	230.56
410.33	230.83
410.70	231.09
411.08	231.39
411.45	231.68
411.82	232.00
412.20	232.34
412.57	232.77
412.95	233.10
413.32	233.55
413.69	233.97
414.07	234.45
414.44	234.92
414.82	235.42
415.19	236.01
415.56	236.57
415.94	237.11
416.31	237.77
416.68	238.41
417.06	239.15
417.43	239.85
417.81	240.61
418.18	241.41
418.55	242.22
418.93	243.13
419.30	244.10
419.67	245.03
420.04	246.00
420.42	246.99
420.79	248.13
421.16	249.27
421.54	250.47
421.91	251.70
422.28	252.93
422.66	254.27
423.03	255.54
423.40	256.89
423.77	258.35
424.15	259.75
424.52	261.26
424.89	262.86
425.26	264.44
425.64	265.89
426.01	267.51
426.38	269.18
426.75	270.89
427.13	272.57
427.50	274.40
427.87	276.30
428.24	278.14
428.61	279.91
428.99	281.87
429.36	283.97
429.73	286.04
430.10	288.13
430.47	290.18
430.85	292.29
431.22	294.51
431.59	296.88
431.96	299.12
432.33	301.57
432.70	303.93
433.08	306.69
433.45	309.33
433.82	311.90
434.19	314.78
434.56	317.56
434.93	320.25
435.30	322.88
435.68	325.77
436.05	328.63
436.42	331.39
436.79	333.88
437.16	336.57
437.53	339.40
437.90	342.15
438.27	344.88
438.64	347.74
439.01	350.32
439.38	352.54
439.75	354.71
440.13	357.17
440.50	359.54
440.87	361.40
441.24	363.33
441.61	365.48
441.98	366.95
442.35	368.72
442.72	370.58
443.09	372.32
443.46	373.29
443.83	373.88
444.20	374.39
444.57	375.25
444.94	375.48
445.31	375.77
445.68	376.14
446.05	376.21
446.42	375.78
446.79	375.36
447.16	374.89
447.53	374.57
447.90	373.44
448.27	372.24
448.64	370.62
449.01	369.47
449.37	367.49
449.74	365.60
450.11	363.35
450.48	360.85
450.85	358.34
451.22	356.17
451.59	354.14
451.96	352.20
452.33	349.55
452.70	347.25
453.07	344.44
453.43	341.48
453.80	338.73
454.17	336.07
454.54	333.53
454.91	330.82
455.28	328.15
455.65	325.64
456.02	323.21
456.38	321.07
456.75	318.42
457.12	316.17
457.49	313.94
457.86	311.79
458.23	309.92
458.59	307.89
458.96	305.86
459.33	304.00
459.70	302.15
460.07	300.70
460.43	298.94
460.80	297.32
461.17	295.94
461.54	294.45
461.91	293.04
462.27	291.58
462.64	290.34
463.01	288.98
463.38	287.73
463.74	286.35
464.11	285.20
464.48	284.19
464.85	283.11
465.21	282.23
465.58	281.31
465.95	280.25
466.32	279.35
466.68	278.40
467.05	277.53
467.42	276.65
467.78	275.71
468.15	274.86
468.52	274.21
468.88	273.36
469.25	272.59
469.62	271.96
469.98	271.31
470.35	270.68
470.72	270.12
471.08	269.48
471.45	268.98
471.82	268.44
472.18	267.84
472.55	267.43
472.92	266.95
473.28	266.47
473.65	266.01
474.02	265.57
474.38	265.24
474.75	264.90
475.11	264.60
475.48	264.30
475.85	264.08
476.21	263.85
476.58	263.65
476.94	263.53
477.31	263.36
477.67	263.20
478.04	263.08
478.41	263.03
478.77	263.05
479.14	263.00
479.50	263.01
479.87	263.13
480.23	263.22
480.60	263.24
480.96	263.34
481.33	263.55
481.69	263.71
482.06	263.90
482.42	264.11
482.79	264.31
483.15	264.67
483.52	265.07
483.88	265.41
484.25	265.81
484.61	266.19
484.98	266.63
485.34	267.21
485.71	267.78
486.07	268.36
486.44	268.90
486.80	269.59
487.17	270.34
487.53	271.12
487.90	271.95
488.26	272.93
488.62	273.95
488.99	274.93
489.35	276.01
489.72	277.12
490.08	278.31
490.44	279.56
490.81	280.84
491.17	282.14
491.54	283.59
491.90	285.15
492.26	286.82
492.63	288.55
492.99	290.27
493.36	292.18
493.72	294.20
494.08	296.37
494.45	298.61
494.81	301.03
495.17	303.39
495.54	305.95
495.90	308.61
496.26	311.37
496.63	314.34
496.99	317.47
497.35	320.75
497.72	324.13
498.08	327.68
498.44	331.39
498.80	335.35
499.17	339.42
499.53	343.54
499.89	347.91
500.26	352.45
500.62	357.15
500.98	362.14
501.34	367.29
501.71	372.59
502.07	378.03
502.43	383.64
502.79	389.49
503.16	395.57
503.52	401.85
503.88	408.28
504.24	414.93
504.60	421.80
504.97	428.93
505.33	436.33
505.69	444.02
506.05	451.83
506.41	459.72
506.78	467.85
507.14	476.33
507.50	485.09
507.86	494.15
508.22	503.37
508.59	512.59
508.95	522.20
509.31	532.05
509.67	542.10
510.03	552.42
510.39	563.02
510.75	573.82
511.12	584.81
511.48	596.09
511.84	607.63
512.20	619.14
512.56	631.11
512.92	643.31
513.28	655.67
513.64	668.13
514.00	680.91
514.37	693.97
514.73	707.07
515.09	720.05
515.45	733.36
515.81	747.00
516.17	761.06
516.53	775.10
516.89	789.25
517.25	803.53
517.61	817.89
517.97	832.34
518.33	846.78
518.69	861.51
519.05	876.46
519.41	891.54
519.77	907.06
520.13	922.43
520.49	937.74
520.85	953.16
521.21	968.92
521.57	985.04
521.93	1000.70
522.29	1017.03
522.65	1033.22
523.01	1049.38
523.37	1065.41
523.73	1081.48
524.09	1097.53
524.45	1113.76
524.81	1130.35
525.17	1147.14
525.53	1164.08
525.89	1180.93
526.25	1197.69
526.61	1214.04
526.97	1230.79
527.33	1247.23
527.68	1263.90
528.04	1280.37
528.40	1296.91
528.76	1313.82
529.12	1330.36
529.48	1347.22
529.84	1363.25
530.20	1379.95
530.56	1396.99
530.91	1414.35
531.27	1431.04
531.63	1447.43
531.99	1463.94
532.35	1479.83
532.71	1495.68
533.07	1511.81
533.42	1527.61
533.78	1543.69
534.14	1560.03
534.50	1575.42
534.86	1591.25
535.21	1606.26
535.57	1622.15
535.93	1637.57
536.29	1652.27
536.65	1667.29
537.00	1682.03
537.36	1697.28
537.72	1711.68
538.08	1726.04
538.44	1739.71
538.79	1753.60
539.15	1767.36
539.51	1781.11
539.87	1795.46
540.22	1809.16
540.58	1822.89
540.94	1836.29
541.29	1849.00
541.65	1861.68
542.01	1874.69
542.37	1887.01
542.72	1899.53
543.08	1911.27
543.44	1923.72
543.79	1934.98
544.15	1945.99
544.51	1957.52
544.87	1968.56
545.22	1979.32
545.58	1989.47
545.94	1999.21
546.29	2009.15
546.65	2018.85
547.01	2028.11
547.36	2036.79
547.72	2045.28
548.07	2053.11
548.43	2061.23
548.79	2069.33
549.14	2076.76
549.50	2084.09
549.86	2091.82
550.21	2099.06
550.57	2106.24
550.92	2112.69
551.28	2119.83
551.64	2126.81
551.99	2133.25
552.35	2139.27
552.70	2145.50
553.06	2151.32
553.41	2157.66
553.77	2163.54
554.13	2169.67
554.48	2175.86
554.84	2181.32
555.19	2186.60
555.55	2191.81
555.90	2196.35
556.26	2201.16
556.61	2206.05
556.97	2210.29
557.32	2214.33
557.68	2218.51
558.03	2222.81
558.39	2226.49
558.74	2231.05
559.10	2234.99
559.45	2238.89
559.81	2243.25
560.16	2247.08
560.52	2250.53
560.87	2253.95
561.23	2256.70
561.58	2259.70
561.94	2262.30
562.29	2264.56
562.64	2267.23
563.00	2269.71
563.35	2273.10
563.71	2276.26
564.06	2279.44
564.42	2282.35
564.77	2284.85
565.12	2287.07
565.48	2289.01
565.83	2291.07
566.19	2292.45
566.54	2293.46
566.89	2294.29
567.25	2294.81
567.60	2296.11
567.96	2297.74
568.31	2298.68
568.66	2299.80
569.02	2300.29
569.37	2300.40
569.72	2301.32
570.08	2301.39
570.43	2301.58
570.78	2300.99
571.14	2299.53
571.49	2298.16
571.84	2297.85
572.20	2296.81
572.55	2295.90
572.90	2294.34
573.26	2292.92
573.61	2291.25
573.96	2289.41
574.31	2286.59
574.67	2283.70
575.02	2280.14
575.37	2276.86
575.72	2273.04
576.08	2269.62
576.43	2266.41
576.78	2262.83
577.13	2259.67
577.49	2256.73
577.84	2253.07
578.19	2249.51
578.54	2245.84
578.90	2241.50
579.25	2235.90
579.60	2230.89
579.95	2225.85
580.30	2220.85
580.66	2215.71
581.01	2210.84
581.36	2205.95
581.71	2201.79
582.06	2197.24
582.42	2192.81
582.77	2187.55
583.12	2183.13
583.47	2178.38
583.82	2173.33
584.17	2168.15
584.53	2162.78
584.88	2157.08
585.23	2151.45
585.58	2145.82
585.93	2140.33
586.28	2135.64
586.63	2130.66
586.98	2125.59
587.34	2120.83
587.69	2115.89
588.04	2110.56
588.39	2104.76
588.74	2098.27
589.09	2092.04
589.44	2085.25
589.79	2079.25
590.14	2073.56
590.49	2066.86
590.84	2060.37
591.19	2054.35
591.54	2047.87
591.89	2040.38
592.25	2033.58
592.60	2026.37
592.95	2018.85
593.30	2011.56
593.65	2004.10
594.00	1997.08
594.35	1989.84
594.70	1981.92
595.05	1974.72
595.40	1967.42
595.75	1960.02
596.10	1953.83
596.45	1947.17
596.80	1941.07
597.15	1934.40
597.50	1927.33
597.85	1920.98
598.19	1914.53
598.54	1907.40
598.89	1900.77
599.24	1895.04
599.59	1888.41
599.94	1882.26
600.29	1875.98
600.64	1869.47
600.99	1861.96
601.34	1855.14
601.69	1848.41
602.04	1841.43
602.39	1834.10
602.74	1827.27
603.08	1820.56
603.43	1813.85
603.78	1806.59
604.13	1799.28
604.48	1791.93
604.83	1785.11
605.18	1778.00
605.53	1769.93
605.87	1762.06
606.22	1754.84
606.57	1746.74
606.92	1739.38
607.27	1732.16
607.62	1725.19
607.96	1717.88
608.31	1711.24
608.66	1703.65
609.01	1695.99
609.36	1688.48
609.70	1680.48
610.05	1672.45
610.40	1664.63
610.75	1656.28
611.10	1648.54
611.44	1640.30
611.79	1632.39
612.14	1623.64
612.49	1614.57
612.83	1606.27
613.18	1598.11
613.53	1590.00
613.88	1581.50
614.22	1573.10
614.57	1564.46
614.92	1556.41
615.27	1548.88
615.61	1540.58
615.96	1532.52
616.31	1524.75
616.65	1517.38
617.00	1509.87
617.35	1502.20
617.70	1493.97
618.04	1485.52
618.39	1477.35
618.74	1469.64
619.08	1461.30
619.43	1453.69
619.78	1446.72
620.12	1439.43
620.47	1431.82
620.82	1423.61
621.16	1416.25
621.51	1408.81
621.85	1401.13
622.20	1392.54
622.55	1384.06
622.89	1376.14
623.24	1368.55
623.59	1361.23
623.93	1353.66
624.28	1346.33
624.62	1338.81
624.97	1331.55
625.32	1324.85
625.66	1317.86
626.01	1310.67
626.35	1303.26
626.70	1295.57
627.04	1287.82
627.39	1280.09
627.73	1272.77
628.08	1265.88
628.43	1258.52
628.77	1251.15
629.12	1243.60
629.46	1236.55
629.81	1229.25
630.15	1221.99
630.50	1214.55
630.84	1206.34
631.19	1198.47
631.53	1191.03
631.88	1183.48
632.22	1175.85
632.57	1168.40
632.91	1160.74
633.26	1153.35
633.60	1145.92
633.95	1138.90
634.29	1131.93
634.64	1125.32
634.98	1117.92
635.32	1110.81
635.67	1104.23
636.01	1097.53
636.36	1090.75
636.70	1084.13
637.05	1077.56
637.39	1071.13
637.73	1064.60
638.08	1058.68
638.42	1052.60
638.77	1046.12
639.11	1039.46
639.45	1033.01
639.80	1026.46
640.14	1020.14
640.49	1013.64
640.83	1007.31
641.17	1000.96
641.52	994.52
641.86	988.08
642.20	982.16
642.55	975.86
642.89	969.33
643.23	962.69
643.58	957.05
643.92	950.86
644.26	944.71
644.61	938.72
644.95	932.67
645.29	926.08
645.64	919.34
645.98	912.90
646.32	907.14
646.66	901.14
647.01	895.31
647.35	889.55
647.69	883.77
648.04	878.29
648.38	872.53
648.72	866.53
649.06	860.40
649.41	854.62
649.75	848.65
650.09	842.75
650.43	837.06
650.78	830.83
651.12	824.92
651.46	819.27
651.80	813.43
652.14	808.09
652.49	802.78
652.83	797.63
653.17	791.99
653.51	786.22
653.85	780.77
654.20	775.07
654.54	769.10
654.88	763.29
655.22	757.37
655.56	751.70
655.90	746.31
656.25	741.12
656.59	735.73
656.93	730.64
657.27	725.45
657.61	720.05
657.95	714.92
658.29	709.84
658.64	704.55
658.98	699.28
659.32	693.80
659.66	688.62
660.00	683.31
660.34	678.32
660.68	673.39
661.02	668.44
661.36	663.81
661.70	659.30
662.05	654.91
662.39	650.61
662.73	646.13
663.07	641.74
663.41	637.27
663.75	632.69
664.09	628.09
664.43	623.73
664.77	619.59
665.11	615.32
665.45	611.17
665.79	607.10
666.13	602.96
666.47	598.88
666.81	594.67
667.15	590.49
667.49	586.66
667.83	582.83
668.17	578.87
668.51	574.71
668.85	570.68
669.19	566.86
669.53	562.95
669.87	559.02
670.21	555.23
670.55	551.51
670.89	548.13
671.23	544.64
671.57	541.07
671.91	537.46
672.25	534.02
672.58	530.51
672.92	527.05
673.26	523.92
673.60	520.68
673.94	517.51
674.28	514.64
674.62	511.67
674.96	508.58
675.30	505.66
675.64	502.71
675.97	499.96
676.31	497.08
676.65	494.15
676.99	491.47
677.33	488.67
677.67	485.86
678.01	482.74
678.34	479.81
678.68	476.93
679.02	474.11
679.36	471.33
679.70	468.62
680.04	465.87
680.37	462.95
680.71	460.22
681.05	457.57
681.39	454.86
681.73	452.19
682.06	449.67
682.40	447.14
682.74	444.60
683.08	442.01
683.42	439.39
683.75	436.94
684.09	434.36
684.43	431.90
684.77	429.47
685.10	427.18
685.44	424.85
685.78	422.54
686.12	420.33
686.45	418.03
686.79	415.70
687.13	413.53
687.46	411.40
687.80	409.28
688.14	407.17
688.48	405.10
688.81	402.81
689.15	400.69
689.49	398.53
689.82	396.48
690.16	394.37
690.50	392.48
690.83	390.52
691.17	388.59
691.51	386.71
691.84	384.84
692.18	382.94
692.52	380.93
692.85	379.02
693.19	377.11
693.52	375.31
693.86	373.50
694.20	371.74
694.53	369.94
694.87	368.04
695.21	366.22
695.54	364.41
695.88	362.74
696.21	361.03
696.55	359.37
696.88	357.65
697.22	356.03
697.56	354.40
697.89	352.74
698.23	351.13
698.56	349.51
698.90	347.91
699.23	346.25
699.57	344.77
699.90	343.27
700.24	341.73
700.58	340.19
700.91	338.70
701.25	337.27
701.58	335.88
701.92	334.50
702.25	333.12
702.59	331.71
702.92	330.38
703.26	329.07
703.59	327.78
703.93	326.62
704.26	325.41
704.60	324.10
704.93	322.83
705.26	321.55
705.60	320.37
705.93	319.22
706.27	318.18
706.60	317.10
706.94	315.99
707.27	314.87
707.61	313.83
707.94	312.81
708.27	311.70
708.61	310.63
708.94	309.65
709.28	308.65
709.61	307.68
709.94	306.72
710.28	305.67
710.61	304.69
710.95	303.57
711.28	302.60
711.61	301.66
711.95	300.71
712.28	299.72
712.61	298.72
712.95	297.82
713.28	296.96
713.61	296.03
713.95	295.14
714.28	294.31
714.61	293.40
714.95	292.53
715.28	291.63
715.61	290.71
715.95	289.83
716.28	289.00
716.61	288.18
716.95	287.38
717.28	286.68
717.61	285.88
717.94	285.17
718.28	284.32
718.61	283.59
718.94	282.94
719.27	282.33
719.61	281.68
719.94	281.00
720.27	280.28
720.60	279.64
720.94	279.01
721.27	278.42
721.60	277.88
721.93	277.25
722.27	276.69
722.60	276.22
722.93	275.64
723.26	275.12
723.59	274.61
723.93	274.04
724.26	273.45
724.59	272.95
724.92	272.41
725.25	271.96
725.59	271.46
725.92	270.91
726.25	270.39
726.58	269.93
726.91	269.45
727.24	268.99
727.57	268.55
727.91	268.06
728.24	267.55
728.57	267.07
728.90	266.62
729.23	266.19
729.56	265.72
729.89	265.27
730.22	264.76
730.55	264.26
730.89	263.82
731.22	263.40
731.55	262.95
731.88	262.57
732.21	262.12
732.54	261.67
732.87	261.28
733.20	260.86
733.53	260.46
733.86	260.08
734.19	259.68
734.52	259.30
734.85	259.00
735.18	258.61
735.51	258.22
735.84	257.89
736.17	257.51
736.50	257.10
736.83	256.88
737.16	256.53
737.49	256.21
737.82	255.86
738.15	255.52
738.48	255.16
738.81	254.84
739.14	254.50
739.47	254.20
739.80	253.88
740.13	253.63
740.46	253.30
740.79	252.99
741.12	252.69
741.45	252.36
741.78	252.02
742.11	251.74
742.44	251.46
742.77	251.16
743.10	250.89
743.43	250.62
743.75	250.25
744.08	250.16
744.41	249.87
744.74	249.60
745.07	249.32
745.40	249.08
745.73	248.84
746.06	248.61
746.39	248.35
746.71	248.07
747.04	247.77
747.37	247.47
747.70	247.19
748.03	246.91
748.36	246.70
748.68	246.46
749.01	246.19
749.34	245.91
749.67	245.66
750.00	245.38
750.33	245.21
750.65	244.99
750.98	244.63
751.31	244.41
751.64	244.23
751.97	244.10
752.29	243.88
752.62	243.63
752.95	243.38
753.28	243.11
753.60	242.95
753.93	242.74
754.26	242.59
754.59	242.36
754.91	242.17
755.24	241.95
755.57	241.77
755.90	241.59
756.22	241.45
756.55	241.26
756.88	241.09
757.20	240.86
757.53	240.63
757.86	240.46
758.19	240.29
758.51	240.08
758.84	239.82
759.17	239.65
759.49	239.50
759.82	239.46
760.15	239.33
760.47	239.18
760.80	239.00
761.13	238.83
761.45	238.71
761.78	238.57
762.11	238.44
762.43	238.25
762.76	238.09
763.08	237.92
763.41	237.80
763.74	237.67
764.06	237.59
764.39	237.47
764.71	237.34
765.04	237.21
765.37	237.07
765.69	236.97
766.02	236.85
766.34	236.74
766.67	236.54
767.00	236.47
767.32	236.38
767.65	236.34
767.97	236.26
768.30	236.15
768.62	236.02
768.95	235.88
769.27	235.79
769.60	235.71
769.92	235.58
770.25	235.46
770.57	235.32
770.90	235.16
771.22	235.07
771.55	234.98
771.87	234.89
772.20	234.78
772.52	234.76
772.85	234.79
773.17	234.68
773.50	234.57
773.82	234.45
774.15	234.29
774.47	234.13
774.80	234.00
775.12	233.93
775.45	233.86
775.77	233.78
776.09	233.70
776.42	233.60
776.74	233.58
777.07	233.51
777.39	233.45
777.72	233.39
778.04	233.32
778.36	233.19
778.69	233.14
779.01	233.10
779.33	232.94
779.66	232.76
779.98	232.66
780.31	232.60
780.63	232.58
780.95	232.57
781.28	232.52
781.60	232.51
781.92	232.44
782.25	232.35
782.57	232.32
782.89	232.24
783.22	232.18
783.54	232.09
783.86	232.04
784.19	232.00
784.51	231.99
784.83	231.92
785.16	231.88
785.48	231.77
785.80	231.75
786.12	231.71
786.45	231.69
786.77	231.65
787.09	231.64
