SpectraSuite Data File
++++++++++++++++++++++++++++++++++++
Date: Fri Feb 01 15:34:50 EST 2013
User: group
Dark Spectrum Present: No
Reference Spectrum Present: No
Number of Sampled Component Spectra: 1
Spectrometers: USB2E7196
Integration Time (usec): 35000 (USB2E7196)
Spectra Averaged: 100 (USB2E7196)
Boxcar Smoothing: 10 (USB2E7196)
Correct for Electrical Dark: No (USB2E7196)
Strobe/Lamp Enabled: No (USB2E7196)
Correct for Detector Non-linearity: No (USB2E7196)
Correct for Stray Light: No (USB2E7196)
Number of Pixels in Processed Spectrum: 2048
>>>>>Begin Processed Spectral Data<<<<<
339.09	0.00
339.48	215.11
339.86	216.30
340.24	217.84
340.63	219.34
341.01	222.44
341.39	222.23
341.78	223.13
342.16	224.93
342.54	224.09
342.93	213.34
343.31	224.12
343.69	224.67
344.07	225.12
344.46	225.56
344.84	225.93
345.22	226.15
345.60	226.37
345.99	226.56
346.37	226.66
346.75	226.80
347.13	226.92
347.52	226.99
347.90	227.09
348.28	227.15
348.66	227.17
349.05	227.16
349.43	227.19
349.81	227.21
350.19	227.23
350.57	227.27
350.96	227.32
351.34	227.39
351.72	227.45
352.10	227.58
352.48	227.64
352.87	227.67
353.25	227.73
353.63	227.79
354.01	227.87
354.39	227.93
354.77	228.02
355.15	228.06
355.54	228.11
355.92	228.15
356.30	228.17
356.68	228.29
357.06	228.35
357.44	228.41
357.82	228.45
358.20	228.52
358.58	228.60
358.97	228.66
359.35	228.75
359.73	228.84
360.11	228.88
360.49	228.94
360.87	228.99
361.25	229.03
361.63	229.13
362.01	229.16
362.39	229.22
362.77	229.26
363.15	229.30
363.53	229.31
363.91	229.36
364.29	229.41
364.67	229.32
365.05	229.36
365.43	229.38
365.81	229.39
366.19	229.47
366.57	229.52
366.95	229.53
367.33	229.49
367.71	229.45
368.09	229.44
368.47	229.43
368.85	229.41
369.23	229.42
369.61	229.33
369.99	229.31
370.37	229.28
370.75	229.25
371.13	229.20
371.51	229.16
371.89	229.09
372.27	229.05
372.65	229.01
373.03	228.95
373.41	228.89
373.78	228.83
374.16	228.72
374.54	228.62
374.92	228.55
375.30	228.48
375.68	228.40
376.06	228.31
376.44	228.23
376.82	228.17
377.19	228.11
377.57	228.04
377.95	227.97
378.33	227.89
378.71	227.76
379.09	227.68
379.47	227.64
379.84	227.58
380.22	227.49
380.60	227.43
380.98	227.37
381.36	227.29
381.73	227.22
382.11	227.17
382.49	227.13
382.87	227.05
383.25	227.02
383.62	227.09
384.00	227.04
384.38	227.01
384.76	226.99
385.13	226.95
385.51	226.91
385.89	226.83
386.27	226.80
386.64	226.78
387.02	226.76
387.40	226.70
387.78	226.65
388.15	226.64
388.53	226.59
388.91	226.54
389.29	226.53
389.66	226.52
390.04	226.49
390.42	226.47
390.79	226.45
391.17	226.44
391.55	226.30
391.92	226.31
392.30	226.29
392.68	226.27
393.05	226.26
393.43	226.26
393.81	226.27
394.18	226.27
394.56	226.29
394.94	226.32
395.31	226.31
395.69	226.37
396.06	226.39
396.44	226.41
396.82	226.45
397.19	226.53
397.57	226.57
397.95	226.62
398.32	226.62
398.70	226.69
399.07	226.74
399.45	226.80
399.82	226.85
400.20	226.90
400.58	226.95
400.95	227.01
401.33	227.13
401.70	227.30
402.08	227.40
402.45	227.49
402.83	227.62
403.20	227.76
403.58	227.86
403.95	227.99
404.33	228.14
404.71	228.28
405.08	228.45
405.46	228.60
405.83	228.79
406.21	228.94
406.58	229.07
406.96	229.23
407.33	229.43
407.70	229.61
408.08	229.87
408.45	230.10
408.83	230.34
409.20	230.56
409.58	230.72
409.95	230.98
410.33	231.26
410.70	231.45
411.08	231.73
411.45	232.03
411.82	232.37
412.20	232.73
412.57	233.15
412.95	233.46
413.32	233.86
413.69	234.22
414.07	234.70
414.44	235.19
414.82	235.66
415.19	236.22
415.56	236.78
415.94	237.35
416.31	237.96
416.68	238.56
417.06	239.29
417.43	239.96
417.81	240.75
418.18	241.51
418.55	242.38
418.93	243.26
419.30	244.17
419.67	245.07
420.04	246.02
420.42	247.00
420.79	248.17
421.16	249.32
421.54	250.51
421.91	251.72
422.28	252.96
422.66	254.29
423.03	255.60
423.40	256.93
423.77	258.34
424.15	259.81
424.52	261.29
424.89	262.87
425.26	264.47
425.64	265.91
426.01	267.53
426.38	269.17
426.75	270.86
427.13	272.56
427.50	274.37
427.87	276.26
428.24	278.12
428.61	279.86
428.99	281.80
429.36	283.91
429.73	285.97
430.10	288.02
430.47	290.12
430.85	292.25
431.22	294.52
431.59	296.89
431.96	299.12
432.33	301.63
432.70	304.02
433.08	306.82
433.45	309.49
433.82	312.07
434.19	314.98
434.56	317.79
434.93	320.48
435.30	323.12
435.68	325.99
436.05	328.81
436.42	331.60
436.79	334.19
437.16	336.87
437.53	339.72
437.90	342.54
438.27	345.34
438.64	348.15
439.01	350.70
439.38	352.96
439.75	355.13
440.13	357.65
440.50	360.02
440.87	361.83
441.24	363.78
441.61	365.94
441.98	367.42
442.35	369.24
442.72	371.11
443.09	372.95
443.46	373.97
443.83	374.57
444.20	375.08
444.57	375.86
444.94	376.17
445.31	376.46
445.68	376.80
446.05	376.79
446.42	376.38
446.79	376.02
447.16	375.58
447.53	375.28
447.90	374.07
448.27	372.88
448.64	371.30
449.01	370.11
449.37	368.16
449.74	366.27
450.11	364.00
450.48	361.47
450.85	358.87
451.22	356.72
451.59	354.65
451.96	352.73
452.33	350.08
452.70	347.73
453.07	344.91
453.43	342.02
453.80	339.24
454.17	336.60
454.54	334.03
454.91	331.29
455.28	328.58
455.65	326.08
456.02	323.62
456.38	321.47
456.75	318.80
457.12	316.52
457.49	314.31
457.86	312.14
458.23	310.30
458.59	308.30
458.96	306.21
459.33	304.39
459.70	302.49
460.07	301.03
460.43	299.28
460.80	297.65
461.17	296.19
461.54	294.72
461.91	293.27
462.27	291.83
462.64	290.57
463.01	289.23
463.38	287.98
463.74	286.62
464.11	285.47
464.48	284.45
464.85	283.38
465.21	282.48
465.58	281.55
465.95	280.45
466.32	279.49
466.68	278.64
467.05	277.73
467.42	276.86
467.78	275.92
468.15	275.05
468.52	274.39
468.88	273.51
469.25	272.71
469.62	272.09
469.98	271.37
470.35	270.74
470.72	270.14
471.08	269.45
471.45	268.90
471.82	268.35
472.18	267.75
472.55	267.30
472.92	266.80
473.28	266.37
473.65	265.94
474.02	265.53
474.38	265.15
474.75	264.84
475.11	264.46
475.48	264.22
475.85	263.97
476.21	263.76
476.58	263.58
476.94	263.43
477.31	263.29
477.67	263.14
478.04	263.05
478.41	263.01
478.77	263.03
479.14	263.03
479.50	263.04
479.87	263.12
480.23	263.18
480.60	263.23
480.96	263.27
481.33	263.50
481.69	263.65
482.06	263.84
482.42	264.07
482.79	264.32
483.15	264.64
483.52	265.08
483.88	265.39
484.25	265.78
484.61	266.22
484.98	266.67
485.34	267.30
485.71	267.90
486.07	268.48
486.44	269.07
486.80	269.73
487.17	270.45
487.53	271.27
487.90	272.14
488.26	273.11
488.62	274.12
488.99	275.06
489.35	276.13
489.72	277.23
490.08	278.41
490.44	279.69
490.81	281.01
491.17	282.31
491.54	283.83
491.90	285.40
492.26	287.04
492.63	288.80
492.99	290.56
493.36	292.42
493.72	294.45
494.08	296.56
494.45	298.83
494.81	301.20
495.17	303.63
495.54	306.18
495.90	308.85
496.26	311.68
496.63	314.63
496.99	317.74
497.35	320.99
497.72	324.39
498.08	327.89
498.44	331.52
498.80	335.44
499.17	339.44
499.53	343.61
499.89	348.04
500.26	352.52
500.62	357.19
500.98	362.17
501.34	367.23
501.71	372.56
502.07	377.97
502.43	383.54
502.79	389.33
503.16	395.37
503.52	401.64
503.88	408.01
504.24	414.68
504.60	421.56
504.97	428.71
505.33	436.02
505.69	443.72
506.05	451.52
506.41	459.43
506.78	467.64
507.14	476.12
507.50	484.82
507.86	493.77
508.22	502.98
508.59	512.20
508.95	521.82
509.31	531.62
509.67	541.72
510.03	552.09
510.39	562.68
510.75	573.47
511.12	584.48
511.48	595.78
511.84	607.20
512.20	618.75
512.56	630.67
512.92	642.82
513.28	655.11
513.64	667.60
514.00	680.33
514.37	693.17
514.73	706.22
515.09	719.21
515.45	732.61
515.81	746.20
516.17	760.16
516.53	774.31
516.89	788.47
517.25	802.75
517.61	817.17
517.97	831.60
518.33	846.10
518.69	860.81
519.05	875.87
519.41	891.07
519.77	906.64
520.13	922.11
520.49	937.57
520.85	952.98
521.21	968.66
521.57	984.91
521.93	1000.77
522.29	1017.21
522.65	1033.43
523.01	1049.71
523.37	1065.77
523.73	1082.04
524.09	1098.23
524.45	1114.63
524.81	1131.26
525.17	1148.17
525.53	1165.16
525.89	1182.01
526.25	1198.90
526.61	1215.31
526.97	1232.11
527.33	1248.59
527.68	1265.20
528.04	1281.77
528.40	1298.50
528.76	1315.80
529.12	1332.36
529.48	1349.24
529.84	1365.18
530.20	1381.90
530.56	1398.93
530.91	1416.25
531.27	1433.00
531.63	1449.41
531.99	1466.03
532.35	1482.01
532.71	1497.84
533.07	1514.19
533.42	1530.18
533.78	1546.19
534.14	1562.53
534.50	1577.91
534.86	1593.88
535.21	1609.12
535.57	1625.02
535.93	1640.50
536.29	1655.20
536.65	1670.42
537.00	1685.39
537.36	1700.82
537.72	1715.40
538.08	1729.71
538.44	1743.64
538.79	1757.56
539.15	1771.29
539.51	1784.96
539.87	1799.27
540.22	1812.99
540.58	1826.68
540.94	1840.12
541.29	1853.19
541.65	1865.96
542.01	1879.27
542.37	1891.54
542.72	1904.06
543.08	1915.75
543.44	1928.25
543.79	1939.55
544.15	1950.54
544.51	1962.04
544.87	1972.95
545.22	1983.73
545.58	1994.03
545.94	2003.85
546.29	2013.80
546.65	2023.66
547.01	2032.95
547.36	2041.71
547.72	2050.16
548.07	2058.00
548.43	2066.11
548.79	2073.90
549.14	2081.26
549.50	2088.66
549.86	2096.36
550.21	2103.61
550.57	2110.92
550.92	2117.40
551.28	2124.46
551.64	2131.50
551.99	2138.08
552.35	2144.29
552.70	2150.57
553.06	2156.46
553.41	2162.78
553.77	2168.76
554.13	2174.90
554.48	2181.10
554.84	2186.46
555.19	2191.90
555.55	2197.07
555.90	2201.44
556.26	2206.48
556.61	2211.33
556.97	2215.28
557.32	2219.38
557.68	2223.64
558.03	2227.89
558.39	2231.81
558.74	2236.33
559.10	2240.14
559.45	2243.73
559.81	2248.10
560.16	2251.88
560.52	2255.17
560.87	2258.59
561.23	2261.18
561.58	2264.14
561.94	2266.57
562.29	2269.09
562.64	2271.57
563.00	2274.16
563.35	2277.87
563.71	2280.96
564.06	2284.20
564.42	2287.09
564.77	2289.57
565.12	2291.70
565.48	2293.60
565.83	2295.23
566.19	2296.53
566.54	2297.48
566.89	2298.65
567.25	2299.07
567.60	2300.39
567.96	2302.04
568.31	2302.86
568.66	2304.03
569.02	2304.37
569.37	2304.75
569.72	2305.57
570.08	2305.83
570.43	2305.98
570.78	2305.16
571.14	2303.62
571.49	2302.07
571.84	2301.79
572.20	2300.62
572.55	2299.46
572.90	2297.83
573.26	2296.43
573.61	2294.72
573.96	2292.75
574.31	2289.74
574.67	2286.76
575.02	2283.12
575.37	2279.66
575.72	2275.72
576.08	2272.26
576.43	2269.18
576.78	2265.39
577.13	2262.11
577.49	2258.99
577.84	2255.30
578.19	2251.47
578.54	2247.76
578.90	2243.56
579.25	2237.91
579.60	2232.90
579.95	2227.98
580.30	2222.90
580.66	2217.65
581.01	2212.64
581.36	2207.69
581.71	2203.33
582.06	2198.76
582.42	2194.11
582.77	2188.80
583.12	2184.18
583.47	2179.47
583.82	2174.17
584.17	2168.95
584.53	2163.46
584.88	2157.70
585.23	2151.78
585.58	2146.34
585.93	2140.95
586.28	2136.24
586.63	2131.22
586.98	2126.08
587.34	2121.19
587.69	2116.44
588.04	2111.13
588.39	2105.47
588.74	2099.08
589.09	2092.89
589.44	2086.05
589.79	2079.96
590.14	2074.40
590.49	2067.80
590.84	2061.29
591.19	2055.27
591.54	2048.66
591.89	2041.22
592.25	2034.37
592.60	2027.21
592.95	2019.49
593.30	2012.05
593.65	2004.31
594.00	1997.24
594.35	1990.03
594.70	1982.02
595.05	1974.50
595.40	1967.16
595.75	1959.55
596.10	1953.14
596.45	1946.38
596.80	1940.29
597.15	1933.72
597.50	1926.64
597.85	1920.26
598.19	1913.57
598.54	1906.32
598.89	1899.79
599.24	1893.81
599.59	1887.11
599.94	1881.03
600.29	1874.73
600.64	1868.04
600.99	1860.61
601.34	1853.73
601.69	1846.70
602.04	1839.80
602.39	1832.50
602.74	1825.69
603.08	1818.97
603.43	1812.30
603.78	1805.05
604.13	1797.73
604.48	1790.32
604.83	1783.37
605.18	1776.33
605.53	1768.33
605.87	1760.45
606.22	1753.25
606.57	1745.30
606.92	1737.91
607.27	1730.48
607.62	1723.60
607.96	1716.26
608.31	1709.62
608.66	1701.96
609.01	1694.38
609.36	1686.77
609.70	1678.78
610.05	1670.75
610.40	1662.96
610.75	1654.64
611.10	1646.93
611.44	1638.56
611.79	1630.61
612.14	1621.85
612.49	1612.77
612.83	1604.37
613.18	1596.13
613.53	1587.93
613.88	1579.45
614.22	1571.16
614.57	1562.71
614.92	1554.68
615.27	1547.17
615.61	1538.79
615.96	1530.85
616.31	1523.25
616.65	1515.89
617.00	1508.44
617.35	1500.78
617.70	1492.42
618.04	1483.81
618.39	1475.62
618.74	1468.06
619.08	1459.77
619.43	1452.30
619.78	1445.24
620.12	1438.00
620.47	1430.55
620.82	1422.40
621.16	1415.03
621.51	1407.55
621.85	1399.92
622.20	1391.43
622.55	1383.04
622.89	1375.17
623.24	1367.49
623.59	1360.19
623.93	1352.72
624.28	1345.35
624.62	1337.84
624.97	1330.70
625.32	1323.96
625.66	1316.89
626.01	1309.58
626.35	1302.11
626.70	1294.34
627.04	1286.61
627.39	1278.89
627.73	1271.50
628.08	1264.70
628.43	1257.26
628.77	1249.74
629.12	1242.14
629.46	1234.93
629.81	1227.59
630.15	1220.37
630.50	1212.93
630.84	1204.63
631.19	1196.73
631.53	1189.25
631.88	1181.59
632.22	1174.03
632.57	1166.81
632.91	1159.33
633.26	1152.00
633.60	1144.68
633.95	1137.57
634.29	1130.59
634.64	1123.96
634.98	1116.54
635.32	1109.21
635.67	1102.71
636.01	1096.15
636.36	1089.35
636.70	1082.90
637.05	1076.29
637.39	1069.80
637.73	1063.32
638.08	1057.42
638.42	1051.39
638.77	1044.91
639.11	1038.43
639.45	1031.97
639.80	1025.31
640.14	1018.88
640.49	1012.38
640.83	1006.08
641.17	999.89
641.52	993.56
641.86	987.12
642.20	981.28
642.55	975.07
642.89	968.51
643.23	962.05
643.58	956.28
643.92	949.98
644.26	943.90
644.61	937.97
644.95	931.92
645.29	925.40
645.64	918.73
645.98	912.40
646.32	906.58
646.66	900.61
647.01	894.83
647.35	889.14
647.69	883.28
648.04	877.74
648.38	871.83
648.72	865.80
649.06	859.70
649.41	853.88
649.75	847.82
650.09	841.93
650.43	836.00
650.78	829.79
651.12	823.83
651.46	818.11
651.80	812.36
652.14	806.98
652.49	801.57
652.83	796.32
653.17	790.67
653.51	784.92
653.85	779.57
654.20	773.90
654.54	767.85
654.88	762.08
655.22	756.17
655.56	750.49
655.90	745.06
656.25	739.83
656.59	734.51
656.93	729.45
657.27	724.28
657.61	718.85
657.95	713.82
658.29	708.76
658.64	703.46
658.98	698.10
659.32	692.61
659.66	687.41
660.00	682.09
660.34	677.17
660.68	672.18
661.02	667.08
661.36	662.38
661.70	657.94
662.05	653.59
662.39	649.28
662.73	644.92
663.07	640.55
663.41	636.11
663.75	631.55
664.09	627.00
664.43	622.61
664.77	618.57
665.11	614.27
665.45	610.15
665.79	606.11
666.13	601.96
666.47	597.90
666.81	593.76
667.15	589.67
667.49	585.72
667.83	582.00
668.17	578.12
668.51	574.00
668.85	569.91
669.19	566.11
669.53	562.22
669.87	558.29
670.21	554.60
670.55	550.98
670.89	547.57
671.23	544.12
671.57	540.68
671.91	537.15
672.25	533.66
672.58	530.19
672.92	526.84
673.26	523.74
673.60	520.65
673.94	517.54
674.28	514.71
674.62	511.81
674.96	508.72
675.30	505.76
675.64	502.87
675.97	500.12
676.31	497.21
676.65	494.31
676.99	491.63
677.33	488.78
677.67	485.96
678.01	482.96
678.34	480.00
678.68	477.11
679.02	474.27
679.36	471.53
679.70	468.87
680.04	466.02
680.37	463.16
680.71	460.36
681.05	457.75
681.39	454.96
681.73	452.32
682.06	449.79
682.40	447.26
682.74	444.77
683.08	442.24
683.42	439.67
683.75	437.21
684.09	434.67
684.43	432.15
684.77	429.64
685.10	427.26
685.44	424.99
685.78	422.70
686.12	420.46
686.45	418.19
686.79	415.87
687.13	413.73
687.46	411.56
687.80	409.38
688.14	407.19
688.48	405.22
688.81	402.96
689.15	400.81
689.49	398.69
689.82	396.61
690.16	394.56
690.50	392.58
690.83	390.60
691.17	388.64
691.51	386.77
691.84	384.97
692.18	383.02
692.52	381.04
692.85	379.09
693.19	377.26
693.52	375.44
693.86	373.60
694.20	371.78
694.53	369.96
694.87	368.12
695.21	366.32
695.54	364.45
695.88	362.69
696.21	360.98
696.55	359.27
696.88	357.57
697.22	355.88
697.56	354.27
697.89	352.65
698.23	351.03
698.56	349.40
698.90	347.77
699.23	346.12
699.57	344.57
699.90	343.02
700.24	341.43
700.58	339.84
700.91	338.34
701.25	336.92
701.58	335.61
701.92	334.25
702.25	332.84
702.59	331.42
702.92	330.13
703.26	328.81
703.59	327.54
703.93	326.42
704.26	325.17
704.60	323.89
704.93	322.64
705.26	321.40
705.60	320.26
705.93	319.16
706.27	318.18
706.60	317.09
706.94	316.04
707.27	314.89
707.61	313.87
707.94	312.88
708.27	311.79
708.61	310.68
708.94	309.68
709.28	308.70
709.61	307.76
709.94	306.80
710.28	305.78
710.61	304.82
710.95	303.67
711.28	302.79
711.61	301.82
711.95	300.89
712.28	299.92
712.61	298.93
712.95	297.97
713.28	297.06
713.61	296.23
713.95	295.30
714.28	294.47
714.61	293.59
714.95	292.74
715.28	291.89
715.61	291.03
715.95	290.17
716.28	289.35
716.61	288.53
716.95	287.70
717.28	286.98
717.61	286.19
717.94	285.50
718.28	284.69
718.61	283.95
718.94	283.25
719.27	282.60
719.61	281.93
719.94	281.26
720.27	280.56
720.60	279.85
720.94	279.23
721.27	278.64
721.60	278.08
721.93	277.47
722.27	276.92
722.60	276.38
722.93	275.82
723.26	275.28
723.59	274.74
723.93	274.21
724.26	273.66
724.59	273.12
724.92	272.61
725.25	272.11
725.59	271.64
725.92	271.11
726.25	270.62
726.58	270.17
726.91	269.68
727.24	269.24
727.57	268.81
727.91	268.30
728.24	267.88
728.57	267.38
728.90	266.95
729.23	266.46
729.56	266.03
729.89	265.56
730.22	265.05
730.55	264.58
730.89	264.14
731.22	263.69
731.55	263.28
731.88	262.84
732.21	262.43
732.54	261.97
732.87	261.59
733.20	261.17
733.53	260.75
733.86	260.38
734.19	259.99
734.52	259.58
734.85	259.32
735.18	258.88
735.51	258.52
735.84	258.19
736.17	257.84
736.50	257.42
736.83	257.18
737.16	256.91
737.49	256.59
737.82	256.24
738.15	255.89
738.48	255.57
738.81	255.24
739.14	254.91
739.47	254.58
739.80	254.26
740.13	253.95
740.46	253.62
740.79	253.28
741.12	252.93
741.45	252.64
741.78	252.26
742.11	251.98
742.44	251.66
742.77	251.33
743.10	251.03
743.43	250.72
743.75	250.36
744.08	250.17
744.41	249.90
744.74	249.60
745.07	249.36
745.40	249.07
745.73	248.84
746.06	248.58
746.39	248.35
746.71	248.07
747.04	247.83
747.37	247.57
747.70	247.35
748.03	247.10
748.36	246.85
748.68	246.62
749.01	246.35
749.34	246.12
749.67	245.88
750.00	245.63
750.33	245.49
750.65	245.25
750.98	244.88
751.31	244.58
751.64	244.40
751.97	244.19
752.29	243.96
752.62	243.69
752.95	243.45
753.28	243.23
753.60	243.04
753.93	242.84
754.26	242.64
754.59	242.41
754.91	242.21
755.24	241.99
755.57	241.80
755.90	241.63
756.22	241.39
756.55	241.18
756.88	240.98
757.20	240.74
757.53	240.52
757.86	240.35
758.19	240.23
758.51	240.04
758.84	239.83
759.17	239.67
759.49	239.51
759.82	239.39
760.15	239.24
760.47	239.06
760.80	238.89
761.13	238.75
761.45	238.56
761.78	238.41
762.11	238.28
762.43	238.14
762.76	237.98
763.08	237.89
763.41	237.75
763.74	237.62
764.06	237.50
764.39	237.37
764.71	237.24
765.04	237.12
765.37	237.01
765.69	236.87
766.02	236.74
766.34	236.64
766.67	236.48
767.00	236.37
767.32	236.32
767.65	236.28
767.97	236.18
768.30	236.08
768.62	235.99
768.95	235.90
769.27	235.79
769.60	235.73
769.92	235.64
770.25	235.55
770.57	235.48
770.90	235.38
771.22	235.31
771.55	235.22
771.87	235.14
772.20	235.04
772.52	235.06
772.85	235.11
773.17	235.02
773.50	234.96
773.82	234.88
774.15	234.74
774.47	234.58
774.80	234.52
775.12	234.48
775.45	234.40
775.77	234.31
776.09	234.24
776.42	234.15
776.74	234.09
777.07	234.00
777.39	233.90
777.72	233.80
778.04	233.76
778.36	233.70
778.69	233.65
779.01	233.57
779.33	233.40
779.66	233.21
779.98	233.15
780.31	233.05
780.63	233.00
780.95	232.97
781.28	232.89
781.60	232.77
781.92	232.71
782.25	232.63
782.57	232.54
782.89	232.47
783.22	232.40
783.54	232.30
783.86	232.27
784.19	232.24
784.51	232.21
784.83	232.12
785.16	232.05
785.48	231.97
785.80	231.91
786.12	231.89
786.45	231.82
786.77	231.75
787.09	231.69
