SpectraSuite Data File
++++++++++++++++++++++++++++++++++++
Date: Fri Feb 01 15:01:02 EST 2013
User: group
Dark Spectrum Present: No
Reference Spectrum Present: No
Number of Sampled Component Spectra: 1
Spectrometers: USB2E7196
Integration Time (usec): 35000 (USB2E7196)
Spectra Averaged: 100 (USB2E7196)
Boxcar Smoothing: 10 (USB2E7196)
Correct for Electrical Dark: No (USB2E7196)
Strobe/Lamp Enabled: No (USB2E7196)
Correct for Detector Non-linearity: No (USB2E7196)
Correct for Stray Light: No (USB2E7196)
Number of Pixels in Processed Spectrum: 2048
>>>>>Begin Processed Spectral Data<<<<<
339.09	0.00
339.48	215.13
339.86	216.31
340.24	217.79
340.63	219.60
341.01	221.97
341.39	222.54
341.78	223.61
342.16	224.91
342.54	225.07
342.93	213.64
343.31	224.45
343.69	224.99
344.07	225.51
344.46	225.95
344.84	226.34
345.22	226.59
345.60	226.83
345.99	227.00
346.37	227.13
346.75	227.25
347.13	227.34
347.52	227.36
347.90	227.46
348.28	227.49
348.66	227.52
349.05	227.52
349.43	227.56
349.81	227.61
350.19	227.65
350.57	227.69
350.96	227.79
351.34	227.87
351.72	227.97
352.10	228.06
352.48	228.14
352.87	228.16
353.25	228.24
353.63	228.30
354.01	228.37
354.39	228.46
354.77	228.50
355.15	228.61
355.54	228.67
355.92	228.73
356.30	228.80
356.68	228.95
357.06	229.02
357.44	229.07
357.82	229.12
358.20	229.22
358.58	229.29
358.97	229.33
359.35	229.40
359.73	229.49
360.11	229.51
360.49	229.59
360.87	229.69
361.25	229.76
361.63	229.81
362.01	229.85
362.39	229.86
362.77	229.92
363.15	229.94
363.53	229.99
363.91	229.99
364.29	229.98
364.67	229.87
365.05	229.84
365.43	229.87
365.81	229.91
366.19	229.90
366.57	229.92
366.95	229.93
367.33	229.90
367.71	229.87
368.09	229.87
368.47	229.81
368.85	229.75
369.23	229.71
369.61	229.63
369.99	229.64
370.37	229.60
370.75	229.55
371.13	229.47
371.51	229.40
371.89	229.34
372.27	229.31
372.65	229.27
373.03	229.26
373.41	229.20
373.78	229.10
374.16	228.99
374.54	228.89
374.92	228.78
375.30	228.69
375.68	228.56
376.06	228.49
376.44	228.43
376.82	228.34
377.19	228.27
377.57	228.21
377.95	228.14
378.33	228.07
378.71	227.99
379.09	227.92
379.47	227.85
379.84	227.74
380.22	227.66
380.60	227.55
380.98	227.43
381.36	227.34
381.73	227.27
382.11	227.21
382.49	227.15
382.87	227.06
383.25	227.00
383.62	227.06
384.00	226.96
384.38	226.89
384.76	226.85
385.13	226.83
385.51	226.77
385.89	226.65
386.27	226.59
386.64	226.53
387.02	226.48
387.40	226.44
387.78	226.43
388.15	226.37
388.53	226.34
388.91	226.34
389.29	226.27
389.66	226.26
390.04	226.21
390.42	226.17
390.79	226.18
391.17	226.16
391.55	226.03
391.92	226.05
392.30	226.06
392.68	226.00
393.05	226.00
393.43	226.03
393.81	226.07
394.18	226.09
394.56	226.13
394.94	226.16
395.31	226.15
395.69	226.20
396.06	226.27
396.44	226.34
396.82	226.38
397.19	226.48
397.57	226.53
397.95	226.63
398.32	226.63
398.70	226.74
399.07	226.85
399.45	226.95
399.82	227.01
400.20	227.10
400.58	227.20
400.95	227.27
401.33	227.38
401.70	227.55
402.08	227.68
402.45	227.80
402.83	227.96
403.20	228.11
403.58	228.25
403.95	228.40
404.33	228.54
404.71	228.69
405.08	228.92
405.46	229.04
405.83	229.21
406.21	229.43
406.58	229.59
406.96	229.75
407.33	229.95
407.70	230.18
408.08	230.42
408.45	230.68
408.83	230.91
409.20	231.16
409.58	231.35
409.95	231.59
410.33	231.83
410.70	232.08
411.08	232.36
411.45	232.66
411.82	232.94
412.20	233.30
412.57	233.73
412.95	234.00
413.32	234.42
413.69	234.82
414.07	235.25
414.44	235.68
414.82	236.15
415.19	236.72
415.56	237.23
415.94	237.77
416.31	238.43
416.68	239.04
417.06	239.73
417.43	240.41
417.81	241.16
418.18	241.95
418.55	242.78
418.93	243.66
419.30	244.54
419.67	245.48
420.04	246.40
420.42	247.32
420.79	248.53
421.16	249.70
421.54	250.91
421.91	252.10
422.28	253.36
422.66	254.68
423.03	255.97
423.40	257.34
423.77	258.73
424.15	260.09
424.52	261.58
424.89	263.17
425.26	264.72
425.64	266.16
426.01	267.75
426.38	269.40
426.75	271.05
427.13	272.78
427.50	274.58
427.87	276.49
428.24	278.38
428.61	280.07
428.99	282.02
429.36	284.13
429.73	286.22
430.10	288.24
430.47	290.35
430.85	292.46
431.22	294.67
431.59	297.10
431.96	299.38
432.33	301.88
432.70	304.29
433.08	307.10
433.45	309.78
433.82	312.41
434.19	315.30
434.56	318.10
434.93	320.74
435.30	323.42
435.68	326.31
436.05	329.15
436.42	331.97
436.79	334.48
437.16	337.17
437.53	340.00
437.90	342.85
438.27	345.55
438.64	348.38
439.01	351.00
439.38	353.24
439.75	355.40
440.13	357.90
440.50	360.27
440.87	362.16
441.24	364.08
441.61	366.26
441.98	367.77
442.35	369.62
442.72	371.56
443.09	373.35
443.46	374.34
443.83	374.95
444.20	375.41
444.57	376.25
444.94	376.55
445.31	376.87
445.68	377.20
446.05	377.23
446.42	376.87
446.79	376.44
447.16	375.99
447.53	375.71
447.90	374.55
448.27	373.39
448.64	371.79
449.01	370.65
449.37	368.66
449.74	366.75
450.11	364.50
450.48	361.98
450.85	359.40
451.22	357.27
451.59	355.25
451.96	353.33
452.33	350.72
452.70	348.34
453.07	345.52
453.43	342.62
453.80	339.89
454.17	337.22
454.54	334.69
454.91	331.96
455.28	329.26
455.65	326.75
456.02	324.27
456.38	322.07
456.75	319.39
457.12	317.14
457.49	314.89
457.86	312.76
458.23	310.91
458.59	308.92
458.96	306.82
459.33	304.95
459.70	303.09
460.07	301.58
460.43	299.88
460.80	298.28
461.17	296.85
461.54	295.37
461.91	293.92
462.27	292.47
462.64	291.22
463.01	289.88
463.38	288.58
463.74	287.16
464.11	286.04
464.48	284.99
464.85	283.84
465.21	283.01
465.58	282.05
465.95	280.92
466.32	279.96
466.68	279.06
467.05	278.18
467.42	277.31
467.78	276.40
468.15	275.50
468.52	274.80
468.88	273.93
469.25	273.12
469.62	272.50
469.98	271.79
470.35	271.14
470.72	270.48
471.08	269.80
471.45	269.27
471.82	268.68
472.18	268.10
472.55	267.69
472.92	267.12
473.28	266.66
473.65	266.20
474.02	265.76
474.38	265.38
474.75	265.01
475.11	264.63
475.48	264.34
475.85	264.12
476.21	263.87
476.58	263.67
476.94	263.51
477.31	263.34
477.67	263.20
478.04	263.08
478.41	263.00
478.77	263.06
479.14	263.01
479.50	263.00
479.87	263.08
480.23	263.12
480.60	263.16
480.96	263.24
481.33	263.46
481.69	263.65
482.06	263.80
482.42	264.01
482.79	264.25
483.15	264.57
483.52	264.91
483.88	265.27
484.25	265.66
484.61	266.10
484.98	266.52
485.34	267.03
485.71	267.61
486.07	268.24
486.44	268.80
486.80	269.52
487.17	270.28
487.53	271.08
487.90	271.93
488.26	272.90
488.62	273.87
488.99	274.83
489.35	275.88
489.72	277.06
490.08	278.23
490.44	279.43
490.81	280.74
491.17	282.08
491.54	283.55
491.90	285.05
492.26	286.69
492.63	288.44
492.99	290.21
493.36	292.12
493.72	294.16
494.08	296.25
494.45	298.44
494.81	300.79
495.17	303.20
495.54	305.75
495.90	308.43
496.26	311.21
496.63	314.13
496.99	317.23
497.35	320.46
497.72	323.83
498.08	327.36
498.44	330.98
498.80	334.86
499.17	338.84
499.53	343.02
499.89	347.36
500.26	351.85
500.62	356.50
500.98	361.44
501.34	366.48
501.71	371.75
502.07	377.19
502.43	382.78
502.79	388.60
503.16	394.63
503.52	400.86
503.88	407.25
504.24	413.87
504.60	420.68
504.97	427.73
505.33	435.04
505.69	442.77
506.05	450.57
506.41	458.41
506.78	466.60
507.14	474.97
507.50	483.70
507.86	492.67
508.22	501.88
508.59	511.05
508.95	520.58
509.31	530.39
509.67	540.47
510.03	550.75
510.39	561.31
510.75	572.13
511.12	583.05
511.48	594.28
511.84	605.74
512.20	617.27
512.56	629.33
512.92	641.50
513.28	653.79
513.64	666.28
514.00	679.00
514.37	691.92
514.73	704.98
515.09	717.95
515.45	731.24
515.81	744.73
516.17	758.77
516.53	772.92
516.89	787.12
517.25	801.27
517.61	815.71
517.97	830.15
518.33	844.56
518.69	859.41
519.05	874.55
519.41	889.72
519.77	905.34
520.13	920.82
520.49	936.25
520.85	951.84
521.21	967.62
521.57	983.97
521.93	999.82
522.29	1016.30
522.65	1032.69
523.01	1048.96
523.37	1065.21
523.73	1081.38
524.09	1097.54
524.45	1113.95
524.81	1130.71
525.17	1147.73
525.53	1164.70
525.89	1181.73
526.25	1198.53
526.61	1214.99
526.97	1231.77
527.33	1248.31
527.68	1264.99
528.04	1281.56
528.40	1298.22
528.76	1315.39
529.12	1332.06
529.48	1348.96
529.84	1365.11
530.20	1381.73
530.56	1399.02
530.91	1416.43
531.27	1433.27
531.63	1449.79
531.99	1466.46
532.35	1482.48
532.71	1498.33
533.07	1514.66
533.42	1530.61
533.78	1546.76
534.14	1563.04
534.50	1578.56
534.86	1594.59
535.21	1609.76
535.57	1625.79
535.93	1641.29
536.29	1656.09
536.65	1671.29
537.00	1686.23
537.36	1701.63
537.72	1716.39
538.08	1730.70
538.44	1744.58
538.79	1758.58
539.15	1772.57
539.51	1786.45
539.87	1800.87
540.22	1814.63
540.58	1828.51
540.94	1842.00
541.29	1855.20
541.65	1868.05
542.01	1881.25
542.37	1893.65
542.72	1906.20
543.08	1917.94
543.44	1930.42
543.79	1941.76
544.15	1952.75
544.51	1964.35
544.87	1975.44
545.22	1986.11
545.58	1996.34
545.94	2006.15
546.29	2016.07
546.65	2025.84
547.01	2035.00
547.36	2043.79
547.72	2052.42
548.07	2060.21
548.43	2068.41
548.79	2076.18
549.14	2083.63
549.50	2091.03
549.86	2098.74
550.21	2106.14
550.57	2113.45
550.92	2120.04
551.28	2127.09
551.64	2134.07
551.99	2140.51
552.35	2146.46
552.70	2152.64
553.06	2158.72
553.41	2165.06
553.77	2171.10
554.13	2177.23
554.48	2183.31
554.84	2188.54
555.19	2193.81
555.55	2199.02
555.90	2203.41
556.26	2208.27
556.61	2213.07
556.97	2217.21
557.32	2221.24
557.68	2225.25
558.03	2229.50
558.39	2233.20
558.74	2237.70
559.10	2241.64
559.45	2245.33
559.81	2249.75
560.16	2253.58
560.52	2256.74
560.87	2260.08
561.23	2262.69
561.58	2265.57
561.94	2268.13
562.29	2270.69
562.64	2273.32
563.00	2275.94
563.35	2279.41
563.71	2282.51
564.06	2285.59
564.42	2288.51
564.77	2290.96
565.12	2293.10
565.48	2294.74
565.83	2296.51
566.19	2297.70
566.54	2298.66
566.89	2299.65
567.25	2300.14
567.60	2301.30
567.96	2302.79
568.31	2303.48
568.66	2304.42
569.02	2304.78
569.37	2304.87
569.72	2305.55
570.08	2305.53
570.43	2305.28
570.78	2304.44
571.14	2302.85
571.49	2301.37
571.84	2300.92
572.20	2299.50
572.55	2298.28
572.90	2296.67
573.26	2294.98
573.61	2293.28
573.96	2291.29
574.31	2288.26
574.67	2285.08
575.02	2281.32
575.37	2277.79
575.72	2273.88
576.08	2270.56
576.43	2267.01
576.78	2263.29
577.13	2259.94
577.49	2256.85
577.84	2253.12
578.19	2249.32
578.54	2245.44
578.90	2241.12
579.25	2235.34
579.60	2230.26
579.95	2225.23
580.30	2220.10
580.66	2214.80
581.01	2209.68
581.36	2204.45
581.71	2200.05
582.06	2195.39
582.42	2190.82
582.77	2185.42
583.12	2180.70
583.47	2175.64
583.82	2170.68
584.17	2165.26
584.53	2159.72
584.88	2153.64
585.23	2147.90
585.58	2142.33
585.93	2136.86
586.28	2131.97
586.63	2126.77
586.98	2121.64
587.34	2116.81
587.69	2111.91
588.04	2106.59
588.39	2100.72
588.74	2094.25
589.09	2088.01
589.44	2081.13
589.79	2075.05
590.14	2069.31
590.49	2062.70
590.84	2056.21
591.19	2049.95
591.54	2043.47
591.89	2035.86
592.25	2029.10
592.60	2021.78
592.95	2014.09
593.30	2006.53
593.65	1998.70
594.00	1991.57
594.35	1984.14
594.70	1975.83
595.05	1968.39
595.40	1961.07
595.75	1953.62
596.10	1947.15
596.45	1940.14
596.80	1933.91
597.15	1927.07
597.50	1919.97
597.85	1913.46
598.19	1906.70
598.54	1899.51
598.89	1892.75
599.24	1886.75
599.59	1879.95
599.94	1873.63
600.29	1867.22
600.64	1860.66
600.99	1853.25
601.34	1846.41
601.69	1839.45
602.04	1832.43
602.39	1825.04
602.74	1818.11
603.08	1811.30
603.43	1804.70
603.78	1797.50
604.13	1790.20
604.48	1782.90
604.83	1776.00
605.18	1768.91
605.53	1760.88
605.87	1752.80
606.22	1745.63
606.57	1737.73
606.92	1730.41
607.27	1723.13
607.62	1716.11
607.96	1708.69
608.31	1701.96
608.66	1694.31
609.01	1686.90
609.36	1679.62
609.70	1671.61
610.05	1663.53
610.40	1655.80
610.75	1647.40
611.10	1639.83
611.44	1631.57
611.79	1623.69
612.14	1614.96
612.49	1605.87
612.83	1597.58
613.18	1589.57
613.53	1581.45
613.88	1572.98
614.22	1564.82
614.57	1556.55
614.92	1548.59
615.27	1541.13
615.61	1532.84
615.96	1524.83
616.31	1517.06
616.65	1509.67
617.00	1502.11
617.35	1494.50
617.70	1486.06
618.04	1477.54
618.39	1469.30
618.74	1461.62
619.08	1453.25
619.43	1445.80
619.78	1438.89
620.12	1431.74
620.47	1424.14
620.82	1416.01
621.16	1408.72
621.51	1401.04
621.85	1393.31
622.20	1384.73
622.55	1376.33
622.89	1368.62
623.24	1361.16
623.59	1353.84
623.93	1346.30
624.28	1339.17
624.62	1331.67
624.97	1324.62
625.32	1318.05
625.66	1311.02
626.01	1303.72
626.35	1296.28
626.70	1288.57
627.04	1280.80
627.39	1273.09
627.73	1265.84
628.08	1258.91
628.43	1251.44
628.77	1244.03
629.12	1236.43
629.46	1229.34
629.81	1222.14
630.15	1214.95
630.50	1207.51
630.84	1199.29
631.19	1191.43
631.53	1183.93
631.88	1176.47
632.22	1168.95
632.57	1161.67
632.91	1154.19
633.26	1146.95
633.60	1139.73
633.95	1132.75
634.29	1125.89
634.64	1119.18
634.98	1111.84
635.32	1104.82
635.67	1098.47
636.01	1091.93
636.36	1085.22
636.70	1078.77
637.05	1072.23
637.39	1065.83
637.73	1059.41
638.08	1053.69
638.42	1047.80
638.77	1041.35
639.11	1034.80
639.45	1028.44
639.80	1021.80
640.14	1015.44
640.49	1008.93
640.83	1002.60
641.17	996.32
641.52	990.00
641.86	983.72
642.20	977.88
642.55	971.56
642.89	965.04
643.23	958.58
643.58	952.81
643.92	946.66
644.26	940.58
644.61	934.62
644.95	928.56
645.29	921.90
645.64	915.14
645.98	908.84
646.32	903.04
646.66	897.04
647.01	891.24
647.35	885.58
647.69	879.85
648.04	874.42
648.38	868.73
648.72	862.75
649.06	856.63
649.41	850.78
649.75	844.73
650.09	838.74
650.43	832.99
650.78	826.94
651.12	820.99
651.46	815.21
651.80	809.38
652.14	803.98
652.49	798.69
652.83	793.61
653.17	787.94
653.51	782.16
653.85	776.77
654.20	771.08
654.54	765.13
654.88	759.41
655.22	753.47
655.56	747.72
655.90	742.26
656.25	737.13
656.59	731.79
656.93	726.80
657.27	721.65
657.61	716.14
657.95	711.05
658.29	706.05
658.64	700.86
658.98	695.66
659.32	690.24
659.66	685.06
660.00	679.71
660.34	674.87
660.68	670.11
661.02	665.16
661.36	660.53
661.70	656.04
662.05	651.64
662.39	647.34
662.73	642.95
663.07	638.65
663.41	634.15
663.75	629.68
664.09	625.19
664.43	620.89
664.77	616.86
665.11	612.63
665.45	608.51
665.79	604.50
666.13	600.39
666.47	596.34
666.81	592.18
667.15	588.14
667.49	584.25
667.83	580.41
668.17	576.46
668.51	572.44
668.85	568.41
669.19	564.64
669.53	560.90
669.87	557.00
670.21	553.33
670.55	549.77
670.89	546.34
671.23	542.91
671.57	539.44
671.91	535.93
672.25	532.47
672.58	529.01
672.92	525.63
673.26	522.46
673.60	519.40
673.94	516.28
674.28	513.33
674.62	510.43
674.96	507.39
675.30	504.51
675.64	501.59
675.97	498.83
676.31	495.94
676.65	493.04
676.99	490.41
677.33	487.52
677.67	484.66
678.01	481.66
678.34	478.72
678.68	475.87
679.02	473.05
679.36	470.26
679.70	467.53
680.04	464.77
680.37	461.91
680.71	459.15
681.05	456.61
681.39	453.91
681.73	451.25
682.06	448.71
682.40	446.16
682.74	443.64
683.08	441.17
683.42	438.65
683.75	436.16
684.09	433.62
684.43	431.23
684.77	428.81
685.10	426.51
685.44	424.21
685.78	421.86
686.12	419.67
686.45	417.43
686.79	415.17
687.13	413.02
687.46	410.91
687.80	408.70
688.14	406.55
688.48	404.55
688.81	402.32
689.15	400.19
689.49	398.12
689.82	396.05
690.16	393.95
690.50	392.01
690.83	390.06
691.17	388.06
691.51	386.18
691.84	384.38
692.18	382.43
692.52	380.47
692.85	378.66
693.19	376.81
693.52	375.01
693.86	373.22
694.20	371.45
694.53	369.63
694.87	367.82
695.21	366.00
695.54	364.20
695.88	362.50
696.21	360.80
696.55	359.11
696.88	357.50
697.22	355.94
697.56	354.33
697.89	352.67
698.23	351.09
698.56	349.43
698.90	347.83
699.23	346.20
699.57	344.66
699.90	343.12
700.24	341.57
700.58	340.01
700.91	338.47
701.25	336.96
701.58	335.60
701.92	334.24
702.25	332.92
702.59	331.58
702.92	330.28
703.26	328.94
703.59	327.67
703.93	326.43
704.26	325.11
704.60	323.76
704.93	322.53
705.26	321.28
705.60	320.15
705.93	318.99
706.27	317.99
706.60	316.92
706.94	315.84
707.27	314.69
707.61	313.65
707.94	312.64
708.27	311.66
708.61	310.61
708.94	309.59
709.28	308.59
709.61	307.61
709.94	306.65
710.28	305.67
710.61	304.65
710.95	303.60
711.28	302.73
711.61	301.81
711.95	300.90
712.28	299.95
712.61	298.97
712.95	298.00
713.28	297.10
713.61	296.22
713.95	295.31
714.28	294.50
714.61	293.65
714.95	292.83
715.28	291.92
715.61	291.03
715.95	290.17
716.28	289.33
716.61	288.46
716.95	287.65
717.28	286.85
717.61	286.08
717.94	285.33
718.28	284.51
718.61	283.80
718.94	283.11
719.27	282.48
719.61	281.83
719.94	281.23
720.27	280.51
720.60	279.84
720.94	279.21
721.27	278.65
721.60	278.09
721.93	277.51
722.27	276.99
722.60	276.47
722.93	275.92
723.26	275.36
723.59	274.86
723.93	274.29
724.26	273.73
724.59	273.25
724.92	272.74
725.25	272.26
725.59	271.72
725.92	271.25
726.25	270.78
726.58	270.30
726.91	269.77
727.24	269.33
727.57	268.89
727.91	268.41
728.24	267.93
728.57	267.44
728.90	266.99
729.23	266.48
729.56	266.09
729.89	265.65
730.22	265.19
730.55	264.72
730.89	264.31
731.22	263.91
731.55	263.48
731.88	263.05
732.21	262.63
732.54	262.20
732.87	261.75
733.20	261.32
733.53	260.92
733.86	260.59
734.19	260.18
734.52	259.81
734.85	259.53
735.18	259.11
735.51	258.73
735.84	258.35
736.17	258.03
736.50	257.58
736.83	257.37
737.16	257.05
737.49	256.71
737.82	256.39
738.15	256.08
738.48	255.75
738.81	255.47
739.14	255.15
739.47	254.90
739.80	254.57
740.13	254.30
740.46	254.00
740.79	253.65
741.12	253.34
741.45	253.01
741.78	252.67
742.11	252.39
742.44	252.08
742.77	251.78
743.10	251.45
743.43	251.15
743.75	250.73
744.08	250.58
744.41	250.31
744.74	250.00
745.07	249.70
745.40	249.39
745.73	249.15
746.06	248.88
746.39	248.56
746.71	248.32
747.04	248.00
747.37	247.73
747.70	247.51
748.03	247.24
748.36	247.00
748.68	246.74
749.01	246.44
749.34	246.24
749.67	246.04
750.00	245.87
750.33	245.70
750.65	245.51
750.98	245.17
751.31	244.93
751.64	244.72
751.97	244.54
752.29	244.34
752.62	244.08
752.95	243.83
753.28	243.64
753.60	243.44
753.93	243.30
754.26	243.10
754.59	242.85
754.91	242.66
755.24	242.46
755.57	242.25
755.90	242.08
756.22	241.84
756.55	241.61
756.88	241.38
757.20	241.15
757.53	240.92
757.86	240.72
758.19	240.59
758.51	240.42
758.84	240.22
759.17	240.08
759.49	239.91
759.82	239.83
760.15	239.67
760.47	239.47
760.80	239.28
761.13	239.14
761.45	238.99
761.78	238.81
762.11	238.67
762.43	238.55
762.76	238.43
763.08	238.31
763.41	238.15
763.74	238.02
764.06	237.89
764.39	237.75
764.71	237.65
765.04	237.50
765.37	237.35
765.69	237.21
766.02	237.09
766.34	236.95
766.67	236.79
767.00	236.67
767.32	236.63
767.65	236.57
767.97	236.45
768.30	236.37
768.62	236.27
768.95	236.16
769.27	236.05
769.60	235.96
769.92	235.87
770.25	235.79
770.57	235.70
770.90	235.62
771.22	235.50
771.55	235.40
771.87	235.30
772.20	235.23
772.52	235.21
772.85	235.21
773.17	235.14
773.50	235.05
773.82	234.98
774.15	234.83
774.47	234.68
774.80	234.59
775.12	234.49
775.45	234.45
775.77	234.36
776.09	234.27
776.42	234.16
776.74	234.09
777.07	234.05
777.39	233.96
777.72	233.89
778.04	233.84
778.36	233.74
778.69	233.67
779.01	233.61
779.33	233.44
779.66	233.28
779.98	233.16
780.31	233.09
780.63	233.08
780.95	233.04
781.28	233.00
781.60	232.93
781.92	232.86
782.25	232.77
782.57	232.72
782.89	232.66
783.22	232.60
783.54	232.51
783.86	232.43
784.19	232.37
784.51	232.32
784.83	232.27
785.16	232.22
785.48	232.16
785.80	232.13
786.12	232.14
786.45	232.09
786.77	232.06
787.09	232.01
