SpectraSuite Data File
++++++++++++++++++++++++++++++++++++
Date: Fri Feb 01 17:25:55 EST 2013
User: group
Dark Spectrum Present: No
Reference Spectrum Present: No
Number of Sampled Component Spectra: 1
Spectrometers: USB2E7196
Integration Time (usec): 35000 (USB2E7196)
Spectra Averaged: 100 (USB2E7196)
Boxcar Smoothing: 10 (USB2E7196)
Correct for Electrical Dark: No (USB2E7196)
Strobe/Lamp Enabled: No (USB2E7196)
Correct for Detector Non-linearity: No (USB2E7196)
Correct for Stray Light: No (USB2E7196)
Number of Pixels in Processed Spectrum: 2048
>>>>>Begin Processed Spectral Data<<<<<
339.09	0.00
339.48	212.79
339.86	214.21
340.24	215.96
340.63	216.99
341.01	219.71
341.39	219.53
341.78	221.23
342.16	222.58
342.54	223.05
342.93	211.32
343.31	222.00
343.69	222.55
344.07	222.99
344.46	223.42
344.84	223.81
345.22	224.04
345.60	224.31
345.99	224.50
346.37	224.63
346.75	224.74
347.13	224.81
347.52	224.85
347.90	224.91
348.28	224.96
348.66	225.02
349.05	225.06
349.43	225.07
349.81	225.11
350.19	225.19
350.57	225.24
350.96	225.30
351.34	225.38
351.72	225.47
352.10	225.60
352.48	225.65
352.87	225.69
353.25	225.80
353.63	225.84
354.01	225.87
354.39	225.93
354.77	226.00
355.15	226.08
355.54	226.13
355.92	226.18
356.30	226.22
356.68	226.31
357.06	226.36
357.44	226.41
357.82	226.49
358.20	226.54
358.58	226.57
358.97	226.60
359.35	226.68
359.73	226.75
360.11	226.78
360.49	226.83
360.87	226.88
361.25	226.93
361.63	227.00
362.01	227.05
362.39	227.08
362.77	227.09
363.15	227.10
363.53	227.15
363.91	227.17
364.29	227.20
364.67	227.12
365.05	227.17
365.43	227.22
365.81	227.22
366.19	227.29
366.57	227.33
366.95	227.38
367.33	227.34
367.71	227.31
368.09	227.35
368.47	227.35
368.85	227.34
369.23	227.34
369.61	227.30
369.99	227.32
370.37	227.27
370.75	227.32
371.13	227.28
371.51	227.22
371.89	227.22
372.27	227.17
372.65	227.19
373.03	227.10
373.41	227.03
373.78	226.95
374.16	226.85
374.54	226.79
374.92	226.68
375.30	226.63
375.68	226.57
376.06	226.48
376.44	226.40
376.82	226.33
377.19	226.23
377.57	226.16
377.95	226.09
378.33	226.04
378.71	225.86
379.09	225.83
379.47	225.78
379.84	225.66
380.22	225.60
380.60	225.49
380.98	225.44
381.36	225.38
381.73	225.34
382.11	225.31
382.49	225.24
382.87	225.19
383.25	225.15
383.62	225.19
384.00	225.11
384.38	225.06
384.76	225.04
385.13	225.02
385.51	224.95
385.89	224.89
386.27	224.82
386.64	224.85
387.02	224.81
387.40	224.78
387.78	224.76
388.15	224.76
388.53	224.74
388.91	224.69
389.29	224.68
389.66	224.65
390.04	224.61
390.42	224.63
390.79	224.61
391.17	224.56
391.55	224.45
391.92	224.45
392.30	224.47
392.68	224.42
393.05	224.42
393.43	224.45
393.81	224.45
394.18	224.47
394.56	224.47
394.94	224.47
395.31	224.47
395.69	224.55
396.06	224.56
396.44	224.58
396.82	224.63
397.19	224.69
397.57	224.70
397.95	224.74
398.32	224.72
398.70	224.78
399.07	224.87
399.45	224.92
399.82	224.99
400.20	225.01
400.58	225.09
400.95	225.11
401.33	225.24
401.70	225.36
402.08	225.41
402.45	225.50
402.83	225.62
403.20	225.69
403.58	225.75
403.95	225.85
404.33	225.99
404.71	226.10
405.08	226.30
405.46	226.45
405.83	226.59
406.21	226.72
406.58	226.90
406.96	227.05
407.33	227.25
407.70	227.43
408.08	227.71
408.45	227.92
408.83	228.16
409.20	228.31
409.58	228.52
409.95	228.82
410.33	229.11
410.70	229.34
411.08	229.64
411.45	229.94
411.82	230.24
412.20	230.61
412.57	230.99
412.95	231.28
413.32	231.70
413.69	232.12
414.07	232.57
414.44	233.02
414.82	233.52
415.19	234.09
415.56	234.67
415.94	235.25
416.31	235.93
416.68	236.57
417.06	237.33
417.43	238.01
417.81	238.80
418.18	239.60
418.55	240.48
418.93	241.42
419.30	242.35
419.67	243.30
420.04	244.29
420.42	245.36
420.79	246.60
421.16	247.78
421.54	249.00
421.91	250.29
422.28	251.60
422.66	252.98
423.03	254.32
423.40	255.72
423.77	257.15
424.15	258.62
424.52	260.19
424.89	261.84
425.26	263.51
425.64	265.00
426.01	266.65
426.38	268.36
426.75	270.08
427.13	271.89
427.50	273.78
427.87	275.72
428.24	277.63
428.61	279.41
428.99	281.44
429.36	283.66
429.73	285.80
430.10	287.87
430.47	290.03
430.85	292.23
431.22	294.58
431.59	297.05
431.96	299.37
432.33	301.92
432.70	304.40
433.08	307.31
433.45	310.07
433.82	312.78
434.19	315.79
434.56	318.68
434.93	321.43
435.30	324.17
435.68	327.15
436.05	330.07
436.42	332.98
436.79	335.59
437.16	338.36
437.53	341.31
437.90	344.27
438.27	347.11
438.64	350.00
439.01	352.63
439.38	354.96
439.75	357.23
440.13	359.84
440.50	362.26
440.87	364.20
441.24	366.27
441.61	368.51
441.98	370.08
442.35	371.98
442.72	373.92
443.09	375.80
443.46	376.85
443.83	377.56
444.20	378.10
444.57	379.04
444.94	379.38
445.31	379.74
445.68	380.14
446.05	380.23
446.42	379.91
446.79	379.52
447.16	379.11
447.53	378.77
447.90	377.62
448.27	376.46
448.64	374.85
449.01	373.65
449.37	371.65
449.74	369.70
450.11	367.42
450.48	364.90
450.85	362.29
451.22	360.10
451.59	357.94
451.96	355.97
452.33	353.23
452.70	350.77
453.07	347.84
453.43	344.81
453.80	341.92
454.17	339.13
454.54	336.48
454.91	333.66
455.28	330.92
455.65	328.31
456.02	325.71
456.38	323.41
456.75	320.61
457.12	318.25
457.49	315.94
457.86	313.67
458.23	311.73
458.59	309.63
458.96	307.49
459.33	305.63
459.70	303.66
460.07	302.07
460.43	300.27
460.80	298.58
461.17	297.09
461.54	295.59
461.91	294.10
462.27	292.60
462.64	291.30
463.01	289.88
463.38	288.54
463.74	287.16
464.11	285.98
464.48	284.92
464.85	283.72
465.21	282.80
465.58	281.84
465.95	280.74
466.32	279.76
466.68	278.80
467.05	277.82
467.42	276.91
467.78	275.96
468.15	275.09
468.52	274.44
468.88	273.57
469.25	272.77
469.62	272.14
469.98	271.44
470.35	270.76
470.72	270.15
471.08	269.43
471.45	268.88
471.82	268.30
472.18	267.71
472.55	267.28
472.92	266.74
473.28	266.26
473.65	265.72
474.02	265.28
474.38	264.88
474.75	264.56
475.11	264.18
475.48	263.86
475.85	263.60
476.21	263.32
476.58	263.14
476.94	262.96
477.31	262.74
477.67	262.59
478.04	262.46
478.41	262.38
478.77	262.42
479.14	262.34
479.50	262.37
479.87	262.41
480.23	262.50
480.60	262.60
480.96	262.65
481.33	262.89
481.69	263.06
482.06	263.26
482.42	263.46
482.79	263.71
483.15	264.08
483.52	264.48
483.88	264.86
484.25	265.22
484.61	265.65
484.98	266.13
485.34	266.69
485.71	267.31
486.07	267.93
486.44	268.53
486.80	269.26
487.17	269.96
487.53	270.76
487.90	271.64
488.26	272.55
488.62	273.57
488.99	274.53
489.35	275.58
489.72	276.70
490.08	277.87
490.44	279.14
490.81	280.45
491.17	281.78
491.54	283.23
491.90	284.75
492.26	286.39
492.63	288.11
492.99	289.87
493.36	291.75
493.72	293.76
494.08	295.88
494.45	298.10
494.81	300.49
495.17	302.93
495.54	305.46
495.90	308.15
496.26	310.94
496.63	313.88
496.99	316.96
497.35	320.24
497.72	323.67
498.08	327.16
498.44	330.76
498.80	334.63
499.17	338.62
499.53	342.74
499.89	347.06
500.26	351.60
500.62	356.22
500.98	361.13
501.34	366.16
501.71	371.39
502.07	376.74
502.43	382.24
502.79	388.00
503.16	394.00
503.52	400.18
503.88	406.50
504.24	413.08
504.60	419.84
504.97	426.82
505.33	433.99
505.69	441.52
506.05	449.29
506.41	457.09
506.78	465.08
507.14	473.39
507.50	481.95
507.86	490.73
508.22	499.80
508.59	508.79
508.95	518.13
509.31	527.76
509.67	537.67
510.03	547.81
510.39	558.12
510.75	568.67
511.12	579.29
511.48	590.32
511.84	601.49
512.20	612.75
512.56	624.45
512.92	636.40
513.28	648.50
513.64	660.53
514.00	672.91
514.37	685.58
514.73	698.35
515.09	711.07
515.45	724.08
515.81	737.32
516.17	750.97
516.53	764.80
516.89	778.65
517.25	792.41
517.61	806.42
517.97	820.46
518.33	834.50
518.69	848.97
519.05	863.53
519.41	878.35
519.77	893.50
520.13	908.56
520.49	923.53
520.85	938.50
521.21	953.84
521.57	969.57
521.93	984.92
522.29	1000.81
522.65	1016.78
523.01	1032.55
523.37	1048.18
523.73	1063.90
524.09	1079.68
524.45	1095.50
524.81	1111.77
525.17	1128.03
525.53	1144.54
525.89	1160.92
526.25	1177.35
526.61	1193.37
526.97	1209.64
527.33	1225.76
527.68	1241.85
528.04	1257.90
528.40	1273.98
528.76	1290.59
529.12	1306.78
529.48	1323.25
529.84	1338.90
530.20	1354.98
530.56	1371.42
530.91	1388.26
531.27	1404.66
531.63	1420.70
531.99	1436.88
532.35	1452.49
532.71	1468.26
533.07	1484.14
533.42	1499.76
533.78	1515.41
534.14	1531.28
534.50	1546.26
534.86	1561.64
535.21	1576.56
535.57	1592.13
535.93	1607.36
536.29	1621.88
536.65	1636.66
537.00	1651.22
537.36	1666.20
537.72	1680.41
538.08	1694.77
538.44	1708.52
538.79	1722.15
539.15	1735.46
539.51	1749.01
539.87	1763.15
540.22	1776.47
540.58	1790.08
540.94	1803.07
541.29	1815.68
541.65	1828.20
542.01	1841.28
542.37	1853.53
542.72	1865.82
543.08	1877.52
543.44	1889.87
543.79	1901.17
544.15	1912.08
544.51	1923.42
544.87	1934.40
545.22	1945.32
545.58	1955.43
545.94	1965.07
546.29	1975.03
546.65	1984.98
547.01	1994.26
547.36	2003.00
547.72	2011.69
548.07	2019.84
548.43	2028.15
548.79	2036.26
549.14	2043.97
549.50	2051.34
549.86	2059.18
550.21	2066.58
550.57	2074.03
550.92	2080.73
551.28	2087.86
551.64	2095.25
551.99	2102.12
552.35	2108.52
552.70	2114.86
553.06	2121.12
553.41	2127.78
553.77	2133.98
554.13	2140.18
554.48	2146.65
554.84	2152.53
555.19	2157.89
555.55	2163.17
555.90	2168.07
556.26	2173.39
556.61	2178.43
556.97	2183.27
557.32	2187.73
557.68	2192.19
558.03	2196.67
558.39	2200.59
558.74	2205.51
559.10	2209.71
559.45	2213.60
559.81	2218.16
560.16	2222.27
560.52	2225.92
560.87	2229.67
561.23	2232.71
561.58	2235.95
561.94	2238.79
562.29	2241.41
562.64	2244.81
563.00	2247.71
563.35	2251.53
563.71	2255.01
564.06	2258.53
564.42	2261.78
564.77	2264.79
565.12	2267.65
565.48	2269.95
565.83	2272.33
566.19	2274.26
566.54	2275.33
566.89	2277.01
567.25	2278.15
567.60	2279.80
567.96	2281.87
568.31	2283.02
568.66	2284.54
569.02	2285.65
569.37	2286.49
569.72	2287.74
570.08	2288.12
570.43	2288.49
570.78	2288.44
571.14	2287.34
571.49	2286.39
571.84	2286.32
572.20	2285.48
572.55	2284.72
572.90	2283.50
573.26	2282.56
573.61	2281.02
573.96	2279.88
574.31	2277.23
574.67	2274.61
575.02	2271.41
575.37	2268.29
575.72	2265.00
576.08	2261.88
576.43	2258.84
576.78	2255.52
577.13	2252.61
577.49	2249.68
577.84	2246.84
578.19	2243.35
578.54	2240.12
578.90	2236.31
579.25	2230.92
579.60	2226.37
579.95	2221.74
580.30	2216.99
580.66	2212.20
581.01	2207.56
581.36	2202.90
581.71	2199.06
582.06	2195.05
582.42	2190.97
582.77	2186.16
583.12	2181.86
583.47	2177.62
583.82	2172.99
584.17	2168.02
584.53	2162.93
584.88	2157.72
585.23	2152.17
585.58	2146.95
585.93	2141.60
586.28	2137.01
586.63	2132.37
586.98	2127.60
587.34	2123.06
587.69	2118.42
588.04	2113.42
588.39	2107.96
588.74	2101.66
589.09	2095.81
589.44	2089.28
589.79	2083.26
590.14	2077.71
590.49	2071.46
590.84	2065.14
591.19	2059.40
591.54	2053.13
591.89	2046.10
592.25	2039.54
592.60	2032.30
592.95	2025.04
593.30	2018.03
593.65	2010.53
594.00	2003.58
594.35	1996.49
594.70	1988.49
595.05	1981.69
595.40	1974.54
595.75	1967.30
596.10	1961.43
596.45	1954.80
596.80	1948.63
597.15	1942.30
597.50	1935.58
597.85	1929.02
598.19	1922.57
598.54	1915.67
598.89	1909.17
599.24	1903.30
599.59	1896.91
599.94	1890.80
600.29	1884.47
600.64	1877.75
600.99	1870.57
601.34	1863.84
601.69	1856.75
602.04	1850.18
602.39	1842.90
602.74	1836.14
603.08	1829.49
603.43	1822.80
603.78	1815.61
604.13	1808.55
604.48	1801.47
604.83	1794.61
605.18	1787.90
605.53	1780.09
605.87	1772.06
606.22	1764.74
606.57	1756.74
606.92	1749.16
607.27	1742.19
607.62	1735.35
607.96	1728.30
608.31	1721.86
608.66	1714.39
609.01	1707.01
609.36	1699.53
609.70	1691.55
610.05	1683.51
610.40	1675.95
610.75	1667.63
611.10	1659.94
611.44	1651.29
611.79	1643.10
612.14	1634.38
612.49	1625.22
612.83	1616.68
613.18	1608.53
613.53	1600.50
613.88	1591.89
614.22	1583.67
614.57	1574.86
614.92	1566.75
615.27	1559.27
615.61	1550.87
615.96	1542.84
616.31	1535.11
616.65	1527.55
617.00	1519.92
617.35	1512.14
617.70	1503.75
618.04	1495.15
618.39	1486.72
618.74	1479.16
619.08	1470.84
619.43	1463.21
619.78	1456.10
620.12	1448.93
620.47	1441.33
620.82	1432.99
621.16	1425.48
621.51	1417.76
621.85	1410.06
622.20	1401.46
622.55	1392.87
622.89	1384.94
623.24	1377.05
623.59	1369.52
623.93	1362.03
624.28	1354.60
624.62	1347.05
624.97	1339.68
625.32	1332.72
625.66	1325.64
626.01	1318.46
626.35	1311.08
626.70	1303.25
627.04	1295.53
627.39	1287.64
627.73	1280.13
628.08	1273.18
628.43	1265.98
628.77	1258.64
629.12	1251.10
629.46	1243.94
629.81	1236.41
630.15	1228.98
630.50	1221.72
630.84	1213.53
631.19	1205.33
631.53	1197.68
631.88	1189.95
632.22	1182.30
632.57	1174.93
632.91	1167.35
633.26	1159.86
633.60	1152.26
633.95	1144.92
634.29	1137.66
634.64	1130.79
634.98	1123.44
635.32	1116.16
635.67	1109.38
636.01	1102.70
636.36	1095.83
636.70	1089.13
637.05	1082.52
637.39	1076.02
637.73	1069.41
638.08	1063.43
638.42	1057.48
638.77	1051.01
639.11	1044.57
639.45	1038.15
639.80	1031.46
640.14	1025.04
640.49	1018.39
640.83	1012.07
641.17	1005.91
641.52	999.59
641.86	993.13
642.20	987.24
642.55	980.76
642.89	974.26
643.23	967.45
643.58	961.68
643.92	955.47
644.26	949.44
644.61	943.26
644.95	937.22
645.29	930.65
645.64	923.89
645.98	917.56
646.32	911.49
646.66	905.34
647.01	899.57
647.35	893.81
647.69	887.92
648.04	882.27
648.38	876.38
648.72	870.44
649.06	864.36
649.41	858.38
649.75	852.58
650.09	846.62
650.43	840.88
650.78	834.63
651.12	828.67
651.46	822.89
651.80	817.28
652.14	811.81
652.49	806.45
652.83	801.25
653.17	795.64
653.51	790.03
653.85	784.56
654.20	778.86
654.54	772.82
654.88	767.04
655.22	761.14
655.56	755.46
655.90	749.87
656.25	744.68
656.59	739.22
656.93	734.05
657.27	728.88
657.61	723.38
657.95	718.28
658.29	713.19
658.64	707.86
658.98	702.45
659.32	696.89
659.66	691.68
660.00	686.32
660.34	681.34
660.68	676.34
661.02	671.35
661.36	666.67
661.70	662.15
662.05	657.85
662.39	653.54
662.73	649.01
663.07	644.73
663.41	640.21
663.75	635.78
664.09	631.22
664.43	626.78
664.77	622.80
665.11	618.57
665.45	614.43
665.79	610.33
666.13	606.20
666.47	602.12
666.81	597.91
667.15	593.73
667.49	589.72
667.83	585.83
668.17	581.80
668.51	577.66
668.85	573.57
669.19	569.59
669.53	565.76
669.87	561.93
670.21	558.14
670.55	554.46
670.89	550.98
671.23	547.50
671.57	543.95
671.91	540.32
672.25	536.73
672.58	533.16
672.92	529.72
673.26	526.51
673.60	523.29
673.94	520.17
674.28	517.22
674.62	514.24
674.96	511.16
675.30	508.28
675.64	505.34
675.97	502.55
676.31	499.65
676.65	496.65
676.99	493.90
677.33	491.05
677.67	488.21
678.01	485.14
678.34	482.20
678.68	479.29
679.02	476.52
679.36	473.73
679.70	470.97
680.04	468.23
680.37	465.34
680.71	462.54
681.05	459.91
681.39	457.20
681.73	454.49
682.06	451.93
682.40	449.38
682.74	446.83
683.08	444.24
683.42	441.59
683.75	439.06
684.09	436.45
684.43	433.88
684.77	431.44
685.10	429.07
685.44	426.70
685.78	424.38
686.12	422.03
686.45	419.71
686.79	417.39
687.13	415.09
687.46	412.89
687.80	410.67
688.14	408.35
688.48	406.27
688.81	404.09
689.15	401.89
689.49	399.71
689.82	397.61
690.16	395.49
690.50	393.56
690.83	391.62
691.17	389.61
691.51	387.73
691.84	385.82
692.18	383.88
692.52	381.92
692.85	379.98
693.19	378.10
693.52	376.24
693.86	374.40
694.20	372.61
694.53	370.81
694.87	368.96
695.21	367.16
695.54	365.25
695.88	363.51
696.21	361.76
696.55	360.01
696.88	358.31
697.22	356.64
697.56	354.99
697.89	353.31
698.23	351.71
698.56	350.09
698.90	348.47
699.23	346.86
699.57	345.26
699.90	343.66
700.24	342.09
700.58	340.55
700.91	339.07
701.25	337.64
701.58	336.26
701.92	334.88
702.25	333.50
702.59	332.17
702.92	330.81
703.26	329.52
703.59	328.25
703.93	327.02
704.26	325.78
704.60	324.46
704.93	323.18
705.26	321.92
705.60	320.69
705.93	319.53
706.27	318.45
706.60	317.40
706.94	316.33
707.27	315.22
707.61	314.10
707.94	313.07
708.27	311.93
708.61	310.77
708.94	309.76
709.28	308.74
709.61	307.74
709.94	306.73
710.28	305.67
710.61	304.64
710.95	303.54
711.28	302.64
711.61	301.69
711.95	300.76
712.28	299.83
712.61	298.83
712.95	297.85
713.28	296.94
713.61	295.98
713.95	295.08
714.28	294.18
714.61	293.31
714.95	292.40
715.28	291.55
715.61	290.68
715.95	289.80
716.28	288.90
716.61	288.04
716.95	287.23
717.28	286.46
717.61	285.71
717.94	284.96
718.28	284.10
718.61	283.36
718.94	282.60
719.27	281.89
719.61	281.23
719.94	280.56
720.27	279.82
720.60	279.17
720.94	278.50
721.27	277.92
721.60	277.33
721.93	276.74
722.27	276.16
722.60	275.62
722.93	275.07
723.26	274.57
723.59	274.04
723.93	273.48
724.26	272.92
724.59	272.29
724.92	271.76
725.25	271.24
725.59	270.70
725.92	270.22
726.25	269.67
726.58	269.16
726.91	268.66
727.24	268.15
727.57	267.64
727.91	267.12
728.24	266.60
728.57	266.11
728.90	265.63
729.23	265.15
729.56	264.72
729.89	264.19
730.22	263.70
730.55	263.19
730.89	262.76
731.22	262.32
731.55	261.93
731.88	261.50
732.21	261.07
732.54	260.63
732.87	260.19
733.20	259.78
733.53	259.42
733.86	259.03
734.19	258.62
734.52	258.24
734.85	257.96
735.18	257.58
735.51	257.18
735.84	256.83
736.17	256.43
736.50	256.00
736.83	255.81
737.16	255.47
737.49	255.14
737.82	254.77
738.15	254.41
738.48	254.04
738.81	253.72
739.14	253.37
739.47	253.08
739.80	252.76
740.13	252.51
740.46	252.16
740.79	251.83
741.12	251.55
741.45	251.26
741.78	250.91
742.11	250.56
742.44	250.26
742.77	249.96
743.10	249.67
743.43	249.38
743.75	248.97
744.08	248.80
744.41	248.53
744.74	248.24
745.07	247.99
745.40	247.74
745.73	247.47
746.06	247.18
746.39	246.90
746.71	246.59
747.04	246.28
747.37	246.02
747.70	245.75
748.03	245.51
748.36	245.24
748.68	244.99
749.01	244.75
749.34	244.53
749.67	244.29
750.00	244.07
750.33	243.93
750.65	243.72
750.98	243.40
751.31	243.17
751.64	243.00
751.97	242.80
752.29	242.57
752.62	242.31
752.95	242.10
753.28	241.89
753.60	241.69
753.93	241.49
754.26	241.30
754.59	241.10
754.91	240.89
755.24	240.69
755.57	240.45
755.90	240.27
756.22	240.07
756.55	239.87
756.88	239.69
757.20	239.42
757.53	239.17
757.86	239.00
758.19	238.83
758.51	238.65
758.84	238.42
759.17	238.25
759.49	238.09
759.82	237.97
760.15	237.79
760.47	237.62
760.80	237.43
761.13	237.27
761.45	237.09
761.78	236.90
762.11	236.74
762.43	236.60
762.76	236.43
763.08	236.28
763.41	236.15
763.74	236.02
764.06	235.87
764.39	235.74
764.71	235.58
765.04	235.43
765.37	235.26
765.69	235.11
766.02	234.97
766.34	234.85
766.67	234.70
767.00	234.62
767.32	234.54
767.65	234.49
767.97	234.34
768.30	234.26
768.62	234.19
768.95	234.07
769.27	233.94
769.60	233.87
769.92	233.75
770.25	233.62
770.57	233.46
770.90	233.36
771.22	233.28
771.55	233.16
771.87	233.09
772.20	232.98
772.52	233.02
772.85	233.09
773.17	232.99
773.50	232.88
773.82	232.78
774.15	232.69
774.47	232.56
774.80	232.48
775.12	232.40
775.45	232.30
775.77	232.23
776.09	232.16
776.42	232.11
776.74	232.07
777.07	232.03
777.39	231.97
777.72	231.90
778.04	231.83
778.36	231.80
778.69	231.70
779.01	231.64
779.33	231.49
779.66	231.26
779.98	231.22
780.31	231.16
780.63	231.15
780.95	231.13
781.28	231.06
781.60	230.98
781.92	230.92
782.25	230.85
782.57	230.78
782.89	230.74
783.22	230.65
783.54	230.56
783.86	230.50
784.19	230.43
784.51	230.40
784.83	230.32
785.16	230.28
785.48	230.24
785.80	230.20
786.12	230.15
786.45	230.11
786.77	230.05
787.09	230.03
