SpectraSuite Data File
++++++++++++++++++++++++++++++++++++
Date: Fri Feb 01 17:50:07 EST 2013
User: group
Dark Spectrum Present: No
Reference Spectrum Present: No
Number of Sampled Component Spectra: 1
Spectrometers: USB2E7196
Integration Time (usec): 35000 (USB2E7196)
Spectra Averaged: 100 (USB2E7196)
Boxcar Smoothing: 10 (USB2E7196)
Correct for Electrical Dark: No (USB2E7196)
Strobe/Lamp Enabled: No (USB2E7196)
Correct for Detector Non-linearity: No (USB2E7196)
Correct for Stray Light: No (USB2E7196)
Number of Pixels in Processed Spectrum: 2048
>>>>>Begin Processed Spectral Data<<<<<
339.09	0.00
339.48	213.11
339.86	213.92
340.24	214.74
340.63	217.24
341.01	219.99
341.39	219.79
341.78	220.16
342.16	221.99
342.54	222.91
342.93	211.07
343.31	221.70
343.69	222.22
344.07	222.66
344.46	223.12
344.84	223.49
345.22	223.71
345.60	223.94
345.99	224.16
346.37	224.31
346.75	224.39
347.13	224.48
347.52	224.53
347.90	224.58
348.28	224.68
348.66	224.73
349.05	224.73
349.43	224.78
349.81	224.80
350.19	224.86
350.57	224.92
350.96	224.98
351.34	225.09
351.72	225.21
352.10	225.34
352.48	225.42
352.87	225.45
353.25	225.53
353.63	225.58
354.01	225.66
354.39	225.69
354.77	225.78
355.15	225.90
355.54	225.95
355.92	225.98
356.30	226.03
356.68	226.19
357.06	226.27
357.44	226.31
357.82	226.37
358.20	226.42
358.58	226.47
358.97	226.53
359.35	226.63
359.73	226.69
360.11	226.73
360.49	226.80
360.87	226.91
361.25	226.96
361.63	227.08
362.01	227.10
362.39	227.15
362.77	227.21
363.15	227.23
363.53	227.28
363.91	227.34
364.29	227.35
364.67	227.27
365.05	227.29
365.43	227.33
365.81	227.35
366.19	227.42
366.57	227.48
366.95	227.49
367.33	227.46
367.71	227.44
368.09	227.47
368.47	227.45
368.85	227.40
369.23	227.42
369.61	227.34
369.99	227.35
370.37	227.37
370.75	227.38
371.13	227.33
371.51	227.30
371.89	227.29
372.27	227.25
372.65	227.21
373.03	227.19
373.41	227.13
373.78	227.10
374.16	227.01
374.54	226.93
374.92	226.88
375.30	226.81
375.68	226.75
376.06	226.71
376.44	226.65
376.82	226.59
377.19	226.51
377.57	226.46
377.95	226.39
378.33	226.31
378.71	226.21
379.09	226.15
379.47	226.13
379.84	226.04
380.22	225.97
380.60	225.90
380.98	225.85
381.36	225.79
381.73	225.69
382.11	225.63
382.49	225.56
382.87	225.52
383.25	225.49
383.62	225.52
384.00	225.46
384.38	225.41
384.76	225.37
385.13	225.35
385.51	225.32
385.89	225.26
386.27	225.19
386.64	225.14
387.02	225.09
387.40	225.03
387.78	224.98
388.15	224.97
388.53	224.92
388.91	224.86
389.29	224.84
389.66	224.84
390.04	224.79
390.42	224.79
390.79	224.75
391.17	224.71
391.55	224.59
391.92	224.55
392.30	224.54
392.68	224.54
393.05	224.50
393.43	224.50
393.81	224.49
394.18	224.49
394.56	224.50
394.94	224.54
395.31	224.52
395.69	224.56
396.06	224.58
396.44	224.64
396.82	224.66
397.19	224.74
397.57	224.76
397.95	224.80
398.32	224.83
398.70	224.87
399.07	224.94
399.45	224.99
399.82	225.04
400.20	225.09
400.58	225.17
400.95	225.22
401.33	225.31
401.70	225.48
402.08	225.58
402.45	225.66
402.83	225.79
403.20	225.91
403.58	226.04
403.95	226.18
404.33	226.31
404.71	226.47
405.08	226.65
405.46	226.80
405.83	226.99
406.21	227.14
406.58	227.32
406.96	227.49
407.33	227.72
407.70	227.96
408.08	228.30
408.45	228.53
408.83	228.82
409.20	229.05
409.58	229.27
409.95	229.62
410.33	229.96
410.70	230.27
411.08	230.62
411.45	231.01
411.82	231.37
412.20	231.79
412.57	232.26
412.95	232.65
413.32	233.14
413.69	233.68
414.07	234.26
414.44	234.88
414.82	235.52
415.19	236.21
415.56	236.93
415.94	237.63
416.31	238.46
416.68	239.28
417.06	240.23
417.43	241.13
417.81	242.08
418.18	243.10
418.55	244.20
418.93	245.33
419.30	246.49
419.67	247.73
420.04	248.98
420.42	250.31
420.79	251.84
421.16	253.38
421.54	254.89
421.91	256.47
422.28	258.12
422.66	259.88
423.03	261.60
423.40	263.33
423.77	265.20
424.15	267.05
424.52	269.01
424.89	271.13
425.26	273.15
425.64	275.07
426.01	277.17
426.38	279.30
426.75	281.51
427.13	283.75
427.50	286.13
427.87	288.57
428.24	290.99
428.61	293.29
428.99	295.81
429.36	298.55
429.73	301.26
430.10	303.90
430.47	306.61
430.85	309.40
431.22	312.32
431.59	315.37
431.96	318.34
432.33	321.56
432.70	324.64
433.08	328.32
433.45	331.76
433.82	335.09
434.19	338.90
434.56	342.54
434.93	346.07
435.30	349.48
435.68	353.27
436.05	356.95
436.42	360.63
436.79	363.88
437.16	367.42
437.53	371.14
437.90	374.88
438.27	378.41
438.64	382.09
439.01	385.47
439.38	388.38
439.75	391.17
440.13	394.48
440.50	397.57
440.87	399.98
441.24	402.55
441.61	405.41
441.98	407.34
442.35	409.71
442.72	412.07
443.09	414.47
443.46	415.84
443.83	416.66
444.20	417.32
444.57	418.46
444.94	418.84
445.31	419.27
445.68	419.62
446.05	419.74
446.42	419.23
446.79	418.69
447.16	418.18
447.53	417.80
447.90	416.26
448.27	414.73
448.64	412.66
449.01	411.16
449.37	408.63
449.74	406.16
450.11	403.23
450.48	400.05
450.85	396.78
451.22	393.88
451.59	391.19
451.96	388.64
452.33	385.24
452.70	382.17
453.07	378.49
453.43	374.81
453.80	371.20
454.17	367.71
454.54	364.39
454.91	360.79
455.28	357.29
455.65	354.03
456.02	350.80
456.38	347.97
456.75	344.44
457.12	341.47
457.49	338.52
457.86	335.69
458.23	333.20
458.59	330.43
458.96	327.71
459.33	325.29
459.70	322.90
460.07	320.96
460.43	318.69
460.80	316.52
461.17	314.57
461.54	312.58
461.91	310.72
462.27	308.80
462.64	307.16
463.01	305.35
463.38	303.59
463.74	301.83
464.11	300.31
464.48	299.01
464.85	297.55
465.21	296.40
465.58	295.19
465.95	293.75
466.32	292.61
466.68	291.48
467.05	290.29
467.42	289.04
467.78	287.78
468.15	286.63
468.52	285.75
468.88	284.61
469.25	283.57
469.62	282.73
469.98	281.89
470.35	281.05
470.72	280.26
471.08	279.45
471.45	278.71
471.82	277.98
472.18	277.13
472.55	276.51
472.92	275.85
473.28	275.22
473.65	274.64
474.02	274.02
474.38	273.47
474.75	273.00
475.11	272.56
475.48	272.18
475.85	271.86
476.21	271.54
476.58	271.25
476.94	271.03
477.31	270.76
477.67	270.49
478.04	270.30
478.41	270.16
478.77	270.12
479.14	269.94
479.50	269.90
479.87	269.99
480.23	270.02
480.60	270.02
480.96	270.04
481.33	270.20
481.69	270.38
482.06	270.52
482.42	270.67
482.79	270.89
483.15	271.18
483.52	271.52
483.88	271.83
484.25	272.20
484.61	272.63
484.98	273.05
485.34	273.59
485.71	274.15
486.07	274.76
486.44	275.29
486.80	276.07
487.17	276.78
487.53	277.61
487.90	278.47
488.26	279.44
488.62	280.44
488.99	281.43
489.35	282.47
489.72	283.64
490.08	284.93
490.44	286.22
490.81	287.60
491.17	288.97
491.54	290.53
491.90	292.08
492.26	293.77
492.63	295.58
492.99	297.42
493.36	299.38
493.72	301.54
494.08	303.81
494.45	306.10
494.81	308.57
495.17	311.09
495.54	313.81
495.90	316.62
496.26	319.57
496.63	322.67
496.99	325.93
497.35	329.35
497.72	332.91
498.08	336.61
498.44	340.48
498.80	344.58
499.17	348.77
499.53	353.21
499.89	357.81
500.26	362.54
500.62	367.42
500.98	372.68
501.34	377.96
501.71	383.45
502.07	389.27
502.43	395.20
502.79	401.33
503.16	407.66
503.52	414.31
503.88	421.04
504.24	428.04
504.60	435.33
504.97	442.84
505.33	450.59
505.69	458.75
506.05	466.96
506.41	475.37
506.78	483.96
507.14	492.88
507.50	502.11
507.86	511.59
508.22	521.33
508.59	531.05
508.95	541.27
509.31	551.71
509.67	562.31
510.03	573.15
510.39	584.29
510.75	595.76
511.12	607.29
511.48	619.30
511.84	631.50
512.20	643.74
512.56	656.39
512.92	669.33
513.28	682.46
513.64	695.72
514.00	709.22
514.37	722.98
514.73	736.92
515.09	750.76
515.45	764.93
515.81	779.50
516.17	794.38
516.53	809.38
516.89	824.64
517.25	839.78
517.61	855.25
517.97	870.74
518.33	886.12
518.69	902.04
519.05	918.00
519.41	934.21
519.77	950.85
520.13	967.44
520.49	984.00
520.85	1000.42
521.21	1017.27
521.57	1034.71
521.93	1051.80
522.29	1069.48
522.65	1087.08
523.01	1104.64
523.37	1122.01
523.73	1139.51
524.09	1157.06
524.45	1174.58
524.81	1192.65
525.17	1210.77
525.53	1229.18
525.89	1247.74
526.25	1266.05
526.61	1284.02
526.97	1302.30
527.33	1320.24
527.68	1338.39
528.04	1356.40
528.40	1374.62
528.76	1393.38
529.12	1411.59
529.48	1430.20
529.84	1447.69
530.20	1465.99
530.56	1484.65
530.91	1503.73
531.27	1522.38
531.63	1540.57
531.99	1558.85
532.35	1576.66
532.71	1594.57
533.07	1612.62
533.42	1630.21
533.78	1648.00
534.14	1666.05
534.50	1683.25
534.86	1700.95
535.21	1718.03
535.57	1735.77
535.93	1753.10
536.29	1769.73
536.65	1786.60
537.00	1803.02
537.36	1820.34
537.72	1836.67
538.08	1853.05
538.44	1868.73
538.79	1884.41
539.15	1899.76
539.51	1915.47
539.87	1931.59
540.22	1947.01
540.58	1962.72
540.94	1977.73
541.29	1992.64
541.65	2007.33
542.01	2022.51
542.37	2036.91
542.72	2051.12
543.08	2065.01
543.44	2079.57
543.79	2092.80
544.15	2105.80
544.51	2119.46
544.87	2132.50
545.22	2145.36
545.58	2157.53
545.94	2169.05
546.29	2180.80
546.65	2192.77
547.01	2204.02
547.36	2214.72
547.72	2225.16
548.07	2234.87
548.43	2245.01
548.79	2254.63
549.14	2264.03
549.50	2273.06
549.86	2282.37
550.21	2291.56
550.57	2300.40
550.92	2308.67
551.28	2317.45
551.64	2326.35
551.99	2334.69
552.35	2342.47
552.70	2350.43
553.06	2358.18
553.41	2366.48
553.77	2374.15
554.13	2381.81
554.48	2389.69
554.84	2396.98
555.19	2403.69
555.55	2410.47
555.90	2416.45
556.26	2423.02
556.61	2429.31
556.97	2435.24
557.32	2440.94
557.68	2446.61
558.03	2452.44
558.39	2457.45
558.74	2463.65
559.10	2468.93
559.45	2473.79
559.81	2479.42
560.16	2484.50
560.52	2489.01
560.87	2493.53
561.23	2497.45
561.58	2501.63
561.94	2505.26
562.29	2508.62
562.64	2512.78
563.00	2516.37
563.35	2521.13
563.71	2525.48
564.06	2529.77
564.42	2533.87
564.77	2537.56
565.12	2541.01
565.48	2543.93
565.83	2547.04
566.19	2549.40
566.54	2551.11
566.89	2553.42
567.25	2555.02
567.60	2557.26
567.96	2560.09
568.31	2561.87
568.66	2563.91
569.02	2565.34
569.37	2566.50
569.72	2568.14
570.08	2569.03
570.43	2569.91
570.78	2570.17
571.14	2569.22
571.49	2568.37
571.84	2568.44
572.20	2567.89
572.55	2567.29
572.90	2566.10
573.26	2565.10
573.61	2563.66
573.96	2562.49
574.31	2559.68
574.67	2556.95
575.02	2553.48
575.37	2550.15
575.72	2546.66
576.08	2543.44
576.43	2540.15
576.78	2536.58
577.13	2533.41
577.49	2530.17
577.84	2526.77
578.19	2522.93
578.54	2519.36
578.90	2515.28
579.25	2509.55
579.60	2504.48
579.95	2499.16
580.30	2494.00
580.66	2488.59
581.01	2483.47
581.36	2478.23
581.71	2474.18
582.06	2469.51
582.42	2464.88
582.77	2459.25
583.12	2454.37
583.47	2449.53
583.82	2444.35
584.17	2438.85
584.53	2433.15
584.88	2427.36
585.23	2421.28
585.58	2415.43
585.93	2409.54
586.28	2404.26
586.63	2399.02
586.98	2393.50
587.34	2388.54
587.69	2383.18
588.04	2377.69
588.39	2371.49
588.74	2364.34
589.09	2357.41
589.44	2350.03
589.79	2343.17
590.14	2337.01
590.49	2329.56
590.84	2322.46
591.19	2315.85
591.54	2308.68
591.89	2300.66
592.25	2293.16
592.60	2285.11
592.95	2276.76
593.30	2268.52
593.65	2260.06
594.00	2252.01
594.35	2243.93
594.70	2234.99
595.05	2226.99
595.40	2218.68
595.75	2210.25
596.10	2203.47
596.45	2195.98
596.80	2189.03
597.15	2181.76
597.50	2173.81
597.85	2166.71
598.19	2159.18
598.54	2151.17
598.89	2143.64
599.24	2136.81
599.59	2129.27
599.94	2122.17
600.29	2115.05
600.64	2107.69
600.99	2099.39
601.34	2091.66
601.69	2083.81
602.04	2076.10
602.39	2067.74
602.74	2059.94
603.08	2052.25
603.43	2044.27
603.78	2035.81
604.13	2027.51
604.48	2019.35
604.83	2011.63
605.18	2003.86
605.53	1994.74
605.87	1985.67
606.22	1977.40
606.57	1968.19
606.92	1959.57
607.27	1951.44
607.62	1943.39
607.96	1934.96
608.31	1927.33
608.66	1918.68
609.01	1909.97
609.36	1901.19
609.70	1892.04
610.05	1882.76
610.40	1873.87
610.75	1864.58
611.10	1855.90
611.44	1846.15
611.79	1836.71
612.14	1826.70
612.49	1816.01
612.83	1806.27
613.18	1796.94
613.53	1787.59
613.88	1777.91
614.22	1768.43
614.57	1758.36
614.92	1749.24
615.27	1740.55
615.61	1731.02
615.96	1721.71
616.31	1712.89
616.65	1704.33
617.00	1695.68
617.35	1686.87
617.70	1677.32
618.04	1667.39
618.39	1657.78
618.74	1649.06
619.08	1639.62
619.43	1630.64
619.78	1622.63
620.12	1614.43
620.47	1605.53
620.82	1596.08
621.16	1587.42
621.51	1578.62
621.85	1569.86
622.20	1559.82
622.55	1550.08
622.89	1540.90
623.24	1532.04
623.59	1523.32
623.93	1514.53
624.28	1506.15
624.62	1497.34
624.97	1489.04
625.32	1481.16
625.66	1473.06
626.01	1464.65
626.35	1456.08
626.70	1447.24
627.04	1438.27
627.39	1429.26
627.73	1420.73
628.08	1412.60
628.43	1404.29
628.77	1395.93
629.12	1387.29
629.46	1379.07
629.81	1370.48
630.15	1362.05
630.50	1353.56
630.84	1344.23
631.19	1335.10
631.53	1326.30
631.88	1317.60
632.22	1308.82
632.57	1300.40
632.91	1291.57
633.26	1283.11
633.60	1274.52
633.95	1266.24
634.29	1258.08
634.64	1250.38
634.98	1242.03
635.32	1233.86
635.67	1226.13
636.01	1218.38
636.36	1210.45
636.70	1202.89
637.05	1195.38
637.39	1187.98
637.73	1180.38
638.08	1173.50
638.42	1166.63
638.77	1159.25
639.11	1151.72
639.45	1144.39
639.80	1136.76
640.14	1129.56
640.49	1122.10
640.83	1114.83
641.17	1107.68
641.52	1100.42
641.86	1092.91
642.20	1086.09
642.55	1078.73
642.89	1071.26
643.23	1063.66
643.58	1057.13
643.92	1050.10
644.26	1043.22
644.61	1036.26
644.95	1029.47
645.29	1022.01
645.64	1014.28
645.98	1006.99
646.32	1000.24
646.66	993.32
647.01	986.71
647.35	980.05
647.69	973.31
648.04	966.95
648.38	960.40
648.72	953.68
649.06	946.89
649.41	940.14
649.75	933.47
650.09	926.79
650.43	920.22
650.78	913.06
651.12	906.25
651.46	899.66
651.80	893.16
652.14	886.97
652.49	880.79
652.83	874.92
653.17	868.50
653.51	862.11
653.85	856.05
654.20	849.64
654.54	842.87
654.88	836.35
655.22	829.66
655.56	823.16
655.90	816.84
656.25	810.78
656.59	804.67
656.93	798.85
657.27	792.94
657.61	786.74
657.95	781.02
658.29	775.22
658.64	769.17
658.98	763.04
659.32	756.85
659.66	750.99
660.00	744.97
660.34	739.30
660.68	733.61
661.02	727.69
661.36	722.30
661.70	717.10
662.05	712.17
662.39	707.25
662.73	702.15
663.07	697.12
663.41	692.07
663.75	686.99
664.09	681.75
664.43	676.73
664.77	672.11
665.11	667.21
665.45	662.52
665.79	657.94
666.13	653.29
666.47	648.59
666.81	643.86
667.15	639.19
667.49	634.78
667.83	630.48
668.17	626.12
668.51	621.50
668.85	616.94
669.19	612.50
669.53	608.17
669.87	603.85
670.21	599.68
670.55	595.55
670.89	591.62
671.23	587.74
671.57	583.75
671.91	579.73
672.25	575.75
672.58	571.74
672.92	567.79
673.26	564.28
673.60	560.69
673.94	557.19
674.28	553.80
674.62	550.41
674.96	546.83
675.30	543.47
675.64	540.14
675.97	536.98
676.31	533.75
676.65	530.45
676.99	527.31
677.33	524.08
677.67	520.88
678.01	517.43
678.34	514.06
678.68	510.83
679.02	507.62
679.36	504.50
679.70	501.39
680.04	498.30
680.37	494.96
680.71	491.80
681.05	488.79
681.39	485.77
681.73	482.77
682.06	479.93
682.40	477.10
682.74	474.24
683.08	471.30
683.42	468.31
683.75	465.46
684.09	462.55
684.43	459.75
684.77	456.97
685.10	454.29
685.44	451.66
685.78	449.02
686.12	446.41
686.45	443.79
686.79	441.22
687.13	438.73
687.46	436.28
687.80	433.76
688.14	431.19
688.48	428.77
688.81	426.19
689.15	423.73
689.49	421.25
689.82	418.81
690.16	416.45
690.50	414.27
690.83	412.11
691.17	409.87
691.51	407.67
691.84	405.53
692.18	403.42
692.52	401.16
692.85	398.93
693.19	396.79
693.52	394.67
693.86	392.53
694.20	390.49
694.53	388.47
694.87	386.42
695.21	384.40
695.54	382.35
695.88	380.40
696.21	378.41
696.55	376.47
696.88	374.54
697.22	372.63
697.56	370.72
697.89	368.79
698.23	366.97
698.56	365.14
698.90	363.32
699.23	361.39
699.57	359.63
699.90	357.86
700.24	356.13
700.58	354.42
700.91	352.76
701.25	351.10
701.58	349.52
701.92	347.97
702.25	346.38
702.59	344.82
702.92	343.34
703.26	341.87
703.59	340.42
703.93	339.08
704.26	337.71
704.60	336.26
704.93	334.80
705.26	333.33
705.60	331.93
705.93	330.61
706.27	329.43
706.60	328.23
706.94	327.00
707.27	325.69
707.61	324.44
707.94	323.22
708.27	321.99
708.61	320.71
708.94	319.52
709.28	318.39
709.61	317.31
709.94	316.19
710.28	315.02
710.61	313.90
710.95	312.67
711.28	311.63
711.61	310.51
711.95	309.46
712.28	308.36
712.61	307.24
712.95	306.16
713.28	305.14
713.61	304.09
713.95	303.09
714.28	302.12
714.61	301.15
714.95	300.19
715.28	299.20
715.61	298.19
715.95	297.23
716.28	296.24
716.61	295.27
716.95	294.32
717.28	293.46
717.61	292.57
717.94	291.74
718.28	290.79
718.61	289.97
718.94	289.20
719.27	288.47
719.61	287.77
719.94	287.04
720.27	286.20
720.60	285.42
720.94	284.68
721.27	284.02
721.60	283.33
721.93	282.66
722.27	282.02
722.60	281.38
722.93	280.72
723.26	280.13
723.59	279.47
723.93	278.83
724.26	278.17
724.59	277.50
724.92	276.87
725.25	276.31
725.59	275.73
725.92	275.12
726.25	274.52
726.58	273.95
726.91	273.38
727.24	272.86
727.57	272.34
727.91	271.80
728.24	271.25
728.57	270.67
728.90	270.14
729.23	269.59
729.56	269.13
729.89	268.58
730.22	268.00
730.55	267.51
730.89	267.02
731.22	266.51
731.55	266.05
731.88	265.58
732.21	265.05
732.54	264.57
732.87	264.07
733.20	263.62
733.53	263.17
733.86	262.73
734.19	262.30
734.52	261.85
734.85	261.47
735.18	261.01
735.51	260.63
735.84	260.23
736.17	259.84
736.50	259.35
736.83	259.07
737.16	258.72
737.49	258.31
737.82	257.90
738.15	257.54
738.48	257.14
738.81	256.77
739.14	256.38
739.47	256.01
739.80	255.68
740.13	255.33
740.46	254.92
740.79	254.58
741.12	254.19
741.45	253.86
741.78	253.43
742.11	253.10
742.44	252.74
742.77	252.39
743.10	252.04
743.43	251.72
743.75	251.31
744.08	251.10
744.41	250.79
744.74	250.48
745.07	250.17
745.40	249.90
745.73	249.62
746.06	249.32
746.39	249.05
746.71	248.69
747.04	248.38
747.37	248.10
747.70	247.79
748.03	247.51
748.36	247.23
748.68	246.97
749.01	246.66
749.34	246.39
749.67	246.13
750.00	245.85
750.33	245.68
750.65	245.45
750.98	245.08
751.31	244.85
751.64	244.58
751.97	244.38
752.29	244.10
752.62	243.82
752.95	243.57
753.28	243.31
753.60	243.13
753.93	242.93
754.26	242.69
754.59	242.46
754.91	242.19
755.24	241.96
755.57	241.75
755.90	241.57
756.22	241.36
756.55	241.11
756.88	240.92
757.20	240.65
757.53	240.44
757.86	240.28
758.19	240.08
758.51	239.89
758.84	239.64
759.17	239.47
759.49	239.29
759.82	239.12
760.15	238.96
760.47	238.77
760.80	238.57
761.13	238.44
761.45	238.26
761.78	238.14
762.11	237.98
762.43	237.81
762.76	237.64
763.08	237.50
763.41	237.35
763.74	237.18
764.06	237.03
764.39	236.81
764.71	236.63
765.04	236.46
765.37	236.34
765.69	236.19
766.02	236.04
766.34	235.90
766.67	235.76
767.00	235.63
767.32	235.54
767.65	235.47
767.97	235.31
768.30	235.20
768.62	235.03
768.95	234.89
769.27	234.74
769.60	234.63
769.92	234.50
770.25	234.37
770.57	234.23
770.90	234.10
771.22	234.01
771.55	233.86
771.87	233.78
772.20	233.64
772.52	233.61
772.85	233.61
773.17	233.52
773.50	233.38
773.82	233.26
774.15	233.11
774.47	232.96
774.80	232.88
775.12	232.75
775.45	232.70
775.77	232.62
776.09	232.58
776.42	232.50
776.74	232.41
777.07	232.33
777.39	232.26
777.72	232.16
778.04	232.08
778.36	232.03
778.69	231.94
779.01	231.88
779.33	231.72
779.66	231.54
779.98	231.45
780.31	231.42
780.63	231.39
780.95	231.33
781.28	231.25
781.60	231.14
781.92	231.11
782.25	231.04
782.57	230.93
782.89	230.83
783.22	230.75
783.54	230.64
783.86	230.55
784.19	230.52
784.51	230.50
784.83	230.45
785.16	230.38
785.48	230.30
785.80	230.25
786.12	230.21
786.45	230.13
