SpectraSuite Data File
++++++++++++++++++++++++++++++++++++
Date: Fri Feb 01 16:18:56 EST 2013
User: group
Dark Spectrum Present: No
Reference Spectrum Present: No
Number of Sampled Component Spectra: 1
Spectrometers: USB2E7196
Integration Time (usec): 35000 (USB2E7196)
Spectra Averaged: 100 (USB2E7196)
Boxcar Smoothing: 10 (USB2E7196)
Correct for Electrical Dark: No (USB2E7196)
Strobe/Lamp Enabled: No (USB2E7196)
Correct for Detector Non-linearity: No (USB2E7196)
Correct for Stray Light: No (USB2E7196)
Number of Pixels in Processed Spectrum: 2048
>>>>>Begin Processed Spectral Data<<<<<
339.09	0.00
339.48	213.70
339.86	215.46
340.24	216.76
340.63	217.66
341.01	221.10
341.39	220.50
341.78	222.51
342.16	223.25
342.54	223.25
342.93	212.17
343.31	222.88
343.69	223.40
344.07	223.83
344.46	224.23
344.84	224.62
345.22	224.82
345.60	225.07
345.99	225.23
346.37	225.37
346.75	225.52
347.13	225.57
347.52	225.60
347.90	225.62
348.28	225.67
348.66	225.73
349.05	225.72
349.43	225.77
349.81	225.81
350.19	225.84
350.57	225.95
350.96	226.02
351.34	226.12
351.72	226.23
352.10	226.35
352.48	226.45
352.87	226.51
353.25	226.60
353.63	226.68
354.01	226.75
354.39	226.83
354.77	226.90
355.15	227.02
355.54	227.12
355.92	227.21
356.30	227.29
356.68	227.38
357.06	227.46
357.44	227.52
357.82	227.62
358.20	227.74
358.58	227.77
358.97	227.86
359.35	227.93
359.73	228.00
360.11	228.03
360.49	228.09
360.87	228.17
361.25	228.25
361.63	228.35
362.01	228.38
362.39	228.41
362.77	228.44
363.15	228.46
363.53	228.48
363.91	228.52
364.29	228.57
364.67	228.53
365.05	228.54
365.43	228.55
365.81	228.57
366.19	228.62
366.57	228.68
366.95	228.66
367.33	228.67
367.71	228.67
368.09	228.75
368.47	228.71
368.85	228.67
369.23	228.67
369.61	228.60
369.99	228.64
370.37	228.66
370.75	228.70
371.13	228.67
371.51	228.61
371.89	228.58
372.27	228.52
372.65	228.48
373.03	228.45
373.41	228.41
373.78	228.34
374.16	228.22
374.54	228.17
374.92	228.08
375.30	228.00
375.68	227.92
376.06	227.81
376.44	227.79
376.82	227.74
377.19	227.64
377.57	227.60
377.95	227.49
378.33	227.40
378.71	227.26
379.09	227.19
379.47	227.15
379.84	227.07
380.22	226.98
380.60	226.90
380.98	226.86
381.36	226.77
381.73	226.70
382.11	226.65
382.49	226.57
382.87	226.49
383.25	226.42
383.62	226.50
384.00	226.42
384.38	226.36
384.76	226.31
385.13	226.28
385.51	226.20
385.89	226.13
386.27	226.06
386.64	226.05
387.02	225.97
387.40	225.94
387.78	225.88
388.15	225.84
388.53	225.80
388.91	225.75
389.29	225.70
389.66	225.67
390.04	225.62
390.42	225.62
390.79	225.62
391.17	225.59
391.55	225.44
391.92	225.47
392.30	225.45
392.68	225.40
393.05	225.41
393.43	225.41
393.81	225.40
394.18	225.41
394.56	225.38
394.94	225.44
395.31	225.44
395.69	225.49
396.06	225.54
396.44	225.56
396.82	225.56
397.19	225.67
397.57	225.67
397.95	225.73
398.32	225.72
398.70	225.79
399.07	225.87
399.45	225.91
399.82	225.94
400.20	225.99
400.58	226.06
400.95	226.10
401.33	226.19
401.70	226.33
402.08	226.41
402.45	226.49
402.83	226.61
403.20	226.71
403.58	226.78
403.95	226.90
404.33	227.07
404.71	227.18
405.08	227.33
405.46	227.48
405.83	227.59
406.21	227.77
406.58	227.93
406.96	228.07
407.33	228.23
407.70	228.42
408.08	228.68
408.45	228.90
408.83	229.10
409.20	229.30
409.58	229.51
409.95	229.77
410.33	230.06
410.70	230.28
411.08	230.56
411.45	230.91
411.82	231.21
412.20	231.53
412.57	231.96
412.95	232.25
413.32	232.64
413.69	233.06
414.07	233.48
414.44	233.96
414.82	234.43
415.19	235.02
415.56	235.59
415.94	236.14
416.31	236.78
416.68	237.41
417.06	238.17
417.43	238.84
417.81	239.65
418.18	240.40
418.55	241.29
418.93	242.17
419.30	243.05
419.67	244.00
420.04	244.95
420.42	245.98
420.79	247.16
421.16	248.33
421.54	249.58
421.91	250.80
422.28	252.07
422.66	253.43
423.03	254.74
423.40	256.08
423.77	257.50
424.15	258.98
424.52	260.52
424.89	262.11
425.26	263.68
425.64	265.11
426.01	266.74
426.38	268.42
426.75	270.10
427.13	271.84
427.50	273.65
427.87	275.53
428.24	277.35
428.61	279.16
428.99	281.13
429.36	283.20
429.73	285.22
430.10	287.24
430.47	289.28
430.85	291.38
431.22	293.60
431.59	296.00
431.96	298.18
432.33	300.65
432.70	303.02
433.08	305.79
433.45	308.43
433.82	311.03
434.19	313.88
434.56	316.65
434.93	319.28
435.30	321.88
435.68	324.79
436.05	327.59
436.42	330.32
436.79	332.83
437.16	335.50
437.53	338.36
437.90	341.16
438.27	343.90
438.64	346.72
439.01	349.35
439.38	351.56
439.75	353.73
440.13	356.22
440.50	358.51
440.87	360.36
441.24	362.29
441.61	364.41
441.98	365.87
442.35	367.69
442.72	369.54
443.09	371.35
443.46	372.33
443.83	372.94
444.20	373.45
444.57	374.24
444.94	374.55
445.31	374.88
445.68	375.19
446.05	375.25
446.42	374.85
446.79	374.37
447.16	373.87
447.53	373.49
447.90	372.27
448.27	371.15
448.64	369.58
449.01	368.43
449.37	366.44
449.74	364.52
450.11	362.26
450.48	359.75
450.85	357.21
451.22	355.09
451.59	353.03
451.96	351.06
452.33	348.49
452.70	346.13
453.07	343.32
453.43	340.44
453.80	337.67
454.17	335.00
454.54	332.48
454.91	329.82
455.28	327.19
455.65	324.72
456.02	322.27
456.38	320.11
456.75	317.42
457.12	315.22
457.49	312.99
457.86	310.84
458.23	309.01
458.59	306.99
458.96	304.88
459.33	303.04
459.70	301.23
460.07	299.71
460.43	298.00
460.80	296.37
461.17	294.96
461.54	293.44
461.91	292.05
462.27	290.61
462.64	289.33
463.01	288.00
463.38	286.74
463.74	285.40
464.11	284.25
464.48	283.29
464.85	282.17
465.21	281.34
465.58	280.45
465.95	279.37
466.32	278.46
466.68	277.58
467.05	276.69
467.42	275.81
467.78	274.90
468.15	274.02
468.52	273.35
468.88	272.52
469.25	271.83
469.62	271.18
469.98	270.50
470.35	269.88
470.72	269.28
471.08	268.62
471.45	268.13
471.82	267.58
472.18	266.98
472.55	266.52
472.92	266.01
473.28	265.55
473.65	265.12
474.02	264.68
474.38	264.31
474.75	264.02
475.11	263.68
475.48	263.39
475.85	263.17
476.21	262.97
476.58	262.77
476.94	262.59
477.31	262.44
477.67	262.31
478.04	262.25
478.41	262.19
478.77	262.28
479.14	262.20
479.50	262.24
479.87	262.29
480.23	262.43
480.60	262.51
480.96	262.60
481.33	262.85
481.69	263.02
482.06	263.22
482.42	263.40
482.79	263.66
483.15	264.02
483.52	264.39
483.88	264.75
484.25	265.14
484.61	265.58
484.98	266.02
485.34	266.59
485.71	267.17
486.07	267.77
486.44	268.32
486.80	269.03
487.17	269.74
487.53	270.55
487.90	271.37
488.26	272.29
488.62	273.26
488.99	274.21
489.35	275.26
489.72	276.41
490.08	277.60
490.44	278.84
490.81	280.18
491.17	281.56
491.54	283.05
491.90	284.55
492.26	286.19
492.63	287.94
492.99	289.75
493.36	291.64
493.72	293.69
494.08	295.74
494.45	298.01
494.81	300.36
495.17	302.83
495.54	305.41
495.90	308.11
496.26	310.95
496.63	313.91
496.99	317.08
497.35	320.29
497.72	323.70
498.08	327.19
498.44	330.85
498.80	334.80
499.17	338.85
499.53	343.07
499.89	347.43
500.26	351.94
500.62	356.62
500.98	361.58
501.34	366.73
501.71	372.12
502.07	377.58
502.43	383.22
502.79	389.05
503.16	395.18
503.52	401.50
503.88	407.91
504.24	414.60
504.60	421.47
504.97	428.67
505.33	436.02
505.69	443.81
506.05	451.58
506.41	459.44
506.78	467.58
507.14	476.08
507.50	484.88
507.86	493.88
508.22	503.02
508.59	512.26
508.95	521.79
509.31	531.54
509.67	541.61
510.03	551.92
510.39	562.52
510.75	573.32
511.12	584.26
511.48	595.63
511.84	607.07
512.20	618.57
512.56	630.59
512.92	642.77
513.28	655.11
513.64	667.55
514.00	680.32
514.37	693.30
514.73	706.34
515.09	719.35
515.45	732.65
515.81	746.32
516.17	760.29
516.53	774.46
516.89	788.76
517.25	802.98
517.61	817.39
517.97	831.83
518.33	846.19
518.69	860.93
519.05	875.84
519.41	890.95
519.77	906.54
520.13	921.98
520.49	937.47
520.85	952.90
521.21	968.62
521.57	984.81
521.93	1000.48
522.29	1016.84
522.65	1033.00
523.01	1049.23
523.37	1065.20
523.73	1081.41
524.09	1097.40
524.45	1113.56
524.81	1130.08
525.17	1146.81
525.53	1163.56
525.89	1180.40
526.25	1197.17
526.61	1213.55
526.97	1230.22
527.33	1246.56
527.68	1263.09
528.04	1279.40
528.40	1295.85
528.76	1312.88
529.12	1329.44
529.48	1346.38
529.84	1362.34
530.20	1378.95
530.56	1395.88
530.91	1413.29
531.27	1429.91
531.63	1446.39
531.99	1462.97
532.35	1478.95
532.71	1494.84
533.07	1511.13
533.42	1526.94
533.78	1542.94
534.14	1559.12
534.50	1574.51
534.86	1590.41
535.21	1605.57
535.57	1621.42
535.93	1636.86
536.29	1651.54
536.65	1666.43
537.00	1681.10
537.36	1696.21
537.72	1710.67
538.08	1725.05
538.44	1738.70
538.79	1752.61
539.15	1766.21
539.51	1779.80
539.87	1794.09
540.22	1807.74
540.58	1821.29
540.94	1834.70
541.29	1847.62
541.65	1860.21
542.01	1873.27
542.37	1885.45
542.72	1897.72
543.08	1909.47
543.44	1921.83
543.79	1932.99
544.15	1943.97
544.51	1955.54
544.87	1966.65
545.22	1977.46
545.58	1987.59
545.94	1997.27
546.29	2006.97
546.65	2016.77
547.01	2026.04
547.36	2034.60
547.72	2043.03
548.07	2050.89
548.43	2058.92
548.79	2066.81
549.14	2074.37
549.50	2081.74
549.86	2089.46
550.21	2096.74
550.57	2103.88
550.92	2110.37
551.28	2117.40
551.64	2124.51
551.99	2130.93
552.35	2137.05
552.70	2143.12
553.06	2149.12
553.41	2155.52
553.77	2161.52
554.13	2167.69
554.48	2173.78
554.84	2179.43
555.19	2184.75
555.55	2189.98
555.90	2194.49
556.26	2199.34
556.61	2204.09
556.97	2208.34
557.32	2212.42
557.68	2216.62
558.03	2220.91
558.39	2224.79
558.74	2229.53
559.10	2233.31
559.45	2236.95
559.81	2241.33
560.16	2245.23
560.52	2248.40
560.87	2251.78
561.23	2254.49
561.58	2257.41
561.94	2260.03
562.29	2262.26
562.64	2264.96
563.00	2267.54
563.35	2271.01
563.71	2274.16
564.06	2277.30
564.42	2280.20
564.77	2282.71
565.12	2284.95
565.48	2286.94
565.83	2288.74
566.19	2290.00
566.54	2290.94
566.89	2292.14
567.25	2292.60
567.60	2293.89
567.96	2295.68
568.31	2296.65
568.66	2297.78
569.02	2298.33
569.37	2298.58
569.72	2299.50
570.08	2299.73
570.43	2299.89
570.78	2299.35
571.14	2297.92
571.49	2296.58
571.84	2296.39
572.20	2295.38
572.55	2294.26
572.90	2292.60
573.26	2291.21
573.61	2289.64
573.96	2287.86
574.31	2284.86
574.67	2281.96
575.02	2278.46
575.37	2275.11
575.72	2271.28
576.08	2267.98
576.43	2264.69
576.78	2261.21
577.13	2257.98
577.49	2254.75
577.84	2251.15
578.19	2247.51
578.54	2243.87
578.90	2239.85
579.25	2234.33
579.60	2229.33
579.95	2224.42
580.30	2219.64
580.66	2214.44
581.01	2209.41
581.36	2204.80
581.71	2200.67
582.06	2196.22
582.42	2191.68
582.77	2186.55
583.12	2181.99
583.47	2177.47
583.82	2172.46
584.17	2167.15
584.53	2161.78
584.88	2156.27
585.23	2150.60
585.58	2145.13
585.93	2139.65
586.28	2134.79
586.63	2129.69
586.98	2124.81
587.34	2120.25
587.69	2115.24
588.04	2110.13
588.39	2104.56
588.74	2097.89
589.09	2091.85
589.44	2085.12
589.79	2079.10
590.14	2073.49
590.49	2067.06
590.84	2060.62
591.19	2054.73
591.54	2048.27
591.89	2041.08
592.25	2034.38
592.60	2027.13
592.95	2019.61
593.30	2012.41
593.65	2004.93
594.00	1997.89
594.35	1990.59
594.70	1982.60
595.05	1975.45
595.40	1968.16
595.75	1960.74
596.10	1954.56
596.45	1947.86
596.80	1941.67
597.15	1935.21
597.50	1928.18
597.85	1921.70
598.19	1915.03
598.54	1907.90
598.89	1901.26
599.24	1895.29
599.59	1888.58
599.94	1882.55
600.29	1876.26
600.64	1869.66
600.99	1862.23
601.34	1855.44
601.69	1848.51
602.04	1841.61
602.39	1834.24
602.74	1827.47
603.08	1820.67
603.43	1814.06
603.78	1806.65
604.13	1799.47
604.48	1792.09
604.83	1785.09
605.18	1778.17
605.53	1770.11
605.87	1762.15
606.22	1755.01
606.57	1747.15
606.92	1739.83
607.27	1732.71
607.62	1725.82
607.96	1718.60
608.31	1711.84
608.66	1704.25
609.01	1696.69
609.36	1689.25
609.70	1681.23
610.05	1673.29
610.40	1665.62
610.75	1657.29
611.10	1649.85
611.44	1641.50
611.79	1633.58
612.14	1624.97
612.49	1615.80
612.83	1607.50
613.18	1599.38
613.53	1591.24
613.88	1582.61
614.22	1574.32
614.57	1565.65
614.92	1557.58
615.27	1549.93
615.61	1541.65
615.96	1533.59
616.31	1525.95
616.65	1518.37
617.00	1510.88
617.35	1503.17
617.70	1494.86
618.04	1486.28
618.39	1477.92
618.74	1470.32
619.08	1461.96
619.43	1454.45
619.78	1447.44
620.12	1440.30
620.47	1432.74
620.82	1424.59
621.16	1417.20
621.51	1409.68
621.85	1402.12
622.20	1393.56
622.55	1385.23
622.89	1377.45
623.24	1369.87
623.59	1362.40
623.93	1355.02
624.28	1347.79
624.62	1340.13
624.97	1332.94
625.32	1326.11
625.66	1319.12
626.01	1311.91
626.35	1304.59
626.70	1296.79
627.04	1289.12
627.39	1281.22
627.73	1273.82
628.08	1266.89
628.43	1259.61
628.77	1252.17
629.12	1244.48
629.46	1237.28
629.81	1229.85
630.15	1222.52
630.50	1215.00
630.84	1206.88
631.19	1198.95
631.53	1191.35
631.88	1183.91
632.22	1176.33
632.57	1169.18
632.91	1161.66
633.26	1154.18
633.60	1146.70
633.95	1139.55
634.29	1132.54
634.64	1125.91
634.98	1118.47
635.32	1111.28
635.67	1104.66
636.01	1098.01
636.36	1091.15
636.70	1084.65
637.05	1078.06
637.39	1071.67
637.73	1065.20
638.08	1059.22
638.42	1053.14
638.77	1046.68
639.11	1040.02
639.45	1033.56
639.80	1026.92
640.14	1020.45
640.49	1014.02
640.83	1007.67
641.17	1001.45
641.52	995.07
641.86	988.63
642.20	982.75
642.55	976.43
642.89	969.96
643.23	963.39
643.58	957.72
643.92	951.56
644.26	945.50
644.61	939.45
644.95	933.38
645.29	926.78
645.64	920.06
645.98	913.81
646.32	907.96
646.66	901.94
647.01	896.07
647.35	890.35
647.69	884.42
648.04	878.94
648.38	873.12
648.72	867.08
649.06	860.99
649.41	855.10
649.75	849.16
650.09	843.19
650.43	837.41
650.78	831.20
651.12	825.16
651.46	819.43
651.80	813.70
652.14	808.30
652.49	802.97
652.83	797.80
653.17	792.02
653.51	786.27
653.85	780.88
654.20	775.23
654.54	769.18
654.88	763.39
655.22	757.46
655.56	751.69
655.90	746.24
656.25	741.01
656.59	735.62
656.93	730.48
657.27	725.29
657.61	719.84
657.95	714.74
658.29	709.58
658.64	704.27
658.98	698.93
659.32	693.50
659.66	688.26
660.00	682.82
660.34	677.90
660.68	672.96
661.02	667.92
661.36	663.20
661.70	658.70
662.05	654.38
662.39	650.07
662.73	645.66
663.07	641.25
663.41	636.76
663.75	632.33
664.09	627.79
664.43	623.42
664.77	619.25
665.11	614.98
665.45	610.94
665.79	606.88
666.13	602.75
666.47	598.66
666.81	594.55
667.15	590.45
667.49	586.60
667.83	582.75
668.17	578.80
668.51	574.72
668.85	570.71
669.19	566.84
669.53	562.99
669.87	559.11
670.21	555.44
670.55	551.83
670.89	548.42
671.23	544.97
671.57	541.44
671.91	537.91
672.25	534.43
672.58	530.88
672.92	527.51
673.26	524.32
673.60	521.13
673.94	517.99
674.28	515.12
674.62	512.16
674.96	509.08
675.30	506.18
675.64	503.23
675.97	500.44
676.31	497.62
676.65	494.65
676.99	491.92
677.33	489.06
677.67	486.21
678.01	483.16
678.34	480.17
678.68	477.27
679.02	474.44
679.36	471.66
679.70	469.00
680.04	466.20
680.37	463.33
680.71	460.57
681.05	457.92
681.39	455.23
681.73	452.54
682.06	450.03
682.40	447.46
682.74	444.95
683.08	442.38
683.42	439.74
683.75	437.24
684.09	434.69
684.43	432.20
684.77	429.75
685.10	427.35
685.44	425.06
685.78	422.76
686.12	420.49
686.45	418.21
686.79	415.86
687.13	413.64
687.46	411.44
687.80	409.26
688.14	407.08
688.48	404.96
688.81	402.67
689.15	400.51
689.49	398.34
689.82	396.22
690.16	394.10
690.50	392.17
690.83	390.24
691.17	388.24
691.51	386.37
691.84	384.51
692.18	382.57
692.52	380.56
692.85	378.65
693.19	376.85
693.52	374.98
693.86	373.17
694.20	371.38
694.53	369.59
694.87	367.74
695.21	365.93
695.54	364.10
695.88	362.42
696.21	360.68
696.55	358.98
696.88	357.28
697.22	355.67
697.56	354.04
697.89	352.36
698.23	350.77
698.56	349.11
698.90	347.48
699.23	345.87
699.57	344.34
699.90	342.75
700.24	341.11
700.58	339.59
700.91	338.09
701.25	336.71
701.58	335.36
701.92	333.98
702.25	332.59
702.59	331.22
702.92	329.88
703.26	328.55
703.59	327.27
703.93	326.06
704.26	324.81
704.60	323.48
704.93	322.21
705.26	320.94
705.60	319.74
705.93	318.56
706.27	317.53
706.60	316.48
706.94	315.42
707.27	314.35
707.61	313.29
707.94	312.25
708.27	311.09
708.61	310.00
708.94	308.95
709.28	307.95
709.61	306.99
709.94	306.04
710.28	305.06
710.61	304.07
710.95	303.01
711.28	302.11
711.61	301.16
711.95	300.23
712.28	299.28
712.61	298.32
712.95	297.45
713.28	296.54
713.61	295.62
713.95	294.74
714.28	293.86
714.61	292.97
714.95	292.10
715.28	291.26
715.61	290.37
715.95	289.56
716.28	288.71
716.61	287.90
716.95	287.05
717.28	286.25
717.61	285.49
717.94	284.77
718.28	283.93
718.61	283.22
718.94	282.55
719.27	281.90
719.61	281.26
719.94	280.58
720.27	279.87
720.60	279.21
720.94	278.55
721.27	277.98
721.60	277.39
721.93	276.81
722.27	276.29
722.60	275.74
722.93	275.18
723.26	274.66
723.59	274.09
723.93	273.54
724.26	272.98
724.59	272.43
724.92	271.90
725.25	271.37
725.59	270.86
725.92	270.33
726.25	269.81
726.58	269.33
726.91	268.82
727.24	268.33
727.57	267.87
727.91	267.37
728.24	266.92
728.57	266.45
728.90	265.98
729.23	265.45
729.56	265.01
729.89	264.52
730.22	264.03
730.55	263.57
730.89	263.11
731.22	262.71
731.55	262.26
731.88	261.86
732.21	261.46
732.54	261.01
732.87	260.57
733.20	260.17
733.53	259.76
733.86	259.39
734.19	259.02
734.52	258.62
734.85	258.33
735.18	257.88
735.51	257.54
735.84	257.18
736.17	256.84
736.50	256.44
736.83	256.22
737.16	255.87
737.49	255.54
737.82	255.21
738.15	254.89
738.48	254.52
738.81	254.21
739.14	253.90
739.47	253.61
739.80	253.35
740.13	253.04
740.46	252.71
740.79	252.36
741.12	252.04
741.45	251.74
741.78	251.40
742.11	251.13
742.44	250.81
742.77	250.51
743.10	250.19
743.43	249.91
743.75	249.52
744.08	249.42
744.41	249.13
744.74	248.86
745.07	248.57
745.40	248.35
745.73	248.08
746.06	247.78
746.39	247.50
746.71	247.20
747.04	246.93
747.37	246.67
747.70	246.46
748.03	246.21
748.36	245.97
748.68	245.69
749.01	245.45
749.34	245.21
749.67	244.98
750.00	244.76
750.33	244.61
750.65	244.40
750.98	244.04
751.31	243.81
751.64	243.58
751.97	243.43
752.29	243.19
752.62	242.93
752.95	242.74
753.28	242.52
753.60	242.29
753.93	242.12
754.26	241.96
754.59	241.70
754.91	241.47
755.24	241.28
755.57	241.08
755.90	240.88
756.22	240.67
756.55	240.43
756.88	240.21
757.20	239.95
757.53	239.73
757.86	239.56
758.19	239.36
758.51	239.22
758.84	238.97
759.17	238.82
759.49	238.66
759.82	238.51
760.15	238.35
760.47	238.22
760.80	238.07
761.13	237.88
761.45	237.73
761.78	237.56
762.11	237.38
762.43	237.23
762.76	237.06
763.08	236.95
763.41	236.82
763.74	236.69
764.06	236.58
764.39	236.45
764.71	236.29
765.04	236.18
765.37	236.07
765.69	235.94
766.02	235.79
766.34	235.67
766.67	235.55
767.00	235.46
767.32	235.38
767.65	235.28
767.97	235.19
768.30	235.09
768.62	235.01
768.95	234.92
769.27	234.80
769.60	234.72
769.92	234.60
770.25	234.50
770.57	234.42
770.90	234.33
771.22	234.22
771.55	234.15
771.87	234.05
772.20	233.93
772.52	233.95
772.85	233.96
773.17	233.85
773.50	233.76
773.82	233.65
774.15	233.53
774.47	233.41
774.80	233.32
775.12	233.25
775.45	233.18
775.77	233.11
776.09	233.07
776.42	233.01
776.74	232.96
777.07	232.88
777.39	232.81
777.72	232.72
778.04	232.69
778.36	232.59
778.69	232.55
779.01	232.51
779.33	232.33
779.66	232.18
779.98	232.11
780.31	232.06
780.63	232.02
780.95	231.97
781.28	231.91
781.60	231.84
781.92	231.79
782.25	231.71
782.57	231.66
782.89	231.58
783.22	231.52
783.54	231.44
783.86	231.40
784.19	231.31
784.51	231.28
784.83	231.19
785.16	231.16
785.48	231.11
785.80	231.04
786.12	231.02
786.45	230.98
786.77	230.94
787.09	230.87
