SpectraSuite Data File
++++++++++++++++++++++++++++++++++++
Date: Fri Feb 01 17:52:17 EST 2013
User: group
Dark Spectrum Present: No
Reference Spectrum Present: No
Number of Sampled Component Spectra: 1
Spectrometers: USB2E7196
Integration Time (usec): 35000 (USB2E7196)
Spectra Averaged: 100 (USB2E7196)
Boxcar Smoothing: 10 (USB2E7196)
Correct for Electrical Dark: No (USB2E7196)
Strobe/Lamp Enabled: No (USB2E7196)
Correct for Detector Non-linearity: No (USB2E7196)
Correct for Stray Light: No (USB2E7196)
Number of Pixels in Processed Spectrum: 2048
>>>>>Begin Processed Spectral Data<<<<<
339.09	0.00
339.48	212.83
339.86	214.02
340.24	215.38
340.63	216.51
341.01	219.97
341.39	219.50
341.78	220.99
342.16	221.64
342.54	222.25
342.93	211.04
343.31	221.71
343.69	222.24
344.07	222.70
344.46	223.16
344.84	223.55
345.22	223.79
345.60	224.06
345.99	224.24
346.37	224.39
346.75	224.51
347.13	224.58
347.52	224.64
347.90	224.70
348.28	224.76
348.66	224.82
349.05	224.83
349.43	224.89
349.81	224.93
350.19	225.02
350.57	225.10
350.96	225.20
351.34	225.28
351.72	225.38
352.10	225.50
352.48	225.58
352.87	225.65
353.25	225.72
353.63	225.80
354.01	225.88
354.39	225.95
354.77	226.03
355.15	226.13
355.54	226.20
355.92	226.27
356.30	226.31
356.68	226.45
357.06	226.52
357.44	226.53
357.82	226.58
358.20	226.63
358.58	226.69
358.97	226.76
359.35	226.82
359.73	226.93
360.11	226.98
360.49	227.02
360.87	227.09
361.25	227.13
361.63	227.20
362.01	227.24
362.39	227.26
362.77	227.29
363.15	227.32
363.53	227.34
363.91	227.36
364.29	227.41
364.67	227.32
365.05	227.35
365.43	227.38
365.81	227.39
366.19	227.44
366.57	227.48
366.95	227.46
367.33	227.44
367.71	227.39
368.09	227.38
368.47	227.34
368.85	227.32
369.23	227.32
369.61	227.23
369.99	227.25
370.37	227.25
370.75	227.29
371.13	227.24
371.51	227.18
371.89	227.15
372.27	227.07
372.65	227.02
373.03	226.94
373.41	226.90
373.78	226.86
374.16	226.76
374.54	226.66
374.92	226.61
375.30	226.56
375.68	226.50
376.06	226.45
376.44	226.39
376.82	226.30
377.19	226.24
377.57	226.18
377.95	226.06
378.33	225.99
378.71	225.86
379.09	225.81
379.47	225.77
379.84	225.71
380.22	225.66
380.60	225.60
380.98	225.59
381.36	225.49
381.73	225.41
382.11	225.34
382.49	225.29
382.87	225.23
383.25	225.17
383.62	225.22
384.00	225.12
384.38	225.10
384.76	225.08
385.13	225.04
385.51	224.97
385.89	224.93
386.27	224.89
386.64	224.82
387.02	224.75
387.40	224.70
387.78	224.65
388.15	224.62
388.53	224.56
388.91	224.52
389.29	224.50
389.66	224.53
390.04	224.52
390.42	224.50
390.79	224.49
391.17	224.45
391.55	224.33
391.92	224.32
392.30	224.31
392.68	224.29
393.05	224.30
393.43	224.32
393.81	224.34
394.18	224.35
394.56	224.39
394.94	224.43
395.31	224.46
395.69	224.52
396.06	224.53
396.44	224.58
396.82	224.61
397.19	224.71
397.57	224.74
397.95	224.78
398.32	224.81
398.70	224.86
399.07	224.97
399.45	225.03
399.82	225.10
400.20	225.12
400.58	225.17
400.95	225.22
401.33	225.32
401.70	225.48
402.08	225.55
402.45	225.65
402.83	225.75
403.20	225.84
403.58	225.94
403.95	226.09
404.33	226.25
404.71	226.36
405.08	226.53
405.46	226.66
405.83	226.82
406.21	226.98
406.58	227.16
406.96	227.32
407.33	227.53
407.70	227.75
408.08	228.07
408.45	228.33
408.83	228.61
409.20	228.83
409.58	229.03
409.95	229.36
410.33	229.71
410.70	230.03
411.08	230.38
411.45	230.77
411.82	231.14
412.20	231.55
412.57	232.07
412.95	232.47
413.32	232.96
413.69	233.50
414.07	234.08
414.44	234.69
414.82	235.33
415.19	236.04
415.56	236.74
415.94	237.48
416.31	238.32
416.68	239.11
417.06	240.09
417.43	241.01
417.81	242.00
418.18	243.00
418.55	244.12
418.93	245.26
419.30	246.42
419.67	247.68
420.04	248.95
420.42	250.27
420.79	251.81
421.16	253.34
421.54	254.89
421.91	256.50
422.28	258.14
422.66	259.85
423.03	261.55
423.40	263.28
423.77	265.15
424.15	267.04
424.52	268.99
424.89	271.11
425.26	273.15
425.64	275.10
426.01	277.15
426.38	279.32
426.75	281.55
427.13	283.86
427.50	286.25
427.87	288.74
428.24	291.25
428.61	293.58
428.99	296.15
429.36	298.97
429.73	301.71
430.10	304.39
430.47	307.15
430.85	310.01
431.22	313.01
431.59	316.13
431.96	319.08
432.33	322.35
432.70	325.50
433.08	329.21
433.45	332.69
433.82	336.20
434.19	339.99
434.56	343.67
434.93	347.19
435.30	350.63
435.68	354.43
436.05	358.10
436.42	361.78
436.79	365.05
437.16	368.55
437.53	372.29
437.90	375.99
438.27	379.60
438.64	383.32
439.01	386.75
439.38	389.78
439.75	392.64
440.13	395.99
440.50	399.10
440.87	401.55
441.24	404.17
441.61	407.02
441.98	409.04
442.35	411.45
442.72	413.89
443.09	416.30
443.46	417.70
443.83	418.51
444.20	419.23
444.57	420.47
444.94	420.90
445.31	421.34
445.68	421.81
446.05	421.95
446.42	421.45
446.79	420.92
447.16	420.33
447.53	419.99
447.90	418.46
448.27	416.92
448.64	414.85
449.01	413.29
449.37	410.68
449.74	408.16
450.11	405.18
450.48	401.95
450.85	398.59
451.22	395.69
451.59	393.02
451.96	390.44
452.33	386.96
452.70	383.87
453.07	380.14
453.43	376.34
453.80	372.67
454.17	369.15
454.54	365.76
454.91	362.15
455.28	358.60
455.65	355.27
456.02	351.92
456.38	349.06
456.75	345.55
457.12	342.59
457.49	339.68
457.86	336.78
458.23	334.29
458.59	331.58
458.96	328.81
459.33	326.34
459.70	323.85
460.07	321.83
460.43	319.53
460.80	317.35
461.17	315.38
461.54	313.36
461.91	311.47
462.27	309.54
462.64	307.84
463.01	306.00
463.38	304.27
463.74	302.48
464.11	300.97
464.48	299.57
464.85	298.11
465.21	296.91
465.58	295.69
465.95	294.24
466.32	293.01
466.68	291.81
467.05	290.61
467.42	289.42
467.78	288.16
468.15	286.97
468.52	286.10
468.88	285.00
469.25	283.97
469.62	283.12
469.98	282.21
470.35	281.40
470.72	280.60
471.08	279.78
471.45	279.07
471.82	278.31
472.18	277.56
472.55	276.92
472.92	276.23
473.28	275.60
473.65	275.00
474.02	274.39
474.38	273.88
474.75	273.46
475.11	272.99
475.48	272.66
475.85	272.32
476.21	271.96
476.58	271.69
476.94	271.50
477.31	271.24
477.67	270.98
478.04	270.77
478.41	270.63
478.77	270.53
479.14	270.42
479.50	270.36
479.87	270.37
480.23	270.42
480.60	270.46
480.96	270.48
481.33	270.69
481.69	270.86
482.06	271.02
482.42	271.15
482.79	271.35
483.15	271.64
483.52	272.02
483.88	272.38
484.25	272.70
484.61	273.11
484.98	273.53
485.34	274.12
485.71	274.71
486.07	275.32
486.44	275.93
486.80	276.66
487.17	277.39
487.53	278.22
487.90	279.11
488.26	280.08
488.62	281.13
488.99	282.11
489.35	283.22
489.72	284.39
490.08	285.64
490.44	286.91
490.81	288.26
491.17	289.66
491.54	291.18
491.90	292.76
492.26	294.48
492.63	296.31
492.99	298.19
493.36	300.17
493.72	302.32
494.08	304.52
494.45	306.85
494.81	309.34
495.17	311.88
495.54	314.55
495.90	317.34
496.26	320.31
496.63	323.42
496.99	326.69
497.35	330.13
497.72	333.70
498.08	337.41
498.44	341.27
498.80	345.36
499.17	349.67
499.53	354.09
499.89	358.67
500.26	363.39
500.62	368.26
500.98	373.51
501.34	378.85
501.71	384.45
502.07	390.26
502.43	396.12
502.79	402.26
503.16	408.69
503.52	415.31
503.88	422.03
504.24	428.99
504.60	436.20
504.97	443.72
505.33	451.49
505.69	459.66
506.05	467.92
506.41	476.26
506.78	484.81
507.14	493.78
507.50	503.05
507.86	512.69
508.22	522.45
508.59	532.15
508.95	542.23
509.31	552.65
509.67	563.26
510.03	574.22
510.39	585.48
510.75	596.90
511.12	608.57
511.48	620.58
511.84	632.79
512.20	645.12
512.56	657.84
512.92	670.78
513.28	683.99
513.64	697.26
514.00	710.85
514.37	724.75
514.73	738.73
515.09	752.58
515.45	766.71
515.81	781.24
516.17	796.16
516.53	811.40
516.89	826.67
517.25	841.87
517.61	857.36
517.97	872.90
518.33	888.44
518.69	904.30
519.05	920.43
519.41	936.75
519.77	953.48
520.13	970.15
520.49	986.83
520.85	1003.37
521.21	1020.35
521.57	1037.96
521.93	1054.94
522.29	1072.70
522.65	1090.48
523.01	1108.14
523.37	1125.62
523.73	1143.25
524.09	1160.75
524.45	1178.49
524.81	1196.60
525.17	1214.89
525.53	1233.26
525.89	1251.74
526.25	1270.22
526.61	1288.15
526.97	1306.59
527.33	1324.66
527.68	1342.84
528.04	1360.94
528.40	1379.21
528.76	1398.07
529.12	1416.31
529.48	1435.11
529.84	1452.76
530.20	1471.09
530.56	1489.68
530.91	1508.94
531.27	1527.61
531.63	1545.88
531.99	1564.21
532.35	1582.18
532.71	1600.03
533.07	1618.23
533.42	1635.94
533.78	1653.88
534.14	1672.13
534.50	1689.39
534.86	1707.14
535.21	1724.47
535.57	1742.39
535.93	1759.83
536.29	1776.38
536.65	1793.46
537.00	1810.11
537.36	1827.46
537.72	1843.95
538.08	1860.67
538.44	1876.47
538.79	1892.29
539.15	1907.81
539.51	1923.42
539.87	1939.72
540.22	1955.45
540.58	1971.26
540.94	1986.54
541.29	2001.28
541.65	2016.07
542.01	2031.17
542.37	2045.63
542.72	2059.91
543.08	2073.68
543.44	2088.25
543.79	2101.69
544.15	2114.76
544.51	2128.32
544.87	2141.38
545.22	2154.21
545.58	2166.19
545.94	2177.84
546.29	2189.82
546.65	2201.90
547.01	2213.39
547.36	2223.97
547.72	2234.27
548.07	2244.00
548.43	2254.17
548.79	2263.94
549.14	2273.37
549.50	2282.44
549.86	2291.82
550.21	2300.99
550.57	2310.02
550.92	2318.28
551.28	2327.11
551.64	2335.83
551.99	2344.26
552.35	2352.17
552.70	2360.03
553.06	2367.87
553.41	2375.92
553.77	2383.49
554.13	2391.15
554.48	2398.80
554.84	2406.28
555.19	2413.23
555.55	2420.06
555.90	2426.17
556.26	2433.02
556.61	2439.28
556.97	2445.40
557.32	2451.18
557.68	2456.87
558.03	2462.59
558.39	2467.79
558.74	2474.02
559.10	2479.29
559.45	2484.37
559.81	2490.07
560.16	2495.38
560.52	2500.05
560.87	2504.93
561.23	2508.97
561.58	2513.04
561.94	2517.08
562.29	2520.27
562.64	2524.38
563.00	2528.10
563.35	2532.83
563.71	2537.01
564.06	2541.30
564.42	2545.48
564.77	2549.24
565.12	2552.87
565.48	2555.97
565.83	2559.09
566.19	2561.48
566.54	2563.30
566.89	2565.50
567.25	2567.02
567.60	2569.13
567.96	2571.88
568.31	2573.61
568.66	2575.67
569.02	2577.19
569.37	2578.27
569.72	2580.20
570.08	2581.09
570.43	2582.02
570.78	2582.23
571.14	2581.19
571.49	2580.36
571.84	2580.48
572.20	2580.01
572.55	2579.28
572.90	2578.09
573.26	2577.14
573.61	2575.57
573.96	2574.53
574.31	2571.68
574.67	2568.89
575.02	2565.46
575.37	2562.05
575.72	2558.46
576.08	2555.10
576.43	2551.84
576.78	2548.48
577.13	2545.35
577.49	2542.09
577.84	2538.60
578.19	2534.68
578.54	2531.29
578.90	2527.32
579.25	2521.46
579.60	2516.34
579.95	2511.26
580.30	2506.08
580.66	2500.67
581.01	2495.58
581.36	2490.31
581.71	2486.23
582.06	2481.73
582.42	2477.04
582.77	2471.70
583.12	2466.80
583.47	2461.98
583.82	2456.92
584.17	2451.18
584.53	2445.26
584.88	2439.30
585.23	2433.20
585.58	2427.26
585.93	2421.29
586.28	2415.77
586.63	2410.51
586.98	2404.74
587.34	2399.54
587.69	2394.06
588.04	2388.34
588.39	2382.18
588.74	2374.99
589.09	2368.01
589.44	2360.49
589.79	2353.74
590.14	2347.26
590.49	2339.99
590.84	2332.91
591.19	2326.14
591.54	2318.91
591.89	2310.95
592.25	2303.61
592.60	2295.48
592.95	2287.30
593.30	2279.01
593.65	2270.62
594.00	2262.59
594.35	2254.46
594.70	2245.23
595.05	2237.46
595.40	2229.10
595.75	2220.64
596.10	2213.82
596.45	2206.26
596.80	2199.41
597.15	2192.11
597.50	2184.47
597.85	2177.14
598.19	2169.53
598.54	2161.63
598.89	2154.13
599.24	2147.22
599.59	2139.65
599.94	2132.46
600.29	2125.09
600.64	2117.60
600.99	2109.21
601.34	2101.59
601.69	2093.58
602.04	2085.97
602.39	2077.35
602.74	2069.64
603.08	2061.91
603.43	2053.92
603.78	2045.54
604.13	2037.16
604.48	2028.94
604.83	2020.78
605.18	2012.91
605.53	2003.83
605.87	1994.54
606.22	1986.05
606.57	1976.90
606.92	1968.03
607.27	1959.95
607.62	1951.95
607.96	1943.70
608.31	1936.24
608.66	1927.36
609.01	1918.85
609.36	1910.17
609.70	1900.95
610.05	1891.59
610.40	1882.76
610.75	1873.31
611.10	1864.40
611.44	1854.57
611.79	1845.20
612.14	1835.31
612.49	1824.64
612.83	1814.80
613.18	1805.27
613.53	1795.90
613.88	1786.04
614.22	1776.53
614.57	1766.32
614.92	1757.02
615.27	1748.34
615.61	1738.48
615.96	1729.09
616.31	1720.11
616.65	1711.45
617.00	1702.73
617.35	1693.85
617.70	1684.31
618.04	1674.57
618.39	1665.05
618.74	1656.30
619.08	1646.64
619.43	1637.72
619.78	1629.61
620.12	1621.30
620.47	1612.64
620.82	1603.12
621.16	1594.36
621.51	1585.58
621.85	1576.78
622.20	1566.96
622.55	1556.99
622.89	1548.00
623.24	1538.99
623.59	1530.22
623.93	1521.46
624.28	1513.01
624.62	1504.32
624.97	1495.86
625.32	1487.70
625.66	1479.46
626.01	1471.09
626.35	1462.49
626.70	1453.48
627.04	1444.44
627.39	1435.34
627.73	1426.73
628.08	1418.62
628.43	1410.24
628.77	1401.80
629.12	1393.01
629.46	1384.57
629.81	1375.84
630.15	1367.29
630.50	1358.79
630.84	1349.47
631.19	1340.18
631.53	1331.47
631.88	1322.62
632.22	1313.77
632.57	1305.26
632.91	1296.39
633.26	1287.86
633.60	1279.25
633.95	1270.95
634.29	1262.79
634.64	1255.07
634.98	1246.58
635.32	1238.30
635.67	1230.57
636.01	1222.78
636.36	1215.11
636.70	1207.45
637.05	1199.96
637.39	1192.49
637.73	1185.02
638.08	1178.16
638.42	1171.24
638.77	1163.74
639.11	1156.25
639.45	1148.83
639.80	1141.24
640.14	1133.95
640.49	1126.38
640.83	1119.07
641.17	1111.98
641.52	1104.74
641.86	1097.26
642.20	1090.39
642.55	1083.13
642.89	1075.77
643.23	1068.15
643.58	1061.33
643.92	1054.26
644.26	1047.44
644.61	1040.37
644.95	1033.49
645.29	1026.03
645.64	1018.23
645.98	1010.98
646.32	1004.02
646.66	997.08
647.01	990.44
647.35	984.00
647.69	977.18
648.04	970.73
648.38	964.10
648.72	957.28
649.06	950.50
649.41	943.67
649.75	936.84
650.09	929.98
650.43	923.38
650.78	916.35
651.12	909.54
651.46	902.80
651.80	896.42
652.14	890.08
652.49	883.84
652.83	877.98
653.17	871.54
653.51	865.13
653.85	858.88
654.20	852.45
654.54	845.46
654.88	838.85
655.22	832.20
655.56	825.60
655.90	819.27
656.25	813.12
656.59	807.05
656.93	801.27
657.27	795.39
657.61	789.20
657.95	783.41
658.29	777.62
658.64	771.60
658.98	765.45
659.32	759.26
659.66	753.32
660.00	747.33
660.34	741.65
660.68	735.98
661.02	730.28
661.36	724.94
661.70	719.94
662.05	714.95
662.39	710.06
662.73	704.98
663.07	699.97
663.41	694.98
663.75	689.88
664.09	684.67
664.43	679.64
664.77	674.94
665.11	670.08
665.45	665.31
665.79	660.78
666.13	656.10
666.47	651.44
666.81	646.67
667.15	641.92
667.49	637.45
667.83	633.09
668.17	628.57
668.51	623.85
668.85	619.11
669.19	614.74
669.53	610.32
669.87	605.90
670.21	601.64
670.55	597.39
670.89	593.46
671.23	589.48
671.57	585.40
671.91	581.38
672.25	577.30
672.58	573.33
672.92	569.34
673.26	565.65
673.60	562.04
673.94	558.54
674.28	555.16
674.62	551.79
674.96	548.26
675.30	544.97
675.64	541.70
675.97	538.50
676.31	535.26
676.65	531.93
676.99	528.83
677.33	525.53
677.67	522.33
678.01	518.90
678.34	515.55
678.68	512.38
679.02	509.17
679.36	506.00
679.70	502.90
680.04	499.82
680.37	496.59
680.71	493.38
681.05	490.40
681.39	487.27
681.73	484.21
682.06	481.37
682.40	478.47
682.74	475.49
683.08	472.57
683.42	469.59
683.75	466.70
684.09	463.75
684.43	460.95
684.77	458.14
685.10	455.42
685.44	452.83
685.78	450.14
686.12	447.51
686.45	444.91
686.79	442.25
687.13	439.67
687.46	437.20
687.80	434.74
688.14	432.15
688.48	429.79
688.81	427.25
689.15	424.73
689.49	422.26
689.82	419.86
690.16	417.46
690.50	415.18
690.83	412.97
691.17	410.71
691.51	408.57
691.84	406.46
692.18	404.30
692.52	402.03
692.85	399.80
693.19	397.68
693.52	395.57
693.86	393.47
694.20	391.44
694.53	389.42
694.87	387.27
695.21	385.23
695.54	383.12
695.88	381.14
696.21	379.12
696.55	377.17
696.88	375.25
697.22	373.37
697.56	371.51
697.89	369.60
698.23	367.81
698.56	365.93
698.90	364.13
699.23	362.27
699.57	360.47
699.90	358.69
700.24	356.89
700.58	355.17
700.91	353.47
701.25	351.79
701.58	350.18
701.92	348.63
702.25	347.04
702.59	345.51
702.92	343.98
703.26	342.56
703.59	341.13
703.93	339.81
704.26	338.41
704.60	336.96
704.93	335.52
705.26	334.06
705.60	332.67
705.93	331.31
706.27	330.04
706.60	328.80
706.94	327.57
707.27	326.28
707.61	325.00
707.94	323.82
708.27	322.59
708.61	321.34
708.94	320.17
709.28	319.03
709.61	317.91
709.94	316.78
710.28	315.61
710.61	314.44
710.95	313.18
711.28	312.06
711.61	310.96
711.95	309.87
712.28	308.82
712.61	307.72
712.95	306.63
713.28	305.62
713.61	304.59
713.95	303.56
714.28	302.60
714.61	301.61
714.95	300.61
715.28	299.62
715.61	298.59
715.95	297.59
716.28	296.63
716.61	295.67
716.95	294.73
717.28	293.79
717.61	292.92
717.94	292.05
718.28	291.09
718.61	290.21
718.94	289.39
719.27	288.59
719.61	287.84
719.94	287.09
720.27	286.24
720.60	285.45
720.94	284.75
721.27	284.07
721.60	283.42
721.93	282.76
722.27	282.12
722.60	281.49
722.93	280.83
723.26	280.17
723.59	279.55
723.93	278.92
724.26	278.29
724.59	277.64
724.92	277.02
725.25	276.48
725.59	275.88
725.92	275.29
726.25	274.67
726.58	274.09
726.91	273.49
727.24	272.96
727.57	272.43
727.91	271.84
728.24	271.27
728.57	270.65
728.90	270.09
729.23	269.50
729.56	269.01
729.89	268.49
730.22	267.94
730.55	267.37
730.89	266.85
731.22	266.34
731.55	265.83
731.88	265.34
732.21	264.84
732.54	264.37
732.87	263.88
733.20	263.42
733.53	262.96
733.86	262.52
734.19	262.07
734.52	261.65
734.85	261.27
735.18	260.80
735.51	260.46
735.84	260.05
736.17	259.65
736.50	259.20
736.83	258.89
737.16	258.55
737.49	258.18
737.82	257.79
738.15	257.42
738.48	257.06
738.81	256.70
739.14	256.32
739.47	255.96
739.80	255.59
740.13	255.27
740.46	254.93
740.79	254.58
741.12	254.21
741.45	253.84
741.78	253.47
742.11	253.17
742.44	252.77
742.77	252.44
743.10	252.12
743.43	251.78
743.75	251.35
744.08	251.15
744.41	250.85
744.74	250.55
745.07	250.22
745.40	249.94
745.73	249.68
746.06	249.38
746.39	249.09
746.71	248.81
747.04	248.52
747.37	248.21
747.70	247.95
748.03	247.69
748.36	247.46
748.68	247.18
749.01	246.86
749.34	246.63
749.67	246.39
750.00	246.14
750.33	245.95
750.65	245.72
750.98	245.35
751.31	245.10
751.64	244.87
751.97	244.69
752.29	244.43
752.62	244.16
752.95	243.92
753.28	243.67
753.60	243.42
753.93	243.20
754.26	242.99
754.59	242.73
754.91	242.46
755.24	242.23
755.57	242.00
755.90	241.81
756.22	241.60
756.55	241.37
756.88	241.14
757.20	240.86
757.53	240.61
757.86	240.42
758.19	240.26
758.51	240.04
758.84	239.80
759.17	239.61
759.49	239.42
759.82	239.26
760.15	239.07
760.47	238.91
760.80	238.70
761.13	238.53
761.45	238.32
761.78	238.18
762.11	237.99
762.43	237.81
762.76	237.62
763.08	237.42
763.41	237.26
763.74	237.10
764.06	236.94
764.39	236.80
764.71	236.59
765.04	236.41
765.37	236.25
765.69	236.09
766.02	235.94
766.34	235.77
766.67	235.62
767.00	235.50
767.32	235.38
767.65	235.32
767.97	235.14
768.30	235.03
768.62	234.87
768.95	234.73
769.27	234.58
769.60	234.47
769.92	234.31
770.25	234.18
770.57	234.04
770.90	233.91
771.22	233.80
771.55	233.70
771.87	233.59
772.20	233.48
772.52	233.43
772.85	233.44
773.17	233.32
773.50	233.17
773.82	233.06
774.15	232.92
774.47	232.74
774.80	232.66
775.12	232.55
775.45	232.48
775.77	232.37
776.09	232.30
776.42	232.20
776.74	232.15
777.07	232.03
777.39	231.94
777.72	231.86
778.04	231.77
778.36	231.70
778.69	231.59
779.01	231.50
779.33	231.34
779.66	231.14
779.98	231.07
780.31	231.00
780.63	230.98
780.95	230.93
781.28	230.85
781.60	230.77
781.92	230.73
782.25	230.63
782.57	230.61
782.89	230.51
783.22	230.42
783.54	230.35
783.86	230.32
784.19	230.26
784.51	230.25
784.83	230.17
785.16	230.11
785.48	230.06
785.80	230.06
786.12	230.02
786.45	229.96
