SpectraSuite Data File
++++++++++++++++++++++++++++++++++++
Date: Fri Feb 01 16:01:13 EST 2013
User: group
Dark Spectrum Present: No
Reference Spectrum Present: No
Number of Sampled Component Spectra: 1
Spectrometers: USB2E7196
Integration Time (usec): 35000 (USB2E7196)
Spectra Averaged: 100 (USB2E7196)
Boxcar Smoothing: 10 (USB2E7196)
Correct for Electrical Dark: No (USB2E7196)
Strobe/Lamp Enabled: No (USB2E7196)
Correct for Detector Non-linearity: No (USB2E7196)
Correct for Stray Light: No (USB2E7196)
Number of Pixels in Processed Spectrum: 2048
>>>>>Begin Processed Spectral Data<<<<<
339.09	0.00
339.48	214.50
339.86	216.41
340.24	217.80
340.63	218.86
341.01	221.98
341.39	221.50
341.78	223.56
342.16	224.76
342.54	224.58
342.93	213.22
343.31	224.01
343.69	224.55
344.07	225.03
344.46	225.47
344.84	225.87
345.22	226.11
345.60	226.38
345.99	226.54
346.37	226.64
346.75	226.72
347.13	226.78
347.52	226.80
347.90	226.87
348.28	226.90
348.66	226.95
349.05	226.96
349.43	226.95
349.81	227.00
350.19	227.05
350.57	227.08
350.96	227.13
351.34	227.18
351.72	227.28
352.10	227.35
352.48	227.39
352.87	227.40
353.25	227.45
353.63	227.49
354.01	227.55
354.39	227.64
354.77	227.75
355.15	227.84
355.54	227.92
355.92	227.99
356.30	228.07
356.68	228.21
357.06	228.25
357.44	228.34
357.82	228.39
358.20	228.46
358.58	228.53
358.97	228.57
359.35	228.64
359.73	228.72
360.11	228.74
360.49	228.80
360.87	228.88
361.25	228.95
361.63	228.99
362.01	229.02
362.39	229.05
362.77	229.08
363.15	229.14
363.53	229.15
363.91	229.15
364.29	229.15
364.67	229.09
365.05	229.11
365.43	229.14
365.81	229.18
366.19	229.21
366.57	229.25
366.95	229.28
367.33	229.25
367.71	229.22
368.09	229.22
368.47	229.19
368.85	229.16
369.23	229.14
369.61	229.12
369.99	229.14
370.37	229.09
370.75	229.08
371.13	228.98
371.51	228.92
371.89	228.87
372.27	228.84
372.65	228.82
373.03	228.79
373.41	228.69
373.78	228.56
374.16	228.47
374.54	228.35
374.92	228.27
375.30	228.22
375.68	228.15
376.06	228.09
376.44	228.03
376.82	227.97
377.19	227.89
377.57	227.81
377.95	227.68
378.33	227.62
378.71	227.50
379.09	227.48
379.47	227.42
379.84	227.35
380.22	227.24
380.60	227.13
380.98	227.04
381.36	226.96
381.73	226.95
382.11	226.89
382.49	226.85
382.87	226.75
383.25	226.66
383.62	226.73
384.00	226.65
384.38	226.57
384.76	226.55
385.13	226.51
385.51	226.47
385.89	226.44
386.27	226.35
386.64	226.34
387.02	226.26
387.40	226.22
387.78	226.18
388.15	226.16
388.53	226.10
388.91	226.08
389.29	226.06
389.66	226.05
390.04	226.00
390.42	226.00
390.79	226.03
391.17	226.02
391.55	225.90
391.92	225.92
392.30	225.93
392.68	225.89
393.05	225.91
393.43	225.93
393.81	225.95
394.18	226.03
394.56	226.03
394.94	226.08
395.31	226.08
395.69	226.14
396.06	226.21
396.44	226.27
396.82	226.29
397.19	226.38
397.57	226.39
397.95	226.47
398.32	226.48
398.70	226.52
399.07	226.62
399.45	226.68
399.82	226.74
400.20	226.84
400.58	226.90
400.95	226.96
401.33	227.04
401.70	227.19
402.08	227.26
402.45	227.38
402.83	227.50
403.20	227.63
403.58	227.74
403.95	227.87
404.33	228.00
404.71	228.13
405.08	228.30
405.46	228.45
405.83	228.58
406.21	228.76
406.58	228.93
406.96	229.09
407.33	229.25
407.70	229.48
408.08	229.74
408.45	229.96
408.83	230.20
409.20	230.37
409.58	230.57
409.95	230.82
410.33	231.08
410.70	231.33
411.08	231.63
411.45	231.90
411.82	232.20
412.20	232.61
412.57	233.06
412.95	233.35
413.32	233.78
413.69	234.21
414.07	234.63
414.44	235.11
414.82	235.60
415.19	236.16
415.56	236.66
415.94	237.20
416.31	237.86
416.68	238.43
417.06	239.15
417.43	239.83
417.81	240.61
418.18	241.39
418.55	242.22
418.93	243.12
419.30	244.04
419.67	244.96
420.04	245.89
420.42	246.87
420.79	248.07
421.16	249.20
421.54	250.37
421.91	251.58
422.28	252.85
422.66	254.16
423.03	255.47
423.40	256.81
423.77	258.22
424.15	259.63
424.52	261.18
424.89	262.79
425.26	264.32
425.64	265.74
426.01	267.36
426.38	268.98
426.75	270.59
427.13	272.33
427.50	274.15
427.87	276.01
428.24	277.87
428.61	279.65
428.99	281.58
429.36	283.70
429.73	285.77
430.10	287.74
430.47	289.80
430.85	291.88
431.22	294.12
431.59	296.48
431.96	298.72
432.33	301.15
432.70	303.55
433.08	306.36
433.45	309.06
433.82	311.62
434.19	314.50
434.56	317.33
434.93	319.97
435.30	322.55
435.68	325.45
436.05	328.28
436.42	331.00
436.79	333.52
437.16	336.23
437.53	339.03
437.90	341.89
438.27	344.64
438.64	347.51
439.01	350.10
439.38	352.32
439.75	354.48
440.13	356.99
440.50	359.34
440.87	361.15
441.24	363.07
441.61	365.26
441.98	366.81
442.35	368.65
442.72	370.53
443.09	372.39
443.46	373.35
443.83	373.91
444.20	374.47
444.57	375.28
444.94	375.55
445.31	375.93
445.68	376.28
446.05	376.37
446.42	375.96
446.79	375.52
447.16	375.09
447.53	374.78
447.90	373.66
448.27	372.45
448.64	370.88
449.01	369.72
449.37	367.73
449.74	365.85
450.11	363.57
450.48	361.03
450.85	358.47
451.22	356.36
451.59	354.36
451.96	352.38
452.33	349.80
452.70	347.45
453.07	344.59
453.43	341.65
453.80	338.87
454.17	336.20
454.54	333.69
454.91	330.96
455.28	328.31
455.65	325.81
456.02	323.41
456.38	321.26
456.75	318.61
457.12	316.36
457.49	314.06
457.86	311.89
458.23	310.08
458.59	308.00
458.96	305.91
459.33	304.06
459.70	302.19
460.07	300.67
460.43	298.92
460.80	297.31
461.17	295.87
461.54	294.36
461.91	292.95
462.27	291.46
462.64	290.21
463.01	288.83
463.38	287.51
463.74	286.13
464.11	285.00
464.48	283.97
464.85	282.85
465.21	282.01
465.58	281.07
465.95	279.97
466.32	279.07
466.68	278.17
467.05	277.25
467.42	276.36
467.78	275.42
468.15	274.54
468.52	273.89
468.88	273.04
469.25	272.26
469.62	271.61
469.98	271.01
470.35	270.39
470.72	269.78
471.08	269.13
471.45	268.57
471.82	268.02
472.18	267.42
472.55	266.97
472.92	266.45
473.28	265.97
473.65	265.52
474.02	265.10
474.38	264.70
474.75	264.38
475.11	264.05
475.48	263.80
475.85	263.58
476.21	263.32
476.58	263.14
476.94	263.02
477.31	262.85
477.67	262.66
478.04	262.58
478.41	262.53
478.77	262.60
479.14	262.52
479.50	262.56
479.87	262.64
480.23	262.76
480.60	262.82
480.96	262.95
481.33	263.16
481.69	263.37
482.06	263.58
482.42	263.81
482.79	264.07
483.15	264.44
483.52	264.83
483.88	265.22
484.25	265.64
484.61	266.07
484.98	266.55
485.34	267.11
485.71	267.66
486.07	268.32
486.44	268.91
486.80	269.63
487.17	270.36
487.53	271.17
487.90	272.01
488.26	272.95
488.62	273.95
488.99	274.93
489.35	275.97
489.72	277.14
490.08	278.36
490.44	279.61
490.81	280.95
491.17	282.30
491.54	283.74
491.90	285.28
492.26	286.90
492.63	288.64
492.99	290.44
493.36	292.33
493.72	294.37
494.08	296.47
494.45	298.70
494.81	301.08
495.17	303.56
495.54	306.16
495.90	308.84
496.26	311.64
496.63	314.62
496.99	317.78
497.35	321.00
497.72	324.40
498.08	327.92
498.44	331.58
498.80	335.50
499.17	339.61
499.53	343.79
499.89	348.23
500.26	352.76
500.62	357.49
500.98	362.51
501.34	367.59
501.71	372.96
502.07	378.42
502.43	384.03
502.79	389.81
503.16	395.92
503.52	402.26
503.88	408.67
504.24	415.34
504.60	422.23
504.97	429.39
505.33	436.69
505.69	444.46
506.05	452.26
506.41	460.15
506.78	468.27
507.14	476.78
507.50	485.51
507.86	494.50
508.22	503.69
508.59	512.89
508.95	522.45
509.31	532.24
509.67	542.34
510.03	552.64
510.39	563.28
510.75	574.09
511.12	585.00
511.48	596.34
511.84	607.72
512.20	619.13
512.56	631.04
512.92	643.23
513.28	655.55
513.64	668.04
514.00	680.72
514.37	693.64
514.73	706.64
515.09	719.58
515.45	732.90
515.81	746.38
516.17	760.41
516.53	774.54
516.89	788.70
517.25	802.88
517.61	817.29
517.97	831.72
518.33	846.06
518.69	860.86
519.05	875.89
519.41	891.04
519.77	906.60
520.13	922.15
520.49	937.55
520.85	952.90
521.21	968.56
521.57	984.85
521.93	1000.60
522.29	1016.93
522.65	1033.23
523.01	1049.43
523.37	1065.46
523.73	1081.57
524.09	1097.60
524.45	1113.86
524.81	1130.50
525.17	1147.41
525.53	1164.31
525.89	1181.20
526.25	1198.00
526.61	1214.27
526.97	1231.11
527.33	1247.59
527.68	1264.02
528.04	1280.39
528.40	1297.02
528.76	1314.08
529.12	1330.62
529.48	1347.41
529.84	1363.46
530.20	1380.08
530.56	1396.97
530.91	1414.42
531.27	1431.11
531.63	1447.68
531.99	1464.33
532.35	1480.19
532.71	1495.88
533.07	1512.05
533.42	1527.94
533.78	1543.94
534.14	1560.34
534.50	1575.56
534.86	1591.46
535.21	1606.69
535.57	1622.56
535.93	1637.97
536.29	1652.71
536.65	1667.68
537.00	1682.61
537.36	1697.82
537.72	1712.35
538.08	1726.79
538.44	1740.50
538.79	1754.42
539.15	1767.92
539.51	1781.56
539.87	1796.04
540.22	1809.77
540.58	1823.50
540.94	1836.72
541.29	1849.55
541.65	1861.99
542.01	1875.07
542.37	1887.40
542.72	1899.83
543.08	1911.68
543.44	1923.99
543.79	1935.17
544.15	1946.18
544.51	1957.69
544.87	1968.68
545.22	1979.46
545.58	1989.59
545.94	1999.47
546.29	2009.15
546.65	2019.13
547.01	2028.22
547.36	2036.81
547.72	2045.22
548.07	2053.00
548.43	2061.18
548.79	2069.20
549.14	2076.75
549.50	2084.22
549.86	2091.91
550.21	2099.16
550.57	2106.25
550.92	2112.73
551.28	2119.79
551.64	2126.82
551.99	2133.25
552.35	2139.43
552.70	2145.43
553.06	2151.53
553.41	2157.72
553.77	2163.81
554.13	2169.83
554.48	2176.03
554.84	2181.47
555.19	2186.74
555.55	2191.89
555.90	2196.26
556.26	2201.15
556.61	2206.00
556.97	2210.23
557.32	2214.13
557.68	2218.39
558.03	2222.80
558.39	2226.69
558.74	2231.34
559.10	2235.14
559.45	2238.90
559.81	2243.17
560.16	2247.16
560.52	2250.35
560.87	2253.82
561.23	2256.56
561.58	2259.63
561.94	2262.33
562.29	2264.77
562.64	2267.39
563.00	2270.06
563.35	2273.77
563.71	2276.91
564.06	2280.04
564.42	2282.94
564.77	2285.66
565.12	2287.97
565.48	2289.85
565.83	2291.67
566.19	2293.01
566.54	2293.97
566.89	2294.99
567.25	2295.70
567.60	2296.90
567.96	2298.58
568.31	2299.36
568.66	2300.45
569.02	2300.81
569.37	2300.95
569.72	2301.72
570.08	2302.04
570.43	2302.15
570.78	2301.50
571.14	2299.93
571.49	2298.64
571.84	2298.22
572.20	2297.12
572.55	2295.96
572.90	2294.35
573.26	2293.03
573.61	2291.39
573.96	2289.73
574.31	2286.91
574.67	2283.86
575.02	2280.32
575.37	2276.95
575.72	2273.20
576.08	2269.87
576.43	2266.63
576.78	2262.99
577.13	2259.91
577.49	2256.91
577.84	2253.32
578.19	2249.50
578.54	2245.76
578.90	2241.53
579.25	2236.20
579.60	2231.10
579.95	2226.08
580.30	2221.13
580.66	2215.98
581.01	2211.03
581.36	2206.08
581.71	2201.85
582.06	2197.39
582.42	2192.99
582.77	2187.83
583.12	2183.22
583.47	2178.46
583.82	2173.43
584.17	2168.38
584.53	2162.93
584.88	2157.18
585.23	2151.48
585.58	2146.06
585.93	2140.74
586.28	2136.12
586.63	2130.91
586.98	2125.89
587.34	2121.26
587.69	2116.44
588.04	2111.07
588.39	2105.40
588.74	2098.92
589.09	2092.81
589.44	2086.02
589.79	2079.99
590.14	2074.37
590.49	2067.88
590.84	2061.62
591.19	2055.65
591.54	2048.99
591.89	2041.59
592.25	2034.78
592.60	2027.51
592.95	2020.02
593.30	2012.69
593.65	2004.98
594.00	1998.05
594.35	1990.83
594.70	1982.82
595.05	1975.52
595.40	1968.45
595.75	1960.96
596.10	1954.75
596.45	1947.97
596.80	1941.73
597.15	1935.07
597.50	1927.88
597.85	1921.45
598.19	1914.71
598.54	1907.55
598.89	1900.97
599.24	1895.14
599.59	1888.40
599.94	1882.24
600.29	1875.87
600.64	1869.31
600.99	1861.86
601.34	1854.97
601.69	1847.96
602.04	1841.07
602.39	1833.73
602.74	1826.72
603.08	1819.91
603.43	1813.26
603.78	1805.94
604.13	1798.67
604.48	1791.39
604.83	1784.52
605.18	1777.51
605.53	1769.50
605.87	1761.54
606.22	1754.40
606.57	1746.38
606.92	1739.06
607.27	1731.87
607.62	1724.94
607.96	1717.64
608.31	1710.98
608.66	1703.31
609.01	1695.78
609.36	1688.12
609.70	1680.12
610.05	1672.18
610.40	1664.44
610.75	1656.14
611.10	1648.45
611.44	1640.14
611.79	1632.12
612.14	1623.48
612.49	1614.25
612.83	1605.95
613.18	1597.85
613.53	1589.69
613.88	1581.10
614.22	1572.88
614.57	1564.32
614.92	1556.27
615.27	1548.69
615.61	1540.37
615.96	1532.37
616.31	1524.78
616.65	1517.50
617.00	1509.93
617.35	1502.27
617.70	1493.92
618.04	1485.31
618.39	1477.10
618.74	1469.48
619.08	1461.17
619.43	1453.62
619.78	1446.79
620.12	1439.54
620.47	1431.99
620.82	1423.87
621.16	1416.61
621.51	1409.12
621.85	1401.49
622.20	1392.98
622.55	1384.66
622.89	1376.79
623.24	1369.17
623.59	1361.81
623.93	1354.13
624.28	1346.87
624.62	1339.26
624.97	1332.10
625.32	1325.38
625.66	1318.33
626.01	1311.08
626.35	1303.63
626.70	1295.95
627.04	1288.14
627.39	1280.42
627.73	1273.02
628.08	1266.03
628.43	1258.63
628.77	1251.15
629.12	1243.58
629.46	1236.47
629.81	1229.06
630.15	1221.85
630.50	1214.44
630.84	1206.10
631.19	1198.27
631.53	1190.77
631.88	1183.25
632.22	1175.71
632.57	1168.41
632.91	1160.89
633.26	1153.50
633.60	1146.17
633.95	1139.01
634.29	1131.95
634.64	1125.22
634.98	1117.86
635.32	1110.70
635.67	1104.12
636.01	1097.41
636.36	1090.52
636.70	1083.99
637.05	1077.31
637.39	1070.83
637.73	1064.28
638.08	1058.50
638.42	1052.47
638.77	1046.01
639.11	1039.26
639.45	1032.83
639.80	1026.15
640.14	1019.77
640.49	1013.31
640.83	1006.97
641.17	1000.65
641.52	994.29
641.86	987.89
642.20	982.01
642.55	975.67
642.89	969.11
643.23	962.56
643.58	956.83
643.92	950.54
644.26	944.52
644.61	938.52
644.95	932.52
645.29	925.87
645.64	919.14
645.98	912.82
646.32	907.18
646.66	901.13
647.01	895.25
647.35	889.46
647.69	883.59
648.04	878.09
648.38	872.34
648.72	866.42
649.06	860.33
649.41	854.42
649.75	848.52
650.09	842.62
650.43	836.92
650.78	830.76
651.12	824.81
651.46	819.06
651.80	813.23
652.14	807.82
652.49	802.46
652.83	797.32
653.17	791.56
653.51	785.81
653.85	780.45
654.20	774.87
654.54	768.92
654.88	763.16
655.22	757.20
655.56	751.56
655.90	746.12
656.25	740.89
656.59	735.57
656.93	730.48
657.27	725.32
657.61	719.90
657.95	714.81
658.29	709.83
658.64	704.61
658.98	699.43
659.32	693.97
659.66	688.80
660.00	683.48
660.34	678.61
660.68	673.61
661.02	668.62
661.36	663.86
661.70	659.37
662.05	655.02
662.39	650.71
662.73	646.21
663.07	641.86
663.41	637.45
663.75	632.97
664.09	628.37
664.43	623.95
664.77	619.85
665.11	615.60
665.45	611.46
665.79	607.36
666.13	603.21
666.47	599.15
666.81	594.98
667.15	590.79
667.49	586.85
667.83	583.05
668.17	579.06
668.51	575.03
668.85	570.98
669.19	567.17
669.53	563.32
669.87	559.45
670.21	555.68
670.55	551.97
670.89	548.53
671.23	545.09
671.57	541.57
671.91	537.97
672.25	534.47
672.58	530.92
672.92	527.53
673.26	524.35
673.60	521.20
673.94	518.06
674.28	515.23
674.62	512.28
674.96	509.16
675.30	506.22
675.64	503.27
675.97	500.48
676.31	497.51
676.65	494.63
676.99	491.89
677.33	489.03
677.67	486.19
678.01	483.09
678.34	480.10
678.68	477.20
679.02	474.38
679.36	471.54
679.70	468.80
680.04	466.04
680.37	463.11
680.71	460.25
681.05	457.66
681.39	454.87
681.73	452.21
682.06	449.69
682.40	447.14
682.74	444.61
683.08	442.07
683.42	439.50
683.75	436.93
684.09	434.40
684.43	431.96
684.77	429.55
685.10	427.27
685.44	424.96
685.78	422.67
686.12	420.44
686.45	418.17
686.79	415.88
687.13	413.68
687.46	411.54
687.80	409.46
688.14	407.18
688.48	405.10
688.81	402.86
689.15	400.68
689.49	398.57
689.82	396.51
690.16	394.42
690.50	392.48
690.83	390.52
691.17	388.52
691.51	386.62
691.84	384.69
692.18	382.70
692.52	380.72
692.85	378.83
693.19	376.94
693.52	375.17
693.86	373.33
694.20	371.56
694.53	369.79
694.87	367.94
695.21	366.19
695.54	364.43
695.88	362.64
696.21	360.99
696.55	359.31
696.88	357.65
697.22	356.01
697.56	354.41
697.89	352.79
698.23	351.23
698.56	349.61
698.90	348.12
699.23	346.48
699.57	344.92
699.90	343.40
700.24	341.85
700.58	340.29
700.91	338.80
701.25	337.38
701.58	336.03
701.92	334.67
702.25	333.32
702.59	331.94
702.92	330.70
703.26	329.40
703.59	328.11
703.93	326.91
704.26	325.69
704.60	324.39
704.93	323.13
705.26	321.87
705.60	320.69
705.93	319.51
706.27	318.51
706.60	317.46
706.94	316.35
707.27	315.21
707.61	314.18
707.94	313.20
708.27	312.06
708.61	310.99
708.94	309.97
709.28	309.03
709.61	308.06
709.94	307.08
710.28	306.03
710.61	305.03
710.95	303.96
711.28	303.04
711.61	302.09
711.95	301.16
712.28	300.18
712.61	299.21
712.95	298.22
713.28	297.35
713.61	296.45
713.95	295.56
714.28	294.75
714.61	293.84
714.95	292.94
715.28	292.11
715.61	291.19
715.95	290.33
716.28	289.43
716.61	288.59
716.95	287.79
717.28	287.05
717.61	286.27
717.94	285.50
718.28	284.67
718.61	283.93
718.94	283.26
719.27	282.59
719.61	281.92
719.94	281.28
720.27	280.51
720.60	279.84
720.94	279.21
721.27	278.62
721.60	278.04
721.93	277.45
722.27	276.90
722.60	276.36
722.93	275.73
723.26	275.17
723.59	274.61
723.93	274.05
724.26	273.46
724.59	272.93
724.92	272.41
725.25	271.90
725.59	271.36
725.92	270.85
726.25	270.33
726.58	269.81
726.91	269.28
727.24	268.85
727.57	268.36
727.91	267.84
728.24	267.36
728.57	266.89
728.90	266.43
729.23	265.92
729.56	265.47
729.89	265.03
730.22	264.56
730.55	264.08
730.89	263.62
731.22	263.18
731.55	262.71
731.88	262.27
732.21	261.82
732.54	261.45
732.87	261.01
733.20	260.62
733.53	260.25
733.86	259.89
734.19	259.47
734.52	259.10
734.85	258.81
735.18	258.38
735.51	257.99
735.84	257.62
736.17	257.28
736.50	256.93
736.83	256.72
737.16	256.39
737.49	256.13
737.82	255.78
738.15	255.49
738.48	255.18
738.81	254.90
739.14	254.60
739.47	254.28
739.80	253.94
740.13	253.69
740.46	253.39
740.79	253.07
741.12	252.77
741.45	252.45
741.78	252.12
742.11	251.87
742.44	251.58
742.77	251.34
743.10	251.06
743.43	250.73
743.75	250.35
744.08	250.20
744.41	249.90
744.74	249.63
745.07	249.33
745.40	249.09
745.73	248.86
746.06	248.62
746.39	248.38
746.71	248.15
747.04	247.84
747.37	247.61
747.70	247.40
748.03	247.18
748.36	247.00
748.68	246.73
749.01	246.48
749.34	246.26
749.67	245.99
750.00	245.74
750.33	245.60
750.65	245.40
750.98	245.11
751.31	244.90
751.64	244.70
751.97	244.53
752.29	244.33
752.62	244.07
752.95	243.86
753.28	243.61
753.60	243.41
753.93	243.26
754.26	243.01
754.59	242.79
754.91	242.59
755.24	242.38
755.57	242.20
755.90	242.00
756.22	241.82
756.55	241.64
756.88	241.43
757.20	241.19
757.53	240.97
757.86	240.77
758.19	240.61
758.51	240.44
758.84	240.23
759.17	240.07
759.49	239.90
759.82	239.77
760.15	239.64
760.47	239.50
760.80	239.27
761.13	239.17
761.45	238.99
761.78	238.85
762.11	238.69
762.43	238.53
762.76	238.40
763.08	238.26
763.41	238.13
763.74	238.01
764.06	237.87
764.39	237.70
764.71	237.53
765.04	237.38
765.37	237.26
765.69	237.12
766.02	236.94
766.34	236.78
766.67	236.60
767.00	236.49
767.32	236.37
767.65	236.33
767.97	236.19
768.30	236.07
768.62	235.89
768.95	235.73
769.27	235.60
769.60	235.45
769.92	235.31
770.25	235.14
770.57	235.01
770.90	234.88
771.22	234.77
771.55	234.69
771.87	234.62
772.20	234.48
772.52	234.45
772.85	234.49
773.17	234.43
773.50	234.32
773.82	234.21
774.15	234.10
774.47	233.95
774.80	233.88
775.12	233.79
775.45	233.74
775.77	233.70
776.09	233.63
776.42	233.59
776.74	233.53
777.07	233.48
777.39	233.43
777.72	233.38
778.04	233.34
778.36	233.28
778.69	233.20
779.01	233.14
779.33	233.02
779.66	232.85
779.98	232.76
780.31	232.72
780.63	232.69
780.95	232.64
781.28	232.60
781.60	232.55
781.92	232.50
782.25	232.41
782.57	232.32
782.89	232.28
783.22	232.24
783.54	232.19
783.86	232.17
784.19	232.12
784.51	232.09
784.83	232.02
785.16	231.96
785.48	231.91
785.80	231.87
786.12	231.82
786.45	231.78
786.77	231.76
787.09	231.71
