SpectraSuite Data File
++++++++++++++++++++++++++++++++++++
Date: Fri Feb 01 15:01:42 EST 2013
User: group
Dark Spectrum Present: No
Reference Spectrum Present: No
Number of Sampled Component Spectra: 1
Spectrometers: USB2E7196
Integration Time (usec): 35000 (USB2E7196)
Spectra Averaged: 100 (USB2E7196)
Boxcar Smoothing: 10 (USB2E7196)
Correct for Electrical Dark: No (USB2E7196)
Strobe/Lamp Enabled: No (USB2E7196)
Correct for Detector Non-linearity: No (USB2E7196)
Correct for Stray Light: No (USB2E7196)
Number of Pixels in Processed Spectrum: 2048
>>>>>Begin Processed Spectral Data<<<<<
339.09	0.00
339.48	215.51
339.86	216.77
340.24	218.20
340.63	219.65
341.01	222.00
341.39	222.07
341.78	223.16
342.16	224.63
342.54	224.55
342.93	213.47
343.31	224.26
343.69	224.82
344.07	225.26
344.46	225.69
344.84	226.07
345.22	226.31
345.60	226.54
345.99	226.75
346.37	226.89
346.75	227.04
347.13	227.10
347.52	227.15
347.90	227.24
348.28	227.32
348.66	227.37
349.05	227.39
349.43	227.38
349.81	227.48
350.19	227.53
350.57	227.60
350.96	227.66
351.34	227.71
351.72	227.79
352.10	227.89
352.48	227.92
352.87	227.98
353.25	228.07
353.63	228.15
354.01	228.20
354.39	228.29
354.77	228.35
355.15	228.44
355.54	228.46
355.92	228.48
356.30	228.52
356.68	228.64
357.06	228.71
357.44	228.78
357.82	228.81
358.20	228.87
358.58	228.96
358.97	228.98
359.35	229.08
359.73	229.12
360.11	229.18
360.49	229.24
360.87	229.26
361.25	229.32
361.63	229.38
362.01	229.45
362.39	229.43
362.77	229.48
363.15	229.48
363.53	229.54
363.91	229.56
364.29	229.58
364.67	229.49
365.05	229.49
365.43	229.52
365.81	229.55
366.19	229.59
366.57	229.57
366.95	229.58
367.33	229.55
367.71	229.53
368.09	229.55
368.47	229.55
368.85	229.56
369.23	229.51
369.61	229.44
369.99	229.43
370.37	229.43
370.75	229.39
371.13	229.37
371.51	229.31
371.89	229.28
372.27	229.22
372.65	229.21
373.03	229.15
373.41	229.08
373.78	229.03
374.16	228.91
374.54	228.84
374.92	228.78
375.30	228.73
375.68	228.66
376.06	228.55
376.44	228.45
376.82	228.35
377.19	228.28
377.57	228.20
377.95	228.09
378.33	227.98
378.71	227.85
379.09	227.77
379.47	227.71
379.84	227.61
380.22	227.51
380.60	227.42
380.98	227.32
381.36	227.25
381.73	227.15
382.11	227.10
382.49	227.03
382.87	226.93
383.25	226.87
383.62	226.87
384.00	226.83
384.38	226.77
384.76	226.73
385.13	226.77
385.51	226.73
385.89	226.65
386.27	226.61
386.64	226.62
387.02	226.56
387.40	226.50
387.78	226.48
388.15	226.46
388.53	226.41
388.91	226.40
389.29	226.34
389.66	226.35
390.04	226.31
390.42	226.30
390.79	226.32
391.17	226.29
391.55	226.21
391.92	226.20
392.30	226.23
392.68	226.22
393.05	226.14
393.43	226.15
393.81	226.18
394.18	226.17
394.56	226.20
394.94	226.24
395.31	226.28
395.69	226.35
396.06	226.42
396.44	226.48
396.82	226.49
397.19	226.61
397.57	226.61
397.95	226.71
398.32	226.75
398.70	226.81
399.07	226.93
399.45	226.95
399.82	227.05
400.20	227.13
400.58	227.18
400.95	227.30
401.33	227.42
401.70	227.58
402.08	227.69
402.45	227.78
402.83	227.92
403.20	228.05
403.58	228.12
403.95	228.26
404.33	228.43
404.71	228.60
405.08	228.78
405.46	228.95
405.83	229.08
406.21	229.23
406.58	229.38
406.96	229.52
407.33	229.72
407.70	229.93
408.08	230.21
408.45	230.47
408.83	230.69
409.20	230.91
409.58	231.11
409.95	231.39
410.33	231.66
410.70	231.91
411.08	232.22
411.45	232.53
411.82	232.84
412.20	233.15
412.57	233.57
412.95	233.86
413.32	234.27
413.69	234.68
414.07	235.17
414.44	235.65
414.82	236.14
415.19	236.70
415.56	237.22
415.94	237.77
416.31	238.41
416.68	238.98
417.06	239.70
417.43	240.36
417.81	241.11
418.18	241.89
418.55	242.72
418.93	243.60
419.30	244.53
419.67	245.44
420.04	246.40
420.42	247.35
420.79	248.54
421.16	249.67
421.54	250.84
421.91	252.04
422.28	253.28
422.66	254.62
423.03	255.90
423.40	257.23
423.77	258.63
424.15	260.03
424.52	261.54
424.89	263.13
425.26	264.68
425.64	266.15
426.01	267.80
426.38	269.44
426.75	271.08
427.13	272.79
427.50	274.61
427.87	276.49
428.24	278.33
428.61	280.05
428.99	282.01
429.36	284.11
429.73	286.17
430.10	288.19
430.47	290.25
430.85	292.39
431.22	294.63
431.59	296.97
431.96	299.20
432.33	301.68
432.70	304.08
433.08	306.93
433.45	309.56
433.82	312.15
434.19	315.06
434.56	317.93
434.93	320.62
435.30	323.30
435.68	326.23
436.05	329.09
436.42	331.90
436.79	334.43
437.16	337.18
437.53	340.03
437.90	342.88
438.27	345.64
438.64	348.48
439.01	351.06
439.38	353.37
439.75	355.61
440.13	358.13
440.50	360.47
440.87	362.29
441.24	364.23
441.61	366.38
441.98	367.89
442.35	369.67
442.72	371.48
443.09	373.23
443.46	374.21
443.83	374.82
444.20	375.35
444.57	376.19
444.94	376.48
445.31	376.85
445.68	377.22
446.05	377.26
446.42	376.87
446.79	376.49
447.16	376.01
447.53	375.68
447.90	374.50
448.27	373.34
448.64	371.74
449.01	370.64
449.37	368.66
449.74	366.71
450.11	364.44
450.48	361.97
450.85	359.45
451.22	357.31
451.59	355.26
451.96	353.31
452.33	350.69
452.70	348.27
453.07	345.40
453.43	342.49
453.80	339.72
454.17	337.01
454.54	334.47
454.91	331.73
455.28	329.02
455.65	326.54
456.02	324.04
456.38	321.90
456.75	319.19
457.12	316.93
457.49	314.74
457.86	312.58
458.23	310.73
458.59	308.67
458.96	306.60
459.33	304.73
459.70	302.85
460.07	301.33
460.43	299.65
460.80	298.04
461.17	296.58
461.54	295.09
461.91	293.70
462.27	292.25
462.64	290.97
463.01	289.62
463.38	288.33
463.74	286.96
464.11	285.80
464.48	284.79
464.85	283.68
465.21	282.77
465.58	281.84
465.95	280.73
466.32	279.84
466.68	278.89
467.05	278.01
467.42	277.09
467.78	276.18
468.15	275.28
468.52	274.58
468.88	273.67
469.25	272.89
469.62	272.25
469.98	271.51
470.35	270.88
470.72	270.28
471.08	269.60
471.45	269.09
471.82	268.52
472.18	267.93
472.55	267.49
472.92	266.95
473.28	266.47
473.65	266.01
474.02	265.57
474.38	265.20
474.75	264.87
475.11	264.56
475.48	264.27
475.85	264.02
476.21	263.78
476.58	263.61
476.94	263.47
477.31	263.33
477.67	263.17
478.04	263.06
478.41	262.99
478.77	263.04
479.14	262.96
479.50	262.98
479.87	263.03
480.23	263.07
480.60	263.18
480.96	263.24
481.33	263.48
481.69	263.66
482.06	263.87
482.42	264.08
482.79	264.31
483.15	264.62
483.52	264.99
483.88	265.34
484.25	265.74
484.61	266.13
484.98	266.56
485.34	267.12
485.71	267.69
486.07	268.27
486.44	268.84
486.80	269.53
487.17	270.29
487.53	271.09
487.90	271.94
488.26	272.88
488.62	273.90
488.99	274.88
489.35	275.92
489.72	277.02
490.08	278.21
490.44	279.47
490.81	280.81
491.17	282.16
491.54	283.63
491.90	285.09
492.26	286.73
492.63	288.44
492.99	290.23
493.36	292.13
493.72	294.20
494.08	296.29
494.45	298.53
494.81	300.86
495.17	303.23
495.54	305.81
495.90	308.46
496.26	311.21
496.63	314.14
496.99	317.23
497.35	320.45
497.72	323.83
498.08	327.32
498.44	330.96
498.80	334.83
499.17	338.86
499.53	343.06
499.89	347.38
500.26	351.85
500.62	356.53
500.98	361.43
501.34	366.38
501.71	371.70
502.07	377.09
502.43	382.67
502.79	388.48
503.16	394.49
503.52	400.72
503.88	407.10
504.24	413.71
504.60	420.58
504.97	427.71
505.33	434.95
505.69	442.61
506.05	450.31
506.41	458.21
506.78	466.34
507.14	474.76
507.50	483.54
507.86	492.60
508.22	501.72
508.59	510.96
508.95	520.56
509.31	530.33
509.67	540.41
510.03	550.63
510.39	561.18
510.75	572.00
511.12	582.89
511.48	594.21
511.84	605.56
512.20	617.09
512.56	629.01
512.92	641.20
513.28	653.54
513.64	666.09
514.00	678.82
514.37	691.69
514.73	704.76
515.09	717.81
515.45	731.04
515.81	744.62
516.17	758.55
516.53	772.73
516.89	786.91
517.25	801.14
517.61	815.66
517.97	830.11
518.33	844.54
518.69	859.36
519.05	874.28
519.41	889.54
519.77	905.07
520.13	920.70
520.49	936.16
520.85	951.67
521.21	967.43
521.57	983.72
521.93	999.61
522.29	1016.07
522.65	1032.32
523.01	1048.60
523.37	1064.78
523.73	1081.14
524.09	1097.23
524.45	1113.55
524.81	1130.21
525.17	1147.13
525.53	1164.16
525.89	1181.15
526.25	1198.03
526.61	1214.49
526.97	1231.38
527.33	1247.88
527.68	1264.44
528.04	1281.01
528.40	1297.66
528.76	1314.76
529.12	1331.42
529.48	1348.39
529.84	1364.51
530.20	1381.22
530.56	1398.43
530.91	1415.86
531.27	1432.59
531.63	1449.16
531.99	1465.88
532.35	1481.99
532.71	1497.89
533.07	1514.16
533.42	1530.06
533.78	1546.26
534.14	1562.75
534.50	1578.16
534.86	1594.19
535.21	1609.37
535.57	1625.34
535.93	1640.82
536.29	1655.78
536.65	1671.01
537.00	1685.94
537.36	1701.35
537.72	1716.05
538.08	1730.42
538.44	1744.28
538.79	1758.30
539.15	1772.16
539.51	1785.99
539.87	1800.41
540.22	1814.18
540.58	1828.16
540.94	1841.63
541.29	1854.43
541.65	1867.12
542.01	1880.46
542.37	1892.87
542.72	1905.51
543.08	1917.45
543.44	1929.96
543.79	1941.19
544.15	1952.09
544.51	1963.65
544.87	1974.68
545.22	1985.42
545.58	1995.70
545.94	2005.57
546.29	2015.53
546.65	2025.25
547.01	2034.55
547.36	2043.31
547.72	2051.97
548.07	2059.77
548.43	2068.11
548.79	2076.30
549.14	2083.99
549.50	2091.39
549.86	2099.09
550.21	2106.31
550.57	2113.45
550.92	2120.06
551.28	2127.27
551.64	2134.42
551.99	2140.90
552.35	2146.96
552.70	2153.14
553.06	2159.08
553.41	2165.38
553.77	2171.39
554.13	2177.64
554.48	2183.65
554.84	2188.97
555.19	2194.10
555.55	2199.18
555.90	2203.48
556.26	2208.24
556.61	2212.94
556.97	2217.02
557.32	2221.05
557.68	2225.33
558.03	2229.63
558.39	2233.24
558.74	2237.62
559.10	2241.52
559.45	2245.12
559.81	2249.48
560.16	2253.24
560.52	2256.50
560.87	2259.89
561.23	2262.38
561.58	2265.19
561.94	2267.71
562.29	2270.23
562.64	2272.88
563.00	2275.53
563.35	2279.08
563.71	2282.11
564.06	2285.12
564.42	2287.97
564.77	2290.52
565.12	2292.48
565.48	2294.24
565.83	2295.94
566.19	2297.25
566.54	2298.17
566.89	2299.36
567.25	2299.76
567.60	2301.07
567.96	2302.68
568.31	2303.36
568.66	2304.36
569.02	2304.87
569.37	2305.08
569.72	2305.68
570.08	2305.58
570.43	2305.40
570.78	2304.39
571.14	2302.87
571.49	2301.38
571.84	2300.90
572.20	2299.35
572.55	2298.12
572.90	2296.49
573.26	2294.97
573.61	2293.10
573.96	2291.03
574.31	2287.69
574.67	2284.51
575.02	2280.71
575.37	2277.03
575.72	2272.95
576.08	2269.54
576.43	2265.99
576.78	2262.13
577.13	2258.92
577.49	2255.85
577.84	2252.03
578.19	2248.29
578.54	2244.41
578.90	2240.03
579.25	2234.28
579.60	2229.33
579.95	2224.28
580.30	2218.99
580.66	2213.86
581.01	2208.71
581.36	2203.61
581.71	2199.26
582.06	2194.60
582.42	2189.88
582.77	2184.53
583.12	2179.96
583.47	2175.10
583.82	2170.05
584.17	2164.67
584.53	2158.86
584.88	2152.91
585.23	2147.11
585.58	2141.58
585.93	2136.00
586.28	2131.15
586.63	2126.02
586.98	2120.79
587.34	2116.00
587.69	2111.19
588.04	2105.74
588.39	2100.04
588.74	2093.48
589.09	2087.29
589.44	2080.45
589.79	2074.31
590.14	2068.56
590.49	2061.81
590.84	2055.17
591.19	2048.96
591.54	2042.46
591.89	2035.00
592.25	2028.26
592.60	2021.09
592.95	2013.25
593.30	2005.80
593.65	1998.08
594.00	1991.01
594.35	1983.71
594.70	1975.50
595.05	1968.01
595.40	1960.75
595.75	1953.07
596.10	1946.69
596.45	1939.79
596.80	1933.66
597.15	1927.00
597.50	1919.87
597.85	1913.39
598.19	1906.71
598.54	1899.49
598.89	1892.82
599.24	1886.89
599.59	1880.11
599.94	1873.84
600.29	1867.54
600.64	1860.97
600.99	1853.32
601.34	1846.35
601.69	1839.34
602.04	1832.35
602.39	1824.96
602.74	1818.00
603.08	1811.35
603.43	1804.58
603.78	1797.38
604.13	1790.00
604.48	1782.61
604.83	1775.78
605.18	1768.80
605.53	1760.81
605.87	1752.74
606.22	1745.43
606.57	1737.52
606.92	1730.29
607.27	1723.00
607.62	1716.16
607.96	1708.78
608.31	1702.30
608.66	1694.57
609.01	1687.03
609.36	1679.68
609.70	1671.64
610.05	1663.53
610.40	1655.77
610.75	1647.47
611.10	1639.77
611.44	1631.52
611.79	1623.59
612.14	1614.88
612.49	1605.84
612.83	1597.52
613.18	1589.49
613.53	1581.42
613.88	1572.98
614.22	1564.53
614.57	1556.05
614.92	1548.00
615.27	1540.61
615.61	1532.27
615.96	1524.43
616.31	1516.85
616.65	1509.33
617.00	1501.87
617.35	1494.24
617.70	1485.88
618.04	1477.39
618.39	1469.25
618.74	1461.68
619.08	1453.40
619.43	1445.97
619.78	1439.00
620.12	1431.83
620.47	1424.41
620.82	1416.24
621.16	1408.84
621.51	1401.28
621.85	1393.67
622.20	1385.15
622.55	1376.80
622.89	1369.08
623.24	1361.53
623.59	1354.18
623.93	1346.76
624.28	1339.52
624.62	1332.14
624.97	1324.97
625.32	1318.31
625.66	1311.34
626.01	1304.09
626.35	1296.68
626.70	1288.86
627.04	1281.21
627.39	1273.54
627.73	1266.12
628.08	1259.23
628.43	1251.81
628.77	1244.45
629.12	1236.95
629.46	1229.77
629.81	1222.35
630.15	1215.14
630.50	1207.82
630.84	1199.62
631.19	1191.66
631.53	1184.26
631.88	1176.69
632.22	1169.09
632.57	1161.87
632.91	1154.33
633.26	1146.90
633.60	1139.66
633.95	1132.64
634.29	1125.70
634.64	1119.06
634.98	1111.79
635.32	1104.67
635.67	1098.23
636.01	1091.74
636.36	1084.89
636.70	1078.52
637.05	1072.03
637.39	1065.59
637.73	1059.01
638.08	1053.21
638.42	1047.43
638.77	1040.99
639.11	1034.40
639.45	1028.21
639.80	1021.47
640.14	1015.00
640.49	1008.57
640.83	1002.28
641.17	996.09
641.52	989.73
641.86	983.38
642.20	977.57
642.55	971.38
642.89	964.90
643.23	958.41
643.58	952.77
643.92	946.52
644.26	940.53
644.61	934.53
644.95	928.51
645.29	921.98
645.64	915.18
645.98	908.91
646.32	903.08
646.66	897.04
647.01	891.32
647.35	885.74
647.69	879.94
648.04	874.39
648.38	868.58
648.72	862.62
649.06	856.58
649.41	850.70
649.75	844.68
650.09	838.74
650.43	832.97
650.78	826.81
651.12	820.93
651.46	815.16
651.80	809.45
652.14	804.13
652.49	798.75
652.83	793.69
653.17	787.96
653.51	782.26
653.85	776.94
654.20	771.24
654.54	765.26
654.88	759.58
655.22	753.80
655.56	748.19
655.90	742.75
656.25	737.49
656.59	732.14
656.93	727.12
657.27	722.06
657.61	716.67
657.95	711.53
658.29	706.46
658.64	701.28
658.98	696.01
659.32	690.58
659.66	685.35
660.00	680.01
660.34	675.15
660.68	670.32
661.02	665.25
661.36	660.66
661.70	656.21
662.05	651.87
662.39	647.55
662.73	643.08
663.07	638.73
663.41	634.26
663.75	629.78
664.09	625.25
664.43	620.91
664.77	616.76
665.11	612.60
665.45	608.52
665.79	604.41
666.13	600.24
666.47	596.13
666.81	591.99
667.15	587.89
667.49	584.04
667.83	580.23
668.17	576.31
668.51	572.22
668.85	568.21
669.19	564.41
669.53	560.54
669.87	556.75
670.21	553.09
670.55	549.50
670.89	546.13
671.23	542.76
671.57	539.23
671.91	535.70
672.25	532.20
672.58	528.73
672.92	525.43
673.26	522.32
673.60	519.25
673.94	516.19
674.28	513.25
674.62	510.30
674.96	507.24
675.30	504.37
675.64	501.48
675.97	498.75
676.31	495.88
676.65	492.98
676.99	490.26
677.33	487.45
677.67	484.68
678.01	481.63
678.34	478.66
678.68	475.82
679.02	473.06
679.36	470.31
679.70	467.58
680.04	464.82
680.37	461.95
680.71	459.16
681.05	456.60
681.39	453.91
681.73	451.30
682.06	448.78
682.40	446.24
682.74	443.76
683.08	441.26
683.42	438.69
683.75	436.18
684.09	433.73
684.43	431.29
684.77	428.82
685.10	426.49
685.44	424.28
685.78	421.97
686.12	419.79
686.45	417.57
686.79	415.27
687.13	413.07
687.46	410.96
687.80	408.86
688.14	406.65
688.48	404.62
688.81	402.39
689.15	400.20
689.49	398.09
689.82	395.99
690.16	393.87
690.50	391.91
690.83	390.03
691.17	388.00
691.51	386.06
691.84	384.21
692.18	382.33
692.52	380.29
692.85	378.40
693.19	376.52
693.52	374.68
693.86	372.93
694.20	371.15
694.53	369.35
694.87	367.54
695.21	365.77
695.54	363.96
695.88	362.28
696.21	360.58
696.55	358.86
696.88	357.20
697.22	355.55
697.56	353.94
697.89	352.22
698.23	350.60
698.56	349.01
698.90	347.41
699.23	345.76
699.57	344.19
699.90	342.66
700.24	341.09
700.58	339.55
700.91	338.01
701.25	336.57
701.58	335.18
701.92	333.78
702.25	332.37
702.59	331.01
702.92	329.65
703.26	328.38
703.59	327.11
703.93	325.93
704.26	324.71
704.60	323.45
704.93	322.25
705.26	321.03
705.60	319.90
705.93	318.78
706.27	317.74
706.60	316.73
706.94	315.66
707.27	314.53
707.61	313.52
707.94	312.51
708.27	311.43
708.61	310.36
708.94	309.35
709.28	308.42
709.61	307.50
709.94	306.57
710.28	305.58
710.61	304.62
710.95	303.57
711.28	302.64
711.61	301.67
711.95	300.77
712.28	299.85
712.61	298.83
712.95	297.92
713.28	297.02
713.61	296.12
713.95	295.23
714.28	294.42
714.61	293.51
714.95	292.66
715.28	291.81
715.61	290.95
715.95	290.11
716.28	289.27
716.61	288.44
716.95	287.66
717.28	286.93
717.61	286.19
717.94	285.49
718.28	284.68
718.61	283.98
718.94	283.28
719.27	282.63
719.61	282.06
719.94	281.40
720.27	280.72
720.60	280.09
720.94	279.48
721.27	278.90
721.60	278.38
721.93	277.84
722.27	277.31
722.60	276.78
722.93	276.21
723.26	275.68
723.59	275.12
723.93	274.57
724.26	274.03
724.59	273.48
724.92	272.92
725.25	272.48
725.59	271.94
725.92	271.46
726.25	270.93
726.58	270.40
726.91	269.89
727.24	269.45
727.57	268.95
727.91	268.43
728.24	267.95
728.57	267.43
728.90	266.94
729.23	266.48
729.56	266.03
729.89	265.56
730.22	265.07
730.55	264.59
730.89	264.13
731.22	263.67
731.55	263.24
731.88	262.82
732.21	262.38
732.54	261.98
732.87	261.55
733.20	261.15
733.53	260.75
733.86	260.40
734.19	259.98
734.52	259.59
734.85	259.28
735.18	258.87
735.51	258.50
735.84	258.18
736.17	257.81
736.50	257.41
736.83	257.18
737.16	256.81
737.49	256.50
737.82	256.18
738.15	255.82
738.48	255.47
738.81	255.12
739.14	254.78
739.47	254.42
739.80	254.08
740.13	253.75
740.46	253.38
740.79	253.02
741.12	252.71
741.45	252.38
741.78	252.03
742.11	251.72
742.44	251.40
742.77	251.11
743.10	250.79
743.43	250.49
743.75	250.10
744.08	249.96
744.41	249.68
744.74	249.37
745.07	249.09
745.40	248.84
745.73	248.58
746.06	248.32
746.39	248.09
746.71	247.84
747.04	247.60
747.37	247.36
747.70	247.14
748.03	246.91
748.36	246.71
748.68	246.47
749.01	246.24
749.34	246.01
749.67	245.71
750.00	245.51
750.33	245.37
750.65	245.16
750.98	244.82
751.31	244.59
751.64	244.40
751.97	244.27
752.29	244.10
752.62	243.88
752.95	243.67
753.28	243.46
753.60	243.26
753.93	243.10
754.26	242.92
754.59	242.72
754.91	242.50
755.24	242.30
755.57	242.15
755.90	241.99
756.22	241.81
756.55	241.66
756.88	241.48
757.20	241.26
757.53	241.07
757.86	240.91
758.19	240.77
758.51	240.60
758.84	240.40
759.17	240.19
759.49	240.05
759.82	239.97
760.15	239.84
760.47	239.68
760.80	239.52
761.13	239.40
761.45	239.25
761.78	239.10
762.11	238.93
762.43	238.76
762.76	238.63
763.08	238.50
763.41	238.36
763.74	238.22
764.06	238.08
764.39	237.94
764.71	237.83
765.04	237.66
765.37	237.54
765.69	237.42
766.02	237.32
766.34	237.17
766.67	237.00
767.00	236.88
767.32	236.81
767.65	236.72
767.97	236.57
768.30	236.45
768.62	236.36
768.95	236.27
769.27	236.15
769.60	236.04
769.92	235.90
770.25	235.79
770.57	235.67
770.90	235.55
771.22	235.45
771.55	235.33
771.87	235.24
772.20	235.12
772.52	235.09
772.85	235.07
773.17	234.98
773.50	234.85
773.82	234.75
774.15	234.61
774.47	234.43
774.80	234.35
775.12	234.24
775.45	234.15
775.77	234.06
776.09	233.99
776.42	233.91
776.74	233.87
777.07	233.77
777.39	233.71
777.72	233.63
778.04	233.57
778.36	233.50
778.69	233.45
779.01	233.38
779.33	233.24
779.66	233.06
779.98	232.97
780.31	232.92
780.63	232.88
780.95	232.82
781.28	232.79
781.60	232.69
781.92	232.64
782.25	232.55
782.57	232.45
782.89	232.38
783.22	232.28
783.54	232.19
783.86	232.19
784.19	232.11
784.51	232.10
784.83	232.02
785.16	231.96
785.48	231.89
785.80	231.84
786.12	231.77
786.45	231.73
786.77	231.69
787.09	231.65
