SpectraSuite Data File
++++++++++++++++++++++++++++++++++++
Date: Fri Feb 01 15:54:16 EST 2013
User: group
Dark Spectrum Present: No
Reference Spectrum Present: No
Number of Sampled Component Spectra: 1
Spectrometers: USB2E7196
Integration Time (usec): 35000 (USB2E7196)
Spectra Averaged: 100 (USB2E7196)
Boxcar Smoothing: 10 (USB2E7196)
Correct for Electrical Dark: No (USB2E7196)
Strobe/Lamp Enabled: No (USB2E7196)
Correct for Detector Non-linearity: No (USB2E7196)
Correct for Stray Light: No (USB2E7196)
Number of Pixels in Processed Spectrum: 2048
>>>>>Begin Processed Spectral Data<<<<<
339.09	0.00
339.48	215.03
339.86	216.81
340.24	217.57
340.63	219.15
341.01	221.83
341.39	222.26
341.78	222.73
342.16	224.08
342.54	224.59
342.93	213.21
343.31	223.96
343.69	224.51
344.07	224.96
344.46	225.39
344.84	225.76
345.22	225.99
345.60	226.20
345.99	226.42
346.37	226.55
346.75	226.66
347.13	226.74
347.52	226.76
347.90	226.85
348.28	226.88
348.66	226.88
349.05	226.87
349.43	226.90
349.81	226.93
350.19	226.99
350.57	227.06
350.96	227.14
351.34	227.24
351.72	227.32
352.10	227.39
352.48	227.46
352.87	227.51
353.25	227.58
353.63	227.67
354.01	227.70
354.39	227.76
354.77	227.86
355.15	227.95
355.54	228.00
355.92	228.03
356.30	228.06
356.68	228.21
357.06	228.30
357.44	228.35
357.82	228.44
358.20	228.48
358.58	228.50
358.97	228.58
359.35	228.64
359.73	228.73
360.11	228.77
360.49	228.78
360.87	228.84
361.25	228.91
361.63	228.96
362.01	229.02
362.39	229.05
362.77	229.06
363.15	229.06
363.53	229.12
363.91	229.13
364.29	229.18
364.67	229.10
365.05	229.06
365.43	229.05
365.81	229.04
366.19	229.09
366.57	229.15
366.95	229.10
367.33	229.07
367.71	229.01
368.09	229.03
368.47	229.04
368.85	229.02
369.23	229.00
369.61	228.94
369.99	228.96
370.37	228.95
370.75	228.95
371.13	228.91
371.51	228.87
371.89	228.86
372.27	228.83
372.65	228.79
373.03	228.77
373.41	228.70
373.78	228.63
374.16	228.50
374.54	228.42
374.92	228.36
375.30	228.31
375.68	228.24
376.06	228.18
376.44	228.08
376.82	228.00
377.19	227.92
377.57	227.86
377.95	227.76
378.33	227.71
378.71	227.60
379.09	227.57
379.47	227.53
379.84	227.44
380.22	227.37
380.60	227.32
380.98	227.29
381.36	227.23
381.73	227.16
382.11	227.15
382.49	227.09
382.87	227.04
383.25	227.00
383.62	227.07
384.00	227.01
384.38	227.00
384.76	226.98
385.13	226.97
385.51	226.91
385.89	226.84
386.27	226.76
386.64	226.73
387.02	226.64
387.40	226.55
387.78	226.53
388.15	226.52
388.53	226.47
388.91	226.43
389.29	226.39
389.66	226.40
390.04	226.35
390.42	226.35
390.79	226.34
391.17	226.32
391.55	226.20
391.92	226.20
392.30	226.16
392.68	226.12
393.05	226.12
393.43	226.13
393.81	226.13
394.18	226.13
394.56	226.13
394.94	226.18
395.31	226.21
395.69	226.25
396.06	226.27
396.44	226.30
396.82	226.34
397.19	226.41
397.57	226.44
397.95	226.51
398.32	226.52
398.70	226.56
399.07	226.64
399.45	226.70
399.82	226.73
400.20	226.81
400.58	226.88
400.95	226.92
401.33	227.04
401.70	227.20
402.08	227.29
402.45	227.40
402.83	227.50
403.20	227.62
403.58	227.72
403.95	227.84
404.33	227.96
404.71	228.07
405.08	228.25
405.46	228.38
405.83	228.53
406.21	228.70
406.58	228.90
406.96	229.07
407.33	229.23
407.70	229.44
408.08	229.69
408.45	229.87
408.83	230.10
409.20	230.30
409.58	230.49
409.95	230.74
410.33	231.00
410.70	231.26
411.08	231.57
411.45	231.88
411.82	232.15
412.20	232.51
412.57	232.94
412.95	233.25
413.32	233.66
413.69	234.08
414.07	234.52
414.44	234.92
414.82	235.37
415.19	235.93
415.56	236.49
415.94	237.05
416.31	237.74
416.68	238.35
417.06	239.05
417.43	239.71
417.81	240.51
418.18	241.29
418.55	242.11
418.93	242.97
419.30	243.87
419.67	244.82
420.04	245.75
420.42	246.73
420.79	247.92
421.16	249.11
421.54	250.27
421.91	251.47
422.28	252.76
422.66	254.08
423.03	255.39
423.40	256.75
423.77	258.17
424.15	259.60
424.52	261.10
424.89	262.73
425.26	264.28
425.64	265.71
426.01	267.32
426.38	268.97
426.75	270.63
427.13	272.34
427.50	274.14
427.87	276.08
428.24	277.95
428.61	279.68
428.99	281.59
429.36	283.70
429.73	285.77
430.10	287.82
430.47	289.88
430.85	291.96
431.22	294.18
431.59	296.55
431.96	298.82
432.33	301.34
432.70	303.74
433.08	306.59
433.45	309.26
433.82	311.88
434.19	314.76
434.56	317.59
434.93	320.25
435.30	322.87
435.68	325.72
436.05	328.54
436.42	331.40
436.79	333.93
437.16	336.63
437.53	339.43
437.90	342.24
438.27	344.95
438.64	347.77
439.01	350.37
439.38	352.57
439.75	354.75
440.13	357.20
440.50	359.47
440.87	361.33
441.24	363.19
441.61	365.35
441.98	366.84
442.35	368.59
442.72	370.44
443.09	372.24
443.46	373.20
443.83	373.76
444.20	374.26
444.57	375.07
444.94	375.31
445.31	375.65
445.68	375.98
446.05	376.08
446.42	375.68
446.79	375.30
447.16	374.85
447.53	374.47
447.90	373.28
448.27	372.09
448.64	370.46
449.01	369.36
449.37	367.40
449.74	365.51
450.11	363.30
450.48	360.82
450.85	358.27
451.22	356.14
451.59	354.11
451.96	352.14
452.33	349.57
452.70	347.22
453.07	344.41
453.43	341.51
453.80	338.78
454.17	336.11
454.54	333.50
454.91	330.80
455.28	328.16
455.65	325.73
456.02	323.33
456.38	321.21
456.75	318.55
457.12	316.32
457.49	314.16
457.86	311.99
458.23	310.17
458.59	308.13
458.96	306.07
459.33	304.23
459.70	302.34
460.07	300.84
460.43	299.17
460.80	297.57
461.17	296.16
461.54	294.63
461.91	293.22
462.27	291.81
462.64	290.57
463.01	289.21
463.38	287.89
463.74	286.55
464.11	285.39
464.48	284.40
464.85	283.27
465.21	282.37
465.58	281.43
465.95	280.32
466.32	279.43
466.68	278.52
467.05	277.65
467.42	276.79
467.78	275.87
468.15	275.00
468.52	274.32
468.88	273.49
469.25	272.75
469.62	272.14
469.98	271.50
470.35	270.88
470.72	270.26
471.08	269.62
471.45	269.10
471.82	268.59
472.18	267.98
472.55	267.53
472.92	267.02
473.28	266.58
473.65	266.17
474.02	265.74
474.38	265.41
474.75	265.10
475.11	264.75
475.48	264.47
475.85	264.25
476.21	264.04
476.58	263.82
476.94	263.67
477.31	263.50
477.67	263.36
478.04	263.23
478.41	263.20
478.77	263.26
479.14	263.18
479.50	263.14
479.87	263.20
480.23	263.29
480.60	263.34
480.96	263.43
481.33	263.63
481.69	263.82
482.06	263.96
482.42	264.16
482.79	264.39
483.15	264.70
483.52	265.07
483.88	265.40
484.25	265.78
484.61	266.20
484.98	266.63
485.34	267.15
485.71	267.75
486.07	268.30
486.44	268.84
486.80	269.55
487.17	270.31
487.53	271.14
487.90	271.98
488.26	272.92
488.62	273.89
488.99	274.85
489.35	275.89
489.72	277.07
490.08	278.21
490.44	279.45
490.81	280.79
491.17	282.11
491.54	283.61
491.90	285.10
492.26	286.78
492.63	288.48
492.99	290.25
493.36	292.13
493.72	294.21
494.08	296.32
494.45	298.53
494.81	300.87
495.17	303.26
495.54	305.84
495.90	308.51
496.26	311.31
496.63	314.30
496.99	317.42
497.35	320.65
497.72	324.06
498.08	327.57
498.44	331.24
498.80	335.19
499.17	339.22
499.53	343.46
499.89	347.75
500.26	352.27
500.62	356.97
500.98	361.96
501.34	367.03
501.71	372.33
502.07	377.79
502.43	383.45
502.79	389.32
503.16	395.38
503.52	401.67
503.88	408.09
504.24	414.69
504.60	421.55
504.97	428.69
505.33	436.03
505.69	443.72
506.05	451.53
506.41	459.41
506.78	467.60
507.14	476.04
507.50	484.85
507.86	493.92
508.22	503.14
508.59	512.32
508.95	521.93
509.31	531.81
509.67	541.95
510.03	552.19
510.39	562.79
510.75	573.63
511.12	584.54
511.48	595.87
511.84	607.30
512.20	618.84
512.56	630.75
512.92	642.90
513.28	655.28
513.64	667.73
514.00	680.46
514.37	693.38
514.73	706.41
515.09	719.37
515.45	732.64
515.81	746.24
516.17	760.27
516.53	774.38
516.89	788.55
517.25	802.69
517.61	817.09
517.97	831.41
518.33	845.85
518.69	860.59
519.05	875.57
519.41	890.69
519.77	906.27
520.13	921.75
520.49	937.21
520.85	952.59
521.21	968.30
521.57	984.45
521.93	1000.14
522.29	1016.59
522.65	1032.86
523.01	1049.01
523.37	1064.96
523.73	1081.11
524.09	1097.09
524.45	1113.26
524.81	1129.91
525.17	1146.75
525.53	1163.74
525.89	1180.53
526.25	1197.38
526.61	1213.67
526.97	1230.49
527.33	1246.95
527.68	1263.41
528.04	1279.84
528.40	1296.40
528.76	1313.45
529.12	1330.05
529.48	1346.91
529.84	1362.84
530.20	1379.53
530.56	1396.69
530.91	1414.11
531.27	1430.76
531.63	1447.29
531.99	1464.00
532.35	1480.03
532.71	1495.90
533.07	1512.06
533.42	1527.93
533.78	1544.06
534.14	1560.34
534.50	1575.71
534.86	1591.49
535.21	1606.70
535.57	1622.61
535.93	1638.12
536.29	1652.92
536.65	1667.96
537.00	1682.86
537.36	1698.27
537.72	1712.66
538.08	1726.86
538.44	1740.62
538.79	1754.56
539.15	1768.14
539.51	1781.92
539.87	1796.12
540.22	1809.77
540.58	1823.43
540.94	1836.79
541.29	1849.55
541.65	1862.22
542.01	1875.36
542.37	1887.68
542.72	1900.26
543.08	1912.13
543.44	1924.55
543.79	1935.83
544.15	1946.81
544.51	1958.29
544.87	1969.09
545.22	1979.87
545.58	1990.07
545.94	1999.85
546.29	2009.67
546.65	2019.56
547.01	2028.75
547.36	2037.49
547.72	2046.11
548.07	2054.06
548.43	2062.24
548.79	2070.39
549.14	2077.95
549.50	2085.23
549.86	2093.07
550.21	2100.27
550.57	2107.19
550.92	2113.67
551.28	2120.65
551.64	2127.63
551.99	2134.19
552.35	2140.34
552.70	2146.47
553.06	2152.38
553.41	2158.86
553.77	2164.84
554.13	2171.02
554.48	2177.10
554.84	2182.50
555.19	2187.64
555.55	2192.86
555.90	2197.25
556.26	2202.06
556.61	2206.83
556.97	2211.19
557.32	2215.06
557.68	2219.16
558.03	2223.51
558.39	2227.28
558.74	2231.89
559.10	2235.82
559.45	2239.30
559.81	2243.66
560.16	2247.52
560.52	2250.80
560.87	2254.08
561.23	2256.88
561.58	2259.79
561.94	2262.21
562.29	2264.58
562.64	2267.30
563.00	2269.82
563.35	2273.40
563.71	2276.50
564.06	2279.57
564.42	2282.42
564.77	2284.97
565.12	2287.32
565.48	2289.19
565.83	2291.04
566.19	2292.18
566.54	2293.06
566.89	2294.30
567.25	2294.91
567.60	2296.35
567.96	2298.14
568.31	2298.96
568.66	2299.94
569.02	2300.35
569.37	2300.62
569.72	2301.61
570.08	2301.70
570.43	2301.72
570.78	2301.06
571.14	2299.47
571.49	2298.23
571.84	2297.95
572.20	2296.86
572.55	2295.74
572.90	2294.27
573.26	2292.86
573.61	2291.43
573.96	2289.58
574.31	2286.61
574.67	2283.54
575.02	2279.84
575.37	2276.41
575.72	2272.58
576.08	2269.20
576.43	2265.98
576.78	2262.46
577.13	2259.24
577.49	2256.22
577.84	2252.80
578.19	2249.08
578.54	2245.41
578.90	2241.10
579.25	2235.57
579.60	2230.59
579.95	2225.56
580.30	2220.56
580.66	2215.43
581.01	2210.38
581.36	2205.45
581.71	2201.23
582.06	2196.63
582.42	2192.11
582.77	2186.92
583.12	2182.33
583.47	2177.68
583.82	2172.65
584.17	2167.35
584.53	2161.90
584.88	2156.25
585.23	2150.32
585.58	2144.86
585.93	2139.38
586.28	2134.57
586.63	2129.30
586.98	2124.25
587.34	2119.49
587.69	2114.56
588.04	2109.19
588.39	2103.39
588.74	2096.98
589.09	2090.81
589.44	2084.16
589.79	2078.24
590.14	2072.72
590.49	2066.17
590.84	2059.88
591.19	2053.84
591.54	2047.43
591.89	2039.90
592.25	2033.02
592.60	2025.88
592.95	2018.30
593.30	2011.02
593.65	2003.50
594.00	1996.67
594.35	1989.32
594.70	1981.33
595.05	1974.06
595.40	1966.88
595.75	1959.45
596.10	1953.29
596.45	1946.50
596.80	1940.40
597.15	1933.71
597.50	1926.46
597.85	1920.03
598.19	1913.28
598.54	1906.13
598.89	1899.50
599.24	1893.63
599.59	1886.87
599.94	1880.67
600.29	1874.34
600.64	1867.73
600.99	1860.33
601.34	1853.29
601.69	1846.44
602.04	1839.62
602.39	1832.36
602.74	1825.52
603.08	1818.78
603.43	1812.04
603.78	1804.74
604.13	1797.40
604.48	1790.07
604.83	1783.15
605.18	1776.08
605.53	1768.01
605.87	1760.05
606.22	1752.83
606.57	1744.92
606.92	1737.64
607.27	1730.49
607.62	1723.68
607.96	1716.47
608.31	1709.81
608.66	1702.23
609.01	1694.67
609.36	1687.11
609.70	1679.02
610.05	1670.94
610.40	1663.24
610.75	1654.93
611.10	1647.32
611.44	1639.08
611.79	1631.07
612.14	1622.50
612.49	1613.40
612.83	1605.19
613.18	1597.06
613.53	1588.92
613.88	1580.39
614.22	1572.16
614.57	1563.47
614.92	1555.24
615.27	1547.62
615.61	1539.28
615.96	1531.31
616.31	1523.76
616.65	1516.35
617.00	1508.80
617.35	1501.20
617.70	1492.82
618.04	1484.32
618.39	1476.25
618.74	1468.63
619.08	1460.39
619.43	1452.78
619.78	1445.87
620.12	1438.62
620.47	1431.06
620.82	1422.83
621.16	1415.35
621.51	1407.82
621.85	1400.29
622.20	1391.89
622.55	1383.54
622.89	1375.76
623.24	1368.25
623.59	1360.78
623.93	1353.17
624.28	1345.96
624.62	1338.37
624.97	1331.29
625.32	1324.58
625.66	1317.44
626.01	1310.21
626.35	1302.74
626.70	1295.00
627.04	1287.18
627.39	1279.45
627.73	1272.20
628.08	1265.33
628.43	1257.98
628.77	1250.56
629.12	1243.04
629.46	1235.84
629.81	1228.43
630.15	1221.21
630.50	1213.68
630.84	1205.50
631.19	1197.69
631.53	1190.25
631.88	1182.73
632.22	1175.14
632.57	1167.79
632.91	1160.23
633.26	1152.76
633.60	1145.37
633.95	1138.33
634.29	1131.40
634.64	1124.69
634.98	1117.32
635.32	1110.11
635.67	1103.58
636.01	1096.99
636.36	1090.08
636.70	1083.55
637.05	1076.98
637.39	1070.36
637.73	1063.82
638.08	1058.00
638.42	1051.92
638.77	1045.44
639.11	1038.79
639.45	1032.40
639.80	1025.71
640.14	1019.29
640.49	1012.81
640.83	1006.52
641.17	1000.19
641.52	993.88
641.86	987.42
642.20	981.47
642.55	975.21
642.89	968.78
643.23	962.23
643.58	956.44
643.92	950.21
644.26	944.09
644.61	938.20
644.95	932.22
645.29	925.45
645.64	918.75
645.98	912.34
646.32	906.55
646.66	900.45
647.01	894.70
647.35	888.97
647.69	883.07
648.04	877.49
648.38	871.69
648.72	865.67
649.06	859.63
649.41	853.70
649.75	847.75
650.09	841.77
650.43	835.95
650.78	829.91
651.12	823.99
651.46	818.31
651.80	812.53
652.14	807.14
652.49	801.90
652.83	796.73
653.17	791.11
653.51	785.36
653.85	780.06
654.20	774.38
654.54	768.40
654.88	762.77
655.22	756.93
655.56	751.24
655.90	745.80
656.25	740.53
656.59	735.15
656.93	730.06
657.27	724.88
657.61	719.42
657.95	714.26
658.29	709.18
658.64	703.92
658.98	698.61
659.32	693.16
659.66	687.94
660.00	682.54
660.34	677.59
660.68	672.63
661.02	667.53
661.36	662.82
661.70	658.35
662.05	653.99
662.39	649.63
662.73	645.23
663.07	640.86
663.41	636.39
663.75	631.98
664.09	627.44
664.43	623.06
664.77	618.98
665.11	614.71
665.45	610.55
665.79	606.53
666.13	602.39
666.47	598.29
666.81	594.16
667.15	590.11
667.49	586.25
667.83	582.46
668.17	578.58
668.51	574.49
668.85	570.39
669.19	566.54
669.53	562.69
669.87	558.76
670.21	555.10
670.55	551.46
670.89	547.94
671.23	544.51
671.57	541.00
671.91	537.43
672.25	533.96
672.58	530.42
672.92	527.00
673.26	523.84
673.60	520.70
673.94	517.55
674.28	514.63
674.62	511.67
674.96	508.55
675.30	505.58
675.64	502.62
675.97	499.97
676.31	497.10
676.65	494.20
676.99	491.52
677.33	488.61
677.67	485.82
678.01	482.82
678.34	479.80
678.68	476.91
679.02	474.06
679.36	471.27
679.70	468.59
680.04	465.80
680.37	462.89
680.71	460.07
681.05	457.41
681.39	454.72
681.73	452.01
682.06	449.50
682.40	446.94
682.74	444.47
683.08	441.92
683.42	439.32
683.75	436.85
684.09	434.30
684.43	431.87
684.77	429.39
685.10	427.07
685.44	424.76
685.78	422.48
686.12	420.23
686.45	418.01
686.79	415.69
687.13	413.51
687.46	411.36
687.80	409.25
688.14	407.02
688.48	404.90
688.81	402.68
689.15	400.49
689.49	398.37
689.82	396.30
690.16	394.20
690.50	392.24
690.83	390.26
691.17	388.31
691.51	386.45
691.84	384.61
692.18	382.68
692.52	380.70
692.85	378.80
693.19	376.96
693.52	375.13
693.86	373.27
694.20	371.55
694.53	369.76
694.87	367.90
695.21	366.15
695.54	364.39
695.88	362.66
696.21	360.98
696.55	359.33
696.88	357.65
697.22	355.96
697.56	354.39
697.89	352.75
698.23	351.11
698.56	349.43
698.90	347.86
699.23	346.22
699.57	344.70
699.90	343.17
700.24	341.71
700.58	340.18
700.91	338.74
701.25	337.29
701.58	335.93
701.92	334.60
702.25	333.22
702.59	331.87
702.92	330.57
703.26	329.29
703.59	327.99
703.93	326.77
704.26	325.53
704.60	324.17
704.93	322.86
705.26	321.64
705.60	320.46
705.93	319.30
706.27	318.24
706.60	317.19
706.94	316.11
707.27	314.93
707.61	313.84
707.94	312.80
708.27	311.71
708.61	310.59
708.94	309.53
709.28	308.56
709.61	307.60
709.94	306.65
710.28	305.61
710.61	304.64
710.95	303.59
711.28	302.68
711.61	301.73
711.95	300.82
712.28	299.83
712.61	298.88
712.95	297.94
713.28	297.06
713.61	296.15
713.95	295.24
714.28	294.39
714.61	293.55
714.95	292.72
715.28	291.85
715.61	291.00
715.95	290.15
716.28	289.29
716.61	288.49
716.95	287.64
717.28	286.95
717.61	286.15
717.94	285.39
718.28	284.58
718.61	283.89
718.94	283.21
719.27	282.58
719.61	281.90
719.94	281.22
720.27	280.50
720.60	279.83
720.94	279.19
721.27	278.58
721.60	278.00
721.93	277.36
722.27	276.82
722.60	276.29
722.93	275.76
723.26	275.22
723.59	274.63
723.93	274.08
724.26	273.46
724.59	272.89
724.92	272.41
725.25	271.90
725.59	271.36
725.92	270.85
726.25	270.36
726.58	269.90
726.91	269.42
727.24	268.99
727.57	268.55
727.91	268.06
728.24	267.61
728.57	267.13
728.90	266.72
729.23	266.21
729.56	265.76
729.89	265.27
730.22	264.79
730.55	264.33
730.89	263.89
731.22	263.48
731.55	263.09
731.88	262.65
732.21	262.24
732.54	261.84
732.87	261.40
733.20	260.94
733.53	260.60
733.86	260.22
734.19	259.81
734.52	259.42
734.85	259.11
735.18	258.70
735.51	258.33
735.84	257.95
736.17	257.61
736.50	257.21
736.83	257.01
737.16	256.66
737.49	256.38
737.82	256.06
738.15	255.73
738.48	255.39
738.81	255.09
739.14	254.76
739.47	254.42
739.80	254.14
740.13	253.85
740.46	253.47
740.79	253.14
741.12	252.83
741.45	252.52
741.78	252.18
742.11	251.88
742.44	251.55
742.77	251.28
743.10	250.99
743.43	250.70
743.75	250.30
744.08	250.16
744.41	249.83
744.74	249.54
745.07	249.25
745.40	248.99
745.73	248.74
746.06	248.47
746.39	248.20
746.71	247.91
747.04	247.68
747.37	247.45
747.70	247.23
748.03	246.99
748.36	246.77
748.68	246.53
749.01	246.28
749.34	246.06
749.67	245.82
750.00	245.57
750.33	245.41
750.65	245.21
750.98	244.88
751.31	244.67
751.64	244.49
751.97	244.30
752.29	244.09
752.62	243.82
752.95	243.60
753.28	243.41
753.60	243.19
753.93	242.96
754.26	242.79
754.59	242.55
754.91	242.32
755.24	242.08
755.57	241.88
755.90	241.69
756.22	241.46
756.55	241.24
756.88	241.07
757.20	240.81
757.53	240.59
757.86	240.40
758.19	240.25
758.51	240.06
758.84	239.89
759.17	239.70
759.49	239.56
759.82	239.43
760.15	239.28
760.47	239.14
760.80	238.96
761.13	238.77
761.45	238.60
761.78	238.47
762.11	238.35
762.43	238.21
762.76	238.10
763.08	238.03
763.41	237.93
763.74	237.79
764.06	237.67
764.39	237.55
764.71	237.41
765.04	237.26
765.37	237.11
765.69	236.99
766.02	236.87
766.34	236.74
766.67	236.59
767.00	236.50
767.32	236.43
767.65	236.37
767.97	236.29
768.30	236.19
768.62	236.09
768.95	235.93
769.27	235.81
769.60	235.73
769.92	235.58
770.25	235.46
770.57	235.33
770.90	235.25
771.22	235.14
771.55	235.06
771.87	234.97
772.20	234.89
772.52	234.85
772.85	234.87
773.17	234.80
773.50	234.72
773.82	234.60
774.15	234.45
774.47	234.32
774.80	234.21
775.12	234.12
775.45	234.05
775.77	233.98
776.09	233.90
776.42	233.79
776.74	233.73
777.07	233.68
777.39	233.63
777.72	233.53
778.04	233.47
778.36	233.38
778.69	233.32
779.01	233.25
779.33	233.14
779.66	232.97
779.98	232.87
780.31	232.77
780.63	232.77
780.95	232.73
781.28	232.64
781.60	232.56
781.92	232.52
782.25	232.47
782.57	232.43
782.89	232.36
783.22	232.30
783.54	232.21
783.86	232.16
784.19	232.07
784.51	232.04
784.83	231.99
785.16	231.93
785.48	231.87
785.80	231.82
786.12	231.74
786.45	231.68
786.77	231.64
787.09	231.58
