SpectraSuite Data File
++++++++++++++++++++++++++++++++++++
Date: Fri Feb 01 15:49:58 EST 2013
User: group
Dark Spectrum Present: No
Reference Spectrum Present: No
Number of Sampled Component Spectra: 1
Spectrometers: USB2E7196
Integration Time (usec): 35000 (USB2E7196)
Spectra Averaged: 100 (USB2E7196)
Boxcar Smoothing: 10 (USB2E7196)
Correct for Electrical Dark: No (USB2E7196)
Strobe/Lamp Enabled: No (USB2E7196)
Correct for Detector Non-linearity: No (USB2E7196)
Correct for Stray Light: No (USB2E7196)
Number of Pixels in Processed Spectrum: 2048
>>>>>Begin Processed Spectral Data<<<<<
339.09	0.00
339.48	214.84
339.86	216.95
340.24	217.85
340.63	219.06
341.01	222.18
341.39	221.47
341.78	223.36
342.16	224.00
342.54	224.88
342.93	213.41
343.31	224.20
343.69	224.78
344.07	225.24
344.46	225.67
344.84	226.05
345.22	226.32
345.60	226.59
345.99	226.81
346.37	226.94
346.75	227.07
347.13	227.14
347.52	227.19
347.90	227.24
348.28	227.25
348.66	227.31
349.05	227.32
349.43	227.36
349.81	227.41
350.19	227.47
350.57	227.52
350.96	227.56
351.34	227.65
351.72	227.72
352.10	227.78
352.48	227.85
352.87	227.90
353.25	227.96
353.63	228.03
354.01	228.05
354.39	228.13
354.77	228.20
355.15	228.29
355.54	228.34
355.92	228.38
356.30	228.45
356.68	228.58
357.06	228.62
357.44	228.68
357.82	228.73
358.20	228.83
358.58	228.90
358.97	228.93
359.35	228.98
359.73	229.05
360.11	229.14
360.49	229.19
360.87	229.25
361.25	229.27
361.63	229.33
362.01	229.37
362.39	229.43
362.77	229.46
363.15	229.49
363.53	229.51
363.91	229.54
364.29	229.56
364.67	229.46
365.05	229.50
365.43	229.53
365.81	229.54
366.19	229.54
366.57	229.57
366.95	229.59
367.33	229.56
367.71	229.50
368.09	229.49
368.47	229.46
368.85	229.44
369.23	229.41
369.61	229.34
369.99	229.37
370.37	229.35
370.75	229.35
371.13	229.26
371.51	229.16
371.89	229.09
372.27	229.04
372.65	229.01
373.03	228.94
373.41	228.85
373.78	228.75
374.16	228.65
374.54	228.51
374.92	228.39
375.30	228.32
375.68	228.24
376.06	228.17
376.44	228.05
376.82	227.99
377.19	227.94
377.57	227.85
377.95	227.71
378.33	227.61
378.71	227.47
379.09	227.43
379.47	227.39
379.84	227.33
380.22	227.24
380.60	227.16
380.98	227.09
381.36	227.03
381.73	226.97
382.11	226.92
382.49	226.92
382.87	226.89
383.25	226.85
383.62	226.92
384.00	226.83
384.38	226.83
384.76	226.79
385.13	226.78
385.51	226.76
385.89	226.71
386.27	226.70
386.64	226.67
387.02	226.62
387.40	226.62
387.78	226.59
388.15	226.57
388.53	226.54
388.91	226.49
389.29	226.45
389.66	226.47
390.04	226.45
390.42	226.47
390.79	226.47
391.17	226.45
391.55	226.33
391.92	226.37
392.30	226.39
392.68	226.37
393.05	226.37
393.43	226.43
393.81	226.48
394.18	226.49
394.56	226.51
394.94	226.55
395.31	226.56
395.69	226.63
396.06	226.69
396.44	226.74
396.82	226.80
397.19	226.92
397.57	226.96
397.95	227.03
398.32	227.01
398.70	227.07
399.07	227.16
399.45	227.22
399.82	227.28
400.20	227.34
400.58	227.40
400.95	227.42
401.33	227.50
401.70	227.61
402.08	227.71
402.45	227.80
402.83	227.91
403.20	228.03
403.58	228.12
403.95	228.24
404.33	228.39
404.71	228.55
405.08	228.70
405.46	228.84
405.83	228.97
406.21	229.13
406.58	229.29
406.96	229.47
407.33	229.65
407.70	229.83
408.08	230.10
408.45	230.35
408.83	230.58
409.20	230.76
409.58	230.95
409.95	231.19
410.33	231.45
410.70	231.70
411.08	231.97
411.45	232.28
411.82	232.58
412.20	232.87
412.57	233.26
412.95	233.53
413.32	233.93
413.69	234.34
414.07	234.76
414.44	235.22
414.82	235.64
415.19	236.18
415.56	236.72
415.94	237.25
416.31	237.86
416.68	238.50
417.06	239.21
417.43	239.88
417.81	240.64
418.18	241.37
418.55	242.18
418.93	243.04
419.30	243.90
419.67	244.83
420.04	245.81
420.42	246.79
420.79	248.01
421.16	249.15
421.54	250.36
421.91	251.57
422.28	252.80
422.66	254.18
423.03	255.46
423.40	256.79
423.77	258.21
424.15	259.56
424.52	261.05
424.89	262.67
425.26	264.24
425.64	265.72
426.01	267.36
426.38	269.04
426.75	270.74
427.13	272.48
427.50	274.28
427.87	276.16
428.24	278.04
428.61	279.76
428.99	281.70
429.36	283.77
429.73	285.82
430.10	287.88
430.47	289.91
430.85	292.04
431.22	294.25
431.59	296.63
431.96	298.97
432.33	301.47
432.70	303.80
433.08	306.62
433.45	309.25
433.82	311.88
434.19	314.73
434.56	317.53
434.93	320.21
435.30	322.84
435.68	325.74
436.05	328.56
436.42	331.36
436.79	333.87
437.16	336.56
437.53	339.40
437.90	342.19
438.27	344.93
438.64	347.76
439.01	350.35
439.38	352.58
439.75	354.72
440.13	357.18
440.50	359.55
440.87	361.42
441.24	363.36
441.61	365.49
441.98	366.99
442.35	368.81
442.72	370.64
443.09	372.49
443.46	373.45
443.83	374.04
444.20	374.54
444.57	375.39
444.94	375.72
445.31	376.05
445.68	376.41
446.05	376.54
446.42	376.14
446.79	375.74
447.16	375.34
447.53	375.02
447.90	373.89
448.27	372.69
448.64	371.08
449.01	369.98
449.37	368.00
449.74	366.11
450.11	363.84
450.48	361.36
450.85	358.84
451.22	356.66
451.59	354.59
451.96	352.68
452.33	350.06
452.70	347.63
453.07	344.82
453.43	341.95
453.80	339.15
454.17	336.46
454.54	333.92
454.91	331.15
455.28	328.48
455.65	325.94
456.02	323.53
456.38	321.37
456.75	318.65
457.12	316.41
457.49	314.15
457.86	312.00
458.23	310.18
458.59	308.15
458.96	306.11
459.33	304.28
459.70	302.35
460.07	300.87
460.43	299.18
460.80	297.55
461.17	296.08
461.54	294.58
461.91	293.18
462.27	291.74
462.64	290.52
463.01	289.15
463.38	287.88
463.74	286.52
464.11	285.34
464.48	284.34
464.85	283.22
465.21	282.39
465.58	281.48
465.95	280.36
466.32	279.40
466.68	278.49
467.05	277.61
467.42	276.78
467.78	275.84
468.15	274.96
468.52	274.31
468.88	273.45
469.25	272.67
469.62	272.05
469.98	271.34
470.35	270.74
470.72	270.18
471.08	269.54
471.45	269.00
471.82	268.48
472.18	267.87
472.55	267.42
472.92	266.93
473.28	266.43
473.65	265.96
474.02	265.56
474.38	265.22
474.75	264.88
475.11	264.50
475.48	264.22
475.85	264.01
476.21	263.77
476.58	263.59
476.94	263.44
477.31	263.24
477.67	263.13
478.04	262.94
478.41	262.84
478.77	262.86
479.14	262.80
479.50	262.81
479.87	262.87
480.23	262.96
480.60	262.99
480.96	263.11
481.33	263.33
481.69	263.51
482.06	263.70
482.42	263.93
482.79	264.18
483.15	264.53
483.52	264.92
483.88	265.28
484.25	265.67
484.61	266.08
484.98	266.60
485.34	267.13
485.71	267.75
486.07	268.40
486.44	269.00
486.80	269.71
487.17	270.44
487.53	271.27
487.90	272.14
488.26	273.15
488.62	274.12
488.99	275.15
489.35	276.20
489.72	277.31
490.08	278.51
490.44	279.75
490.81	281.11
491.17	282.46
491.54	283.94
491.90	285.49
492.26	287.18
492.63	288.89
492.99	290.69
493.36	292.61
493.72	294.63
494.08	296.68
494.45	298.96
494.81	301.33
495.17	303.73
495.54	306.27
495.90	308.90
496.26	311.69
496.63	314.61
496.99	317.72
497.35	320.95
497.72	324.32
498.08	327.82
498.44	331.48
498.80	335.39
499.17	339.43
499.53	343.61
499.89	347.98
500.26	352.47
500.62	357.16
500.98	362.09
501.34	367.17
501.71	372.55
502.07	378.02
502.43	383.62
502.79	389.48
503.16	395.58
503.52	401.94
503.88	408.39
504.24	415.02
504.60	421.92
504.97	429.09
505.33	436.43
505.69	444.15
506.05	451.92
506.41	459.86
506.78	468.00
507.14	476.40
507.50	485.13
507.86	494.17
508.22	503.42
508.59	512.64
508.95	522.19
509.31	532.00
509.67	542.09
510.03	552.43
510.39	562.97
510.75	573.68
511.12	584.53
511.48	595.83
511.84	607.30
512.20	618.84
512.56	630.79
512.92	642.99
513.28	655.32
513.64	667.76
514.00	680.43
514.37	693.37
514.73	706.52
515.09	719.56
515.45	732.82
515.81	746.30
516.17	760.29
516.53	774.47
516.89	788.73
517.25	802.89
517.61	817.30
517.97	831.71
518.33	846.17
518.69	860.97
519.05	875.98
519.41	891.15
519.77	906.72
520.13	922.12
520.49	937.44
520.85	952.76
521.21	968.44
521.57	984.70
521.93	1000.50
522.29	1016.81
522.65	1033.10
523.01	1049.36
523.37	1065.48
523.73	1081.67
524.09	1097.75
524.45	1113.99
524.81	1130.50
525.17	1147.27
525.53	1164.18
525.89	1181.09
526.25	1197.82
526.61	1214.09
526.97	1230.75
527.33	1247.07
527.68	1263.69
528.04	1280.23
528.40	1297.00
528.76	1314.06
529.12	1330.68
529.48	1347.50
529.84	1363.44
530.20	1379.98
530.56	1397.08
530.91	1414.45
531.27	1431.16
531.63	1447.54
531.99	1464.14
532.35	1480.14
532.71	1495.98
533.07	1512.26
533.42	1528.18
533.78	1544.19
534.14	1560.50
534.50	1575.85
534.86	1591.89
535.21	1607.14
535.57	1623.14
535.93	1638.51
536.29	1653.40
536.65	1668.35
537.00	1683.18
537.36	1698.58
537.72	1713.25
538.08	1727.52
538.44	1741.17
538.79	1754.97
539.15	1768.74
539.51	1782.39
539.87	1796.74
540.22	1810.58
540.58	1824.23
540.94	1837.54
541.29	1850.49
541.65	1863.13
542.01	1876.36
542.37	1888.61
542.72	1900.95
543.08	1912.67
543.44	1925.08
543.79	1936.26
544.15	1947.18
544.51	1958.61
544.87	1969.59
545.22	1980.28
545.58	1990.47
545.94	2000.31
546.29	2010.22
546.65	2020.08
547.01	2029.42
547.36	2038.11
547.72	2046.51
548.07	2054.42
548.43	2062.65
548.79	2070.66
549.14	2078.25
549.50	2085.58
549.86	2093.31
550.21	2100.64
550.57	2107.81
550.92	2114.27
551.28	2121.22
551.64	2128.32
551.99	2134.98
552.35	2141.06
552.70	2147.18
553.06	2153.30
553.41	2159.75
553.77	2165.85
554.13	2171.89
554.48	2177.92
554.84	2183.45
555.19	2188.77
555.55	2193.84
555.90	2198.14
556.26	2202.98
556.61	2207.78
556.97	2212.16
557.32	2216.25
557.68	2220.32
558.03	2224.48
558.39	2228.32
558.74	2233.00
559.10	2236.84
559.45	2240.39
559.81	2244.74
560.16	2248.47
560.52	2251.48
560.87	2254.83
561.23	2257.51
561.58	2260.50
561.94	2262.82
562.29	2265.10
562.64	2267.73
563.00	2270.41
563.35	2273.99
563.71	2277.18
564.06	2280.32
564.42	2283.10
564.77	2285.49
565.12	2287.70
565.48	2289.60
565.83	2291.39
566.19	2292.70
566.54	2293.69
566.89	2294.85
567.25	2295.40
567.60	2296.77
567.96	2298.55
568.31	2299.46
568.66	2300.49
569.02	2300.83
569.37	2301.41
569.72	2302.11
570.08	2302.24
570.43	2302.29
570.78	2301.66
571.14	2300.09
571.49	2298.60
571.84	2298.13
572.20	2296.97
572.55	2296.05
572.90	2294.63
573.26	2293.21
573.61	2291.55
573.96	2289.72
574.31	2286.72
574.67	2283.80
575.02	2280.11
575.37	2276.69
575.72	2272.68
576.08	2269.34
576.43	2266.10
576.78	2262.27
577.13	2259.41
577.49	2256.31
577.84	2252.84
578.19	2249.00
578.54	2245.34
578.90	2241.14
579.25	2235.70
579.60	2230.72
579.95	2225.61
580.30	2220.57
580.66	2215.56
581.01	2210.60
581.36	2205.72
581.71	2201.51
582.06	2197.03
582.42	2192.57
582.77	2187.39
583.12	2182.95
583.47	2178.12
583.82	2173.12
584.17	2167.96
584.53	2162.40
584.88	2156.80
585.23	2151.12
585.58	2145.73
585.93	2140.30
586.28	2135.56
586.63	2130.64
586.98	2125.63
587.34	2120.82
587.69	2115.96
588.04	2110.55
588.39	2104.94
588.74	2098.66
589.09	2092.53
589.44	2085.73
589.79	2079.81
590.14	2074.28
590.49	2067.75
590.84	2061.43
591.19	2055.38
591.54	2048.90
591.89	2041.56
592.25	2034.60
592.60	2027.28
592.95	2019.74
593.30	2012.38
593.65	2004.79
594.00	1997.64
594.35	1990.47
594.70	1982.56
595.05	1975.26
595.40	1967.93
595.75	1960.35
596.10	1953.89
596.45	1947.14
596.80	1940.93
597.15	1934.26
597.50	1927.04
597.85	1920.62
598.19	1913.88
598.54	1906.74
598.89	1900.16
599.24	1894.14
599.59	1887.47
599.94	1881.24
600.29	1874.91
600.64	1868.28
600.99	1860.85
601.34	1854.03
601.69	1847.07
602.04	1840.07
602.39	1832.76
602.74	1825.92
603.08	1819.17
603.43	1812.50
603.78	1805.19
604.13	1798.00
604.48	1790.66
604.83	1783.74
605.18	1776.69
605.53	1768.73
605.87	1760.82
606.22	1753.53
606.57	1745.60
606.92	1738.33
607.27	1731.10
607.62	1724.16
607.96	1716.91
608.31	1710.38
608.66	1702.74
609.01	1695.12
609.36	1687.73
609.70	1679.71
610.05	1671.77
610.40	1664.02
610.75	1655.68
611.10	1647.99
611.44	1639.55
611.79	1631.58
612.14	1622.96
612.49	1613.80
612.83	1605.54
613.18	1597.42
613.53	1589.36
613.88	1580.88
614.22	1572.62
614.57	1564.15
614.92	1556.19
615.27	1548.57
615.61	1540.10
615.96	1532.13
616.31	1524.49
616.65	1517.09
617.00	1509.55
617.35	1501.93
617.70	1493.61
618.04	1485.12
618.39	1477.01
618.74	1469.42
619.08	1461.13
619.43	1453.54
619.78	1446.58
620.12	1439.33
620.47	1431.76
620.82	1423.67
621.16	1416.38
621.51	1408.91
621.85	1401.14
622.20	1392.55
622.55	1384.24
622.89	1376.51
623.24	1368.76
623.59	1361.45
623.93	1353.84
624.28	1346.58
624.62	1338.98
624.97	1331.76
625.32	1325.05
625.66	1317.93
626.01	1310.76
626.35	1303.27
626.70	1295.49
627.04	1287.79
627.39	1279.95
627.73	1272.55
628.08	1265.53
628.43	1258.05
628.77	1250.44
629.12	1242.97
629.46	1235.84
629.81	1228.49
630.15	1221.20
630.50	1213.87
630.84	1205.59
631.19	1197.74
631.53	1190.20
631.88	1182.62
632.22	1175.02
632.57	1167.61
632.91	1160.13
633.26	1152.63
633.60	1145.39
633.95	1138.35
634.29	1131.34
634.64	1124.70
634.98	1117.35
635.32	1110.17
635.67	1103.61
636.01	1097.10
636.36	1090.19
636.70	1083.67
637.05	1077.17
637.39	1070.70
637.73	1064.06
638.08	1058.20
638.42	1052.19
638.77	1045.80
639.11	1039.18
639.45	1032.89
639.80	1026.28
640.14	1019.91
640.49	1013.43
640.83	1007.03
641.17	1000.73
641.52	994.34
641.86	987.92
642.20	982.06
642.55	975.80
642.89	969.32
643.23	962.79
643.58	957.07
643.92	950.82
644.26	944.60
644.61	938.62
644.95	932.65
645.29	926.00
645.64	919.25
645.98	912.92
646.32	907.14
646.66	901.06
647.01	895.21
647.35	889.45
647.69	883.60
648.04	878.14
648.38	872.33
648.72	866.23
649.06	860.22
649.41	854.41
649.75	848.42
650.09	842.37
650.43	836.61
650.78	830.41
651.12	824.51
651.46	818.80
651.80	813.00
652.14	807.64
652.49	802.33
652.83	797.22
653.17	791.42
653.51	785.69
653.85	780.33
654.20	774.71
654.54	768.70
654.88	762.99
655.22	757.05
655.56	751.40
655.90	746.13
656.25	740.80
656.59	735.39
656.93	730.28
657.27	725.23
657.61	719.68
657.95	714.63
658.29	709.57
658.64	704.33
658.98	699.01
659.32	693.54
659.66	688.35
660.00	682.96
660.34	678.07
660.68	673.19
661.02	668.17
661.36	663.45
661.70	658.94
662.05	654.59
662.39	650.27
662.73	645.79
663.07	641.38
663.41	637.00
663.75	632.46
664.09	627.89
664.43	623.44
664.77	619.37
665.11	615.13
665.45	610.95
665.79	606.84
666.13	602.65
666.47	598.56
666.81	594.33
667.15	590.18
667.49	586.28
667.83	582.45
668.17	578.47
668.51	574.39
668.85	570.38
669.19	566.56
669.53	562.69
669.87	558.75
670.21	555.03
670.55	551.26
670.89	547.88
671.23	544.43
671.57	540.87
671.91	537.27
672.25	533.74
672.58	530.23
672.92	526.88
673.26	523.80
673.60	520.62
673.94	517.55
674.28	514.68
674.62	511.74
674.96	508.64
675.30	505.66
675.64	502.71
675.97	499.98
676.31	497.02
676.65	494.06
676.99	491.38
677.33	488.49
677.67	485.79
678.01	482.74
678.34	479.79
678.68	476.95
679.02	474.16
679.36	471.45
679.70	468.70
680.04	465.97
680.37	463.05
680.71	460.23
681.05	457.62
681.39	454.89
681.73	452.22
682.06	449.69
682.40	447.18
682.74	444.66
683.08	442.10
683.42	439.56
683.75	437.15
684.09	434.62
684.43	432.19
684.77	429.67
685.10	427.29
685.44	424.98
685.78	422.73
686.12	420.53
686.45	418.26
686.79	416.00
687.13	413.76
687.46	411.63
687.80	409.52
688.14	407.32
688.48	405.26
688.81	403.01
689.15	400.88
689.49	398.71
689.82	396.67
690.16	394.54
690.50	392.55
690.83	390.57
691.17	388.59
691.51	386.69
691.84	384.82
692.18	382.94
692.52	380.95
692.85	379.03
693.19	377.17
693.52	375.33
693.86	373.50
694.20	371.72
694.53	369.97
694.87	368.16
695.21	366.38
695.54	364.57
695.88	362.91
696.21	361.15
696.55	359.50
696.88	357.83
697.22	356.22
697.56	354.62
697.89	352.95
698.23	351.33
698.56	349.73
698.90	348.19
699.23	346.54
699.57	345.04
699.90	343.49
700.24	341.97
700.58	340.45
700.91	338.95
701.25	337.54
701.58	336.14
701.92	334.77
702.25	333.38
702.59	332.00
702.92	330.63
703.26	329.36
703.59	328.09
703.93	326.89
704.26	325.60
704.60	324.32
704.93	323.05
705.26	321.82
705.60	320.62
705.93	319.46
706.27	318.38
706.60	317.30
706.94	316.23
707.27	315.04
707.61	313.94
707.94	312.90
708.27	311.78
708.61	310.70
708.94	309.67
709.28	308.68
709.61	307.72
709.94	306.78
710.28	305.72
710.61	304.74
710.95	303.66
711.28	302.75
711.61	301.79
711.95	300.87
712.28	299.90
712.61	298.94
712.95	298.01
713.28	297.12
713.61	296.19
713.95	295.26
714.28	294.42
714.61	293.57
714.95	292.73
715.28	291.87
715.61	290.98
715.95	290.12
716.28	289.23
716.61	288.40
716.95	287.57
717.28	286.83
717.61	286.05
717.94	285.30
718.28	284.48
718.61	283.76
718.94	283.06
719.27	282.39
719.61	281.74
719.94	281.08
720.27	280.37
720.60	279.72
720.94	279.10
721.27	278.52
721.60	277.93
721.93	277.34
722.27	276.82
722.60	276.27
722.93	275.72
723.26	275.21
723.59	274.65
723.93	274.14
724.26	273.60
724.59	273.03
724.92	272.49
725.25	272.04
725.59	271.50
725.92	271.00
726.25	270.51
726.58	269.99
726.91	269.48
727.24	269.03
727.57	268.59
727.91	268.09
728.24	267.63
728.57	267.13
728.90	266.63
729.23	266.16
729.56	265.71
729.89	265.19
730.22	264.72
730.55	264.27
730.89	263.82
731.22	263.36
731.55	262.95
731.88	262.56
732.21	262.10
732.54	261.65
732.87	261.24
733.20	260.83
733.53	260.47
733.86	260.12
734.19	259.70
734.52	259.30
734.85	259.01
735.18	258.61
735.51	258.26
735.84	257.94
736.17	257.59
736.50	257.18
736.83	257.01
737.16	256.71
737.49	256.37
737.82	256.02
738.15	255.71
738.48	255.36
738.81	255.02
739.14	254.72
739.47	254.44
739.80	254.11
740.13	253.79
740.46	253.47
740.79	253.10
741.12	252.78
741.45	252.47
741.78	252.12
742.11	251.85
742.44	251.55
742.77	251.25
743.10	250.94
743.43	250.67
743.75	250.26
744.08	250.08
744.41	249.81
744.74	249.54
745.07	249.25
745.40	249.00
745.73	248.77
746.06	248.47
746.39	248.19
746.71	247.96
747.04	247.70
747.37	247.43
747.70	247.20
748.03	247.00
748.36	246.77
748.68	246.53
749.01	246.25
749.34	246.01
749.67	245.74
750.00	245.48
750.33	245.35
750.65	245.11
750.98	244.78
751.31	244.54
751.64	244.30
751.97	244.15
752.29	243.90
752.62	243.62
752.95	243.39
753.28	243.16
753.60	242.94
753.93	242.77
754.26	242.57
754.59	242.34
754.91	242.11
755.24	241.92
755.57	241.71
755.90	241.50
756.22	241.27
756.55	241.10
756.88	240.90
757.20	240.63
757.53	240.45
757.86	240.25
758.19	240.08
758.51	239.94
758.84	239.72
759.17	239.60
759.49	239.44
759.82	239.32
760.15	239.19
760.47	239.02
760.80	238.83
761.13	238.72
761.45	238.59
761.78	238.45
762.11	238.30
762.43	238.19
762.76	238.08
763.08	237.98
763.41	237.85
763.74	237.75
764.06	237.61
764.39	237.47
764.71	237.35
765.04	237.21
765.37	237.05
765.69	236.95
766.02	236.78
766.34	236.66
766.67	236.51
767.00	236.40
767.32	236.33
767.65	236.27
767.97	236.12
768.30	236.03
768.62	235.91
768.95	235.76
769.27	235.66
769.60	235.58
769.92	235.46
770.25	235.33
770.57	235.20
770.90	235.12
771.22	235.03
771.55	234.95
771.87	234.86
772.20	234.80
772.52	234.78
772.85	234.83
773.17	234.79
773.50	234.71
773.82	234.63
774.15	234.51
774.47	234.38
774.80	234.28
775.12	234.19
775.45	234.11
775.77	234.10
776.09	234.00
776.42	233.90
776.74	233.84
777.07	233.76
777.39	233.71
777.72	233.64
778.04	233.55
778.36	233.47
778.69	233.43
779.01	233.38
779.33	233.23
779.66	233.07
779.98	232.96
780.31	232.92
780.63	232.87
780.95	232.80
781.28	232.74
781.60	232.70
781.92	232.64
782.25	232.57
782.57	232.51
782.89	232.47
783.22	232.45
783.54	232.39
783.86	232.36
784.19	232.26
784.51	232.21
784.83	232.16
785.16	232.10
785.48	232.03
785.80	231.95
786.12	231.88
786.45	231.83
786.77	231.78
787.09	231.74
