SpectraSuite Data File
++++++++++++++++++++++++++++++++++++
Date: Fri Feb 01 15:07:05 EST 2013
User: group
Dark Spectrum Present: No
Reference Spectrum Present: No
Number of Sampled Component Spectra: 1
Spectrometers: USB2E7196
Integration Time (usec): 35000 (USB2E7196)
Spectra Averaged: 100 (USB2E7196)
Boxcar Smoothing: 10 (USB2E7196)
Correct for Electrical Dark: No (USB2E7196)
Strobe/Lamp Enabled: No (USB2E7196)
Correct for Detector Non-linearity: No (USB2E7196)
Correct for Stray Light: No (USB2E7196)
Number of Pixels in Processed Spectrum: 2048
>>>>>Begin Processed Spectral Data<<<<<
339.09	0.00
339.48	215.31
339.86	216.89
340.24	218.03
340.63	219.58
341.01	222.24
341.39	222.12
341.78	223.17
342.16	224.42
342.54	225.19
342.93	213.47
343.31	224.27
343.69	224.80
344.07	225.26
344.46	225.65
344.84	226.00
345.22	226.26
345.60	226.49
345.99	226.69
346.37	226.83
346.75	226.93
347.13	227.03
347.52	227.07
347.90	227.14
348.28	227.16
348.66	227.22
349.05	227.17
349.43	227.23
349.81	227.25
350.19	227.32
350.57	227.41
350.96	227.48
351.34	227.53
351.72	227.62
352.10	227.70
352.48	227.79
352.87	227.85
353.25	227.87
353.63	227.93
354.01	227.99
354.39	228.08
354.77	228.17
355.15	228.26
355.54	228.32
355.92	228.35
356.30	228.41
356.68	228.54
357.06	228.66
357.44	228.69
357.82	228.78
358.20	228.84
358.58	228.90
358.97	228.94
359.35	229.01
359.73	229.07
360.11	229.14
360.49	229.21
360.87	229.28
361.25	229.35
361.63	229.38
362.01	229.42
362.39	229.42
362.77	229.42
363.15	229.43
363.53	229.45
363.91	229.46
364.29	229.45
364.67	229.33
365.05	229.35
365.43	229.34
365.81	229.33
366.19	229.34
366.57	229.35
366.95	229.37
367.33	229.29
367.71	229.25
368.09	229.22
368.47	229.17
368.85	229.13
369.23	229.08
369.61	229.05
369.99	229.04
370.37	229.00
370.75	229.00
371.13	228.94
371.51	228.90
371.89	228.85
372.27	228.79
372.65	228.78
373.03	228.72
373.41	228.65
373.78	228.57
374.16	228.46
374.54	228.38
374.92	228.27
375.30	228.25
375.68	228.17
376.06	228.10
376.44	228.02
376.82	227.96
377.19	227.89
377.57	227.82
377.95	227.70
378.33	227.63
378.71	227.50
379.09	227.42
379.47	227.33
379.84	227.22
380.22	227.17
380.60	227.04
380.98	226.91
381.36	226.84
381.73	226.75
382.11	226.71
382.49	226.59
382.87	226.50
383.25	226.44
383.62	226.50
384.00	226.42
384.38	226.33
384.76	226.29
385.13	226.29
385.51	226.23
385.89	226.20
386.27	226.14
386.64	226.13
387.02	226.10
387.40	226.03
387.78	226.04
388.15	226.03
388.53	226.01
388.91	226.02
389.29	225.98
389.66	226.04
390.04	226.01
390.42	226.02
390.79	226.04
391.17	226.00
391.55	225.92
391.92	225.94
392.30	225.99
392.68	225.97
393.05	225.97
393.43	226.00
393.81	225.99
394.18	226.03
394.56	226.02
394.94	226.08
395.31	226.12
395.69	226.21
396.06	226.24
396.44	226.31
396.82	226.38
397.19	226.50
397.57	226.54
397.95	226.61
398.32	226.72
398.70	226.80
399.07	226.92
399.45	226.98
399.82	227.08
400.20	227.17
400.58	227.28
400.95	227.33
401.33	227.46
401.70	227.62
402.08	227.74
402.45	227.89
402.83	228.01
403.20	228.16
403.58	228.26
403.95	228.43
404.33	228.61
404.71	228.74
405.08	228.92
405.46	229.07
405.83	229.22
406.21	229.35
406.58	229.53
406.96	229.71
407.33	229.89
407.70	230.06
408.08	230.35
408.45	230.61
408.83	230.86
409.20	231.04
409.58	231.25
409.95	231.53
410.33	231.82
410.70	232.10
411.08	232.44
411.45	232.73
411.82	233.02
412.20	233.37
412.57	233.77
412.95	234.04
413.32	234.44
413.69	234.86
414.07	235.31
414.44	235.80
414.82	236.28
415.19	236.85
415.56	237.40
415.94	237.95
416.31	238.57
416.68	239.16
417.06	239.91
417.43	240.62
417.81	241.35
418.18	242.10
418.55	242.90
418.93	243.74
419.30	244.63
419.67	245.58
420.04	246.56
420.42	247.55
420.79	248.78
421.16	249.96
421.54	251.10
421.91	252.33
422.28	253.55
422.66	254.88
423.03	256.17
423.40	257.51
423.77	258.89
424.15	260.32
424.52	261.82
424.89	263.43
425.26	264.95
425.64	266.40
426.01	267.97
426.38	269.65
426.75	271.30
427.13	273.05
427.50	274.85
427.87	276.70
428.24	278.57
428.61	280.30
428.99	282.24
429.36	284.38
429.73	286.42
430.10	288.46
430.47	290.49
430.85	292.61
431.22	294.85
431.59	297.25
431.96	299.46
432.33	301.93
432.70	304.31
433.08	307.16
433.45	309.78
433.82	312.38
434.19	315.25
434.56	318.08
434.93	320.72
435.30	323.34
435.68	326.24
436.05	329.09
436.42	331.89
436.79	334.40
437.16	337.10
437.53	339.93
437.90	342.73
438.27	345.50
438.64	348.34
439.01	350.92
439.38	353.14
439.75	355.36
440.13	357.94
440.50	360.25
440.87	362.08
441.24	364.06
441.61	366.23
441.98	367.74
442.35	369.53
442.72	371.40
443.09	373.25
443.46	374.27
443.83	374.85
444.20	375.37
444.57	376.21
444.94	376.50
445.31	376.88
445.68	377.26
446.05	377.35
446.42	376.95
446.79	376.57
447.16	376.16
447.53	375.80
447.90	374.59
448.27	373.44
448.64	371.87
449.01	370.73
449.37	368.81
449.74	366.90
450.11	364.67
450.48	362.20
450.85	359.66
451.22	357.50
451.59	355.47
451.96	353.56
452.33	350.95
452.70	348.57
453.07	345.77
453.43	342.88
453.80	340.11
454.17	337.42
454.54	334.86
454.91	332.14
455.28	329.49
455.65	327.04
456.02	324.62
456.38	322.44
456.75	319.80
457.12	317.53
457.49	315.30
457.86	313.12
458.23	311.24
458.59	309.15
458.96	307.03
459.33	305.16
459.70	303.26
460.07	301.72
460.43	300.04
460.80	298.35
461.17	296.89
461.54	295.40
461.91	293.94
462.27	292.50
462.64	291.22
463.01	289.84
463.38	288.53
463.74	287.11
464.11	285.97
464.48	284.87
464.85	283.72
465.21	282.84
465.58	281.92
465.95	280.84
466.32	279.92
466.68	279.03
467.05	278.09
467.42	277.19
467.78	276.24
468.15	275.30
468.52	274.63
468.88	273.74
469.25	272.94
469.62	272.31
469.98	271.65
470.35	271.00
470.72	270.36
471.08	269.66
471.45	269.13
471.82	268.53
472.18	267.94
472.55	267.49
472.92	266.95
473.28	266.50
473.65	266.02
474.02	265.53
474.38	265.16
474.75	264.87
475.11	264.51
475.48	264.22
475.85	263.99
476.21	263.72
476.58	263.52
476.94	263.36
477.31	263.18
477.67	262.97
478.04	262.86
478.41	262.81
478.77	262.84
479.14	262.74
479.50	262.77
479.87	262.86
480.23	262.96
480.60	263.01
480.96	263.08
481.33	263.26
481.69	263.48
482.06	263.65
482.42	263.80
482.79	264.07
483.15	264.42
483.52	264.84
483.88	265.19
484.25	265.60
484.61	265.99
484.98	266.42
485.34	266.98
485.71	267.57
486.07	268.20
486.44	268.77
486.80	269.47
487.17	270.21
487.53	271.00
487.90	271.86
488.26	272.80
488.62	273.76
488.99	274.77
489.35	275.85
489.72	276.97
490.08	278.17
490.44	279.41
490.81	280.71
491.17	282.05
491.54	283.56
491.90	285.06
492.26	286.74
492.63	288.47
492.99	290.27
493.36	292.11
493.72	294.13
494.08	296.26
494.45	298.54
494.81	300.86
495.17	303.30
495.54	305.83
495.90	308.51
496.26	311.31
496.63	314.25
496.99	317.35
497.35	320.64
497.72	324.06
498.08	327.57
498.44	331.25
498.80	335.14
499.17	339.15
499.53	343.30
499.89	347.71
500.26	352.20
500.62	356.84
500.98	361.76
501.34	366.84
501.71	372.15
502.07	377.54
502.43	383.18
502.79	389.00
503.16	395.05
503.52	401.30
503.88	407.72
504.24	414.37
504.60	421.22
504.97	428.33
505.33	435.67
505.69	443.31
506.05	451.04
506.41	458.92
506.78	467.02
507.14	475.50
507.50	484.17
507.86	493.22
508.22	502.38
508.59	511.59
508.95	521.13
509.31	530.91
509.67	541.05
510.03	551.31
510.39	561.81
510.75	572.61
511.12	583.50
511.48	594.73
511.84	606.10
512.20	617.60
512.56	629.54
512.92	641.60
513.28	653.93
513.64	666.48
514.00	679.20
514.37	692.19
514.73	705.22
515.09	718.26
515.45	731.51
515.81	745.11
516.17	759.15
516.53	773.31
516.89	787.45
517.25	801.59
517.61	816.03
517.97	830.50
518.33	844.92
518.69	859.70
519.05	874.83
519.41	890.15
519.77	905.78
520.13	921.21
520.49	936.69
520.85	952.16
521.21	967.87
521.57	984.16
521.93	999.95
522.29	1016.38
522.65	1032.68
523.01	1048.99
523.37	1065.12
523.73	1081.46
524.09	1097.52
524.45	1114.00
524.81	1130.76
525.17	1147.77
525.53	1164.69
525.89	1181.57
526.25	1198.59
526.61	1214.99
526.97	1231.62
527.33	1248.10
527.68	1264.89
528.04	1281.48
528.40	1298.25
528.76	1315.42
529.12	1332.10
529.48	1349.06
529.84	1365.26
530.20	1381.91
530.56	1399.03
530.91	1416.44
531.27	1433.18
531.63	1449.75
531.99	1466.26
532.35	1482.22
532.71	1498.13
533.07	1514.37
533.42	1530.40
533.78	1546.32
534.14	1562.68
534.50	1578.22
534.86	1594.29
535.21	1609.40
535.57	1625.43
535.93	1640.96
536.29	1655.80
536.65	1670.90
537.00	1685.79
537.36	1701.18
537.72	1715.87
538.08	1730.27
538.44	1744.12
538.79	1758.11
539.15	1772.09
539.51	1786.04
539.87	1800.66
540.22	1814.43
540.58	1828.53
540.94	1842.06
541.29	1855.21
541.65	1867.98
542.01	1881.30
542.37	1893.65
542.72	1906.31
543.08	1918.12
543.44	1930.58
543.79	1942.04
544.15	1953.12
544.51	1964.80
544.87	1975.76
545.22	1986.58
545.58	1996.90
545.94	2006.74
546.29	2016.64
546.65	2026.33
547.01	2035.51
547.36	2044.13
547.72	2052.56
548.07	2060.38
548.43	2068.64
548.79	2076.65
549.14	2084.16
549.50	2091.53
549.86	2099.22
550.21	2106.53
550.57	2113.67
550.92	2120.14
551.28	2127.11
551.64	2134.21
551.99	2140.68
552.35	2146.89
552.70	2152.95
553.06	2158.91
553.41	2165.20
553.77	2171.19
554.13	2177.48
554.48	2183.64
554.84	2189.00
555.19	2194.49
555.55	2199.50
555.90	2203.92
556.26	2208.75
556.61	2213.63
556.97	2217.71
557.32	2221.85
557.68	2225.95
558.03	2230.40
558.39	2234.12
558.74	2238.63
559.10	2242.44
559.45	2246.00
559.81	2250.19
560.16	2254.08
560.52	2257.16
560.87	2260.61
561.23	2263.34
561.58	2266.06
561.94	2268.53
562.29	2271.01
562.64	2273.53
563.00	2276.12
563.35	2279.53
563.71	2282.70
564.06	2285.74
564.42	2288.58
564.77	2290.81
565.12	2292.88
565.48	2294.45
565.83	2296.27
566.19	2297.50
566.54	2298.38
566.89	2299.46
567.25	2299.85
567.60	2300.96
567.96	2302.50
568.31	2303.26
568.66	2304.14
569.02	2304.62
569.37	2304.76
569.72	2305.28
570.08	2305.24
570.43	2305.22
570.78	2304.36
571.14	2302.54
571.49	2301.02
571.84	2300.66
572.20	2299.42
572.55	2298.37
572.90	2296.87
573.26	2295.34
573.61	2293.49
573.96	2291.50
574.31	2288.47
574.67	2285.40
575.02	2281.70
575.37	2278.38
575.72	2274.34
576.08	2270.88
576.43	2267.44
576.78	2263.80
577.13	2260.69
577.49	2257.53
577.84	2253.98
578.19	2250.27
578.54	2246.53
578.90	2242.26
579.25	2236.49
579.60	2231.41
579.95	2226.21
580.30	2221.02
580.66	2215.80
581.01	2210.87
581.36	2205.79
581.71	2201.36
582.06	2196.84
582.42	2192.38
582.77	2187.04
583.12	2182.37
583.47	2177.49
583.82	2172.25
584.17	2166.86
584.53	2161.19
584.88	2155.38
585.23	2149.52
585.58	2143.99
585.93	2138.63
586.28	2133.73
586.63	2128.57
586.98	2123.47
587.34	2118.65
587.69	2113.72
588.04	2108.40
588.39	2102.51
588.74	2096.07
589.09	2089.92
589.44	2083.08
589.79	2076.95
590.14	2071.26
590.49	2064.66
590.84	2058.22
591.19	2052.30
591.54	2045.73
591.89	2038.10
592.25	2031.30
592.60	2023.85
592.95	2016.14
593.30	2008.62
593.65	2000.90
594.00	1993.86
594.35	1986.54
594.70	1978.47
595.05	1970.98
595.40	1963.45
595.75	1955.90
596.10	1949.53
596.45	1942.56
596.80	1936.25
597.15	1929.49
597.50	1922.22
597.85	1915.72
598.19	1908.99
598.54	1901.73
598.89	1894.99
599.24	1889.17
599.59	1882.30
599.94	1876.08
600.29	1869.63
600.64	1863.06
600.99	1855.54
601.34	1848.62
601.69	1841.55
602.04	1834.54
602.39	1827.18
602.74	1820.45
603.08	1813.64
603.43	1806.88
603.78	1799.73
604.13	1792.46
604.48	1785.01
604.83	1778.15
605.18	1771.04
605.53	1763.04
605.87	1754.88
606.22	1747.77
606.57	1739.90
606.92	1732.63
607.27	1725.47
607.62	1718.54
607.96	1711.01
608.31	1704.36
608.66	1696.62
609.01	1689.14
609.36	1681.60
609.70	1673.70
610.05	1665.49
610.40	1657.83
610.75	1649.41
611.10	1641.65
611.44	1633.33
611.79	1625.43
612.14	1616.68
612.49	1607.72
612.83	1599.38
613.18	1591.40
613.53	1583.17
613.88	1574.53
614.22	1566.17
614.57	1557.62
614.92	1549.62
615.27	1542.06
615.61	1533.76
615.96	1525.89
616.31	1518.22
616.65	1510.91
617.00	1503.31
617.35	1495.74
617.70	1487.42
618.04	1478.89
618.39	1470.74
618.74	1463.13
619.08	1454.85
619.43	1447.40
619.78	1440.44
620.12	1433.23
620.47	1425.67
620.82	1417.62
621.16	1410.39
621.51	1402.88
621.85	1395.23
622.20	1386.80
622.55	1378.64
622.89	1370.84
623.24	1363.37
623.59	1356.10
623.93	1348.54
624.28	1341.29
624.62	1333.87
624.97	1326.68
625.32	1320.18
625.66	1313.09
626.01	1305.83
626.35	1298.38
626.70	1290.64
627.04	1282.92
627.39	1275.24
627.73	1267.85
628.08	1260.96
628.43	1253.61
628.77	1246.27
629.12	1238.71
629.46	1231.48
629.81	1224.20
630.15	1217.08
630.50	1209.59
630.84	1201.39
631.19	1193.58
631.53	1186.20
631.88	1178.66
632.22	1171.11
632.57	1163.73
632.91	1156.31
633.26	1149.01
633.60	1141.77
633.95	1134.76
634.29	1127.78
634.64	1121.15
634.98	1113.89
635.32	1106.77
635.67	1100.33
636.01	1093.70
636.36	1086.95
636.70	1080.49
637.05	1073.81
637.39	1067.32
637.73	1060.89
638.08	1055.13
638.42	1049.16
638.77	1042.73
639.11	1036.10
639.45	1029.86
639.80	1023.22
640.14	1016.82
640.49	1010.31
640.83	1003.99
641.17	997.72
641.52	991.39
641.86	985.02
642.20	979.22
642.55	972.96
642.89	966.37
643.23	959.88
643.58	954.12
643.92	947.99
644.26	941.92
644.61	935.98
644.95	929.89
645.29	923.14
645.64	916.38
645.98	910.06
646.32	904.30
646.66	898.17
647.01	892.41
647.35	886.68
647.69	880.92
648.04	875.43
648.38	869.66
648.72	863.64
649.06	857.49
649.41	851.62
649.75	845.57
650.09	839.64
650.43	833.83
650.78	827.77
651.12	821.77
651.46	816.05
651.80	810.22
652.14	804.85
652.49	799.57
652.83	794.42
653.17	788.69
653.51	782.89
653.85	777.52
654.20	771.89
654.54	766.00
654.88	760.23
655.22	754.38
655.56	748.73
655.90	743.28
656.25	738.05
656.59	732.60
656.93	727.47
657.27	722.34
657.61	716.99
657.95	711.82
658.29	706.70
658.64	701.52
658.98	696.29
659.32	690.79
659.66	685.56
660.00	680.28
660.34	675.46
660.68	670.59
661.02	665.53
661.36	660.85
661.70	656.36
662.05	652.08
662.39	647.76
662.73	643.37
663.07	639.11
663.41	634.71
663.75	630.34
664.09	625.87
664.43	621.49
664.77	617.39
665.11	613.18
665.45	609.15
665.79	605.07
666.13	600.89
666.47	596.86
666.81	592.73
667.15	588.64
667.49	584.74
667.83	581.00
668.17	577.14
668.51	573.14
668.85	569.15
669.19	565.30
669.53	561.48
669.87	557.58
670.21	553.90
670.55	550.24
670.89	546.89
671.23	543.45
671.57	539.94
671.91	536.38
672.25	532.95
672.58	529.42
672.92	526.06
673.26	523.00
673.60	519.89
673.94	516.81
674.28	513.93
674.62	510.95
674.96	507.80
675.30	504.93
675.64	501.96
675.97	499.18
676.31	496.30
676.65	493.37
676.99	490.67
677.33	487.79
677.67	485.02
678.01	482.00
678.34	479.08
678.68	476.24
679.02	473.48
679.36	470.73
679.70	468.02
680.04	465.31
680.37	462.35
680.71	459.59
681.05	456.99
681.39	454.27
681.73	451.59
682.06	449.10
682.40	446.55
682.74	444.03
683.08	441.48
683.42	438.92
683.75	436.42
684.09	433.88
684.43	431.43
684.77	429.00
685.10	426.58
685.44	424.30
685.78	421.99
686.12	419.72
686.45	417.43
686.79	415.18
687.13	412.93
687.46	410.83
687.80	408.69
688.14	406.49
688.48	404.45
688.81	402.26
689.15	400.14
689.49	397.96
689.82	395.90
690.16	393.86
690.50	391.92
690.83	389.95
691.17	387.99
691.51	386.09
691.84	384.22
692.18	382.31
692.52	380.29
692.85	378.41
693.19	376.56
693.52	374.76
693.86	372.98
694.20	371.21
694.53	369.42
694.87	367.59
695.21	365.83
695.54	363.94
695.88	362.24
696.21	360.52
696.55	358.89
696.88	357.22
697.22	355.57
697.56	353.96
697.89	352.33
698.23	350.66
698.56	349.04
698.90	347.43
699.23	345.79
699.57	344.30
699.90	342.75
700.24	341.18
700.58	339.64
700.91	338.13
701.25	336.69
701.58	335.32
701.92	333.95
702.25	332.60
702.59	331.31
702.92	330.00
703.26	328.70
703.59	327.39
703.93	326.26
704.26	325.02
704.60	323.70
704.93	322.45
705.26	321.29
705.60	320.11
705.93	318.97
706.27	317.96
706.60	316.91
706.94	315.86
707.27	314.76
707.61	313.72
707.94	312.72
708.27	311.64
708.61	310.58
708.94	309.57
709.28	308.60
709.61	307.63
709.94	306.71
710.28	305.68
710.61	304.74
710.95	303.63
711.28	302.74
711.61	301.81
711.95	300.90
712.28	299.95
712.61	299.03
712.95	298.12
713.28	297.22
713.61	296.29
713.95	295.40
714.28	294.58
714.61	293.72
714.95	292.85
715.28	292.01
715.61	291.14
715.95	290.32
716.28	289.42
716.61	288.61
716.95	287.77
717.28	287.07
717.61	286.27
717.94	285.53
718.28	284.70
718.61	284.00
718.94	283.31
719.27	282.62
719.61	281.96
719.94	281.33
720.27	280.65
720.60	280.02
720.94	279.39
721.27	278.75
721.60	278.19
721.93	277.61
722.27	277.03
722.60	276.51
722.93	275.91
723.26	275.39
723.59	274.84
723.93	274.32
724.26	273.77
724.59	273.25
724.92	272.72
725.25	272.25
725.59	271.74
725.92	271.22
726.25	270.74
726.58	270.23
726.91	269.69
727.24	269.18
727.57	268.71
727.91	268.20
728.24	267.75
728.57	267.25
728.90	266.75
729.23	266.29
729.56	265.82
729.89	265.37
730.22	264.89
730.55	264.41
730.89	263.94
731.22	263.49
731.55	263.08
731.88	262.65
732.21	262.21
732.54	261.76
732.87	261.38
733.20	260.99
733.53	260.59
733.86	260.24
734.19	259.88
734.52	259.44
734.85	259.13
735.18	258.75
735.51	258.39
735.84	258.06
736.17	257.70
736.50	257.32
736.83	257.06
737.16	256.72
737.49	256.42
737.82	256.07
738.15	255.71
738.48	255.32
738.81	255.03
739.14	254.70
739.47	254.37
739.80	254.03
740.13	253.73
740.46	253.43
740.79	253.09
741.12	252.78
741.45	252.50
741.78	252.14
742.11	251.86
742.44	251.55
742.77	251.23
743.10	250.94
743.43	250.63
743.75	250.24
744.08	250.13
744.41	249.85
744.74	249.57
745.07	249.30
745.40	249.08
745.73	248.84
746.06	248.59
746.39	248.38
746.71	248.12
747.04	247.86
747.37	247.60
747.70	247.40
748.03	247.19
748.36	247.00
748.68	246.77
749.01	246.51
749.34	246.27
749.67	246.10
750.00	245.88
750.33	245.77
750.65	245.59
750.98	245.25
751.31	245.05
751.64	244.89
751.97	244.76
752.29	244.54
752.62	244.28
752.95	244.07
753.28	243.79
753.60	243.59
753.93	243.42
754.26	243.21
754.59	242.95
754.91	242.74
755.24	242.55
755.57	242.36
755.90	242.22
756.22	242.05
756.55	241.83
756.88	241.65
757.20	241.37
757.53	241.16
757.86	240.99
758.19	240.83
758.51	240.62
758.84	240.40
759.17	240.25
759.49	240.10
759.82	239.96
760.15	239.85
760.47	239.67
760.80	239.47
761.13	239.35
761.45	239.23
761.78	239.06
762.11	238.89
762.43	238.76
762.76	238.57
763.08	238.39
763.41	238.22
763.74	238.10
764.06	237.97
764.39	237.84
764.71	237.68
765.04	237.53
765.37	237.40
765.69	237.25
766.02	237.10
766.34	236.97
766.67	236.82
767.00	236.68
767.32	236.62
767.65	236.58
767.97	236.48
768.30	236.32
768.62	236.20
768.95	236.08
769.27	235.94
769.60	235.82
769.92	235.70
770.25	235.59
770.57	235.46
770.90	235.36
771.22	235.26
771.55	235.15
771.87	235.03
772.20	234.95
772.52	234.94
772.85	234.97
773.17	234.85
773.50	234.76
773.82	234.68
774.15	234.53
774.47	234.36
774.80	234.26
775.12	234.20
775.45	234.13
775.77	234.07
776.09	233.98
776.42	233.89
776.74	233.84
777.07	233.76
777.39	233.67
777.72	233.58
778.04	233.51
778.36	233.47
778.69	233.42
779.01	233.33
779.33	233.20
779.66	233.02
779.98	232.96
780.31	232.90
780.63	232.86
780.95	232.84
781.28	232.78
781.60	232.66
781.92	232.60
782.25	232.53
782.57	232.47
782.89	232.43
783.22	232.39
783.54	232.31
783.86	232.29
784.19	232.24
784.51	232.21
784.83	232.15
785.16	232.06
785.48	232.02
785.80	231.98
786.12	231.95
786.45	231.91
786.77	231.87
787.09	231.85
