SpectraSuite Data File
++++++++++++++++++++++++++++++++++++
Date: Fri Feb 01 16:08:23 EST 2013
User: group
Dark Spectrum Present: No
Reference Spectrum Present: No
Number of Sampled Component Spectra: 1
Spectrometers: USB2E7196
Integration Time (usec): 35000 (USB2E7196)
Spectra Averaged: 100 (USB2E7196)
Boxcar Smoothing: 10 (USB2E7196)
Correct for Electrical Dark: No (USB2E7196)
Strobe/Lamp Enabled: No (USB2E7196)
Correct for Detector Non-linearity: No (USB2E7196)
Correct for Stray Light: No (USB2E7196)
Number of Pixels in Processed Spectrum: 2048
>>>>>Begin Processed Spectral Data<<<<<
339.09	0.00
339.48	214.37
339.86	216.13
340.24	217.43
340.63	218.32
341.01	221.46
341.39	221.64
341.78	222.60
342.16	223.96
342.54	224.79
342.93	212.94
343.31	223.71
343.69	224.27
344.07	224.72
344.46	225.13
344.84	225.56
345.22	225.82
345.60	226.08
345.99	226.28
346.37	226.44
346.75	226.53
347.13	226.61
347.52	226.66
347.90	226.73
348.28	226.79
348.66	226.80
349.05	226.81
349.43	226.84
349.81	226.85
350.19	226.90
350.57	226.97
350.96	227.05
351.34	227.17
351.72	227.26
352.10	227.38
352.48	227.48
352.87	227.53
353.25	227.59
353.63	227.63
354.01	227.69
354.39	227.73
354.77	227.81
355.15	227.95
355.54	228.03
355.92	228.08
356.30	228.15
356.68	228.30
357.06	228.36
357.44	228.42
357.82	228.49
358.20	228.56
358.58	228.61
358.97	228.65
359.35	228.67
359.73	228.73
360.11	228.79
360.49	228.83
360.87	228.87
361.25	228.89
361.63	228.99
362.01	229.03
362.39	229.08
362.77	229.10
363.15	229.10
363.53	229.11
363.91	229.12
364.29	229.11
364.67	229.03
365.05	229.05
365.43	229.06
365.81	229.11
366.19	229.15
366.57	229.18
366.95	229.18
367.33	229.13
367.71	229.12
368.09	229.08
368.47	229.06
368.85	229.04
369.23	229.03
369.61	228.94
369.99	228.94
370.37	228.88
370.75	228.90
371.13	228.83
371.51	228.77
371.89	228.72
372.27	228.70
372.65	228.62
373.03	228.55
373.41	228.50
373.78	228.40
374.16	228.29
374.54	228.17
374.92	228.12
375.30	228.08
375.68	227.98
376.06	227.93
376.44	227.88
376.82	227.82
377.19	227.74
377.57	227.71
377.95	227.59
378.33	227.54
378.71	227.41
379.09	227.35
379.47	227.32
379.84	227.23
380.22	227.13
380.60	227.07
380.98	226.99
381.36	226.90
381.73	226.84
382.11	226.80
382.49	226.78
382.87	226.70
383.25	226.63
383.62	226.68
384.00	226.61
384.38	226.54
384.76	226.49
385.13	226.51
385.51	226.45
385.89	226.43
386.27	226.38
386.64	226.36
387.02	226.33
387.40	226.26
387.78	226.29
388.15	226.25
388.53	226.25
388.91	226.25
389.29	226.24
389.66	226.20
390.04	226.18
390.42	226.16
390.79	226.11
391.17	226.09
391.55	225.97
391.92	225.99
392.30	225.98
392.68	225.96
393.05	225.98
393.43	226.00
393.81	226.02
394.18	226.04
394.56	226.07
394.94	226.10
395.31	226.13
395.69	226.17
396.06	226.23
396.44	226.25
396.82	226.26
397.19	226.35
397.57	226.41
397.95	226.48
398.32	226.50
398.70	226.61
399.07	226.71
399.45	226.77
399.82	226.81
400.20	226.91
400.58	226.95
400.95	226.95
401.33	227.00
401.70	227.13
402.08	227.21
402.45	227.31
402.83	227.40
403.20	227.49
403.58	227.55
403.95	227.69
404.33	227.83
404.71	227.93
405.08	228.14
405.46	228.27
405.83	228.36
406.21	228.53
406.58	228.68
406.96	228.81
407.33	229.01
407.70	229.23
408.08	229.46
408.45	229.70
408.83	229.95
409.20	230.14
409.58	230.29
409.95	230.55
410.33	230.79
410.70	231.04
411.08	231.32
411.45	231.62
411.82	231.91
412.20	232.26
412.57	232.69
412.95	232.92
413.32	233.33
413.69	233.76
414.07	234.19
414.44	234.64
414.82	235.10
415.19	235.63
415.56	236.14
415.94	236.70
416.31	237.32
416.68	237.92
417.06	238.67
417.43	239.36
417.81	240.12
418.18	240.89
418.55	241.74
418.93	242.59
419.30	243.51
419.67	244.43
420.04	245.37
420.42	246.38
420.79	247.54
421.16	248.68
421.54	249.88
421.91	251.09
422.28	252.37
422.66	253.74
423.03	255.06
423.40	256.39
423.77	257.78
424.15	259.16
424.52	260.66
424.89	262.25
425.26	263.78
425.64	265.22
426.01	266.80
426.38	268.42
426.75	270.12
427.13	271.84
427.50	273.61
427.87	275.49
428.24	277.34
428.61	279.09
428.99	281.05
429.36	283.16
429.73	285.20
430.10	287.18
430.47	289.20
430.85	291.29
431.22	293.56
431.59	295.94
431.96	298.24
432.33	300.73
432.70	303.13
433.08	305.95
433.45	308.61
433.82	311.22
434.19	314.10
434.56	316.88
434.93	319.55
435.30	322.22
435.68	325.10
436.05	327.90
436.42	330.69
436.79	333.18
437.16	335.89
437.53	338.75
437.90	341.60
438.27	344.38
438.64	347.20
439.01	349.78
439.38	351.96
439.75	354.11
440.13	356.58
440.50	358.87
440.87	360.75
441.24	362.67
441.61	364.84
441.98	366.37
442.35	368.20
442.72	370.05
443.09	371.84
443.46	372.84
443.83	373.48
444.20	373.96
444.57	374.76
444.94	375.01
445.31	375.33
445.68	375.65
446.05	375.70
446.42	375.35
446.79	374.93
447.16	374.54
447.53	374.25
447.90	373.09
448.27	371.97
448.64	370.37
449.01	369.25
449.37	367.33
449.74	365.38
450.11	363.16
450.48	360.62
450.85	358.10
451.22	355.94
451.59	353.87
451.96	351.95
452.33	349.39
452.70	346.97
453.07	344.16
453.43	341.29
453.80	338.54
454.17	335.86
454.54	333.31
454.91	330.59
455.28	327.88
455.65	325.41
456.02	322.93
456.38	320.74
456.75	318.04
457.12	315.77
457.49	313.57
457.86	311.37
458.23	309.56
458.59	307.49
458.96	305.42
459.33	303.53
459.70	301.68
460.07	300.19
460.43	298.50
460.80	296.85
461.17	295.37
461.54	293.88
461.91	292.45
462.27	291.03
462.64	289.74
463.01	288.38
463.38	287.05
463.74	285.68
464.11	284.55
464.48	283.55
464.85	282.40
465.21	281.51
465.58	280.57
465.95	279.47
466.32	278.56
466.68	277.65
467.05	276.77
467.42	275.89
467.78	274.94
468.15	274.08
468.52	273.41
468.88	272.59
469.25	271.81
469.62	271.19
469.98	270.50
470.35	269.88
470.72	269.33
471.08	268.74
471.45	268.24
471.82	267.71
472.18	267.13
472.55	266.74
472.92	266.23
473.28	265.78
473.65	265.36
474.02	264.97
474.38	264.63
474.75	264.34
475.11	263.97
475.48	263.72
475.85	263.50
476.21	263.29
476.58	263.17
476.94	263.02
477.31	262.89
477.67	262.71
478.04	262.64
478.41	262.56
478.77	262.60
479.14	262.53
479.50	262.56
479.87	262.65
480.23	262.74
480.60	262.87
480.96	262.98
481.33	263.20
481.69	263.36
482.06	263.58
482.42	263.82
482.79	264.12
483.15	264.47
483.52	264.86
483.88	265.22
484.25	265.55
484.61	266.01
484.98	266.44
485.34	267.05
485.71	267.63
486.07	268.27
486.44	268.84
486.80	269.59
487.17	270.34
487.53	271.12
487.90	271.93
488.26	272.86
488.62	273.85
488.99	274.82
489.35	275.90
489.72	277.03
490.08	278.18
490.44	279.47
490.81	280.81
491.17	282.18
491.54	283.69
491.90	285.23
492.26	286.86
492.63	288.58
492.99	290.37
493.36	292.26
493.72	294.29
494.08	296.38
494.45	298.61
494.81	300.96
495.17	303.43
495.54	305.99
495.90	308.66
496.26	311.47
496.63	314.43
496.99	317.52
497.35	320.76
497.72	324.15
498.08	327.63
498.44	331.28
498.80	335.22
499.17	339.24
499.53	343.38
499.89	347.78
500.26	352.27
500.62	356.93
500.98	361.85
501.34	366.91
501.71	372.23
502.07	377.65
502.43	383.32
502.79	389.15
503.16	395.23
503.52	401.47
503.88	407.86
504.24	414.53
504.60	421.41
504.97	428.51
505.33	435.90
505.69	443.63
506.05	451.39
506.41	459.26
506.78	467.39
507.14	475.91
507.50	484.64
507.86	493.71
508.22	502.90
508.59	512.20
508.95	521.75
509.31	531.54
509.67	541.60
510.03	551.90
510.39	562.38
510.75	573.21
511.12	584.15
511.48	595.47
511.84	606.91
512.20	618.36
512.56	630.39
512.92	642.51
513.28	654.77
513.64	667.24
514.00	679.90
514.37	692.86
514.73	705.86
515.09	718.83
515.45	732.08
515.81	745.69
516.17	759.66
516.53	773.77
516.89	787.95
517.25	802.15
517.61	816.63
517.97	831.06
518.33	845.47
518.69	860.21
519.05	875.19
519.41	890.29
519.77	905.93
520.13	921.31
520.49	936.69
520.85	952.07
521.21	967.77
521.57	983.91
521.93	999.58
522.29	1016.00
522.65	1032.27
523.01	1048.50
523.37	1064.46
523.73	1080.63
524.09	1096.75
524.45	1113.03
524.81	1129.66
525.17	1146.39
525.53	1163.28
525.89	1180.11
526.25	1196.90
526.61	1213.19
526.97	1229.81
527.33	1246.22
527.68	1262.77
528.04	1279.20
528.40	1295.75
528.76	1312.82
529.12	1329.52
529.48	1346.38
529.84	1362.31
530.20	1378.87
530.56	1395.75
530.91	1413.09
531.27	1429.70
531.63	1446.11
531.99	1462.64
532.35	1478.48
532.71	1494.24
533.07	1510.55
533.42	1526.42
533.78	1542.42
534.14	1558.77
534.50	1574.13
534.86	1589.94
535.21	1604.94
535.57	1620.86
535.93	1636.28
536.29	1650.98
536.65	1665.99
537.00	1680.77
537.36	1696.08
537.72	1710.54
538.08	1724.88
538.44	1738.70
538.79	1752.57
539.15	1766.11
539.51	1779.71
539.87	1794.01
540.22	1807.65
540.58	1821.19
540.94	1834.50
541.29	1847.16
541.65	1859.70
542.01	1872.87
542.37	1885.08
542.72	1897.53
543.08	1909.21
543.44	1921.52
543.79	1932.51
544.15	1943.51
544.51	1955.05
544.87	1965.88
545.22	1976.71
545.58	1986.89
545.94	1996.52
546.29	2006.30
546.65	2016.25
547.01	2025.58
547.36	2034.27
547.72	2042.75
548.07	2050.53
548.43	2058.53
548.79	2066.59
549.14	2074.13
549.50	2081.31
549.86	2088.99
550.21	2096.28
550.57	2103.30
550.92	2109.89
551.28	2117.05
551.64	2123.88
551.99	2130.34
552.35	2136.46
552.70	2142.58
553.06	2148.63
553.41	2154.94
553.77	2160.96
554.13	2166.83
554.48	2172.93
554.84	2178.44
555.19	2183.53
555.55	2188.83
555.90	2193.29
556.26	2198.35
556.61	2202.93
556.97	2207.47
557.32	2211.58
557.68	2215.82
558.03	2220.21
558.39	2223.87
558.74	2228.46
559.10	2232.35
559.45	2235.98
559.81	2240.25
560.16	2244.01
560.52	2247.12
560.87	2250.55
561.23	2253.36
561.58	2256.37
561.94	2258.80
562.29	2261.19
562.64	2264.02
563.00	2266.56
563.35	2270.24
563.71	2273.27
564.06	2276.61
564.42	2279.51
564.77	2282.13
565.12	2284.39
565.48	2286.35
565.83	2288.34
566.19	2289.78
566.54	2290.72
566.89	2291.88
567.25	2292.48
567.60	2293.66
567.96	2295.50
568.31	2296.37
568.66	2297.46
569.02	2298.08
569.37	2298.55
569.72	2299.36
570.08	2299.48
570.43	2299.53
570.78	2298.94
571.14	2297.34
571.49	2295.83
571.84	2295.47
572.20	2294.26
572.55	2293.23
572.90	2291.60
573.26	2290.20
573.61	2288.59
573.96	2287.09
574.31	2284.32
574.67	2281.38
575.02	2277.88
575.37	2274.46
575.72	2270.79
576.08	2267.37
576.43	2264.08
576.78	2260.47
577.13	2257.27
577.49	2254.30
577.84	2250.82
578.19	2247.01
578.54	2243.48
578.90	2239.56
579.25	2233.91
579.60	2229.11
579.95	2224.17
580.30	2219.28
580.66	2214.08
581.01	2208.95
581.36	2203.86
581.71	2199.50
582.06	2195.11
582.42	2190.82
582.77	2185.60
583.12	2181.10
583.47	2176.51
583.82	2171.50
584.17	2166.24
584.53	2160.72
584.88	2155.03
585.23	2149.35
585.58	2143.96
585.93	2138.54
586.28	2133.70
586.63	2128.74
586.98	2123.52
587.34	2118.76
587.69	2113.86
588.04	2108.67
588.39	2103.08
588.74	2096.59
589.09	2090.48
589.44	2083.72
589.79	2077.63
590.14	2072.06
590.49	2065.42
590.84	2058.92
591.19	2052.86
591.54	2046.37
591.89	2039.17
592.25	2032.50
592.60	2025.31
592.95	2017.67
593.30	2010.38
593.65	2002.68
594.00	1995.72
594.35	1988.51
594.70	1980.39
595.05	1973.25
595.40	1965.99
595.75	1958.54
596.10	1952.40
596.45	1945.70
596.80	1939.51
597.15	1932.78
597.50	1925.67
597.85	1919.23
598.19	1912.65
598.54	1905.67
598.89	1899.07
599.24	1893.18
599.59	1886.49
599.94	1880.31
600.29	1873.96
600.64	1867.36
600.99	1859.99
601.34	1853.00
601.69	1846.09
602.04	1839.24
602.39	1831.86
602.74	1825.01
603.08	1818.28
603.43	1811.59
603.78	1804.35
604.13	1797.16
604.48	1790.13
604.83	1783.30
605.18	1776.45
605.53	1768.39
605.87	1760.33
606.22	1753.03
606.57	1745.13
606.92	1737.74
607.27	1730.59
607.62	1723.76
607.96	1716.65
608.31	1710.19
608.66	1702.68
609.01	1695.15
609.36	1687.73
609.70	1679.82
610.05	1671.86
610.40	1664.22
610.75	1655.82
611.10	1648.17
611.44	1639.76
611.79	1631.67
612.14	1623.06
612.49	1613.80
612.83	1605.47
613.18	1597.32
613.53	1589.34
613.88	1580.74
614.22	1572.49
614.57	1563.80
614.92	1555.87
615.27	1548.13
615.61	1539.70
615.96	1531.64
616.31	1524.03
616.65	1516.60
617.00	1508.97
617.35	1501.31
617.70	1492.92
618.04	1484.50
618.39	1476.31
618.74	1468.83
619.08	1460.49
619.43	1452.92
619.78	1446.01
620.12	1438.89
620.47	1431.44
620.82	1423.23
621.16	1415.82
621.51	1408.22
621.85	1400.64
622.20	1392.07
622.55	1383.70
622.89	1375.83
623.24	1368.23
623.59	1360.75
623.93	1353.21
624.28	1346.05
624.62	1338.50
624.97	1331.35
625.32	1324.60
625.66	1317.57
626.01	1310.35
626.35	1302.93
626.70	1295.09
627.04	1287.39
627.39	1279.54
627.73	1272.14
628.08	1265.20
628.43	1257.87
628.77	1250.54
629.12	1242.99
629.46	1235.85
629.81	1228.47
630.15	1221.26
630.50	1213.74
630.84	1205.69
631.19	1197.72
631.53	1190.15
631.88	1182.54
632.22	1174.94
632.57	1167.59
632.91	1159.94
633.26	1152.42
633.60	1145.08
633.95	1137.95
634.29	1130.88
634.64	1124.21
634.98	1116.88
635.32	1109.83
635.67	1103.29
636.01	1096.62
636.36	1089.82
636.70	1083.20
637.05	1076.67
637.39	1070.26
637.73	1063.82
638.08	1057.82
638.42	1051.94
638.77	1045.52
639.11	1038.97
639.45	1032.61
639.80	1025.93
640.14	1019.61
640.49	1013.10
640.83	1006.70
641.17	1000.55
641.52	994.24
641.86	987.76
642.20	981.88
642.55	975.41
642.89	968.96
643.23	962.39
643.58	956.62
643.92	950.48
644.26	944.35
644.61	938.34
644.95	932.37
645.29	925.81
645.64	918.99
645.98	912.69
646.32	906.88
646.66	900.86
647.01	895.06
647.35	889.41
647.69	883.60
648.04	878.02
648.38	872.16
648.72	866.10
649.06	860.10
649.41	854.21
649.75	848.34
650.09	842.34
650.43	836.60
650.78	830.44
651.12	824.46
651.46	818.73
651.80	812.92
652.14	807.52
652.49	802.11
652.83	796.92
653.17	791.23
653.51	785.47
653.85	780.00
654.20	774.33
654.54	768.18
654.88	762.40
655.22	756.55
655.56	750.87
655.90	745.45
656.25	740.22
656.59	734.83
656.93	729.78
657.27	724.69
657.61	719.25
657.95	714.18
658.29	709.08
658.64	703.85
658.98	698.60
659.32	693.12
659.66	688.00
660.00	682.76
660.34	677.82
660.68	672.83
661.02	667.80
661.36	663.14
661.70	658.74
662.05	654.43
662.39	650.19
662.73	645.78
663.07	641.40
663.41	636.96
663.75	632.44
664.09	627.80
664.43	623.29
664.77	619.18
665.11	614.89
665.45	610.73
665.79	606.70
666.13	602.54
666.47	598.40
666.81	594.19
667.15	590.01
667.49	586.04
667.83	582.27
668.17	578.34
668.51	574.25
668.85	570.17
669.19	566.32
669.53	562.42
669.87	558.54
670.21	554.84
670.55	551.14
670.89	547.75
671.23	544.36
671.57	540.89
671.91	537.32
672.25	533.80
672.58	530.34
672.92	526.92
673.26	523.80
673.60	520.66
673.94	517.58
674.28	514.71
674.62	511.77
674.96	508.65
675.30	505.71
675.64	502.87
675.97	500.08
676.31	497.21
676.65	494.27
676.99	491.53
677.33	488.66
677.67	485.84
678.01	482.82
678.34	479.80
678.68	476.87
679.02	474.09
679.36	471.31
679.70	468.56
680.04	465.76
680.37	462.83
680.71	460.07
681.05	457.41
681.39	454.70
681.73	452.03
682.06	449.54
682.40	447.01
682.74	444.45
683.08	441.89
683.42	439.24
683.75	436.77
684.09	434.20
684.43	431.73
684.77	429.24
685.10	426.88
685.44	424.58
685.78	422.30
686.12	420.04
686.45	417.81
686.79	415.55
687.13	413.36
687.46	411.21
687.80	409.08
688.14	406.86
688.48	404.78
688.81	402.57
689.15	400.39
689.49	398.27
689.82	396.21
690.16	394.13
690.50	392.22
690.83	390.27
691.17	388.31
691.51	386.39
691.84	384.57
692.18	382.62
692.52	380.66
692.85	378.76
693.19	376.85
693.52	374.97
693.86	373.15
694.20	371.37
694.53	369.56
694.87	367.70
695.21	365.94
695.54	364.13
695.88	362.39
696.21	360.68
696.55	358.99
696.88	357.27
697.22	355.61
697.56	353.98
697.89	352.36
698.23	350.81
698.56	349.22
698.90	347.66
699.23	346.10
699.57	344.58
699.90	343.04
700.24	341.50
700.58	340.03
700.91	338.56
701.25	337.18
701.58	335.83
701.92	334.45
702.25	333.08
702.59	331.73
702.92	330.41
703.26	329.13
703.59	327.85
703.93	326.65
704.26	325.43
704.60	324.13
704.93	322.89
705.26	321.62
705.60	320.44
705.93	319.26
706.27	318.21
706.60	317.14
706.94	316.06
707.27	314.92
707.61	313.83
707.94	312.79
708.27	311.64
708.61	310.55
708.94	309.58
709.28	308.58
709.61	307.64
709.94	306.71
710.28	305.71
710.61	304.74
710.95	303.65
711.28	302.73
711.61	301.82
711.95	300.84
712.28	299.89
712.61	298.90
712.95	297.96
713.28	297.01
713.61	296.11
713.95	295.22
714.28	294.38
714.61	293.51
714.95	292.62
715.28	291.80
715.61	290.91
715.95	290.03
716.28	289.14
716.61	288.24
716.95	287.43
717.28	286.67
717.61	285.90
717.94	285.19
718.28	284.35
718.61	283.59
718.94	282.91
719.27	282.23
719.61	281.61
719.94	280.98
720.27	280.24
720.60	279.55
720.94	278.92
721.27	278.32
721.60	277.71
721.93	277.12
722.27	276.55
722.60	275.98
722.93	275.38
723.26	274.86
723.59	274.30
723.93	273.70
724.26	273.09
724.59	272.54
724.92	271.99
725.25	271.50
725.59	270.95
725.92	270.44
726.25	269.93
726.58	269.39
726.91	268.87
727.24	268.39
727.57	267.95
727.91	267.45
728.24	266.98
728.57	266.46
728.90	266.01
729.23	265.51
729.56	265.10
729.89	264.63
730.22	264.13
730.55	263.69
730.89	263.25
731.22	262.82
731.55	262.36
731.88	261.92
732.21	261.48
732.54	261.09
732.87	260.66
733.20	260.25
733.53	259.85
733.86	259.45
734.19	259.12
734.52	258.74
734.85	258.40
735.18	258.00
735.51	257.69
735.84	257.31
736.17	256.97
736.50	256.55
736.83	256.34
737.16	256.06
737.49	255.71
737.82	255.38
738.15	255.07
738.48	254.70
738.81	254.40
739.14	254.11
739.47	253.80
739.80	253.52
740.13	253.23
740.46	252.97
740.79	252.68
741.12	252.37
741.45	252.07
741.78	251.77
742.11	251.50
742.44	251.17
742.77	250.93
743.10	250.63
743.43	250.36
743.75	250.02
744.08	249.84
744.41	249.60
744.74	249.37
745.07	249.11
745.40	248.93
745.73	248.68
746.06	248.42
746.39	248.18
746.71	247.87
747.04	247.64
747.37	247.35
747.70	247.15
748.03	246.91
748.36	246.69
748.68	246.44
749.01	246.20
749.34	245.99
749.67	245.73
750.00	245.53
750.33	245.39
750.65	245.15
750.98	244.83
751.31	244.60
751.64	244.37
751.97	244.21
752.29	243.98
752.62	243.72
752.95	243.52
753.28	243.30
753.60	243.08
753.93	242.89
754.26	242.69
754.59	242.42
754.91	242.18
755.24	242.00
755.57	241.78
755.90	241.59
756.22	241.40
756.55	241.20
756.88	241.00
757.20	240.70
757.53	240.51
757.86	240.37
758.19	240.21
758.51	240.02
758.84	239.77
759.17	239.59
759.49	239.45
759.82	239.29
760.15	239.11
760.47	238.98
760.80	238.79
761.13	238.63
761.45	238.46
761.78	238.30
762.11	238.10
762.43	237.96
762.76	237.83
763.08	237.67
763.41	237.50
763.74	237.35
764.06	237.25
764.39	237.10
764.71	236.92
765.04	236.75
765.37	236.64
765.69	236.51
766.02	236.37
766.34	236.22
766.67	236.04
767.00	235.95
767.32	235.87
767.65	235.82
767.97	235.73
768.30	235.64
768.62	235.54
768.95	235.45
769.27	235.33
769.60	235.22
769.92	235.14
770.25	234.99
770.57	234.88
770.90	234.75
771.22	234.62
771.55	234.51
771.87	234.44
772.20	234.32
772.52	234.34
772.85	234.37
773.17	234.31
773.50	234.22
773.82	234.13
774.15	233.98
774.47	233.81
774.80	233.71
775.12	233.63
775.45	233.54
775.77	233.46
776.09	233.40
776.42	233.31
776.74	233.26
777.07	233.21
777.39	233.15
777.72	233.08
778.04	233.05
778.36	233.01
778.69	232.93
779.01	232.89
779.33	232.72
779.66	232.52
779.98	232.47
780.31	232.44
780.63	232.40
780.95	232.38
781.28	232.33
781.60	232.28
781.92	232.24
782.25	232.21
782.57	232.15
782.89	232.10
783.22	232.06
783.54	231.98
783.86	231.94
784.19	231.88
784.51	231.86
784.83	231.84
785.16	231.78
785.48	231.76
785.80	231.70
786.12	231.69
786.45	231.66
786.77	231.61
787.09	231.58
