SpectraSuite Data File
++++++++++++++++++++++++++++++++++++
Date: Fri Feb 01 14:52:11 EST 2013
User: group
Dark Spectrum Present: No
Reference Spectrum Present: No
Number of Sampled Component Spectra: 1
Spectrometers: USB2E7196
Integration Time (usec): 35000 (USB2E7196)
Spectra Averaged: 100 (USB2E7196)
Boxcar Smoothing: 10 (USB2E7196)
Correct for Electrical Dark: No (USB2E7196)
Strobe/Lamp Enabled: No (USB2E7196)
Correct for Detector Non-linearity: No (USB2E7196)
Correct for Stray Light: No (USB2E7196)
Number of Pixels in Processed Spectrum: 2048
>>>>>Begin Processed Spectral Data<<<<<
339.09	0.00
339.48	215.32
339.86	217.17
340.24	218.26
340.63	219.31
341.01	223.21
341.39	222.78
341.78	223.70
342.16	224.96
342.54	225.36
342.93	213.76
343.31	224.55
343.69	225.12
344.07	225.58
344.46	226.00
344.84	226.38
345.22	226.57
345.60	226.79
345.99	227.01
346.37	227.14
346.75	227.26
347.13	227.35
347.52	227.42
347.90	227.50
348.28	227.49
348.66	227.54
349.05	227.52
349.43	227.54
349.81	227.54
350.19	227.61
350.57	227.69
350.96	227.74
351.34	227.83
351.72	227.87
352.10	227.95
352.48	228.04
352.87	228.08
353.25	228.18
353.63	228.25
354.01	228.27
354.39	228.33
354.77	228.39
355.15	228.48
355.54	228.51
355.92	228.55
356.30	228.64
356.68	228.75
357.06	228.81
357.44	228.88
357.82	228.97
358.20	229.05
358.58	229.13
358.97	229.17
359.35	229.23
359.73	229.30
360.11	229.36
360.49	229.40
360.87	229.47
361.25	229.53
361.63	229.57
362.01	229.62
362.39	229.66
362.77	229.70
363.15	229.74
363.53	229.77
363.91	229.79
364.29	229.80
364.67	229.71
365.05	229.74
365.43	229.72
365.81	229.72
366.19	229.77
366.57	229.76
366.95	229.78
367.33	229.75
367.71	229.73
368.09	229.69
368.47	229.65
368.85	229.59
369.23	229.53
369.61	229.47
369.99	229.46
370.37	229.41
370.75	229.39
371.13	229.31
371.51	229.22
371.89	229.16
372.27	229.10
372.65	229.07
373.03	229.03
373.41	228.95
373.78	228.88
374.16	228.73
374.54	228.62
374.92	228.53
375.30	228.44
375.68	228.34
376.06	228.29
376.44	228.21
376.82	228.18
377.19	228.13
377.57	228.06
377.95	227.95
378.33	227.88
378.71	227.75
379.09	227.70
379.47	227.66
379.84	227.59
380.22	227.51
380.60	227.42
380.98	227.33
381.36	227.28
381.73	227.22
382.11	227.18
382.49	227.15
382.87	227.06
383.25	227.01
383.62	227.10
384.00	227.01
384.38	226.96
384.76	226.88
385.13	226.85
385.51	226.82
385.89	226.76
386.27	226.71
386.64	226.70
387.02	226.60
387.40	226.56
387.78	226.52
388.15	226.52
388.53	226.50
388.91	226.48
389.29	226.47
389.66	226.44
390.04	226.40
390.42	226.38
390.79	226.41
391.17	226.40
391.55	226.28
391.92	226.29
392.30	226.30
392.68	226.32
393.05	226.32
393.43	226.32
393.81	226.33
394.18	226.34
394.56	226.35
394.94	226.44
395.31	226.48
395.69	226.55
396.06	226.59
396.44	226.64
396.82	226.67
397.19	226.74
397.57	226.81
397.95	226.88
398.32	226.95
398.70	227.03
399.07	227.12
399.45	227.19
399.82	227.28
400.20	227.36
400.58	227.44
400.95	227.50
401.33	227.63
401.70	227.80
402.08	227.91
402.45	228.04
402.83	228.18
403.20	228.28
403.58	228.40
403.95	228.53
404.33	228.67
404.71	228.81
405.08	229.02
405.46	229.15
405.83	229.32
406.21	229.49
406.58	229.65
406.96	229.83
407.33	230.01
407.70	230.24
408.08	230.50
408.45	230.72
408.83	230.99
409.20	231.23
409.58	231.45
409.95	231.72
410.33	231.99
410.70	232.19
411.08	232.51
411.45	232.80
411.82	233.09
412.20	233.48
412.57	233.91
412.95	234.17
413.32	234.57
413.69	234.99
414.07	235.40
414.44	235.85
414.82	236.32
415.19	236.84
415.56	237.33
415.94	237.87
416.31	238.52
416.68	239.13
417.06	239.81
417.43	240.47
417.81	241.16
418.18	241.95
418.55	242.81
418.93	243.66
419.30	244.55
419.67	245.49
420.04	246.40
420.42	247.38
420.79	248.62
421.16	249.77
421.54	250.95
421.91	252.16
422.28	253.41
422.66	254.72
423.03	256.03
423.40	257.40
423.77	258.80
424.15	260.21
424.52	261.69
424.89	263.21
425.26	264.76
425.64	266.24
426.01	267.79
426.38	269.42
426.75	271.11
427.13	272.80
427.50	274.61
427.87	276.49
428.24	278.33
428.61	279.98
428.99	281.91
429.36	283.96
429.73	286.00
430.10	288.01
430.47	290.06
430.85	292.20
431.22	294.39
431.59	296.79
431.96	299.05
432.33	301.53
432.70	303.96
433.08	306.79
433.45	309.43
433.82	312.03
434.19	314.89
434.56	317.65
434.93	320.38
435.30	322.96
435.68	325.85
436.05	328.69
436.42	331.54
436.79	334.02
437.16	336.79
437.53	339.63
437.90	342.49
438.27	345.24
438.64	348.05
439.01	350.70
439.38	352.93
439.75	355.09
440.13	357.58
440.50	359.92
440.87	361.75
441.24	363.67
441.61	365.87
441.98	367.40
442.35	369.26
442.72	371.10
443.09	372.95
443.46	373.96
443.83	374.58
444.20	375.09
444.57	375.96
444.94	376.21
445.31	376.56
445.68	376.89
446.05	376.97
446.42	376.60
446.79	376.17
447.16	375.73
447.53	375.39
447.90	374.25
448.27	373.10
448.64	371.53
449.01	370.45
449.37	368.48
449.74	366.58
450.11	364.33
450.48	361.86
450.85	359.33
451.22	357.19
451.59	355.14
451.96	353.19
452.33	350.61
452.70	348.25
453.07	345.43
453.43	342.56
453.80	339.80
454.17	337.13
454.54	334.63
454.91	331.93
455.28	329.32
455.65	326.83
456.02	324.40
456.38	322.27
456.75	319.60
457.12	317.35
457.49	315.14
457.86	312.95
458.23	311.11
458.59	309.05
458.96	306.98
459.33	305.13
459.70	303.28
460.07	301.79
460.43	300.10
460.80	298.48
461.17	296.99
461.54	295.51
461.91	294.07
462.27	292.58
462.64	291.29
463.01	289.91
463.38	288.59
463.74	287.22
464.11	286.06
464.48	285.03
464.85	283.87
465.21	282.99
465.58	282.11
465.95	281.00
466.32	280.09
466.68	279.16
467.05	278.24
467.42	277.33
467.78	276.34
468.15	275.44
468.52	274.73
468.88	273.86
469.25	273.05
469.62	272.41
469.98	271.76
470.35	271.11
470.72	270.48
471.08	269.80
471.45	269.25
471.82	268.69
472.18	268.07
472.55	267.62
472.92	267.09
473.28	266.59
473.65	266.10
474.02	265.62
474.38	265.23
474.75	264.91
475.11	264.54
475.48	264.30
475.85	264.04
476.21	263.77
476.58	263.58
476.94	263.42
477.31	263.23
477.67	263.02
478.04	262.89
478.41	262.78
478.77	262.78
479.14	262.67
479.50	262.66
479.87	262.72
480.23	262.83
480.60	262.86
480.96	262.95
481.33	263.15
481.69	263.36
482.06	263.55
482.42	263.75
482.79	263.99
483.15	264.31
483.52	264.69
483.88	265.09
484.25	265.47
484.61	265.88
484.98	266.31
485.34	266.87
485.71	267.49
486.07	268.08
486.44	268.70
486.80	269.39
487.17	270.09
487.53	270.88
487.90	271.71
488.26	272.65
488.62	273.63
488.99	274.63
489.35	275.64
489.72	276.77
490.08	277.96
490.44	279.17
490.81	280.47
491.17	281.81
491.54	283.25
491.90	284.75
492.26	286.38
492.63	288.13
492.99	289.91
493.36	291.77
493.72	293.83
494.08	295.88
494.45	298.10
494.81	300.44
495.17	302.85
495.54	305.39
495.90	308.05
496.26	310.80
496.63	313.74
496.99	316.84
497.35	320.03
497.72	323.40
498.08	326.93
498.44	330.58
498.80	334.48
499.17	338.50
499.53	342.69
499.89	347.06
500.26	351.56
500.62	356.20
500.98	361.08
501.34	366.12
501.71	371.39
502.07	376.85
502.43	382.44
502.79	388.25
503.16	394.31
503.52	400.54
503.88	406.89
504.24	413.49
504.60	420.33
504.97	427.41
505.33	434.68
505.69	442.34
506.05	450.06
506.41	457.89
506.78	466.05
507.14	474.46
507.50	483.08
507.86	491.99
508.22	501.15
508.59	510.35
508.95	519.84
509.31	529.62
509.67	539.62
510.03	549.90
510.39	560.40
510.75	571.08
511.12	581.98
511.48	593.20
511.84	604.54
512.20	616.03
512.56	628.09
512.92	640.22
513.28	652.47
513.64	664.90
514.00	677.58
514.37	690.47
514.73	703.42
515.09	716.52
515.45	729.81
515.81	743.40
516.17	757.30
516.53	771.46
516.89	785.71
517.25	799.88
517.61	814.22
517.97	828.68
518.33	843.21
518.69	857.97
519.05	873.00
519.41	888.24
519.77	903.73
520.13	919.12
520.49	934.55
520.85	950.10
521.21	965.89
521.57	982.25
521.93	998.05
522.29	1014.54
522.65	1030.78
523.01	1047.07
523.37	1063.10
523.73	1079.41
524.09	1095.61
524.45	1111.82
524.81	1128.61
525.17	1145.58
525.53	1162.49
525.89	1179.35
526.25	1196.20
526.61	1212.69
526.97	1229.45
527.33	1246.00
527.68	1262.60
528.04	1279.08
528.40	1295.74
528.76	1312.84
529.12	1329.33
529.48	1346.27
529.84	1362.42
530.20	1379.14
530.56	1396.24
530.91	1413.76
531.27	1430.56
531.63	1447.06
531.99	1463.89
532.35	1479.92
532.71	1495.76
533.07	1512.17
533.42	1528.24
533.78	1544.32
534.14	1560.67
534.50	1576.08
534.86	1592.01
535.21	1607.31
535.57	1623.48
535.93	1639.07
536.29	1653.90
536.65	1669.20
537.00	1684.09
537.36	1699.35
537.72	1713.96
538.08	1728.36
538.44	1742.24
538.79	1756.21
539.15	1770.00
539.51	1783.77
539.87	1798.24
540.22	1812.24
540.58	1825.92
540.94	1839.24
541.29	1852.42
541.65	1865.07
542.01	1878.42
542.37	1890.84
542.72	1903.26
543.08	1914.97
543.44	1927.28
543.79	1938.59
544.15	1949.41
544.51	1960.73
544.87	1971.76
545.22	1982.57
545.58	1992.86
545.94	2002.67
546.29	2012.70
546.65	2022.49
547.01	2031.65
547.36	2040.40
547.72	2048.77
548.07	2056.72
548.43	2064.86
548.79	2072.86
549.14	2080.52
549.50	2087.94
549.86	2095.53
550.21	2103.02
550.57	2110.23
550.92	2116.88
551.28	2123.85
551.64	2130.99
551.99	2137.79
552.35	2144.05
552.70	2150.06
553.06	2155.89
553.41	2162.11
553.77	2167.83
554.13	2173.79
554.48	2179.92
554.84	2185.03
555.19	2190.11
555.55	2195.23
555.90	2199.64
556.26	2204.39
556.61	2209.06
556.97	2213.11
557.32	2217.24
557.68	2221.21
558.03	2225.32
558.39	2228.92
558.74	2233.62
559.10	2237.30
559.45	2240.63
559.81	2244.85
560.16	2248.65
560.52	2251.86
560.87	2255.34
561.23	2258.01
561.58	2260.83
561.94	2263.24
562.29	2265.70
562.64	2268.32
563.00	2270.81
563.35	2274.22
563.71	2277.12
564.06	2280.05
564.42	2282.79
564.77	2285.22
565.12	2287.29
565.48	2289.12
565.83	2290.76
566.19	2291.73
566.54	2292.72
566.89	2293.86
567.25	2294.20
567.60	2295.38
567.96	2296.87
568.31	2297.24
568.66	2297.98
569.02	2298.32
569.37	2298.32
569.72	2298.81
570.08	2298.67
570.43	2298.40
570.78	2297.37
571.14	2295.55
571.49	2294.00
571.84	2293.44
572.20	2291.85
572.55	2290.44
572.90	2288.47
573.26	2286.75
573.61	2284.88
573.96	2282.71
574.31	2279.34
574.67	2275.94
575.02	2271.90
575.37	2268.12
575.72	2264.06
576.08	2260.56
576.43	2257.07
576.78	2253.29
577.13	2249.99
577.49	2246.77
577.84	2243.00
578.19	2239.24
578.54	2235.39
578.90	2230.98
579.25	2225.27
579.60	2220.28
579.95	2215.15
580.30	2210.03
580.66	2204.77
581.01	2199.70
581.36	2194.70
581.71	2190.39
582.06	2186.01
582.42	2181.58
582.77	2176.28
583.12	2171.60
583.47	2166.79
583.82	2161.64
584.17	2156.22
584.53	2150.61
584.88	2144.90
585.23	2139.06
585.58	2133.42
585.93	2127.69
586.28	2122.79
586.63	2117.57
586.98	2112.37
587.34	2107.63
587.69	2102.69
588.04	2097.36
588.39	2091.43
588.74	2084.80
589.09	2078.63
589.44	2071.57
589.79	2065.22
590.14	2059.29
590.49	2052.68
590.84	2046.01
591.19	2039.72
591.54	2033.14
591.89	2025.67
592.25	2018.74
592.60	2011.50
592.95	2003.67
593.30	1996.45
593.65	1988.65
594.00	1981.52
594.35	1974.16
594.70	1965.92
595.05	1958.64
595.40	1951.35
595.75	1943.88
596.10	1937.55
596.45	1930.70
596.80	1924.37
597.15	1917.72
597.50	1910.82
597.85	1904.42
598.19	1897.95
598.54	1891.05
598.89	1884.41
599.24	1878.40
599.59	1871.61
599.94	1865.21
600.29	1859.06
600.64	1852.41
600.99	1845.00
601.34	1838.23
601.69	1831.13
602.04	1824.22
602.39	1816.74
602.74	1809.83
603.08	1803.11
603.43	1796.55
603.78	1789.18
604.13	1781.93
604.48	1774.80
604.83	1767.93
605.18	1760.87
605.53	1752.78
605.87	1744.61
606.22	1737.36
606.57	1729.36
606.92	1722.13
607.27	1715.02
607.62	1708.10
607.96	1700.95
608.31	1694.27
608.66	1686.53
609.01	1679.03
609.36	1671.68
609.70	1663.80
610.05	1655.91
610.40	1648.29
610.75	1639.86
611.10	1632.28
611.44	1624.08
611.79	1615.99
612.14	1607.36
612.49	1598.29
612.83	1589.98
613.18	1581.99
613.53	1574.10
613.88	1565.65
614.22	1557.39
614.57	1548.87
614.92	1540.98
615.27	1533.43
615.61	1525.21
615.96	1517.22
616.31	1509.73
616.65	1502.33
617.00	1494.85
617.35	1487.06
617.70	1478.73
618.04	1470.18
618.39	1462.01
618.74	1454.57
619.08	1446.44
619.43	1438.97
619.78	1432.18
620.12	1425.16
620.47	1417.85
620.82	1409.67
621.16	1402.31
621.51	1394.73
621.85	1387.26
622.20	1378.80
622.55	1370.55
622.89	1362.83
623.24	1355.35
623.59	1348.04
623.93	1340.55
624.28	1333.42
624.62	1326.00
624.97	1318.87
625.32	1312.23
625.66	1305.33
626.01	1298.18
626.35	1290.83
626.70	1283.16
627.04	1275.43
627.39	1267.70
627.73	1260.28
628.08	1253.42
628.43	1246.25
628.77	1239.01
629.12	1231.49
629.46	1224.41
629.81	1217.10
630.15	1210.12
630.50	1202.89
630.84	1194.90
631.19	1187.11
631.53	1179.65
631.88	1172.23
632.22	1164.74
632.57	1157.59
632.91	1150.18
633.26	1142.81
633.60	1135.52
633.95	1128.50
634.29	1121.46
634.64	1114.84
634.98	1107.61
635.32	1100.55
635.67	1094.07
636.01	1087.58
636.36	1080.90
636.70	1074.41
637.05	1067.91
637.39	1061.53
637.73	1055.20
638.08	1049.28
638.42	1043.40
638.77	1037.10
639.11	1030.66
639.45	1024.33
639.80	1017.70
640.14	1011.33
640.49	1004.90
640.83	998.69
641.17	992.60
641.52	986.35
641.86	980.02
642.20	974.25
642.55	968.07
642.89	961.66
643.23	955.11
643.58	949.34
643.92	943.14
644.26	937.15
644.61	931.07
644.95	924.86
645.29	918.37
645.64	911.65
645.98	905.30
646.32	899.45
646.66	893.53
647.01	887.80
647.35	882.13
647.69	876.28
648.04	870.81
648.38	865.02
648.72	859.21
649.06	853.24
649.41	847.38
649.75	841.43
650.09	835.53
650.43	829.89
650.78	823.86
651.12	818.01
651.46	812.32
651.80	806.64
652.14	801.43
652.49	796.14
652.83	791.00
653.17	785.41
653.51	779.73
653.85	774.34
654.20	768.77
654.54	762.77
654.88	757.17
655.22	751.31
655.56	745.68
655.90	740.22
656.25	735.03
656.59	729.70
656.93	724.64
657.27	719.53
657.61	714.06
657.95	708.93
658.29	703.95
658.64	698.73
658.98	693.48
659.32	688.04
659.66	682.80
660.00	677.56
660.34	672.71
660.68	667.89
661.02	662.86
661.36	658.18
661.70	653.82
662.05	649.45
662.39	645.21
662.73	640.73
663.07	636.46
663.41	632.03
663.75	627.58
664.09	623.06
664.43	618.76
664.77	614.74
665.11	610.61
665.45	606.52
665.79	602.53
666.13	598.43
666.47	594.35
666.81	590.27
667.15	586.19
667.49	582.23
667.83	578.43
668.17	574.59
668.51	570.60
668.85	566.65
669.19	562.83
669.53	558.97
669.87	555.22
670.21	551.60
670.55	548.03
670.89	544.66
671.23	541.33
671.57	537.88
671.91	534.40
672.25	530.95
672.58	527.48
672.92	524.08
673.26	520.99
673.60	517.90
673.94	514.88
674.28	512.06
674.62	509.22
674.96	506.17
675.30	503.29
675.64	500.42
675.97	497.70
676.31	494.93
676.65	492.11
676.99	489.43
677.33	486.52
677.67	483.68
678.01	480.71
678.34	477.74
678.68	474.89
679.02	472.10
679.36	469.37
679.70	466.68
680.04	464.00
680.37	461.16
680.71	458.39
681.05	455.80
681.39	453.13
681.73	450.52
682.06	448.07
682.40	445.59
682.74	443.08
683.08	440.54
683.42	437.98
683.75	435.47
684.09	432.96
684.43	430.53
684.77	428.19
685.10	425.83
685.44	423.58
685.78	421.28
686.12	419.09
686.45	416.82
686.79	414.53
687.13	412.33
687.46	410.21
687.80	408.08
688.14	405.89
688.48	403.81
688.81	401.59
689.15	399.40
689.49	397.26
689.82	395.18
690.16	393.06
690.50	391.12
690.83	389.23
691.17	387.25
691.51	385.39
691.84	383.50
692.18	381.62
692.52	379.62
692.85	377.71
693.19	375.85
693.52	374.09
693.86	372.33
694.20	370.57
694.53	368.81
694.87	367.02
695.21	365.23
695.54	363.41
695.88	361.70
696.21	360.01
696.55	358.34
696.88	356.67
697.22	355.07
697.56	353.43
697.89	351.77
698.23	350.18
698.56	348.61
698.90	347.04
699.23	345.39
699.57	343.83
699.90	342.32
700.24	340.73
700.58	339.15
700.91	337.67
701.25	336.19
701.58	334.83
701.92	333.43
702.25	332.04
702.59	330.74
702.92	329.40
703.26	328.09
703.59	326.84
703.93	325.70
704.26	324.49
704.60	323.22
704.93	321.99
705.26	320.75
705.60	319.56
705.93	318.43
706.27	317.42
706.60	316.41
706.94	315.36
707.27	314.28
707.61	313.28
707.94	312.23
708.27	311.17
708.61	310.09
708.94	309.14
709.28	308.22
709.61	307.28
709.94	306.38
710.28	305.38
710.61	304.41
710.95	303.34
711.28	302.43
711.61	301.47
711.95	300.56
712.28	299.68
712.61	298.72
712.95	297.78
713.28	296.95
713.61	296.06
713.95	295.22
714.28	294.40
714.61	293.53
714.95	292.74
715.28	291.92
715.61	291.06
715.95	290.22
716.28	289.40
716.61	288.57
716.95	287.78
717.28	287.08
717.61	286.32
717.94	285.64
718.28	284.83
718.61	284.18
718.94	283.54
719.27	282.90
719.61	282.28
719.94	281.66
720.27	280.95
720.60	280.28
720.94	279.64
721.27	279.04
721.60	278.47
721.93	277.89
722.27	277.37
722.60	276.82
722.93	276.27
723.26	275.72
723.59	275.18
723.93	274.62
724.26	274.03
724.59	273.51
724.92	272.98
725.25	272.53
725.59	272.00
725.92	271.48
726.25	270.96
726.58	270.48
726.91	269.93
727.24	269.46
727.57	269.01
727.91	268.50
728.24	268.05
728.57	267.58
728.90	267.12
729.23	266.61
729.56	266.22
729.89	265.74
730.22	265.26
730.55	264.81
730.89	264.39
731.22	263.95
731.55	263.46
731.88	263.02
732.21	262.58
732.54	262.14
732.87	261.68
733.20	261.29
733.53	260.90
733.86	260.55
734.19	260.16
734.52	259.75
734.85	259.43
735.18	258.99
735.51	258.61
735.84	258.21
736.17	257.91
736.50	257.45
736.83	257.20
737.16	256.88
737.49	256.52
737.82	256.14
738.15	255.82
738.48	255.49
738.81	255.20
739.14	254.85
739.47	254.53
739.80	254.22
740.13	253.88
740.46	253.54
740.79	253.20
741.12	252.88
741.45	252.60
741.78	252.26
742.11	252.04
742.44	251.71
742.77	251.43
743.10	251.09
743.43	250.84
743.75	250.43
744.08	250.24
744.41	249.93
744.74	249.67
745.07	249.37
745.40	249.13
745.73	248.88
746.06	248.59
746.39	248.32
746.71	248.04
747.04	247.78
747.37	247.52
747.70	247.29
748.03	247.04
748.36	246.81
748.68	246.56
749.01	246.25
749.34	246.03
749.67	245.77
750.00	245.57
750.33	245.39
750.65	245.22
750.98	244.90
751.31	244.71
751.64	244.50
751.97	244.34
752.29	244.12
752.62	243.86
752.95	243.68
753.28	243.47
753.60	243.27
753.93	243.11
754.26	242.91
754.59	242.69
754.91	242.49
755.24	242.30
755.57	242.13
755.90	241.97
756.22	241.81
756.55	241.66
756.88	241.44
757.20	241.25
757.53	241.06
757.86	240.91
758.19	240.78
758.51	240.63
758.84	240.45
759.17	240.30
759.49	240.16
759.82	240.04
760.15	239.94
760.47	239.84
760.80	239.67
761.13	239.55
761.45	239.40
761.78	239.28
762.11	239.18
762.43	239.06
762.76	238.94
763.08	238.77
763.41	238.65
763.74	238.57
764.06	238.42
764.39	238.30
764.71	238.17
765.04	238.00
765.37	237.87
765.69	237.75
766.02	237.63
766.34	237.52
766.67	237.40
767.00	237.29
767.32	237.24
767.65	237.15
767.97	237.05
768.30	237.01
768.62	236.91
768.95	236.76
769.27	236.62
769.60	236.52
769.92	236.46
770.25	236.36
770.57	236.22
770.90	236.14
771.22	236.02
771.55	235.93
771.87	235.88
772.20	235.79
772.52	235.75
772.85	235.77
773.17	235.67
773.50	235.55
773.82	235.43
774.15	235.30
774.47	235.18
774.80	235.10
775.12	234.95
775.45	234.82
775.77	234.77
776.09	234.69
776.42	234.58
776.74	234.50
777.07	234.40
777.39	234.32
777.72	234.22
778.04	234.16
778.36	234.06
778.69	234.01
779.01	233.94
779.33	233.80
779.66	233.61
779.98	233.55
780.31	233.51
780.63	233.48
780.95	233.37
781.28	233.28
781.60	233.21
781.92	233.14
782.25	233.09
782.57	233.00
782.89	232.92
783.22	232.88
783.54	232.79
783.86	232.71
784.19	232.63
784.51	232.60
784.83	232.54
785.16	232.48
785.48	232.34
785.80	232.27
786.12	232.24
786.45	232.20
786.77	232.16
787.09	232.07
