SpectraSuite Data File
++++++++++++++++++++++++++++++++++++
Date: Fri Feb 01 15:44:10 EST 2013
User: group
Dark Spectrum Present: No
Reference Spectrum Present: No
Number of Sampled Component Spectra: 1
Spectrometers: USB2E7196
Integration Time (usec): 35000 (USB2E7196)
Spectra Averaged: 100 (USB2E7196)
Boxcar Smoothing: 10 (USB2E7196)
Correct for Electrical Dark: No (USB2E7196)
Strobe/Lamp Enabled: No (USB2E7196)
Correct for Detector Non-linearity: No (USB2E7196)
Correct for Stray Light: No (USB2E7196)
Number of Pixels in Processed Spectrum: 2048
>>>>>Begin Processed Spectral Data<<<<<
339.09	0.00
339.48	215.19
339.86	216.02
340.24	218.01
340.63	219.31
341.01	221.25
341.39	221.50
341.78	222.89
342.16	224.75
342.54	224.62
342.93	213.05
343.31	223.82
343.69	224.34
344.07	224.80
344.46	225.19
344.84	225.57
345.22	225.85
345.60	226.09
345.99	226.29
346.37	226.40
346.75	226.52
347.13	226.57
347.52	226.68
347.90	226.78
348.28	226.80
348.66	226.82
349.05	226.82
349.43	226.84
349.81	226.90
350.19	226.92
350.57	226.99
350.96	227.06
351.34	227.16
351.72	227.25
352.10	227.36
352.48	227.46
352.87	227.49
353.25	227.54
353.63	227.61
354.01	227.67
354.39	227.74
354.77	227.83
355.15	227.94
355.54	227.96
355.92	227.98
356.30	228.06
356.68	228.23
357.06	228.33
357.44	228.39
357.82	228.45
358.20	228.56
358.58	228.61
358.97	228.70
359.35	228.73
359.73	228.80
360.11	228.86
360.49	228.89
360.87	228.96
361.25	229.00
361.63	229.08
362.01	229.13
362.39	229.14
362.77	229.18
363.15	229.19
363.53	229.22
363.91	229.26
364.29	229.27
364.67	229.20
365.05	229.23
365.43	229.24
365.81	229.27
366.19	229.30
366.57	229.35
366.95	229.34
367.33	229.33
367.71	229.31
368.09	229.34
368.47	229.33
368.85	229.31
369.23	229.30
369.61	229.24
369.99	229.24
370.37	229.25
370.75	229.24
371.13	229.15
371.51	229.12
371.89	229.09
372.27	229.05
372.65	228.98
373.03	228.95
373.41	228.92
373.78	228.84
374.16	228.72
374.54	228.65
374.92	228.57
375.30	228.49
375.68	228.41
376.06	228.32
376.44	228.26
376.82	228.20
377.19	228.14
377.57	228.06
377.95	227.94
378.33	227.86
378.71	227.75
379.09	227.71
379.47	227.66
379.84	227.58
380.22	227.52
380.60	227.47
380.98	227.35
381.36	227.29
381.73	227.19
382.11	227.14
382.49	227.07
382.87	227.00
383.25	226.99
383.62	227.03
384.00	226.91
384.38	226.86
384.76	226.80
385.13	226.78
385.51	226.77
385.89	226.71
386.27	226.64
386.64	226.58
387.02	226.54
387.40	226.47
387.78	226.43
388.15	226.38
388.53	226.33
388.91	226.30
389.29	226.26
389.66	226.27
390.04	226.23
390.42	226.22
390.79	226.18
391.17	226.14
391.55	226.06
391.92	226.06
392.30	226.05
392.68	226.03
393.05	226.03
393.43	226.01
393.81	226.04
394.18	226.08
394.56	226.13
394.94	226.18
395.31	226.23
395.69	226.26
396.06	226.32
396.44	226.37
396.82	226.39
397.19	226.48
397.57	226.49
397.95	226.56
398.32	226.57
398.70	226.63
399.07	226.70
399.45	226.74
399.82	226.80
400.20	226.88
400.58	226.96
400.95	227.00
401.33	227.11
401.70	227.29
402.08	227.39
402.45	227.46
402.83	227.55
403.20	227.65
403.58	227.74
403.95	227.85
404.33	227.99
404.71	228.14
405.08	228.31
405.46	228.50
405.83	228.66
406.21	228.83
406.58	229.05
406.96	229.22
407.33	229.42
407.70	229.63
408.08	229.89
408.45	230.08
408.83	230.28
409.20	230.50
409.58	230.64
409.95	230.88
410.33	231.17
410.70	231.42
411.08	231.74
411.45	232.05
411.82	232.34
412.20	232.68
412.57	233.08
412.95	233.36
413.32	233.74
413.69	234.13
414.07	234.60
414.44	235.04
414.82	235.55
415.19	236.09
415.56	236.66
415.94	237.21
416.31	237.86
416.68	238.52
417.06	239.24
417.43	239.92
417.81	240.69
418.18	241.46
418.55	242.31
418.93	243.16
419.30	244.08
419.67	245.03
420.04	245.97
420.42	246.96
420.79	248.13
421.16	249.25
421.54	250.46
421.91	251.64
422.28	252.92
422.66	254.25
423.03	255.53
423.40	256.87
423.77	258.28
424.15	259.71
424.52	261.23
424.89	262.84
425.26	264.42
425.64	265.88
426.01	267.48
426.38	269.15
426.75	270.79
427.13	272.52
427.50	274.33
427.87	276.21
428.24	278.09
428.61	279.85
428.99	281.89
429.36	283.99
429.73	286.09
430.10	288.09
430.47	290.16
430.85	292.27
431.22	294.52
431.59	296.91
431.96	299.21
432.33	301.66
432.70	304.04
433.08	306.88
433.45	309.49
433.82	312.07
434.19	314.98
434.56	317.81
434.93	320.51
435.30	323.15
435.68	326.05
436.05	328.85
436.42	331.67
436.79	334.11
437.16	336.83
437.53	339.62
437.90	342.40
438.27	345.11
438.64	347.98
439.01	350.58
439.38	352.76
439.75	354.87
440.13	357.39
440.50	359.70
440.87	361.55
441.24	363.48
441.61	365.68
441.98	367.19
442.35	368.92
442.72	370.75
443.09	372.56
443.46	373.56
443.83	374.23
444.20	374.68
444.57	375.51
444.94	375.77
445.31	376.14
445.68	376.54
446.05	376.65
446.42	376.27
446.79	375.84
447.16	375.43
447.53	375.11
447.90	373.93
448.27	372.79
448.64	371.14
449.01	370.04
449.37	368.03
449.74	366.06
450.11	363.86
450.48	361.37
450.85	358.78
451.22	356.60
451.59	354.57
451.96	352.66
452.33	350.11
452.70	347.74
453.07	344.90
453.43	341.97
453.80	339.20
454.17	336.53
454.54	333.95
454.91	331.23
455.28	328.54
455.65	326.02
456.02	323.53
456.38	321.43
456.75	318.70
457.12	316.52
457.49	314.35
457.86	312.20
458.23	310.36
458.59	308.35
458.96	306.30
459.33	304.41
459.70	302.54
460.07	301.01
460.43	299.26
460.80	297.60
461.17	296.14
461.54	294.61
461.91	293.14
462.27	291.74
462.64	290.48
463.01	289.12
463.38	287.87
463.74	286.54
464.11	285.40
464.48	284.44
464.85	283.28
465.21	282.37
465.58	281.45
465.95	280.35
466.32	279.44
466.68	278.53
467.05	277.64
467.42	276.75
467.78	275.83
468.15	274.99
468.52	274.35
468.88	273.50
469.25	272.74
469.62	272.13
469.98	271.44
470.35	270.83
470.72	270.27
471.08	269.59
471.45	269.05
471.82	268.46
472.18	267.87
472.55	267.43
472.92	266.93
473.28	266.43
473.65	265.99
474.02	265.51
474.38	265.17
474.75	264.86
475.11	264.52
475.48	264.25
475.85	264.05
476.21	263.82
476.58	263.66
476.94	263.49
477.31	263.34
477.67	263.16
478.04	263.05
478.41	262.98
478.77	263.04
479.14	262.96
479.50	263.00
479.87	263.05
480.23	263.14
480.60	263.19
480.96	263.33
481.33	263.54
481.69	263.75
482.06	263.89
482.42	264.11
482.79	264.36
483.15	264.70
483.52	265.03
483.88	265.38
484.25	265.75
484.61	266.19
484.98	266.63
485.34	267.23
485.71	267.83
486.07	268.43
486.44	268.97
486.80	269.65
487.17	270.34
487.53	271.11
487.90	271.96
488.26	272.92
488.62	273.87
488.99	274.84
489.35	275.88
489.72	277.05
490.08	278.20
490.44	279.45
490.81	280.73
491.17	282.08
491.54	283.53
491.90	285.05
492.26	286.66
492.63	288.40
492.99	290.16
493.36	292.00
493.72	294.03
494.08	296.12
494.45	298.37
494.81	300.73
495.17	303.19
495.54	305.77
495.90	308.43
496.26	311.24
496.63	314.16
496.99	317.30
497.35	320.53
497.72	323.97
498.08	327.50
498.44	331.17
498.80	335.11
499.17	339.17
499.53	343.35
499.89	347.75
500.26	352.25
500.62	356.92
500.98	361.94
501.34	367.00
501.71	372.35
502.07	377.79
502.43	383.42
502.79	389.26
503.16	395.32
503.52	401.57
503.88	407.98
504.24	414.62
504.60	421.52
504.97	428.66
505.33	435.99
505.69	443.66
506.05	451.44
506.41	459.36
506.78	467.54
507.14	475.97
507.50	484.74
507.86	493.77
508.22	502.98
508.59	512.10
508.95	521.67
509.31	531.53
509.67	541.70
510.03	552.04
510.39	562.59
510.75	573.37
511.12	584.37
511.48	595.71
511.84	607.17
512.20	618.70
512.56	630.70
512.92	642.89
513.28	655.27
513.64	667.76
514.00	680.42
514.37	693.40
514.73	706.51
515.09	719.52
515.45	732.87
515.81	746.48
516.17	760.62
516.53	774.81
516.89	788.98
517.25	803.09
517.61	817.43
517.97	831.88
518.33	846.43
518.69	861.17
519.05	876.18
519.41	891.35
519.77	906.89
520.13	922.33
520.49	937.66
520.85	953.06
521.21	968.84
521.57	985.18
521.93	1000.93
522.29	1017.29
522.65	1033.50
523.01	1049.70
523.37	1065.76
523.73	1081.88
524.09	1097.99
524.45	1114.27
524.81	1130.99
525.17	1147.85
525.53	1164.72
525.89	1181.50
526.25	1198.39
526.61	1214.85
526.97	1231.62
527.33	1248.12
527.68	1264.71
528.04	1281.27
528.40	1297.91
528.76	1314.98
529.12	1331.46
529.48	1348.30
529.84	1364.29
530.20	1380.96
530.56	1398.09
530.91	1415.46
531.27	1432.21
531.63	1448.72
531.99	1465.34
532.35	1481.36
532.71	1497.24
533.07	1513.52
533.42	1529.41
533.78	1545.40
534.14	1561.60
534.50	1576.97
534.86	1592.83
535.21	1608.04
535.57	1623.94
535.93	1639.35
536.29	1654.11
536.65	1669.23
537.00	1684.09
537.36	1699.39
537.72	1714.00
538.08	1728.24
538.44	1742.06
538.79	1755.95
539.15	1769.55
539.51	1783.21
539.87	1797.49
540.22	1811.20
540.58	1824.97
540.94	1838.43
541.29	1851.39
541.65	1864.03
542.01	1877.22
542.37	1889.54
542.72	1901.93
543.08	1913.63
543.44	1926.11
543.79	1937.27
544.15	1948.25
544.51	1959.70
544.87	1970.76
545.22	1981.60
545.58	1991.92
545.94	2001.66
546.29	2011.47
546.65	2021.36
547.01	2030.62
547.36	2039.34
547.72	2047.85
548.07	2055.75
548.43	2063.78
548.79	2071.75
549.14	2079.31
549.50	2086.66
549.86	2094.34
550.21	2101.64
550.57	2108.90
550.92	2115.46
551.28	2122.61
551.64	2129.70
551.99	2136.26
552.35	2142.39
552.70	2148.43
553.06	2154.24
553.41	2160.57
553.77	2166.62
554.13	2172.75
554.48	2178.87
554.84	2184.22
555.19	2189.50
555.55	2194.64
555.90	2199.19
556.26	2204.06
556.61	2208.75
556.97	2213.02
557.32	2217.17
557.68	2221.21
558.03	2225.37
558.39	2229.07
558.74	2233.67
559.10	2237.40
559.45	2241.00
559.81	2245.23
560.16	2249.06
560.52	2252.39
560.87	2255.80
561.23	2258.53
561.58	2261.39
561.94	2263.90
562.29	2266.37
562.64	2268.95
563.00	2271.55
563.35	2275.10
563.71	2278.25
564.06	2281.46
564.42	2284.35
564.77	2286.81
565.12	2289.29
565.48	2291.24
565.83	2293.09
566.19	2294.27
566.54	2295.35
566.89	2296.60
567.25	2297.15
567.60	2298.51
567.96	2300.15
568.31	2300.91
568.66	2301.96
569.02	2302.35
569.37	2302.62
569.72	2303.43
570.08	2303.61
570.43	2303.66
570.78	2302.89
571.14	2301.28
571.49	2299.88
571.84	2299.48
572.20	2298.28
572.55	2297.08
572.90	2295.38
573.26	2294.07
573.61	2292.49
573.96	2290.63
574.31	2287.64
574.67	2284.63
575.02	2280.88
575.37	2277.45
575.72	2273.74
576.08	2270.35
576.43	2267.18
576.78	2263.59
577.13	2260.38
577.49	2257.27
577.84	2253.67
578.19	2249.87
578.54	2246.18
578.90	2241.96
579.25	2236.51
579.60	2231.55
579.95	2226.45
580.30	2221.65
580.66	2216.32
581.01	2211.27
581.36	2206.26
581.71	2201.93
582.06	2197.50
582.42	2193.10
582.77	2187.98
583.12	2183.36
583.47	2178.62
583.82	2173.53
584.17	2168.14
584.53	2162.69
584.88	2157.06
585.23	2151.29
585.58	2145.85
585.93	2140.44
586.28	2135.70
586.63	2130.43
586.98	2125.45
587.34	2120.78
587.69	2115.85
588.04	2110.55
588.39	2104.88
588.74	2098.54
589.09	2092.49
589.44	2085.74
589.79	2079.66
590.14	2073.92
590.49	2067.20
590.84	2060.71
591.19	2054.76
591.54	2048.43
591.89	2040.98
592.25	2034.09
592.60	2026.87
592.95	2019.31
593.30	2011.87
593.65	2004.25
594.00	1997.29
594.35	1989.92
594.70	1981.91
595.05	1974.55
595.40	1967.26
595.75	1959.74
596.10	1953.42
596.45	1946.52
596.80	1940.26
597.15	1933.53
597.50	1926.37
597.85	1920.08
598.19	1913.59
598.54	1906.37
598.89	1899.71
599.24	1893.85
599.59	1887.23
599.94	1880.93
600.29	1874.57
600.64	1868.15
600.99	1860.72
601.34	1853.93
601.69	1846.96
602.04	1840.09
602.39	1832.76
602.74	1825.94
603.08	1819.20
603.43	1812.34
603.78	1805.21
604.13	1798.01
604.48	1790.82
604.83	1783.95
605.18	1776.85
605.53	1768.81
605.87	1760.79
606.22	1753.61
606.57	1745.57
606.92	1738.29
607.27	1731.25
607.62	1724.45
607.96	1717.10
608.31	1710.46
608.66	1702.71
609.01	1695.21
609.36	1687.51
609.70	1679.59
610.05	1671.52
610.40	1663.77
610.75	1655.54
611.10	1647.82
611.44	1639.36
611.79	1631.30
612.14	1622.67
612.49	1613.49
612.83	1605.09
613.18	1597.05
613.53	1588.92
613.88	1580.41
614.22	1571.96
614.57	1563.33
614.92	1555.19
615.27	1547.58
615.61	1539.24
615.96	1531.32
616.31	1523.76
616.65	1516.50
617.00	1508.85
617.35	1501.26
617.70	1493.02
618.04	1484.54
618.39	1476.33
618.74	1468.75
619.08	1460.50
619.43	1452.92
619.78	1446.10
620.12	1438.88
620.47	1431.38
620.82	1423.23
621.16	1415.96
621.51	1408.50
621.85	1400.92
622.20	1392.38
622.55	1384.04
622.89	1376.15
623.24	1368.45
623.59	1360.93
623.93	1353.44
624.28	1346.27
624.62	1338.64
624.97	1331.44
625.32	1324.74
625.66	1317.71
626.01	1310.49
626.35	1302.99
626.70	1295.27
627.04	1287.52
627.39	1279.68
627.73	1272.25
628.08	1265.33
628.43	1257.95
628.77	1250.42
629.12	1242.74
629.46	1235.66
629.81	1228.22
630.15	1221.05
630.50	1213.59
630.84	1205.36
631.19	1197.38
631.53	1189.89
631.88	1182.33
632.22	1174.63
632.57	1167.30
632.91	1159.78
633.26	1152.32
633.60	1145.02
633.95	1137.87
634.29	1130.89
634.64	1124.31
634.98	1116.93
635.32	1109.80
635.67	1103.13
636.01	1096.59
636.36	1089.80
636.70	1083.24
637.05	1076.63
637.39	1070.12
637.73	1063.68
638.08	1057.84
638.42	1051.79
638.77	1045.29
639.11	1038.78
639.45	1032.50
639.80	1025.76
640.14	1019.28
640.49	1012.82
640.83	1006.48
641.17	1000.28
641.52	993.92
641.86	987.41
642.20	981.54
642.55	975.18
642.89	968.70
643.23	962.21
643.58	956.47
643.92	950.25
644.26	944.15
644.61	938.11
644.95	932.11
645.29	925.44
645.64	918.77
645.98	912.42
646.32	906.52
646.66	900.38
647.01	894.65
647.35	888.99
647.69	883.18
648.04	877.65
648.38	871.74
648.72	865.74
649.06	859.68
649.41	853.76
649.75	847.82
650.09	841.87
650.43	836.02
650.78	829.88
651.12	823.95
651.46	818.32
651.80	812.57
652.14	807.14
652.49	801.86
652.83	796.72
653.17	791.07
653.51	785.40
653.85	780.07
654.20	774.38
654.54	768.37
654.88	762.72
655.22	756.85
655.56	751.27
655.90	745.83
656.25	740.64
656.59	735.31
656.93	730.20
657.27	725.12
657.61	719.71
657.95	714.62
658.29	709.47
658.64	704.19
658.98	698.93
659.32	693.51
659.66	688.27
660.00	682.92
660.34	677.94
660.68	673.04
661.02	668.03
661.36	663.31
661.70	658.79
662.05	654.34
662.39	649.98
662.73	645.51
663.07	641.12
663.41	636.65
663.75	632.19
664.09	627.58
664.43	623.16
664.77	619.12
665.11	614.86
665.45	610.79
665.79	606.69
666.13	602.53
666.47	598.40
666.81	594.24
667.15	590.18
667.49	586.32
667.83	582.52
668.17	578.58
668.51	574.54
668.85	570.49
669.19	566.60
669.53	562.80
669.87	558.89
670.21	555.19
670.55	551.56
670.89	548.10
671.23	544.70
671.57	541.15
671.91	537.55
672.25	534.02
672.58	530.47
672.92	527.13
673.26	523.98
673.60	520.86
673.94	517.75
674.28	514.83
674.62	511.78
674.96	508.63
675.30	505.78
675.64	502.85
675.97	500.13
676.31	497.31
676.65	494.35
676.99	491.67
677.33	488.83
677.67	486.00
678.01	482.98
678.34	480.02
678.68	477.23
679.02	474.35
679.36	471.61
679.70	468.91
680.04	466.09
680.37	463.20
680.71	460.42
681.05	457.84
681.39	455.10
681.73	452.49
682.06	449.98
682.40	447.37
682.74	444.85
683.08	442.30
683.42	439.71
683.75	437.20
684.09	434.66
684.43	432.18
684.77	429.69
685.10	427.38
685.44	425.06
685.78	422.69
686.12	420.46
686.45	418.18
686.79	415.86
687.13	413.67
687.46	411.50
687.80	409.32
688.14	407.11
688.48	405.07
688.81	402.84
689.15	400.70
689.49	398.54
689.82	396.46
690.16	394.37
690.50	392.38
690.83	390.46
691.17	388.46
691.51	386.58
691.84	384.75
692.18	382.79
692.52	380.82
692.85	378.90
693.19	377.04
693.52	375.22
693.86	373.44
694.20	371.69
694.53	369.91
694.87	368.05
695.21	366.23
695.54	364.37
695.88	362.67
696.21	360.94
696.55	359.27
696.88	357.59
697.22	355.95
697.56	354.37
697.89	352.69
698.23	351.09
698.56	349.45
698.90	347.85
699.23	346.16
699.57	344.62
699.90	343.09
700.24	341.59
700.58	340.04
700.91	338.56
701.25	337.11
701.58	335.74
701.92	334.43
702.25	333.08
702.59	331.72
702.92	330.41
703.26	329.11
703.59	327.82
703.93	326.66
704.26	325.39
704.60	324.12
704.93	322.86
705.26	321.59
705.60	320.41
705.93	319.24
706.27	318.25
706.60	317.19
706.94	316.12
707.27	314.98
707.61	313.95
707.94	312.90
708.27	311.80
708.61	310.71
708.94	309.70
709.28	308.70
709.61	307.71
709.94	306.74
710.28	305.69
710.61	304.71
710.95	303.63
711.28	302.74
711.61	301.75
711.95	300.84
712.28	299.93
712.61	298.95
712.95	298.02
713.28	297.11
713.61	296.21
713.95	295.30
714.28	294.45
714.61	293.57
714.95	292.72
715.28	291.87
715.61	290.98
715.95	290.12
716.28	289.30
716.61	288.50
716.95	287.70
717.28	286.98
717.61	286.22
717.94	285.47
718.28	284.67
718.61	283.95
718.94	283.26
719.27	282.60
719.61	281.96
719.94	281.33
720.27	280.67
720.60	280.02
720.94	279.38
721.27	278.80
721.60	278.23
721.93	277.63
722.27	277.05
722.60	276.53
722.93	275.95
723.26	275.42
723.59	274.87
723.93	274.33
724.26	273.80
724.59	273.24
724.92	272.70
725.25	272.18
725.59	271.69
725.92	271.21
726.25	270.69
726.58	270.20
726.91	269.69
727.24	269.18
727.57	268.69
727.91	268.23
728.24	267.73
728.57	267.20
728.90	266.76
729.23	266.30
729.56	265.91
729.89	265.43
730.22	264.93
730.55	264.43
730.89	263.94
731.22	263.42
731.55	262.95
731.88	262.55
732.21	262.10
732.54	261.66
732.87	261.21
733.20	260.83
733.53	260.44
733.86	260.06
734.19	259.66
734.52	259.29
734.85	258.95
735.18	258.55
735.51	258.23
735.84	257.87
736.17	257.51
736.50	257.07
736.83	256.86
737.16	256.54
737.49	256.23
737.82	255.90
738.15	255.62
738.48	255.30
738.81	254.98
739.14	254.69
739.47	254.38
739.80	254.04
740.13	253.73
740.46	253.41
740.79	253.09
741.12	252.78
741.45	252.47
741.78	252.14
742.11	251.88
742.44	251.55
742.77	251.27
743.10	250.99
743.43	250.71
743.75	250.33
744.08	250.15
744.41	249.89
744.74	249.65
745.07	249.36
745.40	249.10
745.73	248.85
746.06	248.56
746.39	248.32
746.71	248.08
747.04	247.84
747.37	247.62
747.70	247.40
748.03	247.16
748.36	246.92
748.68	246.67
749.01	246.40
749.34	246.20
749.67	245.93
750.00	245.72
750.33	245.56
750.65	245.34
750.98	245.03
751.31	244.80
751.64	244.57
751.97	244.39
752.29	244.24
752.62	243.97
752.95	243.76
753.28	243.52
753.60	243.28
753.93	243.06
754.26	242.84
754.59	242.59
754.91	242.36
755.24	242.20
755.57	241.99
755.90	241.79
756.22	241.58
756.55	241.39
756.88	241.17
757.20	240.92
757.53	240.73
757.86	240.55
758.19	240.38
758.51	240.22
758.84	240.04
759.17	239.87
759.49	239.72
759.82	239.57
760.15	239.41
760.47	239.26
760.80	239.06
761.13	238.94
761.45	238.79
761.78	238.66
762.11	238.47
762.43	238.35
762.76	238.24
763.08	238.09
763.41	237.93
763.74	237.79
764.06	237.64
764.39	237.49
764.71	237.34
765.04	237.19
765.37	237.02
765.69	236.86
766.02	236.69
766.34	236.57
766.67	236.44
767.00	236.35
767.32	236.29
767.65	236.28
767.97	236.16
768.30	236.05
768.62	235.92
768.95	235.82
769.27	235.72
769.60	235.59
769.92	235.47
770.25	235.40
770.57	235.24
770.90	235.11
771.22	235.02
771.55	234.93
771.87	234.86
772.20	234.79
772.52	234.81
772.85	234.82
773.17	234.73
773.50	234.60
773.82	234.48
774.15	234.33
774.47	234.17
774.80	234.06
775.12	233.96
775.45	233.88
775.77	233.79
776.09	233.70
776.42	233.62
776.74	233.55
777.07	233.44
777.39	233.40
777.72	233.33
778.04	233.24
778.36	233.16
778.69	233.08
779.01	233.03
779.33	232.86
779.66	232.71
779.98	232.64
780.31	232.63
780.63	232.59
780.95	232.53
781.28	232.49
781.60	232.42
781.92	232.34
782.25	232.28
782.57	232.23
782.89	232.19
783.22	232.12
783.54	232.06
783.86	232.02
784.19	231.94
784.51	231.92
784.83	231.85
785.16	231.79
785.48	231.74
785.80	231.67
786.12	231.65
786.45	231.60
786.77	231.55
787.09	231.47
