SpectraSuite Data File
++++++++++++++++++++++++++++++++++++
Date: Fri Feb 01 15:18:08 EST 2013
User: group
Dark Spectrum Present: No
Reference Spectrum Present: No
Number of Sampled Component Spectra: 1
Spectrometers: USB2E7196
Integration Time (usec): 35000 (USB2E7196)
Spectra Averaged: 100 (USB2E7196)
Boxcar Smoothing: 10 (USB2E7196)
Correct for Electrical Dark: No (USB2E7196)
Strobe/Lamp Enabled: No (USB2E7196)
Correct for Detector Non-linearity: No (USB2E7196)
Correct for Stray Light: No (USB2E7196)
Number of Pixels in Processed Spectrum: 2048
>>>>>Begin Processed Spectral Data<<<<<
339.09	0.00
339.48	215.11
339.86	216.76
340.24	218.18
340.63	220.05
341.01	221.80
341.39	222.22
341.78	223.23
342.16	225.09
342.54	225.44
342.93	213.55
343.31	224.35
343.69	224.91
344.07	225.37
344.46	225.78
344.84	226.14
345.22	226.41
345.60	226.65
345.99	226.85
346.37	226.95
346.75	227.02
347.13	227.04
347.52	227.10
347.90	227.16
348.28	227.16
348.66	227.19
349.05	227.20
349.43	227.25
349.81	227.32
350.19	227.33
350.57	227.37
350.96	227.43
351.34	227.49
351.72	227.54
352.10	227.64
352.48	227.68
352.87	227.71
353.25	227.76
353.63	227.79
354.01	227.85
354.39	227.96
354.77	228.04
355.15	228.14
355.54	228.19
355.92	228.27
356.30	228.36
356.68	228.48
357.06	228.50
357.44	228.56
357.82	228.58
358.20	228.67
358.58	228.72
358.97	228.74
359.35	228.80
359.73	228.87
360.11	228.90
360.49	228.98
360.87	229.00
361.25	229.05
361.63	229.11
362.01	229.16
362.39	229.13
362.77	229.17
363.15	229.22
363.53	229.26
363.91	229.22
364.29	229.24
364.67	229.14
365.05	229.16
365.43	229.13
365.81	229.13
366.19	229.19
366.57	229.20
366.95	229.21
367.33	229.20
367.71	229.18
368.09	229.18
368.47	229.15
368.85	229.13
369.23	229.11
369.61	229.08
369.99	229.07
370.37	229.07
370.75	229.09
371.13	229.02
371.51	228.95
371.89	228.94
372.27	228.92
372.65	228.90
373.03	228.85
373.41	228.81
373.78	228.78
374.16	228.66
374.54	228.61
374.92	228.54
375.30	228.46
375.68	228.38
376.06	228.31
376.44	228.23
376.82	228.19
377.19	228.14
377.57	228.07
377.95	227.99
378.33	227.94
378.71	227.77
379.09	227.72
379.47	227.67
379.84	227.59
380.22	227.50
380.60	227.38
380.98	227.34
381.36	227.26
381.73	227.21
382.11	227.17
382.49	227.08
382.87	226.99
383.25	226.96
383.62	227.03
384.00	227.02
384.38	226.98
384.76	226.96
385.13	226.94
385.51	226.86
385.89	226.78
386.27	226.71
386.64	226.73
387.02	226.69
387.40	226.64
387.78	226.63
388.15	226.61
388.53	226.62
388.91	226.58
389.29	226.57
389.66	226.54
390.04	226.53
390.42	226.56
390.79	226.58
391.17	226.57
391.55	226.47
391.92	226.42
392.30	226.43
392.68	226.42
393.05	226.39
393.43	226.45
393.81	226.50
394.18	226.51
394.56	226.54
394.94	226.58
395.31	226.60
395.69	226.68
396.06	226.73
396.44	226.76
396.82	226.77
397.19	226.87
397.57	226.90
397.95	226.93
398.32	226.95
398.70	227.01
399.07	227.05
399.45	227.09
399.82	227.15
400.20	227.17
400.58	227.25
400.95	227.29
401.33	227.36
401.70	227.51
402.08	227.62
402.45	227.73
402.83	227.83
403.20	227.95
403.58	228.02
403.95	228.10
404.33	228.25
404.71	228.39
405.08	228.55
405.46	228.67
405.83	228.80
406.21	228.95
406.58	229.13
406.96	229.31
407.33	229.50
407.70	229.72
408.08	230.03
408.45	230.26
408.83	230.51
409.20	230.74
409.58	230.95
409.95	231.23
410.33	231.49
410.70	231.76
411.08	232.06
411.45	232.37
411.82	232.70
412.20	233.06
412.57	233.46
412.95	233.77
413.32	234.21
413.69	234.65
414.07	235.08
414.44	235.57
414.82	236.04
415.19	236.61
415.56	237.16
415.94	237.70
416.31	238.31
416.68	238.93
417.06	239.64
417.43	240.30
417.81	241.07
418.18	241.85
418.55	242.70
418.93	243.57
419.30	244.45
419.67	245.44
420.04	246.40
420.42	247.40
420.79	248.63
421.16	249.77
421.54	250.99
421.91	252.25
422.28	253.49
422.66	254.85
423.03	256.15
423.40	257.52
423.77	258.91
424.15	260.37
424.52	261.90
424.89	263.54
425.26	265.11
425.64	266.53
426.01	268.13
426.38	269.78
426.75	271.47
427.13	273.24
427.50	275.01
427.87	276.92
428.24	278.79
428.61	280.53
428.99	282.50
429.36	284.61
429.73	286.67
430.10	288.69
430.47	290.73
430.85	292.87
431.22	295.07
431.59	297.51
431.96	299.78
432.33	302.25
432.70	304.63
433.08	307.46
433.45	310.13
433.82	312.73
434.19	315.59
434.56	318.37
434.93	321.01
435.30	323.68
435.68	326.60
436.05	329.41
436.42	332.24
436.79	334.79
437.16	337.46
437.53	340.30
437.90	343.14
438.27	345.92
438.64	348.70
439.01	351.30
439.38	353.53
439.75	355.67
440.13	358.19
440.50	360.49
440.87	362.25
441.24	364.20
441.61	366.35
441.98	367.90
442.35	369.79
442.72	371.67
443.09	373.43
443.46	374.41
443.83	374.99
444.20	375.42
444.57	376.21
444.94	376.50
445.31	376.85
445.68	377.18
446.05	377.24
446.42	376.85
446.79	376.39
447.16	375.92
447.53	375.59
447.90	374.40
448.27	373.28
448.64	371.72
449.01	370.57
449.37	368.60
449.74	366.64
450.11	364.30
450.48	361.78
450.85	359.22
451.22	357.06
451.59	355.04
451.96	353.12
452.33	350.50
452.70	348.10
453.07	345.25
453.43	342.30
453.80	339.52
454.17	336.84
454.54	334.31
454.91	331.59
455.28	328.90
455.65	326.39
456.02	323.86
456.38	321.70
456.75	319.03
457.12	316.77
457.49	314.59
457.86	312.38
458.23	310.55
458.59	308.50
458.96	306.32
459.33	304.44
459.70	302.54
460.07	301.02
460.43	299.30
460.80	297.70
461.17	296.28
461.54	294.76
461.91	293.36
462.27	291.88
462.64	290.62
463.01	289.26
463.38	287.95
463.74	286.59
464.11	285.43
464.48	284.35
464.85	283.22
465.21	282.30
465.58	281.43
465.95	280.34
466.32	279.45
466.68	278.60
467.05	277.72
467.42	276.85
467.78	275.96
468.15	275.06
468.52	274.35
468.88	273.49
469.25	272.75
469.62	272.11
469.98	271.44
470.35	270.78
470.72	270.17
471.08	269.51
471.45	268.99
471.82	268.46
472.18	267.84
472.55	267.40
472.92	266.91
473.28	266.44
473.65	265.94
474.02	265.51
474.38	265.14
474.75	264.76
475.11	264.44
475.48	264.16
475.85	263.92
476.21	263.68
476.58	263.50
476.94	263.33
477.31	263.17
477.67	263.02
478.04	262.94
478.41	262.92
478.77	262.97
479.14	262.85
479.50	262.86
479.87	262.97
480.23	263.09
480.60	263.15
480.96	263.24
481.33	263.48
481.69	263.67
482.06	263.84
482.42	264.08
482.79	264.31
483.15	264.62
483.52	265.00
483.88	265.37
484.25	265.71
484.61	266.14
484.98	266.57
485.34	267.13
485.71	267.67
486.07	268.21
486.44	268.77
486.80	269.51
487.17	270.25
487.53	271.01
487.90	271.83
488.26	272.77
488.62	273.75
488.99	274.70
489.35	275.73
489.72	276.86
490.08	278.07
490.44	279.31
490.81	280.62
491.17	281.93
491.54	283.40
491.90	284.97
492.26	286.61
492.63	288.33
492.99	290.11
493.36	292.03
493.72	294.10
494.08	296.22
494.45	298.46
494.81	300.80
495.17	303.23
495.54	305.80
495.90	308.43
496.26	311.23
496.63	314.18
496.99	317.26
497.35	320.53
497.72	323.89
498.08	327.37
498.44	331.03
498.80	334.96
499.17	338.98
499.53	343.15
499.89	347.50
500.26	352.01
500.62	356.68
500.98	361.61
501.34	366.68
501.71	371.99
502.07	377.43
502.43	383.02
502.79	388.88
503.16	394.91
503.52	401.16
503.88	407.52
504.24	414.15
504.60	421.02
504.97	428.07
505.33	435.44
505.69	443.21
506.05	451.06
506.41	458.93
506.78	467.15
507.14	475.57
507.50	484.31
507.86	493.31
508.22	502.50
508.59	511.75
508.95	521.37
509.31	531.14
509.67	541.24
510.03	551.56
510.39	562.08
510.75	572.93
511.12	583.95
511.48	595.25
511.84	606.71
512.20	618.29
512.56	630.27
512.92	642.47
513.28	654.80
513.64	667.31
514.00	680.10
514.37	693.00
514.73	706.10
515.09	719.12
515.45	732.46
515.81	746.07
516.17	760.00
516.53	774.11
516.89	788.34
517.25	802.54
517.61	816.97
517.97	831.47
518.33	845.87
518.69	860.63
519.05	875.66
519.41	890.84
519.77	906.38
520.13	921.92
520.49	937.27
520.85	952.81
521.21	968.45
521.57	984.65
521.93	1000.60
522.29	1017.02
522.65	1033.41
523.01	1049.66
523.37	1065.75
523.73	1082.01
524.09	1098.09
524.45	1114.38
524.81	1130.95
525.17	1147.89
525.53	1164.71
525.89	1181.69
526.25	1198.55
526.61	1215.05
526.97	1231.88
527.33	1248.40
527.68	1265.10
528.04	1281.73
528.40	1298.40
528.76	1315.54
529.12	1332.33
529.48	1349.18
529.84	1365.33
530.20	1381.98
530.56	1399.05
530.91	1416.53
531.27	1433.38
531.63	1450.01
531.99	1466.74
532.35	1482.91
532.71	1498.79
533.07	1515.21
533.42	1531.18
533.78	1547.36
534.14	1563.72
534.50	1579.10
534.86	1595.08
535.21	1610.26
535.57	1626.16
535.93	1641.63
536.29	1656.57
536.65	1671.65
537.00	1686.47
537.36	1701.82
537.72	1716.45
538.08	1730.96
538.44	1744.82
538.79	1758.83
539.15	1772.72
539.51	1786.52
539.87	1800.94
540.22	1814.69
540.58	1828.56
540.94	1841.99
541.29	1854.97
541.65	1867.68
542.01	1881.04
542.37	1893.44
542.72	1905.99
543.08	1917.87
543.44	1930.36
543.79	1941.65
544.15	1952.65
544.51	1964.07
544.87	1975.11
545.22	1985.82
545.58	1996.00
545.94	2005.81
546.29	2015.60
546.65	2025.39
547.01	2034.65
547.36	2043.41
547.72	2051.93
548.07	2059.89
548.43	2068.05
548.79	2076.07
549.14	2083.70
549.50	2091.04
549.86	2098.70
550.21	2106.01
550.57	2113.22
550.92	2119.81
551.28	2126.88
551.64	2134.06
551.99	2140.88
552.35	2146.99
552.70	2153.12
553.06	2159.03
553.41	2165.40
553.77	2171.45
554.13	2177.45
554.48	2183.65
554.84	2189.11
555.19	2194.66
555.55	2199.76
555.90	2204.19
556.26	2209.13
556.61	2213.84
556.97	2217.96
557.32	2222.13
557.68	2226.23
558.03	2230.55
558.39	2234.24
558.74	2238.87
559.10	2242.56
559.45	2246.01
559.81	2250.26
560.16	2254.14
560.52	2257.54
560.87	2260.87
561.23	2263.53
561.58	2266.45
561.94	2268.91
562.29	2271.31
562.64	2273.87
563.00	2276.49
563.35	2280.11
563.71	2283.12
564.06	2286.34
564.42	2289.27
564.77	2291.65
565.12	2293.80
565.48	2295.59
565.83	2297.36
566.19	2298.51
566.54	2299.59
566.89	2300.80
567.25	2301.36
567.60	2302.65
567.96	2304.24
568.31	2305.04
568.66	2306.10
569.02	2306.61
569.37	2306.80
569.72	2307.46
570.08	2307.43
570.43	2307.35
570.78	2306.67
571.14	2305.09
571.49	2303.54
571.84	2303.06
572.20	2301.83
572.55	2300.79
572.90	2299.13
573.26	2297.68
573.61	2295.98
573.96	2294.02
574.31	2291.02
574.67	2288.06
575.02	2284.35
575.37	2280.77
575.72	2276.90
576.08	2273.64
576.43	2270.35
576.78	2266.61
577.13	2263.43
577.49	2260.24
577.84	2256.62
578.19	2252.79
578.54	2248.93
578.90	2244.67
579.25	2239.16
579.60	2234.16
579.95	2229.18
580.30	2224.16
580.66	2219.02
581.01	2214.03
581.36	2209.03
581.71	2204.73
582.06	2200.04
582.42	2195.56
582.77	2190.31
583.12	2185.63
583.47	2180.50
583.82	2175.24
584.17	2169.94
584.53	2164.33
584.88	2158.57
585.23	2152.63
585.58	2146.97
585.93	2141.55
586.28	2136.72
586.63	2131.50
586.98	2126.31
587.34	2121.47
587.69	2116.55
588.04	2111.20
588.39	2105.36
588.74	2098.74
589.09	2092.53
589.44	2085.71
589.79	2079.52
590.14	2073.80
590.49	2067.12
590.84	2060.72
591.19	2054.75
591.54	2048.27
591.89	2040.68
592.25	2033.78
592.60	2026.66
592.95	2019.02
593.30	2011.62
593.65	2003.86
594.00	1996.87
594.35	1989.68
594.70	1981.52
595.05	1974.13
595.40	1966.65
595.75	1959.15
596.10	1952.90
596.45	1945.89
596.80	1939.64
597.15	1932.91
597.50	1925.66
597.85	1919.27
598.19	1912.51
598.54	1905.30
598.89	1898.47
599.24	1892.65
599.59	1886.02
599.94	1879.71
600.29	1873.39
600.64	1866.76
600.99	1859.34
601.34	1852.36
601.69	1845.28
602.04	1838.26
602.39	1830.86
602.74	1824.08
603.08	1817.10
603.43	1810.37
603.78	1803.12
604.13	1795.79
604.48	1788.45
604.83	1781.62
605.18	1774.48
605.53	1766.54
605.87	1758.52
606.22	1751.36
606.57	1743.39
606.92	1736.00
607.27	1728.78
607.62	1721.79
607.96	1714.41
608.31	1707.63
608.66	1699.92
609.01	1692.35
609.36	1684.74
609.70	1676.62
610.05	1668.40
610.40	1660.73
610.75	1652.38
611.10	1644.77
611.44	1636.52
611.79	1628.60
612.14	1620.01
612.49	1611.03
612.83	1602.63
613.18	1594.44
613.53	1586.36
613.88	1577.77
614.22	1569.44
614.57	1560.87
614.92	1552.88
615.27	1545.33
615.61	1537.13
615.96	1529.21
616.31	1521.68
616.65	1514.39
617.00	1506.86
617.35	1499.28
617.70	1491.02
618.04	1482.43
618.39	1474.24
618.74	1466.60
619.08	1458.27
619.43	1450.67
619.78	1443.60
620.12	1436.41
620.47	1429.02
620.82	1420.86
621.16	1413.59
621.51	1406.05
621.85	1398.42
622.20	1389.86
622.55	1381.51
622.89	1373.62
623.24	1366.07
623.59	1358.61
623.93	1351.16
624.28	1343.97
624.62	1336.45
624.97	1329.30
625.32	1322.67
625.66	1315.55
626.01	1308.26
626.35	1300.81
626.70	1293.06
627.04	1285.47
627.39	1277.70
627.73	1270.21
628.08	1263.21
628.43	1255.84
628.77	1248.38
629.12	1240.85
629.46	1233.63
629.81	1226.25
630.15	1218.97
630.50	1211.48
630.84	1203.35
631.19	1195.44
631.53	1187.96
631.88	1180.44
632.22	1172.78
632.57	1165.43
632.91	1157.99
633.26	1150.68
633.60	1143.41
633.95	1136.30
634.29	1129.31
634.64	1122.76
634.98	1115.29
635.32	1108.25
635.67	1101.70
636.01	1095.15
636.36	1088.30
636.70	1081.86
637.05	1075.32
637.39	1069.00
637.73	1062.52
638.08	1056.55
638.42	1050.65
638.77	1044.23
639.11	1037.57
639.45	1031.16
639.80	1024.54
640.14	1018.08
640.49	1011.51
640.83	1005.25
641.17	999.03
641.52	992.68
641.86	986.22
642.20	980.50
642.55	974.19
642.89	967.61
643.23	961.09
643.58	955.27
643.92	949.11
644.26	942.99
644.61	936.99
644.95	930.96
645.29	924.35
645.64	917.52
645.98	911.18
646.32	905.34
646.66	899.35
647.01	893.47
647.35	887.75
647.69	881.96
648.04	876.44
648.38	870.72
648.72	864.58
649.06	858.46
649.41	852.63
649.75	846.63
650.09	840.72
650.43	834.87
650.78	828.77
651.12	822.75
651.46	816.99
651.80	811.16
652.14	805.77
652.49	800.46
652.83	795.27
653.17	789.51
653.51	783.91
653.85	778.52
654.20	772.89
654.54	766.93
654.88	761.23
655.22	755.28
655.56	749.56
655.90	744.20
656.25	738.95
656.59	733.55
656.93	728.51
657.27	723.38
657.61	717.99
657.95	712.91
658.29	707.89
658.64	702.71
658.98	697.41
659.32	691.98
659.66	686.75
660.00	681.49
660.34	676.66
660.68	671.70
661.02	666.75
661.36	662.09
661.70	657.62
662.05	653.20
662.39	648.89
662.73	644.44
663.07	640.10
663.41	635.69
663.75	631.18
664.09	626.54
664.43	622.19
664.77	618.07
665.11	613.83
665.45	609.76
665.79	605.69
666.13	601.62
666.47	597.45
666.81	593.34
667.15	589.19
667.49	585.26
667.83	581.49
668.17	577.58
668.51	573.50
668.85	569.49
669.19	565.63
669.53	561.75
669.87	557.89
670.21	554.19
670.55	550.51
670.89	547.15
671.23	543.75
671.57	540.24
671.91	536.71
672.25	533.22
672.58	529.65
672.92	526.32
673.26	523.17
673.60	520.15
673.94	517.06
674.28	514.20
674.62	511.27
674.96	508.16
675.30	505.25
675.64	502.38
675.97	499.61
676.31	496.77
676.65	493.87
676.99	491.17
677.33	488.26
677.67	485.49
678.01	482.46
678.34	479.51
678.68	476.64
679.02	473.82
679.36	471.07
679.70	468.37
680.04	465.56
680.37	462.65
680.71	459.80
681.05	457.21
681.39	454.48
681.73	451.82
682.06	449.29
682.40	446.70
682.74	444.16
683.08	441.59
683.42	439.05
683.75	436.58
684.09	434.03
684.43	431.65
684.77	429.18
685.10	426.82
685.44	424.53
685.78	422.24
686.12	420.04
686.45	417.79
686.79	415.48
687.13	413.28
687.46	411.15
687.80	409.01
688.14	406.81
688.48	404.72
688.81	402.47
689.15	400.36
689.49	398.28
689.82	396.23
690.16	394.19
690.50	392.24
690.83	390.29
691.17	388.34
691.51	386.40
691.84	384.56
692.18	382.63
692.52	380.62
692.85	378.71
693.19	376.85
693.52	375.02
693.86	373.24
694.20	371.50
694.53	369.69
694.87	367.89
695.21	366.14
695.54	364.32
695.88	362.62
696.21	360.89
696.55	359.20
696.88	357.51
697.22	355.84
697.56	354.20
697.89	352.52
698.23	350.92
698.56	349.34
698.90	347.77
699.23	346.10
699.57	344.61
699.90	343.09
700.24	341.53
700.58	340.01
700.91	338.52
701.25	337.09
701.58	335.72
701.92	334.32
702.25	332.92
702.59	331.59
702.92	330.31
703.26	329.00
703.59	327.67
703.93	326.51
704.26	325.31
704.60	324.01
704.93	322.79
705.26	321.53
705.60	320.34
705.93	319.20
706.27	318.23
706.60	317.18
706.94	316.09
707.27	314.96
707.61	313.88
707.94	312.89
708.27	311.78
708.61	310.69
708.94	309.72
709.28	308.74
709.61	307.77
709.94	306.81
710.28	305.76
710.61	304.81
710.95	303.70
711.28	302.79
711.61	301.86
711.95	300.91
712.28	299.92
712.61	298.96
712.95	298.00
713.28	297.08
713.61	296.20
713.95	295.27
714.28	294.45
714.61	293.58
714.95	292.70
715.28	291.90
715.61	291.02
715.95	290.16
716.28	289.28
716.61	288.46
716.95	287.65
717.28	286.95
717.61	286.18
717.94	285.48
718.28	284.64
718.61	283.91
718.94	283.24
719.27	282.61
719.61	281.94
719.94	281.30
720.27	280.60
720.60	279.90
720.94	279.32
721.27	278.74
721.60	278.18
721.93	277.60
722.27	277.03
722.60	276.53
722.93	275.93
723.26	275.41
723.59	274.83
723.93	274.30
724.26	273.70
724.59	273.18
724.92	272.63
725.25	272.16
725.59	271.62
725.92	271.12
726.25	270.61
726.58	270.13
726.91	269.67
727.24	269.22
727.57	268.77
727.91	268.27
728.24	267.78
728.57	267.32
728.90	266.85
729.23	266.35
729.56	265.92
729.89	265.48
730.22	264.99
730.55	264.55
730.89	264.10
731.22	263.72
731.55	263.28
731.88	262.89
732.21	262.47
732.54	262.05
732.87	261.60
733.20	261.22
733.53	260.88
733.86	260.49
734.19	260.07
734.52	259.71
734.85	259.39
735.18	258.99
735.51	258.61
735.84	258.27
736.17	257.92
736.50	257.51
736.83	257.28
737.16	256.95
737.49	256.63
737.82	256.24
738.15	255.89
738.48	255.56
738.81	255.19
739.14	254.85
739.47	254.56
739.80	254.26
740.13	253.96
740.46	253.63
740.79	253.25
741.12	252.95
741.45	252.62
741.78	252.28
742.11	251.97
742.44	251.66
742.77	251.34
743.10	251.06
743.43	250.74
743.75	250.37
744.08	250.24
744.41	249.91
744.74	249.65
745.07	249.37
745.40	249.13
745.73	248.93
746.06	248.63
746.39	248.35
746.71	248.09
747.04	247.80
747.37	247.53
747.70	247.34
748.03	247.09
748.36	246.85
748.68	246.62
749.01	246.37
749.34	246.16
749.67	245.91
750.00	245.70
750.33	245.57
750.65	245.32
750.98	244.95
751.31	244.77
751.64	244.57
751.97	244.40
752.29	244.15
752.62	243.88
752.95	243.70
753.28	243.52
753.60	243.30
753.93	243.11
754.26	242.90
754.59	242.67
754.91	242.47
755.24	242.28
755.57	242.08
755.90	241.92
756.22	241.72
756.55	241.53
756.88	241.31
757.20	241.04
757.53	240.86
757.86	240.74
758.19	240.56
758.51	240.40
758.84	240.17
759.17	240.03
759.49	239.88
759.82	239.74
760.15	239.54
760.47	239.40
760.80	239.25
761.13	239.12
761.45	238.97
761.78	238.83
762.11	238.67
762.43	238.52
762.76	238.37
763.08	238.25
763.41	238.14
763.74	237.99
764.06	237.85
764.39	237.71
764.71	237.51
765.04	237.38
765.37	237.23
765.69	237.12
766.02	236.97
766.34	236.86
766.67	236.71
767.00	236.66
767.32	236.61
767.65	236.55
767.97	236.43
768.30	236.30
768.62	236.18
768.95	236.07
769.27	235.97
769.60	235.85
769.92	235.71
770.25	235.58
770.57	235.47
770.90	235.39
771.22	235.25
771.55	235.18
771.87	235.08
772.20	234.98
772.52	234.98
772.85	235.00
773.17	234.89
773.50	234.78
773.82	234.68
774.15	234.54
774.47	234.37
774.80	234.28
775.12	234.22
775.45	234.13
775.77	234.05
776.09	233.96
776.42	233.90
776.74	233.88
777.07	233.81
777.39	233.75
777.72	233.66
778.04	233.65
778.36	233.56
778.69	233.51
779.01	233.46
779.33	233.31
779.66	233.14
779.98	233.07
780.31	233.02
780.63	232.95
780.95	232.91
781.28	232.86
781.60	232.79
781.92	232.73
782.25	232.71
782.57	232.65
782.89	232.62
783.22	232.54
783.54	232.44
783.86	232.39
784.19	232.33
784.51	232.31
784.83	232.23
785.16	232.19
785.48	232.12
785.80	232.06
786.12	231.99
786.45	231.96
786.77	231.89
787.09	231.87
