SpectraSuite Data File
++++++++++++++++++++++++++++++++++++
Date: Fri Feb 01 16:04:30 EST 2013
User: group
Dark Spectrum Present: No
Reference Spectrum Present: No
Number of Sampled Component Spectra: 1
Spectrometers: USB2E7196
Integration Time (usec): 35000 (USB2E7196)
Spectra Averaged: 100 (USB2E7196)
Boxcar Smoothing: 10 (USB2E7196)
Correct for Electrical Dark: No (USB2E7196)
Strobe/Lamp Enabled: No (USB2E7196)
Correct for Detector Non-linearity: No (USB2E7196)
Correct for Stray Light: No (USB2E7196)
Number of Pixels in Processed Spectrum: 2048
>>>>>Begin Processed Spectral Data<<<<<
339.09	0.00
339.48	215.08
339.86	216.30
340.24	218.09
340.63	219.08
341.01	222.38
341.39	221.97
341.78	223.30
342.16	223.95
342.54	225.12
342.93	213.33
343.31	224.09
343.69	224.67
344.07	225.13
344.46	225.56
344.84	225.95
345.22	226.14
345.60	226.41
345.99	226.59
346.37	226.73
346.75	226.82
347.13	226.87
347.52	226.91
347.90	226.93
348.28	226.93
348.66	226.97
349.05	226.97
349.43	227.00
349.81	227.03
350.19	227.06
350.57	227.12
350.96	227.20
351.34	227.27
351.72	227.28
352.10	227.38
352.48	227.42
352.87	227.45
353.25	227.53
353.63	227.58
354.01	227.64
354.39	227.74
354.77	227.79
355.15	227.90
355.54	227.98
355.92	228.02
356.30	228.07
356.68	228.16
357.06	228.22
357.44	228.24
357.82	228.31
358.20	228.37
358.58	228.44
358.97	228.48
359.35	228.54
359.73	228.61
360.11	228.63
360.49	228.66
360.87	228.70
361.25	228.75
361.63	228.79
362.01	228.84
362.39	228.83
362.77	228.85
363.15	228.86
363.53	228.88
363.91	228.94
364.29	228.96
364.67	228.91
365.05	228.94
365.43	228.96
365.81	228.99
366.19	229.01
366.57	229.04
366.95	229.02
367.33	229.02
367.71	229.01
368.09	229.03
368.47	229.03
368.85	228.99
369.23	228.97
369.61	228.92
369.99	228.90
370.37	228.88
370.75	228.91
371.13	228.84
371.51	228.77
371.89	228.70
372.27	228.67
372.65	228.61
373.03	228.56
373.41	228.50
373.78	228.45
374.16	228.35
374.54	228.28
374.92	228.21
375.30	228.15
375.68	228.07
376.06	228.00
376.44	227.93
376.82	227.89
377.19	227.80
377.57	227.71
377.95	227.61
378.33	227.54
378.71	227.44
379.09	227.42
379.47	227.37
379.84	227.28
380.22	227.18
380.60	227.10
380.98	227.03
381.36	226.98
381.73	226.87
382.11	226.84
382.49	226.75
382.87	226.70
383.25	226.65
383.62	226.66
384.00	226.60
384.38	226.55
384.76	226.54
385.13	226.53
385.51	226.49
385.89	226.42
386.27	226.38
386.64	226.29
387.02	226.21
387.40	226.16
387.78	226.16
388.15	226.16
388.53	226.13
388.91	226.09
389.29	226.04
389.66	226.06
390.04	226.02
390.42	226.03
390.79	226.01
391.17	225.98
391.55	225.92
391.92	225.91
392.30	225.92
392.68	225.88
393.05	225.88
393.43	225.90
393.81	225.95
394.18	225.94
394.56	225.99
394.94	226.06
395.31	226.07
395.69	226.12
396.06	226.16
396.44	226.21
396.82	226.23
397.19	226.35
397.57	226.33
397.95	226.38
398.32	226.40
398.70	226.48
399.07	226.58
399.45	226.61
399.82	226.69
400.20	226.73
400.58	226.82
400.95	226.86
401.33	226.97
401.70	227.11
402.08	227.21
402.45	227.30
402.83	227.41
403.20	227.51
403.58	227.60
403.95	227.71
404.33	227.85
404.71	227.98
405.08	228.13
405.46	228.27
405.83	228.46
406.21	228.65
406.58	228.80
406.96	228.99
407.33	229.21
407.70	229.39
408.08	229.65
408.45	229.87
408.83	230.11
409.20	230.32
409.58	230.46
409.95	230.73
410.33	231.00
410.70	231.22
411.08	231.53
411.45	231.86
411.82	232.19
412.20	232.52
412.57	232.95
412.95	233.27
413.32	233.68
413.69	234.08
414.07	234.49
414.44	234.96
414.82	235.38
415.19	235.93
415.56	236.47
415.94	237.02
416.31	237.68
416.68	238.30
417.06	239.02
417.43	239.74
417.81	240.49
418.18	241.28
418.55	242.14
418.93	243.00
419.30	243.87
419.67	244.78
420.04	245.74
420.42	246.73
420.79	247.91
421.16	249.05
421.54	250.23
421.91	251.47
422.28	252.72
422.66	254.06
423.03	255.33
423.40	256.68
423.77	258.06
424.15	259.46
424.52	260.93
424.89	262.53
425.26	264.07
425.64	265.52
426.01	267.09
426.38	268.70
426.75	270.39
427.13	272.14
427.50	273.97
427.87	275.83
428.24	277.69
428.61	279.45
428.99	281.42
429.36	283.46
429.73	285.46
430.10	287.48
430.47	289.53
430.85	291.62
431.22	293.82
431.59	296.21
431.96	298.45
432.33	300.96
432.70	303.31
433.08	306.11
433.45	308.74
433.82	311.33
434.19	314.26
434.56	317.10
434.93	319.73
435.30	322.30
435.68	325.20
436.05	328.06
436.42	330.84
436.79	333.35
437.16	336.10
437.53	339.00
437.90	341.83
438.27	344.58
438.64	347.44
439.01	350.01
439.38	352.27
439.75	354.45
440.13	356.92
440.50	359.27
440.87	361.11
441.24	363.08
441.61	365.27
441.98	366.75
442.35	368.49
442.72	370.34
443.09	372.20
443.46	373.20
443.83	373.75
444.20	374.25
444.57	375.08
444.94	375.32
445.31	375.60
445.68	375.97
446.05	376.02
446.42	375.60
446.79	375.24
447.16	374.80
447.53	374.42
447.90	373.29
448.27	372.14
448.64	370.58
449.01	369.43
449.37	367.41
449.74	365.52
450.11	363.29
450.48	360.80
450.85	358.23
451.22	356.09
451.59	354.08
451.96	352.11
452.33	349.52
452.70	347.16
453.07	344.36
453.43	341.43
453.80	338.66
454.17	336.02
454.54	333.47
454.91	330.74
455.28	328.10
455.65	325.61
456.02	323.14
456.38	320.98
456.75	318.29
457.12	316.05
457.49	313.81
457.86	311.61
458.23	309.77
458.59	307.72
458.96	305.60
459.33	303.75
459.70	301.87
460.07	300.36
460.43	298.67
460.80	297.02
461.17	295.55
461.54	294.05
461.91	292.64
462.27	291.19
462.64	289.93
463.01	288.62
463.38	287.32
463.74	285.98
464.11	284.81
464.48	283.82
464.85	282.71
465.21	281.87
465.58	280.99
465.95	279.89
466.32	279.03
466.68	278.15
467.05	277.24
467.42	276.36
467.78	275.44
468.15	274.55
468.52	273.93
468.88	273.11
469.25	272.38
469.62	271.77
469.98	271.12
470.35	270.52
470.72	269.88
471.08	269.22
471.45	268.70
471.82	268.19
472.18	267.60
472.55	267.19
472.92	266.65
473.28	266.19
473.65	265.76
474.02	265.27
474.38	264.90
474.75	264.59
475.11	264.28
475.48	264.03
475.85	263.84
476.21	263.61
476.58	263.38
476.94	263.21
477.31	263.02
477.67	262.86
478.04	262.73
478.41	262.67
478.77	262.70
479.14	262.64
479.50	262.61
479.87	262.68
480.23	262.77
480.60	262.85
480.96	262.95
481.33	263.15
481.69	263.39
482.06	263.60
482.42	263.79
482.79	264.05
483.15	264.34
483.52	264.69
483.88	265.01
484.25	265.41
484.61	265.86
484.98	266.27
485.34	266.83
485.71	267.37
486.07	267.96
486.44	268.53
486.80	269.22
487.17	269.95
487.53	270.75
487.90	271.57
488.26	272.50
488.62	273.48
488.99	274.46
489.35	275.48
489.72	276.61
490.08	277.82
490.44	279.03
490.81	280.36
491.17	281.73
491.54	283.24
491.90	284.78
492.26	286.38
492.63	288.13
492.99	289.91
493.36	291.87
493.72	293.99
494.08	296.06
494.45	298.34
494.81	300.74
495.17	303.19
495.54	305.75
495.90	308.42
496.26	311.26
496.63	314.24
496.99	317.38
497.35	320.65
497.72	324.05
498.08	327.55
498.44	331.26
498.80	335.21
499.17	339.27
499.53	343.47
499.89	347.87
500.26	352.43
500.62	357.11
500.98	362.03
501.34	367.08
501.71	372.44
502.07	377.92
502.43	383.55
502.79	389.38
503.16	395.51
503.52	401.81
503.88	408.23
504.24	414.90
504.60	421.80
504.97	428.96
505.33	436.24
505.69	443.96
506.05	451.72
506.41	459.64
506.78	467.84
507.14	476.28
507.50	485.01
507.86	494.09
508.22	503.28
508.59	512.55
508.95	522.17
509.31	532.03
509.67	542.10
510.03	552.43
510.39	563.01
510.75	573.84
511.12	584.81
511.48	596.13
511.84	607.54
512.20	619.06
512.56	631.03
512.92	643.24
513.28	655.69
513.64	668.17
514.00	680.83
514.37	693.82
514.73	706.94
515.09	720.06
515.45	733.36
515.81	747.01
516.17	761.03
516.53	775.14
516.89	789.34
517.25	803.52
517.61	817.88
517.97	832.26
518.33	846.66
518.69	861.47
519.05	876.38
519.41	891.61
519.77	907.20
520.13	922.62
520.49	938.09
520.85	953.45
521.21	969.19
521.57	985.48
521.93	1001.17
522.29	1017.56
522.65	1033.75
523.01	1050.01
523.37	1066.06
523.73	1082.22
524.09	1098.37
524.45	1114.58
524.81	1131.14
525.17	1147.96
525.53	1164.85
525.89	1181.72
526.25	1198.45
526.61	1214.86
526.97	1231.63
527.33	1248.02
527.68	1264.65
528.04	1281.06
528.40	1297.63
528.76	1314.77
529.12	1331.31
529.48	1348.16
529.84	1364.13
530.20	1380.69
530.56	1397.56
530.91	1414.87
531.27	1431.63
531.63	1448.01
531.99	1464.65
532.35	1480.59
532.71	1496.47
533.07	1512.76
533.42	1528.64
533.78	1544.66
534.14	1560.94
534.50	1576.10
534.86	1591.94
535.21	1606.99
535.57	1622.84
535.93	1638.29
536.29	1652.93
536.65	1667.89
537.00	1682.65
537.36	1697.83
537.72	1712.25
538.08	1726.56
538.44	1740.21
538.79	1753.92
539.15	1767.49
539.51	1781.15
539.87	1795.55
540.22	1809.14
540.58	1822.67
540.94	1835.71
541.29	1848.48
541.65	1861.00
542.01	1874.18
542.37	1886.33
542.72	1898.64
543.08	1910.37
543.44	1922.76
543.79	1933.82
544.15	1944.74
544.51	1956.06
544.87	1967.00
545.22	1977.90
545.58	1988.13
545.94	1997.82
546.29	2007.64
546.65	2017.51
547.01	2026.67
547.36	2035.23
547.72	2043.80
548.07	2051.86
548.43	2060.23
548.79	2068.32
549.14	2075.93
549.50	2083.28
549.86	2091.01
550.21	2098.36
550.57	2105.56
550.92	2112.18
551.28	2119.41
551.64	2126.58
551.99	2133.33
552.35	2139.52
552.70	2145.54
553.06	2151.54
553.41	2158.09
553.77	2164.16
554.13	2170.19
554.48	2176.46
554.84	2182.17
555.19	2187.42
555.55	2192.50
555.90	2197.01
556.26	2201.92
556.61	2206.68
556.97	2210.97
557.32	2215.12
557.68	2219.35
558.03	2223.71
558.39	2227.36
558.74	2232.00
559.10	2235.90
559.45	2239.55
559.81	2243.85
560.16	2247.84
560.52	2251.14
560.87	2254.51
561.23	2257.21
561.58	2260.27
561.94	2262.78
562.29	2264.96
562.64	2267.75
563.00	2270.32
563.35	2273.88
563.71	2276.91
564.06	2280.09
564.42	2282.98
564.77	2285.62
565.12	2287.98
565.48	2289.91
565.83	2291.90
566.19	2293.10
566.54	2293.80
566.89	2294.90
567.25	2295.46
567.60	2296.70
567.96	2298.34
568.31	2299.17
568.66	2300.31
569.02	2300.90
569.37	2301.16
569.72	2302.07
570.08	2302.07
570.43	2302.27
570.78	2301.63
571.14	2300.12
571.49	2298.72
571.84	2298.27
572.20	2297.13
572.55	2296.01
572.90	2294.41
573.26	2292.91
573.61	2291.30
573.96	2289.48
574.31	2286.54
574.67	2283.57
575.02	2279.99
575.37	2276.58
575.72	2272.77
576.08	2269.47
576.43	2266.00
576.78	2262.42
577.13	2259.46
577.49	2256.50
577.84	2252.93
578.19	2249.21
578.54	2245.58
578.90	2241.35
579.25	2235.99
579.60	2230.99
579.95	2226.05
580.30	2220.90
580.66	2215.66
581.01	2210.68
581.36	2206.12
581.71	2201.97
582.06	2197.54
582.42	2193.11
582.77	2187.94
583.12	2183.53
583.47	2178.79
583.82	2173.97
584.17	2168.71
584.53	2163.01
584.88	2157.34
585.23	2151.64
585.58	2146.17
585.93	2140.78
586.28	2136.20
586.63	2131.06
586.98	2126.07
587.34	2121.26
587.69	2116.47
588.04	2111.40
588.39	2105.70
588.74	2099.12
589.09	2092.95
589.44	2086.24
589.79	2080.12
590.14	2074.46
590.49	2067.81
590.84	2061.46
591.19	2055.42
591.54	2049.00
591.89	2041.74
592.25	2034.94
592.60	2027.80
592.95	2020.22
593.30	2012.95
593.65	2005.28
594.00	1998.20
594.35	1990.93
594.70	1982.90
595.05	1975.85
595.40	1968.60
595.75	1961.17
596.10	1954.97
596.45	1948.30
596.80	1942.21
597.15	1935.74
597.50	1928.73
597.85	1922.31
598.19	1915.59
598.54	1908.39
598.89	1901.64
599.24	1895.70
599.59	1889.07
599.94	1882.70
600.29	1876.38
600.64	1869.80
600.99	1862.51
601.34	1855.81
601.69	1848.87
602.04	1842.10
602.39	1834.63
602.74	1827.69
603.08	1820.94
603.43	1814.24
603.78	1806.84
604.13	1799.55
604.48	1792.14
604.83	1785.20
605.18	1778.24
605.53	1770.22
605.87	1762.12
606.22	1754.96
606.57	1746.79
606.92	1739.33
607.27	1732.05
607.62	1725.02
607.96	1717.63
608.31	1710.74
608.66	1703.10
609.01	1695.43
609.36	1687.71
609.70	1679.66
610.05	1671.54
610.40	1663.82
610.75	1655.45
611.10	1647.72
611.44	1639.25
611.79	1631.15
612.14	1622.38
612.49	1613.23
612.83	1604.80
613.18	1596.71
613.53	1588.54
613.88	1580.14
614.22	1571.85
614.57	1563.29
614.92	1555.37
615.27	1547.81
615.61	1539.64
615.96	1531.63
616.31	1524.07
616.65	1516.80
617.00	1509.25
617.35	1501.62
617.70	1493.31
618.04	1484.89
618.39	1476.72
618.74	1469.13
619.08	1460.98
619.43	1453.44
619.78	1446.53
620.12	1439.44
620.47	1432.04
620.82	1423.85
621.16	1416.37
621.51	1408.83
621.85	1401.31
622.20	1392.79
622.55	1384.43
622.89	1376.49
623.24	1368.69
623.59	1361.32
623.93	1353.78
624.28	1346.63
624.62	1339.12
624.97	1331.94
625.32	1325.11
625.66	1318.12
626.01	1311.00
626.35	1303.53
626.70	1295.89
627.04	1288.16
627.39	1280.38
627.73	1272.97
628.08	1266.08
628.43	1258.83
628.77	1251.44
629.12	1243.75
629.46	1236.59
629.81	1229.24
630.15	1222.06
630.50	1214.72
630.84	1206.38
631.19	1198.39
631.53	1190.81
631.88	1183.28
632.22	1175.64
632.57	1168.34
632.91	1160.85
633.26	1153.43
633.60	1145.99
633.95	1138.87
634.29	1131.78
634.64	1125.10
634.98	1117.74
635.32	1110.64
635.67	1104.06
636.01	1097.44
636.36	1090.68
636.70	1084.12
637.05	1077.46
637.39	1071.02
637.73	1064.52
638.08	1058.80
638.42	1052.88
638.77	1046.40
639.11	1039.84
639.45	1033.51
639.80	1026.82
640.14	1020.46
640.49	1013.90
640.83	1007.67
641.17	1001.37
641.52	994.98
641.86	988.43
642.20	982.58
642.55	976.29
642.89	969.81
643.23	963.24
643.58	957.58
643.92	951.39
644.26	945.40
644.61	939.31
644.95	933.33
645.29	926.67
645.64	919.91
645.98	913.53
646.32	907.65
646.66	901.59
647.01	895.84
647.35	890.06
647.69	884.16
648.04	878.53
648.38	872.74
648.72	866.80
649.06	860.87
649.41	855.01
649.75	849.00
650.09	843.03
650.43	837.27
650.78	831.00
651.12	825.13
651.46	819.42
651.80	813.66
652.14	808.27
652.49	802.94
652.83	797.77
653.17	792.13
653.51	786.37
653.85	780.94
654.20	775.32
654.54	769.28
654.88	763.56
655.22	757.73
655.56	752.07
655.90	746.59
656.25	741.27
656.59	735.85
656.93	730.75
657.27	725.61
657.61	720.10
657.95	715.05
658.29	709.85
658.64	704.53
658.98	699.23
659.32	693.73
659.66	688.53
660.00	683.18
660.34	678.25
660.68	673.36
661.02	668.31
661.36	663.54
661.70	659.03
662.05	654.63
662.39	650.30
662.73	645.77
663.07	641.47
663.41	637.00
663.75	632.49
664.09	627.88
664.43	623.55
664.77	619.50
665.11	615.25
665.45	611.14
665.79	607.06
666.13	602.94
666.47	598.84
666.81	594.64
667.15	590.51
667.49	586.60
667.83	582.74
668.17	578.83
668.51	574.72
668.85	570.67
669.19	566.92
669.53	563.11
669.87	559.29
670.21	555.54
670.55	551.90
670.89	548.45
671.23	545.06
671.57	541.54
671.91	538.01
672.25	534.55
672.58	531.06
672.92	527.69
673.26	524.56
673.60	521.45
673.94	518.31
674.28	515.40
674.62	512.46
674.96	509.37
675.30	506.44
675.64	503.53
675.97	500.78
676.31	497.81
676.65	494.85
676.99	492.18
677.33	489.33
677.67	486.53
678.01	483.55
678.34	480.58
678.68	477.68
679.02	474.83
679.36	472.02
679.70	469.32
680.04	466.51
680.37	463.63
680.71	460.79
681.05	458.22
681.39	455.47
681.73	452.79
682.06	450.25
682.40	447.71
682.74	445.20
683.08	442.66
683.42	440.10
683.75	437.53
684.09	434.94
684.43	432.47
684.77	429.97
685.10	427.57
685.44	425.26
685.78	422.97
686.12	420.74
686.45	418.44
686.79	416.10
687.13	413.97
687.46	411.75
687.80	409.63
688.14	407.32
688.48	405.30
688.81	403.07
689.15	400.88
689.49	398.70
689.82	396.56
690.16	394.47
690.50	392.51
690.83	390.58
691.17	388.59
691.51	386.62
691.84	384.76
692.18	382.83
692.52	380.82
692.85	378.82
693.19	376.89
693.52	375.05
693.86	373.23
694.20	371.43
694.53	369.66
694.87	367.75
695.21	366.02
695.54	364.18
695.88	362.44
696.21	360.69
696.55	358.99
696.88	357.36
697.22	355.69
697.56	354.06
697.89	352.43
698.23	350.80
698.56	349.23
698.90	347.71
699.23	346.12
699.57	344.62
699.90	343.12
700.24	341.61
700.58	340.11
700.91	338.62
701.25	337.15
701.58	335.80
701.92	334.46
702.25	333.11
702.59	331.73
702.92	330.44
703.26	329.16
703.59	327.89
703.93	326.66
704.26	325.44
704.60	324.12
704.93	322.88
705.26	321.63
705.60	320.44
705.93	319.22
706.27	318.12
706.60	317.03
706.94	315.93
707.27	314.78
707.61	313.72
707.94	312.68
708.27	311.56
708.61	310.47
708.94	309.45
709.28	308.43
709.61	307.51
709.94	306.54
710.28	305.54
710.61	304.59
710.95	303.49
711.28	302.56
711.61	301.63
711.95	300.68
712.28	299.74
712.61	298.77
712.95	297.85
713.28	297.00
713.61	296.13
713.95	295.25
714.28	294.46
714.61	293.62
714.95	292.79
715.28	291.95
715.61	291.06
715.95	290.22
716.28	289.36
716.61	288.52
716.95	287.69
717.28	286.95
717.61	286.16
717.94	285.45
718.28	284.65
718.61	283.97
718.94	283.30
719.27	282.68
719.61	282.00
719.94	281.32
720.27	280.63
720.60	279.95
720.94	279.30
721.27	278.68
721.60	278.07
721.93	277.45
722.27	276.89
722.60	276.32
722.93	275.74
723.26	275.21
723.59	274.65
723.93	274.13
724.26	273.57
724.59	273.05
724.92	272.51
725.25	272.02
725.59	271.49
725.92	270.97
726.25	270.45
726.58	269.93
726.91	269.50
727.24	268.99
727.57	268.51
727.91	267.98
728.24	267.48
728.57	266.98
728.90	266.57
729.23	266.05
729.56	265.63
729.89	265.16
730.22	264.63
730.55	264.16
730.89	263.66
731.22	263.21
731.55	262.70
731.88	262.26
732.21	261.81
732.54	261.34
732.87	260.91
733.20	260.51
733.53	260.11
733.86	259.65
734.19	259.23
734.52	258.85
734.85	258.55
735.18	258.13
735.51	257.79
735.84	257.39
736.17	257.07
736.50	256.66
736.83	256.46
737.16	256.17
737.49	255.83
737.82	255.48
738.15	255.16
738.48	254.88
738.81	254.57
739.14	254.21
739.47	253.90
739.80	253.59
740.13	253.27
740.46	252.98
740.79	252.71
741.12	252.42
741.45	252.12
741.78	251.81
742.11	251.54
742.44	251.22
742.77	250.91
743.10	250.65
743.43	250.33
743.75	249.95
744.08	249.79
744.41	249.54
744.74	249.30
745.07	249.03
745.40	248.79
745.73	248.55
746.06	248.34
746.39	248.11
746.71	247.84
747.04	247.57
747.37	247.32
747.70	247.07
748.03	246.83
748.36	246.62
748.68	246.36
749.01	246.14
749.34	245.92
749.67	245.70
750.00	245.44
750.33	245.31
750.65	245.11
750.98	244.79
751.31	244.57
751.64	244.40
751.97	244.21
752.29	243.98
752.62	243.75
752.95	243.54
753.28	243.35
753.60	243.14
753.93	242.99
754.26	242.83
754.59	242.61
754.91	242.43
755.24	242.23
755.57	242.05
755.90	241.87
756.22	241.67
756.55	241.52
756.88	241.36
757.20	241.15
757.53	240.95
757.86	240.82
758.19	240.68
758.51	240.48
758.84	240.27
759.17	240.11
759.49	239.97
759.82	239.83
760.15	239.65
760.47	239.52
760.80	239.39
761.13	239.24
761.45	239.08
761.78	238.92
762.11	238.76
762.43	238.63
762.76	238.48
763.08	238.35
763.41	238.19
763.74	238.06
764.06	237.87
764.39	237.70
764.71	237.53
765.04	237.35
765.37	237.24
765.69	237.09
766.02	236.96
766.34	236.80
766.67	236.67
767.00	236.57
767.32	236.47
767.65	236.36
767.97	236.24
768.30	236.13
768.62	236.01
768.95	235.90
769.27	235.76
769.60	235.63
769.92	235.55
770.25	235.40
770.57	235.23
770.90	235.14
771.22	235.05
771.55	234.95
771.87	234.86
772.20	234.76
772.52	234.77
772.85	234.79
773.17	234.69
773.50	234.61
773.82	234.48
774.15	234.35
774.47	234.21
774.80	234.13
775.12	234.00
775.45	233.94
775.77	233.83
776.09	233.76
776.42	233.68
776.74	233.60
777.07	233.52
777.39	233.47
777.72	233.37
778.04	233.33
778.36	233.22
778.69	233.13
779.01	233.06
779.33	232.90
779.66	232.73
779.98	232.65
780.31	232.57
780.63	232.54
780.95	232.49
781.28	232.44
781.60	232.35
781.92	232.31
782.25	232.25
782.57	232.18
782.89	232.10
783.22	232.03
783.54	231.95
783.86	231.90
784.19	231.82
784.51	231.82
784.83	231.75
785.16	231.71
785.48	231.66
785.80	231.60
786.12	231.57
786.45	231.51
786.77	231.49
787.09	231.44
