SpectraSuite Data File
++++++++++++++++++++++++++++++++++++
Date: Fri Feb 01 14:49:37 EST 2013
User: group
Dark Spectrum Present: No
Reference Spectrum Present: No
Number of Sampled Component Spectra: 1
Spectrometers: USB2E7196
Integration Time (usec): 35000 (USB2E7196)
Spectra Averaged: 100 (USB2E7196)
Boxcar Smoothing: 10 (USB2E7196)
Correct for Electrical Dark: No (USB2E7196)
Strobe/Lamp Enabled: No (USB2E7196)
Correct for Detector Non-linearity: No (USB2E7196)
Correct for Stray Light: No (USB2E7196)
Number of Pixels in Processed Spectrum: 2048
>>>>>Begin Processed Spectral Data<<<<<
339.09	0.00
339.48	215.77
339.86	217.92
340.24	218.22
340.63	220.22
341.01	222.84
341.39	222.63
341.78	223.97
342.16	224.58
342.54	226.35
342.93	214.14
343.31	224.97
343.69	225.50
344.07	225.96
344.46	226.39
344.84	226.76
345.22	227.00
345.60	227.26
345.99	227.44
346.37	227.63
346.75	227.70
347.13	227.73
347.52	227.78
347.90	227.86
348.28	227.89
348.66	227.92
349.05	227.92
349.43	227.93
349.81	227.98
350.19	228.02
350.57	228.08
350.96	228.16
351.34	228.22
351.72	228.32
352.10	228.39
352.48	228.46
352.87	228.52
353.25	228.59
353.63	228.65
354.01	228.74
354.39	228.79
354.77	228.85
355.15	229.00
355.54	229.05
355.92	229.06
356.30	229.13
356.68	229.28
357.06	229.34
357.44	229.40
357.82	229.46
358.20	229.53
358.58	229.57
358.97	229.61
359.35	229.72
359.73	229.79
360.11	229.83
360.49	229.88
360.87	229.90
361.25	229.95
361.63	230.02
362.01	230.06
362.39	230.08
362.77	230.12
363.15	230.14
363.53	230.16
363.91	230.20
364.29	230.23
364.67	230.13
365.05	230.14
365.43	230.15
365.81	230.16
366.19	230.20
366.57	230.24
366.95	230.21
367.33	230.16
367.71	230.12
368.09	230.13
368.47	230.12
368.85	230.11
369.23	230.09
369.61	230.05
369.99	230.02
370.37	230.00
370.75	229.99
371.13	229.90
371.51	229.85
371.89	229.81
372.27	229.74
372.65	229.69
373.03	229.63
373.41	229.59
373.78	229.53
374.16	229.42
374.54	229.34
374.92	229.28
375.30	229.17
375.68	229.09
376.06	229.00
376.44	228.91
376.82	228.81
377.19	228.71
377.57	228.60
377.95	228.47
378.33	228.40
378.71	228.28
379.09	228.21
379.47	228.15
379.84	228.04
380.22	227.97
380.60	227.87
380.98	227.80
381.36	227.69
381.73	227.58
382.11	227.51
382.49	227.41
382.87	227.34
383.25	227.28
383.62	227.34
384.00	227.28
384.38	227.24
384.76	227.20
385.13	227.19
385.51	227.15
385.89	227.11
386.27	227.04
386.64	226.98
387.02	226.95
387.40	226.88
387.78	226.82
388.15	226.77
388.53	226.75
388.91	226.72
389.29	226.68
389.66	226.69
390.04	226.67
390.42	226.70
390.79	226.71
391.17	226.70
391.55	226.58
391.92	226.57
392.30	226.54
392.68	226.52
393.05	226.51
393.43	226.53
393.81	226.51
394.18	226.50
394.56	226.53
394.94	226.57
395.31	226.61
395.69	226.69
396.06	226.74
396.44	226.79
396.82	226.81
397.19	226.98
397.57	227.02
397.95	227.08
398.32	227.12
398.70	227.17
399.07	227.28
399.45	227.36
399.82	227.42
400.20	227.51
400.58	227.63
400.95	227.68
401.33	227.76
401.70	227.98
402.08	228.11
402.45	228.22
402.83	228.36
403.20	228.49
403.58	228.60
403.95	228.77
404.33	228.93
404.71	229.06
405.08	229.23
405.46	229.40
405.83	229.57
406.21	229.73
406.58	229.91
406.96	230.07
407.33	230.25
407.70	230.48
408.08	230.77
408.45	231.02
408.83	231.29
409.20	231.54
409.58	231.73
409.95	232.03
410.33	232.32
410.70	232.60
411.08	232.91
411.45	233.22
411.82	233.52
412.20	233.88
412.57	234.32
412.95	234.59
413.32	234.96
413.69	235.35
414.07	235.79
414.44	236.26
414.82	236.76
415.19	237.34
415.56	237.90
415.94	238.44
416.31	239.06
416.68	239.69
417.06	240.40
417.43	241.08
417.81	241.83
418.18	242.59
418.55	243.40
418.93	244.24
419.30	245.15
419.67	246.11
420.04	247.05
420.42	248.05
420.79	249.25
421.16	250.41
421.54	251.65
421.91	252.85
422.28	254.07
422.66	255.40
423.03	256.65
423.40	257.94
423.77	259.35
424.15	260.72
424.52	262.19
424.89	263.84
425.26	265.36
425.64	266.76
426.01	268.31
426.38	269.94
426.75	271.63
427.13	273.32
427.50	275.06
427.87	276.92
428.24	278.72
428.61	280.46
428.99	282.38
429.36	284.42
429.73	286.51
430.10	288.58
430.47	290.59
430.85	292.70
431.22	294.91
431.59	297.27
431.96	299.49
432.33	301.95
432.70	304.26
433.08	307.05
433.45	309.74
433.82	312.39
434.19	315.26
434.56	318.04
434.93	320.70
435.30	323.33
435.68	326.21
436.05	329.08
436.42	331.87
436.79	334.40
437.16	337.09
437.53	339.85
437.90	342.61
438.27	345.33
438.64	348.15
439.01	350.74
439.38	352.98
439.75	355.18
440.13	357.66
440.50	359.95
440.87	361.75
441.24	363.66
441.61	365.78
441.98	367.28
442.35	369.06
442.72	370.90
443.09	372.73
443.46	373.71
443.83	374.25
444.20	374.78
444.57	375.60
444.94	375.85
445.31	376.20
445.68	376.59
446.05	376.64
446.42	376.26
446.79	375.87
447.16	375.44
447.53	375.08
447.90	373.93
448.27	372.82
448.64	371.32
449.01	370.15
449.37	368.22
449.74	366.32
450.11	364.04
450.48	361.59
450.85	359.06
451.22	357.00
451.59	355.02
451.96	353.02
452.33	350.43
452.70	348.15
453.07	345.34
453.43	342.47
453.80	339.75
454.17	337.10
454.54	334.59
454.91	331.87
455.28	329.25
455.65	326.84
456.02	324.44
456.38	322.25
456.75	319.65
457.12	317.41
457.49	315.20
457.86	313.08
458.23	311.24
458.59	309.15
458.96	307.03
459.33	305.15
459.70	303.33
460.07	301.86
460.43	300.14
460.80	298.54
461.17	297.06
461.54	295.57
461.91	294.13
462.27	292.68
462.64	291.41
463.01	290.07
463.38	288.72
463.74	287.32
464.11	286.24
464.48	285.20
464.85	284.12
465.21	283.27
465.58	282.35
465.95	281.24
466.32	280.35
466.68	279.46
467.05	278.56
467.42	277.65
467.78	276.70
468.15	275.79
468.52	275.07
468.88	274.23
469.25	273.48
469.62	272.86
469.98	272.15
470.35	271.51
470.72	270.87
471.08	270.23
471.45	269.66
471.82	269.03
472.18	268.40
472.55	267.93
472.92	267.35
473.28	266.87
473.65	266.39
474.02	265.92
474.38	265.49
474.75	265.18
475.11	264.81
475.48	264.51
475.85	264.30
476.21	264.07
476.58	263.87
476.94	263.69
477.31	263.50
477.67	263.36
478.04	263.25
478.41	263.19
478.77	263.19
479.14	263.13
479.50	263.11
479.87	263.17
480.23	263.22
480.60	263.30
480.96	263.38
481.33	263.59
481.69	263.78
482.06	263.98
482.42	264.13
482.79	264.37
483.15	264.67
483.52	265.01
483.88	265.34
484.25	265.69
484.61	266.11
484.98	266.54
485.34	267.08
485.71	267.60
486.07	268.18
486.44	268.73
486.80	269.40
487.17	270.11
487.53	270.90
487.90	271.71
488.26	272.63
488.62	273.58
488.99	274.57
489.35	275.60
489.72	276.74
490.08	277.93
490.44	279.13
490.81	280.47
491.17	281.78
491.54	283.25
491.90	284.75
492.26	286.35
492.63	288.07
492.99	289.83
493.36	291.74
493.72	293.76
494.08	295.83
494.45	298.06
494.81	300.43
495.17	302.82
495.54	305.34
495.90	307.99
496.26	310.77
496.63	313.65
496.99	316.74
497.35	319.95
497.72	323.35
498.08	326.88
498.44	330.51
498.80	334.44
499.17	338.45
499.53	342.62
499.89	346.98
500.26	351.44
500.62	356.05
500.98	360.99
501.34	366.00
501.71	371.27
502.07	376.72
502.43	382.27
502.79	388.07
503.16	394.12
503.52	400.40
503.88	406.78
504.24	413.40
504.60	420.25
504.97	427.38
505.33	434.62
505.69	442.26
506.05	450.03
506.41	457.81
506.78	465.94
507.14	474.34
507.50	482.96
507.86	491.92
508.22	501.07
508.59	510.23
508.95	519.82
509.31	529.65
509.67	539.68
510.03	549.97
510.39	560.49
510.75	571.27
511.12	582.14
511.48	593.35
511.84	604.75
512.20	616.17
512.56	628.07
512.92	640.19
513.28	652.49
513.64	664.86
514.00	677.60
514.37	690.45
514.73	703.47
515.09	716.49
515.45	729.67
515.81	743.26
516.17	757.18
516.53	771.26
516.89	785.38
517.25	799.51
517.61	813.91
517.97	828.43
518.33	842.84
518.69	857.70
519.05	872.76
519.41	887.97
519.77	903.56
520.13	919.06
520.49	934.47
520.85	949.97
521.21	965.70
521.57	981.90
521.93	997.69
522.29	1014.09
522.65	1030.47
523.01	1046.83
523.37	1062.82
523.73	1079.01
524.09	1095.16
524.45	1111.57
524.81	1128.34
525.17	1145.17
525.53	1162.04
525.89	1179.02
526.25	1195.73
526.61	1212.06
526.97	1228.74
527.33	1245.29
527.68	1261.84
528.04	1278.38
528.40	1294.98
528.76	1312.21
529.12	1328.83
529.48	1345.75
529.84	1361.89
530.20	1378.55
530.56	1395.66
530.91	1413.13
531.27	1429.94
531.63	1446.44
531.99	1463.07
532.35	1479.03
532.71	1495.00
533.07	1511.31
533.42	1527.22
533.78	1543.34
534.14	1559.65
534.50	1575.04
534.86	1590.91
535.21	1606.12
535.57	1622.18
535.93	1637.63
536.29	1652.39
536.65	1667.62
537.00	1682.58
537.36	1697.84
537.72	1712.34
538.08	1726.76
538.44	1740.59
538.79	1754.50
539.15	1768.27
539.51	1782.14
539.87	1796.55
540.22	1810.26
540.58	1823.91
540.94	1837.19
541.29	1850.08
541.65	1862.87
542.01	1876.11
542.37	1888.43
542.72	1900.94
543.08	1912.75
543.44	1925.27
543.79	1936.60
544.15	1947.55
544.51	1958.87
544.87	1969.88
545.22	1980.71
545.58	1990.94
545.94	2000.80
546.29	2010.73
546.65	2020.47
547.01	2029.57
547.36	2038.34
547.72	2046.80
548.07	2054.80
548.43	2062.93
548.79	2070.94
549.14	2078.43
549.50	2085.88
549.86	2093.61
550.21	2100.79
550.57	2107.88
550.92	2114.38
551.28	2121.37
551.64	2128.36
551.99	2134.97
552.35	2141.07
552.70	2147.12
553.06	2152.98
553.41	2159.14
553.77	2165.08
554.13	2171.06
554.48	2176.93
554.84	2182.12
555.19	2187.37
555.55	2192.22
555.90	2196.73
556.26	2201.49
556.61	2206.04
556.97	2210.21
557.32	2214.34
557.68	2218.39
558.03	2222.46
558.39	2226.02
558.74	2230.56
559.10	2234.19
559.45	2237.58
559.81	2241.70
560.16	2245.23
560.52	2248.35
560.87	2251.80
561.23	2254.15
561.58	2257.07
561.94	2259.54
562.29	2261.90
562.64	2264.45
563.00	2267.20
563.35	2270.55
563.71	2273.53
564.06	2276.66
564.42	2279.41
564.77	2281.70
565.12	2283.78
565.48	2285.60
565.83	2287.21
566.19	2288.11
566.54	2289.05
566.89	2290.14
567.25	2290.70
567.60	2291.99
567.96	2293.46
568.31	2293.94
568.66	2294.85
569.02	2295.10
569.37	2295.19
569.72	2295.68
570.08	2295.48
570.43	2295.01
570.78	2293.91
571.14	2292.20
571.49	2290.41
571.84	2289.63
572.20	2287.95
572.55	2286.43
572.90	2284.44
573.26	2282.81
573.61	2280.94
573.96	2278.75
574.31	2275.53
574.67	2272.02
575.02	2268.09
575.37	2264.37
575.72	2260.34
576.08	2256.93
576.43	2253.36
576.78	2249.62
577.13	2246.22
577.49	2242.84
577.84	2239.21
578.19	2235.33
578.54	2231.38
578.90	2227.09
579.25	2221.31
579.60	2216.43
579.95	2211.35
580.30	2206.17
580.66	2200.83
581.01	2195.68
581.36	2190.62
581.71	2186.12
582.06	2181.48
582.42	2176.97
582.77	2171.54
583.12	2166.64
583.47	2161.73
583.82	2156.68
584.17	2151.24
584.53	2145.54
584.88	2139.83
585.23	2133.82
585.58	2128.28
585.93	2122.68
586.28	2117.72
586.63	2112.52
586.98	2107.17
587.34	2102.46
587.69	2097.48
588.04	2092.02
588.39	2086.05
588.74	2079.46
589.09	2073.23
589.44	2066.41
589.79	2060.05
590.14	2054.27
590.49	2047.61
590.84	2040.82
591.19	2034.54
591.54	2027.79
591.89	2020.35
592.25	2013.36
592.60	2006.20
592.95	1998.45
593.30	1991.00
593.65	1983.15
594.00	1976.17
594.35	1968.79
594.70	1960.63
595.05	1953.33
595.40	1946.01
595.75	1938.48
596.10	1932.12
596.45	1925.29
596.80	1918.95
597.15	1912.28
597.50	1905.17
597.85	1898.82
598.19	1892.34
598.54	1885.22
598.89	1878.63
599.24	1872.69
599.59	1866.03
599.94	1859.79
600.29	1853.41
600.64	1846.78
600.99	1839.50
601.34	1832.60
601.69	1825.54
602.04	1818.56
602.39	1811.32
602.74	1804.51
603.08	1797.94
603.43	1791.23
603.78	1783.99
604.13	1776.89
604.48	1769.78
604.83	1762.91
605.18	1755.90
605.53	1747.90
605.87	1739.88
606.22	1732.61
606.57	1724.76
606.92	1717.42
607.27	1710.18
607.62	1703.39
607.96	1696.17
608.31	1689.69
608.66	1682.01
609.01	1674.56
609.36	1667.25
609.70	1659.27
610.05	1651.42
610.40	1643.92
610.75	1635.62
611.10	1628.04
611.44	1619.84
611.79	1611.79
612.14	1603.26
612.49	1594.18
612.83	1585.85
613.18	1577.86
613.53	1569.87
613.88	1561.45
614.22	1553.33
614.57	1544.86
614.92	1536.95
615.27	1529.53
615.61	1521.21
615.96	1513.33
616.31	1505.97
616.65	1498.59
617.00	1491.14
617.35	1483.46
617.70	1475.14
618.04	1466.78
618.39	1458.66
618.74	1451.12
619.08	1443.00
619.43	1435.49
619.78	1428.78
620.12	1421.82
620.47	1414.50
620.82	1406.37
621.16	1398.95
621.51	1391.39
621.85	1383.96
622.20	1375.60
622.55	1367.40
622.89	1359.72
623.24	1352.19
623.59	1344.79
623.93	1337.34
624.28	1330.18
624.62	1322.83
624.97	1315.70
625.32	1308.94
625.66	1301.96
626.01	1294.87
626.35	1287.51
626.70	1280.00
627.04	1272.39
627.39	1264.71
627.73	1257.36
628.08	1250.68
628.43	1243.52
628.77	1236.32
629.12	1228.84
629.46	1221.67
629.81	1214.42
630.15	1207.32
630.50	1200.06
630.84	1191.93
631.19	1184.15
631.53	1176.76
631.88	1169.25
632.22	1161.75
632.57	1154.73
632.91	1147.39
633.26	1139.91
633.60	1132.64
633.95	1125.66
634.29	1118.74
634.64	1112.16
634.98	1104.97
635.32	1098.02
635.67	1091.58
636.01	1085.04
636.36	1078.35
636.70	1072.03
637.05	1065.48
637.39	1059.06
637.73	1052.76
638.08	1047.05
638.42	1041.24
638.77	1034.93
639.11	1028.50
639.45	1022.25
639.80	1015.65
640.14	1009.32
640.49	1002.98
640.83	996.79
641.17	990.63
641.52	984.41
641.86	978.13
642.20	972.31
642.55	966.13
642.89	959.73
643.23	953.38
643.58	947.63
643.92	941.53
644.26	935.61
644.61	929.71
644.95	923.75
645.29	917.24
645.64	910.52
645.98	904.26
646.32	898.48
646.66	892.53
647.01	886.77
647.35	881.15
647.69	875.39
648.04	869.95
648.38	864.25
648.72	858.26
649.06	852.23
649.41	846.37
649.75	840.37
650.09	834.54
650.43	828.69
650.78	822.64
651.12	816.73
651.46	810.99
651.80	805.30
652.14	799.97
652.49	794.74
652.83	789.63
653.17	783.97
653.51	778.32
653.85	772.93
654.20	767.34
654.54	761.36
654.88	755.76
655.22	749.97
655.56	744.33
655.90	738.91
656.25	733.69
656.59	728.44
656.93	723.37
657.27	718.24
657.61	712.89
657.95	707.85
658.29	702.81
658.64	697.66
658.98	692.41
659.32	686.96
659.66	681.84
660.00	676.62
660.34	671.74
660.68	666.96
661.02	662.02
661.36	657.44
661.70	653.02
662.05	648.67
662.39	644.39
662.73	639.94
663.07	635.62
663.41	631.25
663.75	626.85
664.09	622.36
664.43	618.06
664.77	614.03
665.11	609.77
665.45	605.71
665.79	601.72
666.13	597.69
666.47	593.66
666.81	589.49
667.15	585.39
667.49	581.54
667.83	577.69
668.17	573.82
668.51	569.82
668.85	565.88
669.19	562.07
669.53	558.29
669.87	554.53
670.21	550.92
670.55	547.37
670.89	543.97
671.23	540.63
671.57	537.22
671.91	533.72
672.25	530.40
672.58	527.00
672.92	523.60
673.26	520.50
673.60	517.42
673.94	514.42
674.28	511.55
674.62	508.69
674.96	505.63
675.30	502.81
675.64	499.93
675.97	497.29
676.31	494.54
676.65	491.66
676.99	488.97
677.33	486.19
677.67	483.39
678.01	480.45
678.34	477.48
678.68	474.63
679.02	471.87
679.36	469.07
679.70	466.33
680.04	463.62
680.37	460.77
680.71	458.02
681.05	455.45
681.39	452.79
681.73	450.20
682.06	447.71
682.40	445.15
682.74	442.63
683.08	440.05
683.42	437.49
683.75	435.05
684.09	432.56
684.43	430.05
684.77	427.63
685.10	425.26
685.44	423.03
685.78	420.82
686.12	418.61
686.45	416.43
686.79	414.19
687.13	412.04
687.46	409.92
687.80	407.79
688.14	405.60
688.48	403.59
688.81	401.40
689.15	399.32
689.49	397.30
689.82	395.33
690.16	393.30
690.50	391.32
690.83	389.41
691.17	387.42
691.51	385.60
691.84	383.81
692.18	381.91
692.52	379.99
692.85	378.04
693.19	376.22
693.52	374.38
693.86	372.65
694.20	370.92
694.53	369.12
694.87	367.29
695.21	365.52
695.54	363.73
695.88	362.00
696.21	360.30
696.55	358.58
696.88	356.89
697.22	355.20
697.56	353.58
697.89	351.88
698.23	350.27
698.56	348.62
698.90	347.05
699.23	345.49
699.57	343.91
699.90	342.38
700.24	340.79
700.58	339.29
700.91	337.77
701.25	336.30
701.58	334.95
701.92	333.64
702.25	332.31
702.59	330.97
702.92	329.65
703.26	328.34
703.59	327.04
703.93	325.88
704.26	324.72
704.60	323.50
704.93	322.25
705.26	321.09
705.60	319.94
705.93	318.78
706.27	317.72
706.60	316.66
706.94	315.61
707.27	314.54
707.61	313.48
707.94	312.46
708.27	311.38
708.61	310.33
708.94	309.33
709.28	308.35
709.61	307.38
709.94	306.45
710.28	305.45
710.61	304.50
710.95	303.39
711.28	302.48
711.61	301.50
711.95	300.65
712.28	299.67
712.61	298.75
712.95	297.80
713.28	296.94
713.61	296.09
713.95	295.23
714.28	294.41
714.61	293.57
714.95	292.77
715.28	291.98
715.61	291.12
715.95	290.29
716.28	289.44
716.61	288.63
716.95	287.82
717.28	287.09
717.61	286.37
717.94	285.65
718.28	284.89
718.61	284.20
718.94	283.55
719.27	282.94
719.61	282.31
719.94	281.68
720.27	280.97
720.60	280.32
720.94	279.69
721.27	279.09
721.60	278.56
721.93	277.96
722.27	277.40
722.60	276.88
722.93	276.33
723.26	275.83
723.59	275.27
723.93	274.76
724.26	274.24
724.59	273.67
724.92	273.19
725.25	272.68
725.59	272.17
725.92	271.66
726.25	271.14
726.58	270.69
726.91	270.22
727.24	269.76
727.57	269.29
727.91	268.78
728.24	268.30
728.57	267.81
728.90	267.37
729.23	266.88
729.56	266.46
729.89	265.97
730.22	265.47
730.55	265.05
730.89	264.59
731.22	264.16
731.55	263.77
731.88	263.36
732.21	262.88
732.54	262.44
732.87	261.99
733.20	261.61
733.53	261.18
733.86	260.83
734.19	260.45
734.52	260.07
734.85	259.79
735.18	259.40
735.51	259.04
735.84	258.65
736.17	258.30
736.50	257.89
736.83	257.64
737.16	257.32
737.49	256.97
737.82	256.60
738.15	256.27
738.48	255.91
738.81	255.57
739.14	255.26
739.47	254.94
739.80	254.65
740.13	254.34
740.46	254.00
740.79	253.64
741.12	253.32
741.45	253.02
741.78	252.63
742.11	252.32
742.44	251.97
742.77	251.66
743.10	251.35
743.43	251.06
743.75	250.68
744.08	250.51
744.41	250.25
744.74	250.01
745.07	249.69
745.40	249.42
745.73	249.21
746.06	248.92
746.39	248.64
746.71	248.40
747.04	248.08
747.37	247.84
747.70	247.63
748.03	247.37
748.36	247.14
748.68	246.93
749.01	246.67
749.34	246.48
749.67	246.30
750.00	246.12
750.33	245.92
750.65	245.71
750.98	245.39
751.31	245.17
751.64	244.92
751.97	244.76
752.29	244.56
752.62	244.28
752.95	244.08
753.28	243.89
753.60	243.64
753.93	243.53
754.26	243.33
754.59	243.09
754.91	242.88
755.24	242.67
755.57	242.48
755.90	242.35
756.22	242.13
756.55	241.90
756.88	241.67
757.20	241.48
757.53	241.29
757.86	241.12
758.19	240.98
758.51	240.84
758.84	240.65
759.17	240.49
759.49	240.32
759.82	240.22
760.15	240.10
760.47	240.01
760.80	239.82
761.13	239.71
761.45	239.58
761.78	239.46
762.11	239.34
762.43	239.20
762.76	239.05
763.08	238.94
763.41	238.85
763.74	238.75
764.06	238.61
764.39	238.51
764.71	238.36
765.04	238.23
765.37	238.12
765.69	238.01
766.02	237.86
766.34	237.73
766.67	237.57
767.00	237.47
767.32	237.38
767.65	237.36
767.97	237.21
768.30	237.13
768.62	237.02
768.95	236.91
769.27	236.79
769.60	236.71
769.92	236.57
770.25	236.43
770.57	236.34
770.90	236.26
771.22	236.13
771.55	236.05
771.87	235.91
772.20	235.82
772.52	235.81
772.85	235.87
773.17	235.78
773.50	235.70
773.82	235.57
774.15	235.44
774.47	235.27
774.80	235.17
775.12	235.07
775.45	234.96
775.77	234.88
776.09	234.82
776.42	234.71
776.74	234.70
777.07	234.66
777.39	234.57
777.72	234.49
778.04	234.46
778.36	234.38
778.69	234.35
779.01	234.28
779.33	234.13
779.66	233.94
779.98	233.89
780.31	233.80
780.63	233.78
780.95	233.73
781.28	233.65
781.60	233.60
781.92	233.54
782.25	233.51
782.57	233.41
782.89	233.28
783.22	233.20
783.54	233.09
783.86	233.01
784.19	232.95
784.51	232.89
784.83	232.81
785.16	232.73
785.48	232.67
785.80	232.59
786.12	232.50
786.45	232.43
786.77	232.41
787.09	232.36
