SpectraSuite Data File
++++++++++++++++++++++++++++++++++++
Date: Fri Feb 01 16:36:26 EST 2013
User: group
Dark Spectrum Present: No
Reference Spectrum Present: No
Number of Sampled Component Spectra: 1
Spectrometers: USB2E7196
Integration Time (usec): 35000 (USB2E7196)
Spectra Averaged: 100 (USB2E7196)
Boxcar Smoothing: 10 (USB2E7196)
Correct for Electrical Dark: No (USB2E7196)
Strobe/Lamp Enabled: No (USB2E7196)
Correct for Detector Non-linearity: No (USB2E7196)
Correct for Stray Light: No (USB2E7196)
Number of Pixels in Processed Spectrum: 2048
>>>>>Begin Processed Spectral Data<<<<<
339.09	0.00
339.48	214.30
339.86	215.81
340.24	216.76
340.63	218.06
341.01	221.24
341.39	221.14
341.78	222.63
342.16	223.25
342.54	224.10
342.93	212.41
343.31	223.14
343.69	223.66
344.07	224.10
344.46	224.53
344.84	224.90
345.22	225.14
345.60	225.38
345.99	225.55
346.37	225.69
346.75	225.80
347.13	225.87
347.52	225.94
347.90	226.01
348.28	226.01
348.66	226.08
349.05	226.02
349.43	226.04
349.81	226.09
350.19	226.10
350.57	226.12
350.96	226.19
351.34	226.25
351.72	226.29
352.10	226.36
352.48	226.42
352.87	226.47
353.25	226.52
353.63	226.54
354.01	226.63
354.39	226.69
354.77	226.74
355.15	226.82
355.54	226.90
355.92	226.95
356.30	227.07
356.68	227.16
357.06	227.28
357.44	227.37
357.82	227.43
358.20	227.53
358.58	227.61
358.97	227.64
359.35	227.74
359.73	227.87
360.11	227.96
360.49	227.99
360.87	228.04
361.25	228.09
361.63	228.20
362.01	228.22
362.39	228.25
362.77	228.28
363.15	228.30
363.53	228.32
363.91	228.32
364.29	228.35
364.67	228.28
365.05	228.28
365.43	228.29
365.81	228.30
366.19	228.35
366.57	228.40
366.95	228.40
367.33	228.36
367.71	228.32
368.09	228.31
368.47	228.33
368.85	228.31
369.23	228.34
369.61	228.27
369.99	228.27
370.37	228.26
370.75	228.28
371.13	228.26
371.51	228.20
371.89	228.18
372.27	228.13
372.65	228.10
373.03	228.11
373.41	228.07
373.78	228.05
374.16	227.94
374.54	227.85
374.92	227.79
375.30	227.75
375.68	227.65
376.06	227.61
376.44	227.51
376.82	227.43
377.19	227.33
377.57	227.28
377.95	227.16
378.33	227.10
378.71	226.98
379.09	226.90
379.47	226.89
379.84	226.79
380.22	226.71
380.60	226.63
380.98	226.53
381.36	226.43
381.73	226.34
382.11	226.31
382.49	226.26
382.87	226.19
383.25	226.15
383.62	226.21
384.00	226.12
384.38	226.08
384.76	226.06
385.13	226.03
385.51	225.94
385.89	225.90
386.27	225.83
386.64	225.79
387.02	225.75
387.40	225.68
387.78	225.63
388.15	225.60
388.53	225.57
388.91	225.52
389.29	225.51
389.66	225.48
390.04	225.42
390.42	225.40
390.79	225.40
391.17	225.37
391.55	225.27
391.92	225.25
392.30	225.25
392.68	225.26
393.05	225.26
393.43	225.30
393.81	225.31
394.18	225.33
394.56	225.36
394.94	225.37
395.31	225.36
395.69	225.40
396.06	225.46
396.44	225.54
396.82	225.55
397.19	225.63
397.57	225.60
397.95	225.64
398.32	225.67
398.70	225.72
399.07	225.78
399.45	225.81
399.82	225.90
400.20	225.97
400.58	226.01
400.95	226.03
401.33	226.13
401.70	226.28
402.08	226.38
402.45	226.44
402.83	226.57
403.20	226.67
403.58	226.76
403.95	226.86
404.33	226.96
404.71	227.10
405.08	227.26
405.46	227.45
405.83	227.62
406.21	227.77
406.58	227.92
406.96	228.08
407.33	228.28
407.70	228.47
408.08	228.73
408.45	228.94
408.83	229.19
409.20	229.42
409.58	229.58
409.95	229.82
410.33	230.10
410.70	230.36
411.08	230.66
411.45	230.98
411.82	231.27
412.20	231.63
412.57	232.05
412.95	232.36
413.32	232.75
413.69	233.15
414.07	233.53
414.44	233.98
414.82	234.44
415.19	234.96
415.56	235.51
415.94	236.08
416.31	236.71
416.68	237.34
417.06	238.00
417.43	238.68
417.81	239.47
418.18	240.25
418.55	241.06
418.93	241.93
419.30	242.81
419.67	243.77
420.04	244.70
420.42	245.70
420.79	246.87
421.16	248.03
421.54	249.23
421.91	250.49
422.28	251.74
422.66	253.07
423.03	254.37
423.40	255.70
423.77	257.08
424.15	258.49
424.52	259.96
424.89	261.57
425.26	263.11
425.64	264.51
426.01	266.12
426.38	267.77
426.75	269.48
427.13	271.22
427.50	272.98
427.87	274.85
428.24	276.70
428.61	278.44
428.99	280.40
429.36	282.47
429.73	284.51
430.10	286.54
430.47	288.58
430.85	290.72
431.22	292.94
431.59	295.30
431.96	297.53
432.33	299.98
432.70	302.33
433.08	305.13
433.45	307.78
433.82	310.31
434.19	313.17
434.56	315.93
434.93	318.52
435.30	321.11
435.68	323.98
436.05	326.79
436.42	329.57
436.79	332.04
437.16	334.71
437.53	337.52
437.90	340.33
438.27	343.05
438.64	345.84
439.01	348.40
439.38	350.62
439.75	352.75
440.13	355.20
440.50	357.51
440.87	359.37
441.24	361.32
441.61	363.46
441.98	364.91
442.35	366.73
442.72	368.61
443.09	370.39
443.46	371.36
443.83	371.96
444.20	372.47
444.57	373.29
444.94	373.56
445.31	373.87
445.68	374.22
446.05	374.31
446.42	373.97
446.79	373.60
447.16	373.16
447.53	372.90
447.90	371.81
448.27	370.66
448.64	369.08
449.01	367.92
449.37	366.02
449.74	364.22
450.11	361.98
450.48	359.50
450.85	357.03
451.22	354.91
451.59	352.91
451.96	350.95
452.33	348.39
452.70	346.08
453.07	343.30
453.43	340.41
453.80	337.67
454.17	334.94
454.54	332.36
454.91	329.68
455.28	327.01
455.65	324.51
456.02	322.09
456.38	319.97
456.75	317.34
457.12	315.08
457.49	312.85
457.86	310.71
458.23	308.87
458.59	306.85
458.96	304.78
459.33	302.91
459.70	301.11
460.07	299.61
460.43	297.89
460.80	296.26
461.17	294.83
461.54	293.36
461.91	291.96
462.27	290.55
462.64	289.31
463.01	287.95
463.38	286.71
463.74	285.35
464.11	284.18
464.48	283.16
464.85	282.07
465.21	281.19
465.58	280.20
465.95	279.14
466.32	278.26
466.68	277.36
467.05	276.49
467.42	275.54
467.78	274.60
468.15	273.77
468.52	273.12
468.88	272.27
469.25	271.48
469.62	270.89
469.98	270.23
470.35	269.59
470.72	269.00
471.08	268.36
471.45	267.80
471.82	267.24
472.18	266.68
472.55	266.22
472.92	265.69
473.28	265.23
473.65	264.77
474.02	264.33
474.38	263.98
474.75	263.67
475.11	263.32
475.48	263.06
475.85	262.82
476.21	262.61
476.58	262.42
476.94	262.29
477.31	262.15
477.67	261.99
478.04	261.87
478.41	261.84
478.77	261.89
479.14	261.82
479.50	261.87
479.87	261.91
480.23	261.99
480.60	262.07
480.96	262.22
481.33	262.41
481.69	262.62
482.06	262.80
482.42	262.99
482.79	263.26
483.15	263.60
483.52	264.00
483.88	264.33
484.25	264.73
484.61	265.15
484.98	265.59
485.34	266.17
485.71	266.76
486.07	267.38
486.44	267.95
486.80	268.71
487.17	269.46
487.53	270.30
487.90	271.15
488.26	272.10
488.62	273.08
488.99	274.08
489.35	275.10
489.72	276.24
490.08	277.46
490.44	278.74
490.81	280.11
491.17	281.44
491.54	282.93
491.90	284.49
492.26	286.15
492.63	287.93
492.99	289.71
493.36	291.64
493.72	293.69
494.08	295.79
494.45	298.02
494.81	300.36
495.17	302.79
495.54	305.39
495.90	308.10
496.26	310.92
496.63	313.88
496.99	317.05
497.35	320.32
497.72	323.72
498.08	327.24
498.44	330.87
498.80	334.85
499.17	338.92
499.53	343.09
499.89	347.51
500.26	351.99
500.62	356.66
500.98	361.63
501.34	366.67
501.71	371.99
502.07	377.44
502.43	383.07
502.79	388.92
503.16	394.97
503.52	401.20
503.88	407.62
504.24	414.23
504.60	421.07
504.97	428.19
505.33	435.51
505.69	443.21
506.05	451.04
506.41	458.89
506.78	467.07
507.14	475.50
507.50	484.15
507.86	493.13
508.22	502.31
508.59	511.49
508.95	521.05
509.31	530.86
509.67	540.96
510.03	551.29
510.39	561.84
510.75	572.67
511.12	583.65
511.48	594.92
511.84	606.39
512.20	617.87
512.56	629.72
512.92	641.92
513.28	654.30
513.64	666.68
514.00	679.33
514.37	692.20
514.73	705.24
515.09	718.31
515.45	731.57
515.81	745.20
516.17	759.11
516.53	773.21
516.89	787.36
517.25	801.50
517.61	815.89
517.97	830.35
518.33	844.69
518.69	859.39
519.05	874.32
519.41	889.41
519.77	904.99
520.13	920.51
520.49	935.83
520.85	951.10
521.21	966.78
521.57	982.98
521.93	998.71
522.29	1015.07
522.65	1031.20
523.01	1047.28
523.37	1063.20
523.73	1079.40
524.09	1095.40
524.45	1111.57
524.81	1128.22
525.17	1144.80
525.53	1161.42
525.89	1178.28
526.25	1195.05
526.61	1211.35
526.97	1228.09
527.33	1244.34
527.68	1260.77
528.04	1277.07
528.40	1293.55
528.76	1310.53
529.12	1326.92
529.48	1343.69
529.84	1359.44
530.20	1375.86
530.56	1392.72
530.91	1409.92
531.27	1426.55
531.63	1442.86
531.99	1459.42
532.35	1475.31
532.71	1491.20
533.07	1507.39
533.42	1523.23
533.78	1539.18
534.14	1555.41
534.50	1570.52
534.86	1586.31
535.21	1601.46
535.57	1617.37
535.93	1632.71
536.29	1647.43
536.65	1662.37
537.00	1676.92
537.36	1692.26
537.72	1706.81
538.08	1721.21
538.44	1734.93
538.79	1748.68
539.15	1762.24
539.51	1775.79
539.87	1790.01
540.22	1803.58
540.58	1817.17
540.94	1830.17
541.29	1842.71
541.65	1855.27
542.01	1868.39
542.37	1880.66
542.72	1892.75
543.08	1904.34
543.44	1916.62
543.79	1927.73
544.15	1938.62
544.51	1950.16
544.87	1960.89
545.22	1971.54
545.58	1981.70
545.94	1991.39
546.29	2001.14
546.65	2011.12
547.01	2020.37
547.36	2028.87
547.72	2037.25
548.07	2045.22
548.43	2053.33
548.79	2061.35
549.14	2068.90
549.50	2076.03
549.86	2083.54
550.21	2090.94
550.57	2098.15
550.92	2104.82
551.28	2111.79
551.64	2118.92
551.99	2125.31
552.35	2131.51
552.70	2137.57
553.06	2143.62
553.41	2149.97
553.77	2156.00
554.13	2161.85
554.48	2167.78
554.84	2173.35
555.19	2178.62
555.55	2183.66
555.90	2188.23
556.26	2193.16
556.61	2197.70
556.97	2202.21
557.32	2206.38
557.68	2210.53
558.03	2214.76
558.39	2218.29
558.74	2223.05
559.10	2226.84
559.45	2230.61
559.81	2234.80
560.16	2238.71
560.52	2241.79
560.87	2245.37
561.23	2248.00
561.58	2250.86
561.94	2253.46
562.29	2255.63
562.64	2258.32
563.00	2260.83
563.35	2264.24
563.71	2267.49
564.06	2270.73
564.42	2273.65
564.77	2276.34
565.12	2278.86
565.48	2280.76
565.83	2282.61
566.19	2283.84
566.54	2284.70
566.89	2285.82
567.25	2286.72
567.60	2288.02
567.96	2289.73
568.31	2290.33
568.66	2291.56
569.02	2292.22
569.37	2292.60
569.72	2293.54
570.08	2293.91
570.43	2294.11
570.78	2293.58
571.14	2292.05
571.49	2290.71
571.84	2290.39
572.20	2289.22
572.55	2288.00
572.90	2286.50
573.26	2285.24
573.61	2283.45
573.96	2281.97
574.31	2279.11
574.67	2276.00
575.02	2272.40
575.37	2269.17
575.72	2265.64
576.08	2262.24
576.43	2259.07
576.78	2255.48
577.13	2252.30
577.49	2248.96
577.84	2245.57
578.19	2241.94
578.54	2238.51
578.90	2234.46
579.25	2228.99
579.60	2224.16
579.95	2219.16
580.30	2214.24
580.66	2209.19
581.01	2204.36
581.36	2199.46
581.71	2195.45
582.06	2191.30
582.42	2186.98
582.77	2181.80
583.12	2177.26
583.47	2172.75
583.82	2167.88
584.17	2162.92
584.53	2157.61
584.88	2152.18
585.23	2146.46
585.58	2141.11
585.93	2135.49
586.28	2130.72
586.63	2125.73
586.98	2120.72
587.34	2116.09
587.69	2111.29
588.04	2106.15
588.39	2100.60
588.74	2094.09
589.09	2087.88
589.44	2081.01
589.79	2074.90
590.14	2069.32
590.49	2062.74
590.84	2056.29
591.19	2050.17
591.54	2043.63
591.89	2036.46
592.25	2029.82
592.60	2022.82
592.95	2015.34
593.30	2008.20
593.65	2000.59
594.00	1993.44
594.35	1986.19
594.70	1978.19
595.05	1971.00
595.40	1963.72
595.75	1956.33
596.10	1950.29
596.45	1943.70
596.80	1937.65
597.15	1931.21
597.50	1924.22
597.85	1917.82
598.19	1911.32
598.54	1904.47
598.89	1897.94
599.24	1892.04
599.59	1885.37
599.94	1879.03
600.29	1872.69
600.64	1865.97
600.99	1858.70
601.34	1852.10
601.69	1845.10
602.04	1838.33
602.39	1830.99
602.74	1824.36
603.08	1817.68
603.43	1810.82
603.78	1803.56
604.13	1796.31
604.48	1789.12
604.83	1782.26
605.18	1775.49
605.53	1767.53
605.87	1759.52
606.22	1752.20
606.57	1744.23
606.92	1736.83
607.27	1729.88
607.62	1723.13
607.96	1716.04
608.31	1709.60
608.66	1701.97
609.01	1694.60
609.36	1687.16
609.70	1679.40
610.05	1671.33
610.40	1663.77
610.75	1655.54
611.10	1647.85
611.44	1639.54
611.79	1631.37
612.14	1622.77
612.49	1613.51
612.83	1605.10
613.18	1596.97
613.53	1588.88
613.88	1580.35
614.22	1572.30
614.57	1563.50
614.92	1555.43
615.27	1548.02
615.61	1539.62
615.96	1531.60
616.31	1523.89
616.65	1516.53
617.00	1508.82
617.35	1501.27
617.70	1492.96
618.04	1484.59
618.39	1476.40
618.74	1468.77
619.08	1460.65
619.43	1453.11
619.78	1446.14
620.12	1439.05
620.47	1431.61
620.82	1423.44
621.16	1416.00
621.51	1408.29
621.85	1400.80
622.20	1392.22
622.55	1383.82
622.89	1376.00
623.24	1368.40
623.59	1361.00
623.93	1353.49
624.28	1346.17
624.62	1338.62
624.97	1331.40
625.32	1324.57
625.66	1317.59
626.01	1310.50
626.35	1303.11
626.70	1295.31
627.04	1287.64
627.39	1279.87
627.73	1272.29
628.08	1265.36
628.43	1258.15
628.77	1250.83
629.12	1243.24
629.46	1236.14
629.81	1228.51
630.15	1221.28
630.50	1213.86
630.84	1205.74
631.19	1197.74
631.53	1190.27
631.88	1182.57
632.22	1174.92
632.57	1167.55
632.91	1159.99
633.26	1152.40
633.60	1144.96
633.95	1137.68
634.29	1130.61
634.64	1123.76
634.98	1116.47
635.32	1109.46
635.67	1102.78
636.01	1096.01
636.36	1089.23
636.70	1082.66
637.05	1076.23
637.39	1069.74
637.73	1063.23
638.08	1057.33
638.42	1051.31
638.77	1044.88
639.11	1038.29
639.45	1031.91
639.80	1025.21
640.14	1018.80
640.49	1012.38
640.83	1006.13
641.17	1000.09
641.52	993.78
641.86	987.37
642.20	981.51
642.55	975.02
642.89	968.61
643.23	962.11
643.58	956.31
643.92	950.20
644.26	944.21
644.61	938.07
644.95	932.02
645.29	925.39
645.64	918.69
645.98	912.29
646.32	906.43
646.66	900.35
647.01	894.60
647.35	888.83
647.69	882.91
648.04	877.25
648.38	871.38
648.72	865.42
649.06	859.46
649.41	853.58
649.75	847.71
650.09	841.71
650.43	835.91
650.78	829.78
651.12	823.75
651.46	818.04
651.80	812.44
652.14	807.03
652.49	801.63
652.83	796.35
653.17	790.82
653.51	785.19
653.85	779.74
654.20	774.20
654.54	768.23
654.88	762.50
655.22	756.63
655.56	750.92
655.90	745.50
656.25	740.19
656.59	734.87
656.93	729.82
657.27	724.68
657.61	719.31
657.95	714.22
658.29	709.09
658.64	703.71
658.98	698.34
659.32	692.91
659.66	687.73
660.00	682.54
660.34	677.59
660.68	672.66
661.02	667.64
661.36	662.94
661.70	658.50
662.05	654.21
662.39	649.93
662.73	645.49
663.07	641.12
663.41	636.69
663.75	632.19
664.09	627.64
664.43	623.24
664.77	619.12
665.11	614.91
665.45	610.82
665.79	606.75
666.13	602.66
666.47	598.56
666.81	594.47
667.15	590.37
667.49	586.39
667.83	582.58
668.17	578.67
668.51	574.57
668.85	570.45
669.19	566.57
669.53	562.76
669.87	558.95
670.21	555.23
670.55	551.63
670.89	548.16
671.23	544.66
671.57	541.19
671.91	537.64
672.25	534.05
672.58	530.54
672.92	527.15
673.26	523.97
673.60	520.74
673.94	517.59
674.28	514.66
674.62	511.74
674.96	508.56
675.30	505.64
675.64	502.72
675.97	499.98
676.31	497.11
676.65	494.13
676.99	491.34
677.33	488.41
677.67	485.56
678.01	482.52
678.34	479.57
678.68	476.64
679.02	473.85
679.36	471.07
679.70	468.30
680.04	465.53
680.37	462.64
680.71	459.89
681.05	457.23
681.39	454.50
681.73	451.83
682.06	449.32
682.40	446.80
682.74	444.25
683.08	441.68
683.42	439.05
683.75	436.57
684.09	434.03
684.43	431.57
684.77	429.09
685.10	426.70
685.44	424.36
685.78	422.13
686.12	419.76
686.45	417.47
686.79	415.18
687.13	412.98
687.46	410.77
687.80	408.61
688.14	406.40
688.48	404.36
688.81	402.14
689.15	399.98
689.49	397.77
689.82	395.72
690.16	393.64
690.50	391.67
690.83	389.78
691.17	387.76
691.51	385.84
691.84	383.95
692.18	382.08
692.52	380.16
692.85	378.19
693.19	376.35
693.52	374.50
693.86	372.66
694.20	370.87
694.53	369.12
694.87	367.26
695.21	365.43
695.54	363.58
695.88	361.84
696.21	360.12
696.55	358.47
696.88	356.75
697.22	355.04
697.56	353.41
697.89	351.71
698.23	350.19
698.56	348.59
698.90	347.08
699.23	345.45
699.57	343.87
699.90	342.33
700.24	340.76
700.58	339.31
700.91	337.90
701.25	336.45
701.58	335.06
701.92	333.73
702.25	332.41
702.59	331.04
702.92	329.70
703.26	328.41
703.59	327.14
703.93	325.94
704.26	324.77
704.60	323.52
704.93	322.25
705.26	321.01
705.60	319.84
705.93	318.64
706.27	317.60
706.60	316.56
706.94	315.50
707.27	314.45
707.61	313.37
707.94	312.31
708.27	311.20
708.61	310.16
708.94	309.08
709.28	308.10
709.61	307.16
709.94	306.23
710.28	305.20
710.61	304.22
710.95	303.15
711.28	302.19
711.61	301.22
711.95	300.28
712.28	299.28
712.61	298.28
712.95	297.37
713.28	296.51
713.61	295.60
713.95	294.71
714.28	293.86
714.61	293.01
714.95	292.15
715.28	291.33
715.61	290.42
715.95	289.58
716.28	288.71
716.61	287.87
716.95	287.06
717.28	286.29
717.61	285.51
717.94	284.75
718.28	283.98
718.61	283.23
718.94	282.54
719.27	281.87
719.61	281.22
719.94	280.51
720.27	279.77
720.60	279.11
720.94	278.43
721.27	277.82
721.60	277.22
721.93	276.60
722.27	276.03
722.60	275.50
722.93	274.92
723.26	274.40
723.59	273.76
723.93	273.18
724.26	272.64
724.59	272.06
724.92	271.54
725.25	271.04
725.59	270.52
725.92	270.01
726.25	269.52
726.58	269.02
726.91	268.53
727.24	268.04
727.57	267.53
727.91	267.00
728.24	266.52
728.57	265.99
728.90	265.54
729.23	265.06
729.56	264.58
729.89	264.13
730.22	263.62
730.55	263.19
730.89	262.72
731.22	262.26
731.55	261.84
731.88	261.41
732.21	260.92
732.54	260.48
732.87	260.05
733.20	259.68
733.53	259.30
733.86	258.91
734.19	258.53
734.52	258.21
734.85	257.92
735.18	257.51
735.51	257.15
735.84	256.75
736.17	256.37
736.50	255.98
736.83	255.76
737.16	255.44
737.49	255.10
737.82	254.79
738.15	254.47
738.48	254.13
738.81	253.79
739.14	253.51
739.47	253.22
739.80	252.90
740.13	252.54
740.46	252.24
740.79	251.94
741.12	251.61
741.45	251.27
741.78	250.93
742.11	250.68
742.44	250.38
742.77	250.12
743.10	249.83
743.43	249.55
743.75	249.18
744.08	249.06
744.41	248.82
744.74	248.55
745.07	248.29
745.40	248.09
745.73	247.85
746.06	247.59
746.39	247.32
746.71	247.08
747.04	246.86
747.37	246.60
747.70	246.37
748.03	246.14
748.36	245.91
748.68	245.70
749.01	245.42
749.34	245.23
749.67	245.03
750.00	244.81
750.33	244.70
750.65	244.47
750.98	244.11
751.31	243.88
751.64	243.68
751.97	243.50
752.29	243.24
752.62	243.01
752.95	242.81
753.28	242.61
753.60	242.40
753.93	242.22
754.26	242.03
754.59	241.77
754.91	241.58
755.24	241.41
755.57	241.18
755.90	240.99
756.22	240.79
756.55	240.60
756.88	240.43
757.20	240.15
757.53	239.97
757.86	239.84
758.19	239.70
758.51	239.51
758.84	239.29
759.17	239.13
759.49	238.96
759.82	238.82
760.15	238.68
760.47	238.53
760.80	238.32
761.13	238.17
761.45	238.04
761.78	237.88
762.11	237.71
762.43	237.59
762.76	237.44
763.08	237.31
763.41	237.14
763.74	236.95
764.06	236.78
764.39	236.63
764.71	236.44
765.04	236.30
765.37	236.18
765.69	236.02
766.02	235.89
766.34	235.79
766.67	235.63
767.00	235.54
767.32	235.49
767.65	235.44
767.97	235.33
768.30	235.20
768.62	235.08
768.95	234.95
769.27	234.83
769.60	234.73
769.92	234.57
770.25	234.46
770.57	234.39
770.90	234.29
771.22	234.17
771.55	234.09
771.87	233.99
772.20	233.86
772.52	233.88
772.85	233.88
773.17	233.75
773.50	233.63
773.82	233.48
774.15	233.33
774.47	233.16
774.80	233.04
775.12	232.99
775.45	232.90
775.77	232.80
776.09	232.70
776.42	232.63
776.74	232.60
777.07	232.49
777.39	232.40
777.72	232.33
778.04	232.28
778.36	232.18
778.69	232.12
779.01	232.06
779.33	231.91
779.66	231.74
779.98	231.68
780.31	231.62
780.63	231.62
780.95	231.56
781.28	231.51
781.60	231.47
781.92	231.36
782.25	231.32
782.57	231.26
782.89	231.20
783.22	231.10
783.54	231.00
783.86	230.99
784.19	230.94
784.51	230.93
784.83	230.88
785.16	230.84
785.48	230.77
785.80	230.74
786.12	230.71
786.45	230.66
786.77	230.64
787.09	230.61
