SpectraSuite Data File
++++++++++++++++++++++++++++++++++++
Date: Fri Feb 01 15:38:29 EST 2013
User: group
Dark Spectrum Present: No
Reference Spectrum Present: No
Number of Sampled Component Spectra: 1
Spectrometers: USB2E7196
Integration Time (usec): 35000 (USB2E7196)
Spectra Averaged: 100 (USB2E7196)
Boxcar Smoothing: 10 (USB2E7196)
Correct for Electrical Dark: No (USB2E7196)
Strobe/Lamp Enabled: No (USB2E7196)
Correct for Detector Non-linearity: No (USB2E7196)
Correct for Stray Light: No (USB2E7196)
Number of Pixels in Processed Spectrum: 2048
>>>>>Begin Processed Spectral Data<<<<<
339.09	0.00
339.48	214.68
339.86	216.51
340.24	217.80
340.63	219.58
341.01	222.02
341.39	221.43
341.78	223.06
342.16	224.25
342.54	224.60
342.93	213.28
343.31	224.05
343.69	224.61
344.07	225.08
344.46	225.51
344.84	225.87
345.22	226.08
345.60	226.35
345.99	226.53
346.37	226.67
346.75	226.82
347.13	226.89
347.52	226.97
347.90	227.00
348.28	227.01
348.66	227.07
349.05	227.08
349.43	227.13
349.81	227.14
350.19	227.14
350.57	227.15
350.96	227.22
351.34	227.28
351.72	227.34
352.10	227.43
352.48	227.48
352.87	227.54
353.25	227.63
353.63	227.68
354.01	227.70
354.39	227.76
354.77	227.78
355.15	227.89
355.54	227.92
355.92	227.98
356.30	228.07
356.68	228.18
357.06	228.27
357.44	228.29
357.82	228.39
358.20	228.46
358.58	228.54
358.97	228.63
359.35	228.72
359.73	228.81
360.11	228.85
360.49	228.93
360.87	228.95
361.25	228.99
361.63	229.09
362.01	229.20
362.39	229.23
362.77	229.26
363.15	229.28
363.53	229.30
363.91	229.33
364.29	229.39
364.67	229.32
365.05	229.32
365.43	229.36
365.81	229.35
366.19	229.39
366.57	229.43
366.95	229.39
367.33	229.41
367.71	229.36
368.09	229.35
368.47	229.34
368.85	229.30
369.23	229.29
369.61	229.23
369.99	229.22
370.37	229.21
370.75	229.24
371.13	229.18
371.51	229.13
371.89	229.07
372.27	228.99
372.65	228.96
373.03	228.89
373.41	228.82
373.78	228.76
374.16	228.68
374.54	228.59
374.92	228.52
375.30	228.43
375.68	228.37
376.06	228.33
376.44	228.29
376.82	228.23
377.19	228.17
377.57	228.08
377.95	227.95
378.33	227.88
378.71	227.76
379.09	227.66
379.47	227.61
379.84	227.53
380.22	227.43
380.60	227.32
380.98	227.26
381.36	227.18
381.73	227.08
382.11	227.04
382.49	226.97
382.87	226.88
383.25	226.80
383.62	226.85
384.00	226.75
384.38	226.64
384.76	226.59
385.13	226.56
385.51	226.51
385.89	226.45
386.27	226.41
386.64	226.35
387.02	226.36
387.40	226.31
387.78	226.31
388.15	226.29
388.53	226.26
388.91	226.23
389.29	226.19
389.66	226.17
390.04	226.14
390.42	226.15
390.79	226.13
391.17	226.12
391.55	226.00
391.92	226.04
392.30	226.03
392.68	226.06
393.05	226.05
393.43	226.04
393.81	226.10
394.18	226.09
394.56	226.11
394.94	226.11
395.31	226.13
395.69	226.15
396.06	226.22
396.44	226.28
396.82	226.31
397.19	226.43
397.57	226.52
397.95	226.59
398.32	226.63
398.70	226.75
399.07	226.85
399.45	226.90
399.82	226.96
400.20	227.03
400.58	227.10
400.95	227.17
401.33	227.29
401.70	227.43
402.08	227.51
402.45	227.61
402.83	227.74
403.20	227.86
403.58	227.96
403.95	228.09
404.33	228.22
404.71	228.35
405.08	228.51
405.46	228.61
405.83	228.76
406.21	228.91
406.58	229.08
406.96	229.23
407.33	229.42
407.70	229.60
408.08	229.89
408.45	230.11
408.83	230.34
409.20	230.55
409.58	230.73
409.95	231.00
410.33	231.29
410.70	231.54
411.08	231.83
411.45	232.15
411.82	232.45
412.20	232.82
412.57	233.25
412.95	233.56
413.32	234.00
413.69	234.39
414.07	234.83
414.44	235.27
414.82	235.74
415.19	236.28
415.56	236.84
415.94	237.37
416.31	238.04
416.68	238.67
417.06	239.43
417.43	240.14
417.81	240.91
418.18	241.68
418.55	242.51
418.93	243.43
419.30	244.32
419.67	245.24
420.04	246.20
420.42	247.18
420.79	248.36
421.16	249.48
421.54	250.68
421.91	251.88
422.28	253.13
422.66	254.47
423.03	255.79
423.40	257.11
423.77	258.55
424.15	259.91
424.52	261.39
424.89	262.98
425.26	264.51
425.64	265.95
426.01	267.55
426.38	269.21
426.75	270.84
427.13	272.59
427.50	274.39
427.87	276.26
428.24	278.14
428.61	279.88
428.99	281.87
429.36	283.96
429.73	286.04
430.10	288.07
430.47	290.10
430.85	292.20
431.22	294.42
431.59	296.77
431.96	299.02
432.33	301.52
432.70	303.91
433.08	306.73
433.45	309.39
433.82	311.98
434.19	314.89
434.56	317.69
434.93	320.33
435.30	322.98
435.68	325.84
436.05	328.67
436.42	331.44
436.79	333.89
437.16	336.58
437.53	339.43
437.90	342.23
438.27	344.96
438.64	347.82
439.01	350.45
439.38	352.73
439.75	354.91
440.13	357.38
440.50	359.69
440.87	361.51
441.24	363.45
441.61	365.62
441.98	367.13
442.35	368.94
442.72	370.79
443.09	372.58
443.46	373.57
443.83	374.14
444.20	374.66
444.57	375.52
444.94	375.80
445.31	376.08
445.68	376.47
446.05	376.51
446.42	376.06
446.79	375.61
447.16	375.16
447.53	374.84
447.90	373.68
448.27	372.52
448.64	370.94
449.01	369.77
449.37	367.82
449.74	365.87
450.11	363.63
450.48	361.15
450.85	358.62
451.22	356.47
451.59	354.45
451.96	352.49
452.33	349.90
452.70	347.56
453.07	344.76
453.43	341.84
453.80	339.15
454.17	336.55
454.54	334.02
454.91	331.31
455.28	328.65
455.65	326.17
456.02	323.72
456.38	321.58
456.75	318.96
457.12	316.72
457.49	314.51
457.86	312.34
458.23	310.49
458.59	308.47
458.96	306.40
459.33	304.53
459.70	302.69
460.07	301.22
460.43	299.50
460.80	297.92
461.17	296.50
461.54	294.97
461.91	293.50
462.27	292.02
462.64	290.71
463.01	289.35
463.38	288.04
463.74	286.64
464.11	285.45
464.48	284.42
464.85	283.30
465.21	282.45
465.58	281.52
465.95	280.45
466.32	279.53
466.68	278.61
467.05	277.74
467.42	276.82
467.78	275.87
468.15	274.96
468.52	274.26
468.88	273.38
469.25	272.63
469.62	272.02
469.98	271.40
470.35	270.78
470.72	270.20
471.08	269.49
471.45	268.99
471.82	268.45
472.18	267.79
472.55	267.35
472.92	266.82
473.28	266.34
473.65	265.88
474.02	265.41
474.38	265.04
474.75	264.73
475.11	264.39
475.48	264.12
475.85	263.90
476.21	263.66
476.58	263.50
476.94	263.33
477.31	263.16
477.67	263.03
478.04	262.89
478.41	262.79
478.77	262.85
479.14	262.79
479.50	262.79
479.87	262.86
480.23	262.90
480.60	262.98
480.96	263.09
481.33	263.27
481.69	263.46
482.06	263.63
482.42	263.82
482.79	264.08
483.15	264.42
483.52	264.81
483.88	265.14
484.25	265.51
484.61	265.91
484.98	266.35
485.34	266.87
485.71	267.48
486.07	268.08
486.44	268.68
486.80	269.35
487.17	270.08
487.53	270.87
487.90	271.73
488.26	272.63
488.62	273.55
488.99	274.55
489.35	275.59
489.72	276.72
490.08	277.91
490.44	279.18
490.81	280.45
491.17	281.83
491.54	283.33
491.90	284.88
492.26	286.53
492.63	288.25
492.99	290.05
493.36	291.97
493.72	294.02
494.08	296.11
494.45	298.37
494.81	300.78
495.17	303.23
495.54	305.79
495.90	308.46
496.26	311.31
496.63	314.26
496.99	317.39
497.35	320.67
497.72	324.08
498.08	327.58
498.44	331.32
498.80	335.20
499.17	339.26
499.53	343.45
499.89	347.83
500.26	352.33
500.62	356.99
500.98	361.88
501.34	366.93
501.71	372.30
502.07	377.71
502.43	383.35
502.79	389.23
503.16	395.32
503.52	401.64
503.88	408.05
504.24	414.70
504.60	421.60
504.97	428.75
505.33	436.09
505.69	443.83
506.05	451.58
506.41	459.51
506.78	467.62
507.14	476.05
507.50	484.81
507.86	493.91
508.22	503.10
508.59	512.37
508.95	522.05
509.31	531.87
509.67	541.96
510.03	552.23
510.39	562.70
510.75	573.51
511.12	584.42
511.48	595.75
511.84	607.21
512.20	618.79
512.56	630.76
512.92	642.91
513.28	655.22
513.64	667.70
514.00	680.35
514.37	693.35
514.73	706.51
515.09	719.56
515.45	732.76
515.81	746.34
516.17	760.39
516.53	774.49
516.89	788.64
517.25	802.88
517.61	817.25
517.97	831.82
518.33	846.24
518.69	861.09
519.05	876.07
519.41	891.22
519.77	906.80
520.13	922.20
520.49	937.58
520.85	953.02
521.21	968.84
521.57	985.13
521.93	1000.90
522.29	1017.20
522.65	1033.48
523.01	1049.76
523.37	1065.79
523.73	1081.94
524.09	1098.03
524.45	1114.31
524.81	1130.89
525.17	1147.73
525.53	1164.73
525.89	1181.70
526.25	1198.46
526.61	1214.86
526.97	1231.60
527.33	1248.00
527.68	1264.67
528.04	1281.29
528.40	1297.90
528.76	1314.89
529.12	1331.50
529.48	1348.35
529.84	1364.41
530.20	1381.01
530.56	1398.04
530.91	1415.46
531.27	1432.20
531.63	1448.63
531.99	1465.27
532.35	1481.33
532.71	1497.24
533.07	1513.39
533.42	1529.30
533.78	1545.44
534.14	1561.76
534.50	1577.16
534.86	1593.09
535.21	1608.33
535.57	1624.17
535.93	1639.79
536.29	1654.60
536.65	1669.69
537.00	1684.52
537.36	1699.83
537.72	1714.39
538.08	1728.84
538.44	1742.64
538.79	1756.52
539.15	1770.32
539.51	1784.08
539.87	1798.40
540.22	1812.13
540.58	1825.93
540.94	1839.17
541.29	1852.04
541.65	1864.68
542.01	1877.82
542.37	1890.03
542.72	1902.49
543.08	1914.21
543.44	1926.52
543.79	1937.64
544.15	1948.70
544.51	1960.26
544.87	1971.30
545.22	1982.09
545.58	1992.35
545.94	2002.23
546.29	2011.99
546.65	2021.78
547.01	2030.94
547.36	2039.73
547.72	2048.32
548.07	2056.23
548.43	2064.49
548.79	2072.55
549.14	2080.08
549.50	2087.46
549.86	2095.25
550.21	2102.50
550.57	2109.80
550.92	2116.44
551.28	2123.60
551.64	2130.65
551.99	2137.09
552.35	2143.15
552.70	2149.28
553.06	2155.20
553.41	2161.56
553.77	2167.73
554.13	2173.79
554.48	2180.11
554.84	2185.46
555.19	2190.69
555.55	2195.83
555.90	2200.28
556.26	2205.10
556.61	2209.97
556.97	2214.20
557.32	2218.26
557.68	2222.33
558.03	2226.65
558.39	2230.37
558.74	2234.98
559.10	2238.72
559.45	2242.51
559.81	2246.96
560.16	2250.75
560.52	2253.88
560.87	2257.26
561.23	2259.90
561.58	2262.93
561.94	2265.37
562.29	2267.90
562.64	2270.60
563.00	2273.24
563.35	2276.77
563.71	2279.94
564.06	2283.08
564.42	2286.08
564.77	2288.69
565.12	2290.97
565.48	2292.74
565.83	2294.49
566.19	2295.77
566.54	2296.59
566.89	2297.62
567.25	2297.99
567.60	2299.35
567.96	2301.07
568.31	2301.79
568.66	2302.88
569.02	2303.47
569.37	2303.85
569.72	2304.49
570.08	2304.59
570.43	2304.57
570.78	2303.86
571.14	2302.32
571.49	2300.93
571.84	2300.50
572.20	2299.28
572.55	2298.36
572.90	2296.89
573.26	2295.38
573.61	2293.74
573.96	2292.04
574.31	2289.11
574.67	2286.13
575.02	2282.38
575.37	2278.93
575.72	2275.19
576.08	2271.81
576.43	2268.36
576.78	2264.51
577.13	2261.49
577.49	2258.29
577.84	2254.59
578.19	2250.97
578.54	2247.14
578.90	2242.85
579.25	2237.29
579.60	2232.35
579.95	2227.18
580.30	2222.02
580.66	2216.85
581.01	2211.86
581.36	2206.94
581.71	2202.68
582.06	2198.13
582.42	2193.65
582.77	2188.42
583.12	2183.84
583.47	2179.05
583.82	2174.00
584.17	2168.83
584.53	2163.13
584.88	2157.44
585.23	2151.70
585.58	2146.10
585.93	2140.78
586.28	2136.05
586.63	2130.84
586.98	2125.68
587.34	2120.88
587.69	2115.90
588.04	2110.68
588.39	2104.95
588.74	2098.49
589.09	2092.32
589.44	2085.44
589.79	2079.52
590.14	2073.96
590.49	2067.29
590.84	2061.00
591.19	2054.97
591.54	2048.47
591.89	2041.15
592.25	2034.34
592.60	2027.06
592.95	2019.51
593.30	2012.16
593.65	2004.46
594.00	1997.47
594.35	1990.17
594.70	1982.34
595.05	1975.11
595.40	1967.76
595.75	1960.27
596.10	1954.00
596.45	1947.19
596.80	1941.18
597.15	1934.40
597.50	1927.21
597.85	1920.87
598.19	1914.13
598.54	1906.90
598.89	1900.22
599.24	1894.28
599.59	1887.57
599.94	1881.52
600.29	1875.15
600.64	1868.56
600.99	1861.15
601.34	1854.39
601.69	1847.51
602.04	1840.40
602.39	1833.08
602.74	1826.22
603.08	1819.46
603.43	1812.77
603.78	1805.52
604.13	1798.12
604.48	1790.83
604.83	1783.97
605.18	1776.88
605.53	1768.80
605.87	1760.85
606.22	1753.59
606.57	1745.50
606.92	1738.14
607.27	1730.73
607.62	1723.73
607.96	1716.36
608.31	1709.58
608.66	1701.80
609.01	1694.10
609.36	1686.59
609.70	1678.55
610.05	1670.43
610.40	1662.70
610.75	1654.21
611.10	1646.48
611.44	1638.28
611.79	1630.26
612.14	1621.50
612.49	1612.37
612.83	1603.99
613.18	1595.90
613.53	1587.76
613.88	1579.34
614.22	1571.04
614.57	1562.55
614.92	1554.50
615.27	1546.82
615.61	1538.64
615.96	1530.64
616.31	1523.02
616.65	1515.53
617.00	1507.99
617.35	1500.44
617.70	1492.07
618.04	1483.64
618.39	1475.47
618.74	1467.74
619.08	1459.49
619.43	1452.01
619.78	1445.12
620.12	1437.89
620.47	1430.33
620.82	1422.26
621.16	1414.81
621.51	1407.41
621.85	1399.77
622.20	1391.25
622.55	1383.04
622.89	1375.15
623.24	1367.59
623.59	1360.24
623.93	1352.76
624.28	1345.54
624.62	1337.99
624.97	1330.84
625.32	1324.19
625.66	1317.12
626.01	1309.84
626.35	1302.28
626.70	1294.55
627.04	1286.71
627.39	1279.07
627.73	1271.67
628.08	1264.68
628.43	1257.40
628.77	1249.91
629.12	1242.39
629.46	1235.27
629.81	1227.76
630.15	1220.59
630.50	1213.18
630.84	1205.01
631.19	1197.18
631.53	1189.73
631.88	1182.20
632.22	1174.61
632.57	1167.26
632.91	1159.77
633.26	1152.53
633.60	1145.27
633.95	1138.20
634.29	1131.27
634.64	1124.62
634.98	1117.27
635.32	1110.13
635.67	1103.55
636.01	1096.95
636.36	1090.19
636.70	1083.69
637.05	1077.14
637.39	1070.60
637.73	1064.02
638.08	1058.12
638.42	1052.07
638.77	1045.56
639.11	1038.83
639.45	1032.39
639.80	1025.69
640.14	1019.27
640.49	1012.70
640.83	1006.36
641.17	999.99
641.52	993.55
641.86	986.98
642.20	981.05
642.55	974.89
642.89	968.37
643.23	961.77
643.58	955.98
643.92	949.71
644.26	943.67
644.61	937.73
644.95	931.76
645.29	925.17
645.64	918.51
645.98	912.13
646.32	906.37
646.66	900.35
647.01	894.56
647.35	888.84
647.69	882.96
648.04	877.41
648.38	871.65
648.72	865.58
649.06	859.55
649.41	853.76
649.75	847.71
650.09	841.76
650.43	836.06
650.78	829.81
651.12	823.90
651.46	818.20
651.80	812.30
652.14	806.88
652.49	801.53
652.83	796.32
653.17	790.67
653.51	784.96
653.85	779.58
654.20	773.83
654.54	767.81
654.88	762.06
655.22	756.23
655.56	750.53
655.90	745.22
656.25	740.00
656.59	734.56
656.93	729.42
657.27	724.25
657.61	718.75
657.95	713.69
658.29	708.56
658.64	703.30
658.98	698.03
659.32	692.60
659.66	687.33
660.00	681.95
660.34	677.00
660.68	672.10
661.02	667.07
661.36	662.34
661.70	657.86
662.05	653.54
662.39	649.15
662.73	644.76
663.07	640.36
663.41	635.89
663.75	631.43
664.09	626.82
664.43	622.45
664.77	618.36
665.11	614.10
665.45	609.96
665.79	605.90
666.13	601.76
666.47	597.70
666.81	593.51
667.15	589.48
667.49	585.72
667.83	581.88
668.17	578.02
668.51	574.04
668.85	570.09
669.19	566.28
669.53	562.47
669.87	558.58
670.21	554.88
670.55	551.24
670.89	547.86
671.23	544.55
671.57	541.09
671.91	537.57
672.25	534.11
672.58	530.62
672.92	527.18
673.26	524.09
673.60	520.93
673.94	517.88
674.28	514.94
674.62	511.92
674.96	508.74
675.30	505.79
675.64	502.87
675.97	500.08
676.31	497.20
676.65	494.34
676.99	491.66
677.33	488.80
677.67	485.99
678.01	482.93
678.34	479.93
678.68	477.03
679.02	474.25
679.36	471.48
679.70	468.72
680.04	465.99
680.37	463.07
680.71	460.28
681.05	457.66
681.39	454.97
681.73	452.30
682.06	449.84
682.40	447.30
682.74	444.77
683.08	442.20
683.42	439.57
683.75	437.07
684.09	434.52
684.43	432.08
684.77	429.64
685.10	427.34
685.44	425.03
685.78	422.73
686.12	420.46
686.45	418.19
686.79	415.96
687.13	413.76
687.46	411.63
687.80	409.50
688.14	407.32
688.48	405.25
688.81	403.01
689.15	400.84
689.49	398.73
689.82	396.69
690.16	394.59
690.50	392.64
690.83	390.65
691.17	388.71
691.51	386.83
691.84	384.98
692.18	383.02
692.52	380.97
692.85	379.05
693.19	377.14
693.52	375.35
693.86	373.55
694.20	371.80
694.53	370.02
694.87	368.12
695.21	366.27
695.54	364.40
695.88	362.66
696.21	360.96
696.55	359.25
696.88	357.53
697.22	355.93
697.56	354.29
697.89	352.67
698.23	350.98
698.56	349.33
698.90	347.69
699.23	346.06
699.57	344.58
699.90	343.01
700.24	341.46
700.58	339.85
700.91	338.34
701.25	336.86
701.58	335.45
701.92	334.08
702.25	332.73
702.59	331.42
702.92	330.09
703.26	328.73
703.59	327.44
703.93	326.26
704.26	324.96
704.60	323.67
704.93	322.36
705.26	321.15
705.60	319.98
705.93	318.83
706.27	317.82
706.60	316.72
706.94	315.67
707.27	314.54
707.61	313.52
707.94	312.49
708.27	311.41
708.61	310.37
708.94	309.37
709.28	308.42
709.61	307.47
709.94	306.58
710.28	305.59
710.61	304.65
710.95	303.55
711.28	302.67
711.61	301.71
711.95	300.85
712.28	299.88
712.61	298.90
712.95	298.00
713.28	297.12
713.61	296.22
713.95	295.33
714.28	294.52
714.61	293.67
714.95	292.84
715.28	291.99
715.61	291.13
715.95	290.30
716.28	289.44
716.61	288.62
716.95	287.78
717.28	287.06
717.61	286.27
717.94	285.60
718.28	284.81
718.61	284.09
718.94	283.36
719.27	282.72
719.61	282.10
719.94	281.43
720.27	280.72
720.60	280.07
720.94	279.44
721.27	278.85
721.60	278.27
721.93	277.66
722.27	277.08
722.60	276.49
722.93	275.91
723.26	275.38
723.59	274.78
723.93	274.21
724.26	273.66
724.59	273.11
724.92	272.55
725.25	272.06
725.59	271.55
725.92	271.04
726.25	270.52
726.58	270.06
726.91	269.59
727.24	269.09
727.57	268.67
727.91	268.17
728.24	267.69
728.57	267.20
728.90	266.75
729.23	266.26
729.56	265.88
729.89	265.44
730.22	264.93
730.55	264.46
730.89	264.04
731.22	263.56
731.55	263.12
731.88	262.73
732.21	262.27
732.54	261.86
732.87	261.41
733.20	261.01
733.53	260.63
733.86	260.24
734.19	259.77
734.52	259.34
734.85	259.04
735.18	258.63
735.51	258.26
735.84	257.89
736.17	257.53
736.50	257.10
736.83	256.86
737.16	256.53
737.49	256.23
737.82	255.85
738.15	255.55
738.48	255.22
738.81	254.86
739.14	254.54
739.47	254.18
739.80	253.88
740.13	253.59
740.46	253.19
740.79	252.83
741.12	252.54
741.45	252.22
741.78	251.85
742.11	251.58
742.44	251.25
742.77	250.95
743.10	250.66
743.43	250.32
743.75	249.91
744.08	249.77
744.41	249.48
744.74	249.21
745.07	248.91
745.40	248.67
745.73	248.45
746.06	248.16
746.39	247.94
746.71	247.68
747.04	247.37
747.37	247.11
747.70	246.87
748.03	246.63
748.36	246.42
748.68	246.16
749.01	245.90
749.34	245.66
749.67	245.41
750.00	245.21
750.33	245.09
750.65	244.87
750.98	244.53
751.31	244.31
751.64	244.09
751.97	243.92
752.29	243.67
752.62	243.45
752.95	243.24
753.28	242.97
753.60	242.77
753.93	242.63
754.26	242.42
754.59	242.21
754.91	242.01
755.24	241.81
755.57	241.62
755.90	241.46
756.22	241.25
756.55	241.08
756.88	240.87
757.20	240.63
757.53	240.45
757.86	240.29
758.19	240.13
758.51	239.99
758.84	239.79
759.17	239.64
759.49	239.46
759.82	239.39
760.15	239.29
760.47	239.13
760.80	238.92
761.13	238.80
761.45	238.66
761.78	238.52
762.11	238.39
762.43	238.28
762.76	238.10
763.08	238.01
763.41	237.90
763.74	237.79
764.06	237.64
764.39	237.51
764.71	237.38
765.04	237.23
765.37	237.11
765.69	236.98
766.02	236.86
766.34	236.75
766.67	236.53
767.00	236.45
767.32	236.41
767.65	236.39
767.97	236.30
768.30	236.19
768.62	236.10
768.95	235.95
769.27	235.84
769.60	235.77
769.92	235.64
770.25	235.51
770.57	235.39
770.90	235.31
771.22	235.22
771.55	235.13
771.87	235.05
772.20	234.96
772.52	234.96
772.85	235.00
773.17	234.90
773.50	234.86
773.82	234.77
774.15	234.64
774.47	234.49
774.80	234.39
775.12	234.32
775.45	234.22
775.77	234.19
776.09	234.10
776.42	234.02
776.74	233.97
777.07	233.89
777.39	233.80
777.72	233.71
778.04	233.65
778.36	233.55
778.69	233.49
779.01	233.41
779.33	233.23
779.66	233.05
779.98	232.97
780.31	232.89
780.63	232.86
780.95	232.78
781.28	232.72
781.60	232.65
781.92	232.55
782.25	232.46
782.57	232.42
782.89	232.33
783.22	232.27
783.54	232.20
783.86	232.16
784.19	232.10
784.51	232.09
784.83	231.99
785.16	231.96
785.48	231.90
785.80	231.84
786.12	231.80
786.45	231.73
786.77	231.68
787.09	231.61
