SpectraSuite Data File
++++++++++++++++++++++++++++++++++++
Date: Fri Feb 01 16:04:56 EST 2013
User: group
Dark Spectrum Present: No
Reference Spectrum Present: No
Number of Sampled Component Spectra: 1
Spectrometers: USB2E7196
Integration Time (usec): 35000 (USB2E7196)
Spectra Averaged: 100 (USB2E7196)
Boxcar Smoothing: 10 (USB2E7196)
Correct for Electrical Dark: No (USB2E7196)
Strobe/Lamp Enabled: No (USB2E7196)
Correct for Detector Non-linearity: No (USB2E7196)
Correct for Stray Light: No (USB2E7196)
Number of Pixels in Processed Spectrum: 2048
>>>>>Begin Processed Spectral Data<<<<<
339.09	0.00
339.48	215.23
339.86	216.41
340.24	217.14
340.63	219.04
341.01	222.09
341.39	221.54
341.78	223.05
342.16	224.87
342.54	224.91
342.93	213.15
343.31	223.94
343.69	224.45
344.07	224.90
344.46	225.34
344.84	225.68
345.22	225.88
345.60	226.12
345.99	226.31
346.37	226.41
346.75	226.51
347.13	226.58
347.52	226.68
347.90	226.71
348.28	226.75
348.66	226.76
349.05	226.71
349.43	226.72
349.81	226.77
350.19	226.79
350.57	226.83
350.96	226.92
351.34	227.00
351.72	227.06
352.10	227.15
352.48	227.19
352.87	227.25
353.25	227.33
353.63	227.40
354.01	227.46
354.39	227.51
354.77	227.56
355.15	227.67
355.54	227.69
355.92	227.75
356.30	227.82
356.68	227.95
357.06	228.06
357.44	228.12
357.82	228.16
358.20	228.21
358.58	228.26
358.97	228.34
359.35	228.39
359.73	228.48
360.11	228.53
360.49	228.64
360.87	228.73
361.25	228.80
361.63	228.89
362.01	228.93
362.39	228.98
362.77	229.05
363.15	229.06
363.53	229.13
363.91	229.16
364.29	229.19
364.67	229.13
365.05	229.16
365.43	229.22
365.81	229.26
366.19	229.34
366.57	229.39
366.95	229.38
367.33	229.37
367.71	229.37
368.09	229.40
368.47	229.40
368.85	229.35
369.23	229.33
369.61	229.26
369.99	229.26
370.37	229.24
370.75	229.24
371.13	229.19
371.51	229.13
371.89	229.11
372.27	229.10
372.65	229.06
373.03	229.01
373.41	228.93
373.78	228.88
374.16	228.77
374.54	228.71
374.92	228.65
375.30	228.60
375.68	228.53
376.06	228.47
376.44	228.39
376.82	228.36
377.19	228.33
377.57	228.29
377.95	228.21
378.33	228.14
378.71	228.03
379.09	227.96
379.47	227.90
379.84	227.82
380.22	227.69
380.60	227.62
380.98	227.54
381.36	227.47
381.73	227.40
382.11	227.34
382.49	227.26
382.87	227.14
383.25	227.07
383.62	227.13
384.00	227.05
384.38	226.98
384.76	226.94
385.13	226.87
385.51	226.79
385.89	226.72
386.27	226.69
386.64	226.63
387.02	226.60
387.40	226.57
387.78	226.51
388.15	226.51
388.53	226.47
388.91	226.48
389.29	226.43
389.66	226.42
390.04	226.39
390.42	226.41
390.79	226.42
391.17	226.37
391.55	226.25
391.92	226.25
392.30	226.22
392.68	226.16
393.05	226.16
393.43	226.18
393.81	226.16
394.18	226.13
394.56	226.12
394.94	226.13
395.31	226.09
395.69	226.14
396.06	226.18
396.44	226.20
396.82	226.18
397.19	226.27
397.57	226.28
397.95	226.34
398.32	226.33
398.70	226.40
399.07	226.47
399.45	226.49
399.82	226.55
400.20	226.61
400.58	226.67
400.95	226.70
401.33	226.79
401.70	226.96
402.08	227.04
402.45	227.17
402.83	227.29
403.20	227.40
403.58	227.49
403.95	227.61
404.33	227.75
404.71	227.87
405.08	228.04
405.46	228.15
405.83	228.30
406.21	228.45
406.58	228.62
406.96	228.80
407.33	229.00
407.70	229.17
408.08	229.47
408.45	229.72
408.83	229.95
409.20	230.17
409.58	230.35
409.95	230.63
410.33	230.90
410.70	231.15
411.08	231.47
411.45	231.78
411.82	232.05
412.20	232.41
412.57	232.86
412.95	233.15
413.32	233.56
413.69	233.94
414.07	234.37
414.44	234.83
414.82	235.32
415.19	235.89
415.56	236.44
415.94	236.96
416.31	237.59
416.68	238.25
417.06	238.95
417.43	239.63
417.81	240.37
418.18	241.17
418.55	241.99
418.93	242.88
419.30	243.81
419.67	244.77
420.04	245.71
420.42	246.71
420.79	247.92
421.16	249.09
421.54	250.30
421.91	251.54
422.28	252.82
422.66	254.14
423.03	255.42
423.40	256.77
423.77	258.21
424.15	259.64
424.52	261.10
424.89	262.70
425.26	264.25
425.64	265.74
426.01	267.34
426.38	269.00
426.75	270.66
427.13	272.35
427.50	274.15
427.87	276.04
428.24	277.89
428.61	279.60
428.99	281.54
429.36	283.66
429.73	285.69
430.10	287.69
430.47	289.73
430.85	291.83
431.22	294.05
431.59	296.40
431.96	298.64
432.33	301.10
432.70	303.46
433.08	306.27
433.45	308.88
433.82	311.47
434.19	314.35
434.56	317.21
434.93	319.89
435.30	322.54
435.68	325.41
436.05	328.24
436.42	331.07
436.79	333.57
437.16	336.23
437.53	339.09
437.90	341.94
438.27	344.69
438.64	347.50
439.01	350.07
439.38	352.31
439.75	354.47
440.13	356.97
440.50	359.31
440.87	361.14
441.24	363.07
441.61	365.21
441.98	366.70
442.35	368.42
442.72	370.24
443.09	372.01
443.46	373.01
443.83	373.55
444.20	374.02
444.57	374.90
444.94	375.21
445.31	375.50
445.68	375.81
446.05	375.89
446.42	375.50
446.79	375.09
447.16	374.61
447.53	374.28
447.90	373.12
448.27	371.93
448.64	370.33
449.01	369.19
449.37	367.21
449.74	365.33
450.11	363.07
450.48	360.58
450.85	358.08
451.22	355.93
451.59	353.96
451.96	352.03
452.33	349.38
452.70	346.99
453.07	344.17
453.43	341.26
453.80	338.52
454.17	335.87
454.54	333.34
454.91	330.65
455.28	328.00
455.65	325.51
456.02	323.11
456.38	320.98
456.75	318.30
457.12	316.07
457.49	313.85
457.86	311.70
458.23	309.87
458.59	307.81
458.96	305.73
459.33	303.90
459.70	302.03
460.07	300.53
460.43	298.83
460.80	297.25
461.17	295.83
461.54	294.33
461.91	292.92
462.27	291.48
462.64	290.25
463.01	288.91
463.38	287.67
463.74	286.31
464.11	285.16
464.48	284.15
464.85	283.03
465.21	282.19
465.58	281.30
465.95	280.20
466.32	279.31
466.68	278.46
467.05	277.54
467.42	276.66
467.78	275.76
468.15	274.90
468.52	274.22
468.88	273.36
469.25	272.60
469.62	272.00
469.98	271.32
470.35	270.69
470.72	270.09
471.08	269.42
471.45	268.90
471.82	268.36
472.18	267.80
472.55	267.41
472.92	266.88
473.28	266.46
473.65	266.03
474.02	265.57
474.38	265.21
474.75	264.86
475.11	264.52
475.48	264.26
475.85	264.04
476.21	263.79
476.58	263.64
476.94	263.52
477.31	263.30
477.67	263.15
478.04	263.04
478.41	262.98
478.77	263.00
479.14	262.95
479.50	262.98
479.87	263.03
480.23	263.08
480.60	263.10
480.96	263.15
481.33	263.35
481.69	263.56
482.06	263.71
482.42	263.89
482.79	264.12
483.15	264.42
483.52	264.77
483.88	265.09
484.25	265.43
484.61	265.79
484.98	266.26
485.34	266.79
485.71	267.33
486.07	267.93
486.44	268.47
486.80	269.16
487.17	269.85
487.53	270.68
487.90	271.51
488.26	272.46
488.62	273.40
488.99	274.33
489.35	275.36
489.72	276.48
490.08	277.69
490.44	278.93
490.81	280.26
491.17	281.64
491.54	283.15
491.90	284.70
492.26	286.39
492.63	288.11
492.99	289.92
493.36	291.82
493.72	293.84
494.08	296.01
494.45	298.25
494.81	300.59
495.17	303.02
495.54	305.61
495.90	308.33
496.26	311.20
496.63	314.19
496.99	317.32
497.35	320.61
497.72	324.07
498.08	327.65
498.44	331.33
498.80	335.29
499.17	339.36
499.53	343.53
499.89	347.89
500.26	352.42
500.62	357.13
500.98	362.14
501.34	367.23
501.71	372.53
502.07	377.97
502.43	383.61
502.79	389.43
503.16	395.51
503.52	401.78
503.88	408.18
504.24	414.84
504.60	421.75
504.97	428.88
505.33	436.21
505.69	443.96
506.05	451.81
506.41	459.70
506.78	467.84
507.14	476.35
507.50	485.11
507.86	494.20
508.22	503.38
508.59	512.61
508.95	522.29
509.31	532.15
509.67	542.25
510.03	552.59
510.39	563.22
510.75	574.04
511.12	584.98
511.48	596.24
511.84	607.67
512.20	619.25
512.56	631.20
512.92	643.38
513.28	655.60
513.64	668.07
514.00	680.75
514.37	693.73
514.73	706.82
515.09	719.89
515.45	733.13
515.81	746.76
516.17	760.78
516.53	774.85
516.89	789.04
517.25	803.27
517.61	817.72
517.97	832.07
518.33	846.52
518.69	861.34
519.05	876.34
519.41	891.57
519.77	906.99
520.13	922.51
520.49	937.93
520.85	953.32
521.21	968.92
521.57	985.16
521.93	1000.81
522.29	1017.19
522.65	1033.33
523.01	1049.58
523.37	1065.59
523.73	1081.71
524.09	1097.82
524.45	1114.08
524.81	1130.69
525.17	1147.43
525.53	1164.33
525.89	1181.23
526.25	1198.02
526.61	1214.39
526.97	1231.14
527.33	1247.68
527.68	1264.25
528.04	1280.63
528.40	1297.29
528.76	1314.44
529.12	1331.04
529.48	1347.95
529.84	1363.76
530.20	1380.44
530.56	1397.31
530.91	1414.71
531.27	1431.34
531.63	1447.78
531.99	1464.43
532.35	1480.33
532.71	1496.20
533.07	1512.44
533.42	1528.35
533.78	1544.41
534.14	1560.65
534.50	1575.85
534.86	1591.69
535.21	1606.81
535.57	1622.58
535.93	1637.97
536.29	1652.64
536.65	1667.47
537.00	1682.14
537.36	1697.44
537.72	1711.81
538.08	1726.22
538.44	1739.85
538.79	1753.72
539.15	1767.15
539.51	1780.67
539.87	1794.94
540.22	1808.50
540.58	1822.07
540.94	1835.07
541.29	1847.68
541.65	1860.21
542.01	1873.33
542.37	1885.50
542.72	1897.81
543.08	1909.58
543.44	1921.86
543.79	1933.04
544.15	1944.05
544.51	1955.57
544.87	1966.47
545.22	1977.27
545.58	1987.51
545.94	1997.34
546.29	2007.21
546.65	2017.17
547.01	2026.42
547.36	2035.10
547.72	2043.54
548.07	2051.43
548.43	2059.73
548.79	2067.88
549.14	2075.56
549.50	2082.96
549.86	2090.67
550.21	2097.98
550.57	2105.22
550.92	2111.88
551.28	2119.09
551.64	2126.15
551.99	2132.73
552.35	2139.02
552.70	2145.13
553.06	2150.98
553.41	2157.33
553.77	2163.37
554.13	2169.31
554.48	2175.50
554.84	2180.95
555.19	2186.30
555.55	2191.53
555.90	2196.02
556.26	2201.03
556.61	2205.66
556.97	2210.06
557.32	2214.23
557.68	2218.36
558.03	2222.60
558.39	2226.35
558.74	2230.79
559.10	2234.82
559.45	2238.62
559.81	2242.89
560.16	2246.70
560.52	2250.14
560.87	2253.54
561.23	2256.35
561.58	2259.39
561.94	2261.79
562.29	2264.18
562.64	2266.82
563.00	2269.32
563.35	2272.79
563.71	2275.86
564.06	2279.05
564.42	2281.85
564.77	2284.51
565.12	2286.85
565.48	2288.88
565.83	2290.84
566.19	2292.38
566.54	2293.25
566.89	2294.34
567.25	2295.00
567.60	2296.51
567.96	2298.17
568.31	2298.92
568.66	2299.90
569.02	2300.57
569.37	2300.93
569.72	2301.98
570.08	2302.20
570.43	2302.36
570.78	2301.80
571.14	2300.25
571.49	2299.09
571.84	2298.81
572.20	2297.51
572.55	2296.45
572.90	2294.77
573.26	2293.23
573.61	2291.38
573.96	2289.66
574.31	2286.67
574.67	2283.66
575.02	2279.90
575.37	2276.43
575.72	2272.76
576.08	2269.46
576.43	2266.09
576.78	2262.44
577.13	2259.12
577.49	2256.00
577.84	2252.60
578.19	2248.88
578.54	2245.26
578.90	2240.99
579.25	2235.33
579.60	2230.50
579.95	2225.63
580.30	2220.64
580.66	2215.53
581.01	2210.63
581.36	2205.62
581.71	2201.52
582.06	2197.08
582.42	2192.76
582.77	2187.57
583.12	2182.90
583.47	2178.11
583.82	2173.15
584.17	2168.07
584.53	2162.75
584.88	2157.15
585.23	2151.43
585.58	2146.07
585.93	2140.62
586.28	2135.73
586.63	2130.78
586.98	2125.73
587.34	2120.89
587.69	2116.10
588.04	2110.89
588.39	2105.25
588.74	2098.80
589.09	2092.59
589.44	2085.84
589.79	2079.71
590.14	2074.06
590.49	2067.44
590.84	2060.97
591.19	2054.97
591.54	2048.44
591.89	2041.00
592.25	2034.28
592.60	2026.97
592.95	2019.44
593.30	2012.17
593.65	2004.72
594.00	1997.63
594.35	1990.37
594.70	1982.24
595.05	1975.07
595.40	1967.78
595.75	1960.13
596.10	1954.01
596.45	1947.35
596.80	1941.20
597.15	1934.63
597.50	1927.59
597.85	1921.24
598.19	1914.87
598.54	1907.82
598.89	1901.19
599.24	1895.16
599.59	1888.51
599.94	1882.34
600.29	1875.83
600.64	1869.16
600.99	1861.80
601.34	1855.06
601.69	1848.03
602.04	1841.28
602.39	1833.89
602.74	1827.14
603.08	1820.53
603.43	1813.71
603.78	1806.24
604.13	1799.00
604.48	1791.78
604.83	1784.75
605.18	1777.84
605.53	1769.78
605.87	1761.63
606.22	1754.32
606.57	1746.34
606.92	1738.82
607.27	1731.56
607.62	1724.70
607.96	1717.48
608.31	1710.73
608.66	1703.03
609.01	1695.43
609.36	1687.83
609.70	1679.75
610.05	1671.56
610.40	1663.72
610.75	1655.39
611.10	1647.73
611.44	1639.25
611.79	1631.11
612.14	1622.56
612.49	1613.28
612.83	1604.82
613.18	1596.81
613.53	1588.82
613.88	1580.30
614.22	1572.13
614.57	1563.53
614.92	1555.45
615.27	1547.80
615.61	1539.50
615.96	1531.52
616.31	1523.88
616.65	1516.53
617.00	1509.08
617.35	1501.43
617.70	1493.28
618.04	1484.93
618.39	1476.75
618.74	1469.21
619.08	1460.95
619.43	1453.39
619.78	1446.50
620.12	1439.40
620.47	1431.96
620.82	1423.80
621.16	1416.47
621.51	1408.91
621.85	1401.33
622.20	1392.93
622.55	1384.67
622.89	1376.93
623.24	1369.30
623.59	1361.90
623.93	1354.34
624.28	1347.01
624.62	1339.51
624.97	1332.23
625.32	1325.36
625.66	1318.37
626.01	1311.12
626.35	1303.66
626.70	1295.98
627.04	1288.37
627.39	1280.43
627.73	1272.90
628.08	1265.99
628.43	1258.67
628.77	1251.35
629.12	1243.78
629.46	1236.55
629.81	1229.01
630.15	1221.72
630.50	1214.22
630.84	1206.03
631.19	1198.10
631.53	1190.60
631.88	1183.01
632.22	1175.44
632.57	1168.09
632.91	1160.54
633.26	1153.28
633.60	1145.92
633.95	1138.75
634.29	1131.65
634.64	1125.02
634.98	1117.70
635.32	1110.56
635.67	1103.96
636.01	1097.32
636.36	1090.51
636.70	1083.95
637.05	1077.44
637.39	1070.99
637.73	1064.52
638.08	1058.65
638.42	1052.69
638.77	1046.25
639.11	1039.68
639.45	1033.34
639.80	1026.75
640.14	1020.33
640.49	1013.75
640.83	1007.51
641.17	1001.29
641.52	994.95
641.86	988.54
642.20	982.70
642.55	976.37
642.89	969.96
643.23	963.33
643.58	957.58
643.92	951.39
644.26	945.40
644.61	939.29
644.95	933.28
645.29	926.73
645.64	919.98
645.98	913.63
646.32	907.80
646.66	901.80
647.01	895.93
647.35	890.24
647.69	884.33
648.04	878.70
648.38	872.94
648.72	866.92
649.06	860.88
649.41	854.89
649.75	848.85
650.09	842.85
650.43	837.04
650.78	830.89
651.12	824.99
651.46	819.23
651.80	813.52
652.14	808.14
652.49	802.77
652.83	797.58
653.17	791.95
653.51	786.23
653.85	780.78
654.20	775.20
654.54	769.11
654.88	763.40
655.22	757.55
655.56	751.82
655.90	746.34
656.25	741.03
656.59	735.71
656.93	730.69
657.27	725.54
657.61	720.14
657.95	715.05
658.29	709.94
658.64	704.61
658.98	699.29
659.32	693.79
659.66	688.57
660.00	683.28
660.34	678.35
660.68	673.42
661.02	668.42
661.36	663.69
661.70	659.28
662.05	654.95
662.39	650.55
662.73	646.03
663.07	641.71
663.41	637.25
663.75	632.74
664.09	628.16
664.43	623.75
664.77	619.66
665.11	615.35
665.45	611.19
665.79	607.13
666.13	602.95
666.47	598.84
666.81	594.63
667.15	590.50
667.49	586.59
667.83	582.76
668.17	578.72
668.51	574.64
668.85	570.53
669.19	566.63
669.53	562.90
669.87	559.06
670.21	555.37
670.55	551.77
670.89	548.33
671.23	544.91
671.57	541.39
671.91	537.79
672.25	534.30
672.58	530.74
672.92	527.30
673.26	524.18
673.60	521.04
673.94	517.93
674.28	514.99
674.62	511.99
674.96	508.87
675.30	506.06
675.64	503.13
675.97	500.38
676.31	497.51
676.65	494.52
676.99	491.79
677.33	488.84
677.67	485.99
678.01	482.95
678.34	479.95
678.68	477.08
679.02	474.25
679.36	471.51
679.70	468.73
680.04	466.04
680.37	463.13
680.71	460.33
681.05	457.73
681.39	455.04
681.73	452.40
682.06	449.89
682.40	447.30
682.74	444.77
683.08	442.20
683.42	439.60
683.75	437.14
684.09	434.61
684.43	432.21
684.77	429.79
685.10	427.49
685.44	425.21
685.78	422.91
686.12	420.71
686.45	418.46
686.79	416.25
687.13	414.05
687.46	411.93
687.80	409.79
688.14	407.54
688.48	405.45
688.81	403.24
689.15	401.05
689.49	398.86
689.82	396.81
690.16	394.78
690.50	392.85
690.83	390.87
691.17	388.86
691.51	386.94
691.84	385.06
692.18	383.12
692.52	381.07
692.85	379.17
693.19	377.24
693.52	375.41
693.86	373.59
694.20	371.79
694.53	369.97
694.87	368.10
695.21	366.35
695.54	364.58
695.88	362.88
696.21	361.17
696.55	359.54
696.88	357.80
697.22	356.08
697.56	354.44
697.89	352.80
698.23	351.22
698.56	349.58
698.90	348.01
699.23	346.38
699.57	344.88
699.90	343.31
700.24	341.78
700.58	340.23
700.91	338.73
701.25	337.30
701.58	335.91
701.92	334.58
702.25	333.20
702.59	331.82
702.92	330.47
703.26	329.19
703.59	327.87
703.93	326.72
704.26	325.52
704.60	324.21
704.93	322.92
705.26	321.69
705.60	320.53
705.93	319.34
706.27	318.31
706.60	317.22
706.94	316.13
707.27	315.02
707.61	313.94
707.94	312.88
708.27	311.77
708.61	310.64
708.94	309.57
709.28	308.58
709.61	307.61
709.94	306.66
710.28	305.62
710.61	304.65
710.95	303.53
711.28	302.60
711.61	301.66
711.95	300.78
712.28	299.86
712.61	298.87
712.95	297.95
713.28	297.01
713.61	296.12
713.95	295.27
714.28	294.44
714.61	293.60
714.95	292.73
715.28	291.87
715.61	291.00
715.95	290.19
716.28	289.38
716.61	288.50
716.95	287.64
717.28	286.89
717.61	286.13
717.94	285.42
718.28	284.62
718.61	283.86
718.94	283.13
719.27	282.42
719.61	281.77
719.94	281.13
720.27	280.45
720.60	279.78
720.94	279.12
721.27	278.49
721.60	277.89
721.93	277.34
722.27	276.78
722.60	276.22
722.93	275.64
723.26	275.08
723.59	274.56
723.93	274.03
724.26	273.46
724.59	272.91
724.92	272.38
725.25	271.87
725.59	271.37
725.92	270.86
726.25	270.38
726.58	269.90
726.91	269.39
727.24	268.91
727.57	268.43
727.91	267.94
728.24	267.48
728.57	267.01
728.90	266.55
729.23	266.06
729.56	265.67
729.89	265.21
730.22	264.71
730.55	264.22
730.89	263.77
731.22	263.36
731.55	262.94
731.88	262.50
732.21	262.09
732.54	261.68
732.87	261.28
733.20	260.88
733.53	260.48
733.86	260.11
734.19	259.72
734.52	259.37
734.85	259.07
735.18	258.67
735.51	258.29
735.84	257.93
736.17	257.61
736.50	257.22
736.83	256.99
737.16	256.66
737.49	256.35
737.82	256.00
738.15	255.66
738.48	255.31
738.81	255.01
739.14	254.69
739.47	254.35
739.80	254.03
740.13	253.68
740.46	253.39
740.79	253.04
741.12	252.77
741.45	252.43
741.78	252.06
742.11	251.78
742.44	251.46
742.77	251.18
743.10	250.87
743.43	250.58
743.75	250.19
744.08	250.03
744.41	249.77
744.74	249.50
745.07	249.23
745.40	248.98
745.73	248.70
746.06	248.43
746.39	248.16
746.71	247.88
747.04	247.63
747.37	247.35
747.70	247.12
748.03	246.85
748.36	246.62
748.68	246.38
749.01	246.11
749.34	245.92
749.67	245.65
750.00	245.43
750.33	245.29
750.65	245.08
750.98	244.77
751.31	244.54
751.64	244.37
751.97	244.20
752.29	243.99
752.62	243.76
752.95	243.54
753.28	243.31
753.60	243.10
753.93	242.94
754.26	242.73
754.59	242.47
754.91	242.24
755.24	242.02
755.57	241.80
755.90	241.62
756.22	241.39
756.55	241.17
756.88	240.97
757.20	240.70
757.53	240.48
757.86	240.29
758.19	240.14
758.51	239.93
758.84	239.70
759.17	239.54
759.49	239.35
759.82	239.24
760.15	239.08
760.47	238.92
760.80	238.74
761.13	238.62
761.45	238.48
761.78	238.33
762.11	238.22
762.43	238.09
762.76	237.95
763.08	237.84
763.41	237.74
763.74	237.61
764.06	237.48
764.39	237.36
764.71	237.20
765.04	237.07
765.37	236.94
765.69	236.83
766.02	236.69
766.34	236.59
766.67	236.44
767.00	236.40
767.32	236.34
767.65	236.29
767.97	236.17
768.30	236.07
768.62	235.98
768.95	235.84
769.27	235.75
769.60	235.65
769.92	235.54
770.25	235.42
770.57	235.32
770.90	235.22
771.22	235.11
771.55	235.06
771.87	234.97
772.20	234.88
772.52	234.90
772.85	234.91
773.17	234.83
773.50	234.74
773.82	234.63
774.15	234.49
774.47	234.35
774.80	234.30
775.12	234.25
775.45	234.16
775.77	234.10
776.09	234.03
776.42	233.94
776.74	233.89
777.07	233.83
777.39	233.74
777.72	233.65
778.04	233.61
778.36	233.51
778.69	233.45
779.01	233.37
779.33	233.21
779.66	233.04
779.98	232.96
780.31	232.87
780.63	232.82
780.95	232.76
781.28	232.69
781.60	232.58
781.92	232.51
782.25	232.49
782.57	232.43
782.89	232.34
783.22	232.30
783.54	232.20
783.86	232.20
784.19	232.14
784.51	232.12
784.83	232.03
785.16	231.98
785.48	231.91
785.80	231.84
786.12	231.77
786.45	231.71
786.77	231.69
787.09	231.64
