SpectraSuite Data File
++++++++++++++++++++++++++++++++++++
Date: Fri Feb 01 15:29:31 EST 2013
User: group
Dark Spectrum Present: No
Reference Spectrum Present: No
Number of Sampled Component Spectra: 1
Spectrometers: USB2E7196
Integration Time (usec): 35000 (USB2E7196)
Spectra Averaged: 100 (USB2E7196)
Boxcar Smoothing: 10 (USB2E7196)
Correct for Electrical Dark: No (USB2E7196)
Strobe/Lamp Enabled: No (USB2E7196)
Correct for Detector Non-linearity: No (USB2E7196)
Correct for Stray Light: No (USB2E7196)
Number of Pixels in Processed Spectrum: 2048
>>>>>Begin Processed Spectral Data<<<<<
339.09	0.00
339.48	215.10
339.86	215.93
340.24	218.09
340.63	219.00
341.01	222.60
341.39	222.48
341.78	223.35
342.16	224.42
342.54	224.69
342.93	213.38
343.31	224.17
343.69	224.71
344.07	225.22
344.46	225.63
344.84	226.02
345.22	226.23
345.60	226.45
345.99	226.65
346.37	226.80
346.75	226.92
347.13	226.98
347.52	227.02
347.90	227.06
348.28	227.09
348.66	227.11
349.05	227.09
349.43	227.15
349.81	227.23
350.19	227.30
350.57	227.35
350.96	227.44
351.34	227.51
351.72	227.58
352.10	227.65
352.48	227.71
352.87	227.78
353.25	227.85
353.63	227.91
354.01	227.92
354.39	227.98
354.77	228.04
355.15	228.13
355.54	228.17
355.92	228.19
356.30	228.32
356.68	228.43
357.06	228.52
357.44	228.55
357.82	228.58
358.20	228.64
358.58	228.71
358.97	228.78
359.35	228.84
359.73	228.93
360.11	228.97
360.49	229.05
360.87	229.08
361.25	229.14
361.63	229.20
362.01	229.27
362.39	229.29
362.77	229.33
363.15	229.37
363.53	229.40
363.91	229.43
364.29	229.42
364.67	229.39
365.05	229.37
365.43	229.40
365.81	229.42
366.19	229.42
366.57	229.45
366.95	229.42
367.33	229.37
367.71	229.34
368.09	229.37
368.47	229.34
368.85	229.29
369.23	229.28
369.61	229.24
369.99	229.23
370.37	229.26
370.75	229.26
371.13	229.19
371.51	229.13
371.89	229.12
372.27	229.08
372.65	229.02
373.03	228.98
373.41	228.91
373.78	228.83
374.16	228.71
374.54	228.61
374.92	228.54
375.30	228.49
375.68	228.41
376.06	228.33
376.44	228.23
376.82	228.17
377.19	228.09
377.57	228.02
377.95	227.93
378.33	227.79
378.71	227.71
379.09	227.64
379.47	227.58
379.84	227.51
380.22	227.45
380.60	227.37
380.98	227.28
381.36	227.23
381.73	227.16
382.11	227.16
382.49	227.13
382.87	227.06
383.25	227.01
383.62	227.07
384.00	226.97
384.38	226.93
384.76	226.89
385.13	226.89
385.51	226.82
385.89	226.77
386.27	226.75
386.64	226.71
387.02	226.68
387.40	226.62
387.78	226.55
388.15	226.50
388.53	226.44
388.91	226.44
389.29	226.40
389.66	226.37
390.04	226.33
390.42	226.27
390.79	226.29
391.17	226.27
391.55	226.15
391.92	226.20
392.30	226.23
392.68	226.24
393.05	226.20
393.43	226.19
393.81	226.17
394.18	226.14
394.56	226.16
394.94	226.21
395.31	226.25
395.69	226.30
396.06	226.36
396.44	226.42
396.82	226.44
397.19	226.52
397.57	226.60
397.95	226.70
398.32	226.74
398.70	226.79
399.07	226.87
399.45	226.94
399.82	226.99
400.20	227.05
400.58	227.13
400.95	227.17
401.33	227.32
401.70	227.50
402.08	227.64
402.45	227.73
402.83	227.84
403.20	227.96
403.58	228.09
403.95	228.20
404.33	228.35
404.71	228.52
405.08	228.69
405.46	228.85
405.83	228.97
406.21	229.17
406.58	229.32
406.96	229.47
407.33	229.63
407.70	229.81
408.08	230.10
408.45	230.29
408.83	230.56
409.20	230.74
409.58	230.93
409.95	231.19
410.33	231.44
410.70	231.70
411.08	232.01
411.45	232.30
411.82	232.62
412.20	232.95
412.57	233.33
412.95	233.62
413.32	234.01
413.69	234.42
414.07	234.81
414.44	235.32
414.82	235.82
415.19	236.35
415.56	236.93
415.94	237.47
416.31	238.14
416.68	238.74
417.06	239.47
417.43	240.15
417.81	240.89
418.18	241.67
418.55	242.49
418.93	243.36
419.30	244.29
419.67	245.24
420.04	246.20
420.42	247.18
420.79	248.35
421.16	249.49
421.54	250.70
421.91	251.95
422.28	253.18
422.66	254.49
423.03	255.83
423.40	257.13
423.77	258.54
424.15	259.98
424.52	261.50
424.89	263.11
425.26	264.65
425.64	266.09
426.01	267.70
426.38	269.37
426.75	271.07
427.13	272.77
427.50	274.55
427.87	276.43
428.24	278.30
428.61	280.09
428.99	282.04
429.36	284.10
429.73	286.16
430.10	288.24
430.47	290.35
430.85	292.44
431.22	294.71
431.59	297.09
431.96	299.35
432.33	301.81
432.70	304.21
433.08	307.11
433.45	309.76
433.82	312.37
434.19	315.27
434.56	318.07
434.93	320.73
435.30	323.37
435.68	326.27
436.05	329.16
436.42	331.97
436.79	334.52
437.16	337.25
437.53	340.10
437.90	342.86
438.27	345.60
438.64	348.44
439.01	351.02
439.38	353.28
439.75	355.39
440.13	357.89
440.50	360.21
440.87	362.02
441.24	363.97
441.61	366.16
441.98	367.64
442.35	369.46
442.72	371.32
443.09	373.10
443.46	374.08
443.83	374.66
444.20	375.14
444.57	375.95
444.94	376.23
445.31	376.52
445.68	376.88
446.05	376.91
446.42	376.49
446.79	376.05
447.16	375.62
447.53	375.28
447.90	374.10
448.27	372.95
448.64	371.33
449.01	370.17
449.37	368.20
449.74	366.30
450.11	364.03
450.48	361.54
450.85	359.05
451.22	356.93
451.59	354.84
451.96	352.86
452.33	350.25
452.70	347.87
453.07	345.03
453.43	342.13
453.80	339.36
454.17	336.72
454.54	334.21
454.91	331.44
455.28	328.81
455.65	326.35
456.02	323.88
456.38	321.71
456.75	319.05
457.12	316.78
457.49	314.51
457.86	312.34
458.23	310.49
458.59	308.43
458.96	306.33
459.33	304.50
459.70	302.66
460.07	301.13
460.43	299.42
460.80	297.79
461.17	296.34
461.54	294.84
461.91	293.40
462.27	291.95
462.64	290.69
463.01	289.30
463.38	287.97
463.74	286.57
464.11	285.46
464.48	284.45
464.85	283.34
465.21	282.46
465.58	281.52
465.95	280.40
466.32	279.48
466.68	278.55
467.05	277.65
467.42	276.72
467.78	275.81
468.15	274.96
468.52	274.33
468.88	273.45
469.25	272.70
469.62	272.02
469.98	271.33
470.35	270.69
470.72	270.09
471.08	269.46
471.45	268.94
471.82	268.36
472.18	267.72
472.55	267.29
472.92	266.80
473.28	266.32
473.65	265.87
474.02	265.41
474.38	265.06
474.75	264.72
475.11	264.39
475.48	264.08
475.85	263.84
476.21	263.61
476.58	263.45
476.94	263.32
477.31	263.19
477.67	263.04
478.04	262.94
478.41	262.86
478.77	262.90
479.14	262.83
479.50	262.83
479.87	262.90
480.23	262.93
480.60	262.97
480.96	263.08
481.33	263.29
481.69	263.49
482.06	263.66
482.42	263.88
482.79	264.16
483.15	264.52
483.52	264.90
483.88	265.20
484.25	265.59
484.61	266.00
484.98	266.46
485.34	267.03
485.71	267.60
486.07	268.23
486.44	268.77
486.80	269.47
487.17	270.23
487.53	271.05
487.90	271.90
488.26	272.86
488.62	273.83
488.99	274.79
489.35	275.84
489.72	277.01
490.08	278.19
490.44	279.40
490.81	280.69
491.17	282.00
491.54	283.49
491.90	285.05
492.26	286.68
492.63	288.39
492.99	290.19
493.36	292.12
493.72	294.12
494.08	296.23
494.45	298.50
494.81	300.84
495.17	303.30
495.54	305.84
495.90	308.50
496.26	311.32
496.63	314.26
496.99	317.34
497.35	320.59
497.72	324.01
498.08	327.57
498.44	331.27
498.80	335.18
499.17	339.23
499.53	343.34
499.89	347.74
500.26	352.24
500.62	356.84
500.98	361.77
501.34	366.87
501.71	372.19
502.07	377.61
502.43	383.23
502.79	389.04
503.16	395.13
503.52	401.44
503.88	407.77
504.24	414.43
504.60	421.41
504.97	428.50
505.33	435.85
505.69	443.53
506.05	451.30
506.41	459.18
506.78	467.39
507.14	475.87
507.50	484.63
507.86	493.66
508.22	502.90
508.59	512.12
508.95	521.76
509.31	531.58
509.67	541.71
510.03	552.02
510.39	562.57
510.75	573.45
511.12	584.42
511.48	595.76
511.84	607.31
512.20	618.81
512.56	630.78
512.92	642.95
513.28	655.28
513.64	667.74
514.00	680.53
514.37	693.43
514.73	706.55
515.09	719.59
515.45	732.88
515.81	746.47
516.17	760.49
516.53	774.60
516.89	788.82
517.25	803.06
517.61	817.49
517.97	832.02
518.33	846.47
518.69	861.25
519.05	876.37
519.41	891.50
519.77	907.08
520.13	922.67
520.49	938.01
520.85	953.51
521.21	969.37
521.57	985.65
521.93	1001.48
522.29	1017.90
522.65	1034.19
523.01	1050.52
523.37	1066.61
523.73	1082.89
524.09	1099.12
524.45	1115.44
524.81	1132.09
525.17	1148.98
525.53	1165.94
525.89	1182.74
526.25	1199.64
526.61	1215.94
526.97	1232.75
527.33	1249.28
527.68	1265.94
528.04	1282.58
528.40	1299.30
528.76	1316.38
529.12	1332.92
529.48	1349.91
529.84	1366.00
530.20	1382.63
530.56	1399.69
530.91	1417.24
531.27	1434.02
531.63	1450.50
531.99	1467.21
532.35	1483.23
532.71	1499.15
533.07	1515.43
533.42	1531.57
533.78	1547.56
534.14	1563.91
534.50	1579.29
534.86	1595.25
535.21	1610.47
535.57	1626.46
535.93	1641.99
536.29	1656.89
536.65	1672.11
537.00	1686.98
537.36	1702.34
537.72	1717.07
538.08	1731.49
538.44	1745.30
538.79	1759.27
539.15	1773.02
539.51	1786.77
539.87	1801.16
540.22	1814.93
540.58	1828.69
540.94	1842.06
541.29	1855.08
541.65	1867.95
542.01	1881.33
542.37	1893.59
542.72	1905.97
543.08	1917.68
543.44	1930.20
543.79	1941.41
544.15	1952.46
544.51	1963.96
544.87	1974.94
545.22	1985.71
545.58	1995.93
545.94	2005.85
546.29	2015.68
546.65	2025.51
547.01	2034.89
547.36	2043.65
547.72	2052.11
548.07	2060.09
548.43	2068.26
548.79	2076.28
549.14	2083.75
549.50	2091.19
549.86	2099.14
550.21	2106.56
550.57	2113.92
550.92	2120.43
551.28	2127.52
551.64	2134.49
551.99	2141.04
552.35	2147.18
552.70	2153.24
553.06	2159.30
553.41	2165.58
553.77	2171.74
554.13	2177.82
554.48	2183.93
554.84	2189.31
555.19	2194.71
555.55	2199.78
555.90	2204.20
556.26	2209.02
556.61	2213.82
556.97	2217.98
557.32	2221.97
557.68	2226.06
558.03	2230.27
558.39	2234.02
558.74	2238.50
559.10	2242.40
559.45	2246.06
559.81	2250.31
560.16	2254.22
560.52	2257.49
560.87	2260.86
561.23	2263.31
561.58	2266.17
561.94	2268.61
562.29	2271.21
562.64	2274.04
563.00	2276.62
563.35	2280.27
563.71	2283.48
564.06	2286.74
564.42	2289.41
564.77	2291.86
565.12	2294.15
565.48	2295.95
565.83	2297.80
566.19	2299.28
566.54	2300.32
566.89	2301.54
567.25	2302.25
567.60	2303.44
567.96	2305.08
568.31	2305.88
568.66	2307.05
569.02	2307.79
569.37	2308.08
569.72	2308.81
570.08	2308.70
570.43	2308.76
570.78	2308.01
571.14	2306.34
571.49	2304.86
571.84	2304.48
572.20	2303.34
572.55	2302.27
572.90	2300.74
573.26	2299.23
573.61	2297.37
573.96	2295.41
574.31	2292.18
574.67	2289.14
575.02	2285.37
575.37	2282.00
575.72	2278.19
576.08	2274.78
576.43	2271.24
576.78	2267.49
577.13	2264.22
577.49	2261.14
577.84	2257.57
578.19	2253.66
578.54	2250.03
578.90	2245.81
579.25	2240.38
579.60	2235.31
579.95	2230.22
580.30	2225.18
580.66	2219.76
581.01	2214.80
581.36	2209.84
581.71	2205.70
582.06	2201.22
582.42	2196.85
582.77	2191.40
583.12	2186.78
583.47	2181.86
583.82	2176.95
584.17	2171.61
584.53	2166.11
584.88	2160.30
585.23	2154.41
585.58	2148.95
585.93	2143.48
586.28	2138.58
586.63	2133.41
586.98	2128.24
587.34	2123.36
587.69	2118.30
588.04	2113.29
588.39	2107.43
588.74	2100.97
589.09	2094.81
589.44	2087.69
589.79	2081.59
590.14	2075.98
590.49	2069.42
590.84	2063.10
591.19	2056.91
591.54	2050.50
591.89	2042.99
592.25	2036.23
592.60	2029.09
592.95	2021.56
593.30	2014.07
593.65	2006.44
594.00	1999.37
594.35	1992.05
594.70	1983.97
595.05	1976.76
595.40	1969.26
595.75	1961.85
596.10	1955.55
596.45	1948.67
596.80	1942.61
597.15	1936.01
597.50	1928.78
597.85	1922.16
598.19	1915.34
598.54	1908.22
598.89	1901.58
599.24	1895.56
599.59	1888.78
599.94	1882.41
600.29	1876.00
600.64	1869.31
600.99	1861.67
601.34	1854.69
601.69	1847.69
602.04	1840.79
602.39	1833.47
602.74	1826.69
603.08	1819.92
603.43	1813.09
603.78	1805.78
604.13	1798.51
604.48	1791.09
604.83	1784.20
605.18	1777.16
605.53	1769.26
605.87	1761.13
606.22	1753.84
606.57	1745.90
606.92	1738.58
607.27	1731.44
607.62	1724.44
607.96	1717.26
608.31	1710.77
608.66	1703.10
609.01	1695.49
609.36	1687.90
609.70	1679.89
610.05	1671.75
610.40	1663.96
610.75	1655.62
611.10	1647.91
611.44	1639.57
611.79	1631.59
612.14	1623.04
612.49	1613.90
612.83	1605.45
613.18	1597.26
613.53	1589.17
613.88	1580.65
614.22	1572.34
614.57	1563.74
614.92	1555.71
615.27	1548.11
615.61	1539.65
615.96	1531.66
616.31	1524.03
616.65	1516.65
617.00	1509.06
617.35	1501.31
617.70	1492.85
618.04	1484.29
618.39	1476.12
618.74	1468.45
619.08	1460.15
619.43	1452.40
619.78	1445.58
620.12	1438.45
620.47	1430.96
620.82	1422.70
621.16	1415.36
621.51	1407.77
621.85	1400.11
622.20	1391.42
622.55	1383.08
622.89	1375.32
623.24	1367.69
623.59	1360.36
623.93	1352.79
624.28	1345.55
624.62	1338.07
624.97	1330.97
625.32	1324.26
625.66	1317.16
626.01	1309.91
626.35	1302.37
626.70	1294.65
627.04	1286.81
627.39	1279.03
627.73	1271.60
628.08	1264.69
628.43	1257.34
628.77	1249.85
629.12	1242.15
629.46	1235.05
629.81	1227.62
630.15	1220.31
630.50	1212.94
630.84	1204.66
631.19	1196.77
631.53	1189.17
631.88	1181.51
632.22	1173.91
632.57	1166.63
632.91	1159.12
633.26	1151.70
633.60	1144.38
633.95	1137.31
634.29	1130.37
634.64	1123.72
634.98	1116.45
635.32	1109.31
635.67	1102.68
636.01	1096.19
636.36	1089.53
636.70	1083.04
637.05	1076.53
637.39	1070.11
637.73	1063.69
638.08	1057.96
638.42	1052.03
638.77	1045.59
639.11	1039.05
639.45	1032.71
639.80	1025.96
640.14	1019.47
640.49	1013.01
640.83	1006.76
641.17	1000.51
641.52	994.12
641.86	987.54
642.20	981.75
642.55	975.39
642.89	968.84
643.23	962.24
643.58	956.41
643.92	950.24
644.26	944.16
644.61	938.17
644.95	931.98
645.29	925.28
645.64	918.49
645.98	912.17
646.32	906.34
646.66	900.30
647.01	894.55
647.35	888.85
647.69	883.04
648.04	877.44
648.38	871.60
648.72	865.61
649.06	859.63
649.41	853.69
649.75	847.70
650.09	841.76
650.43	835.94
650.78	829.77
651.12	823.84
651.46	818.07
651.80	812.31
652.14	807.04
652.49	801.69
652.83	796.51
653.17	790.84
653.51	785.11
653.85	779.69
654.20	774.02
654.54	768.04
654.88	762.28
655.22	756.38
655.56	750.72
655.90	745.24
656.25	739.97
656.59	734.60
656.93	729.60
657.27	724.43
657.61	719.00
657.95	714.01
658.29	708.87
658.64	703.70
658.98	698.35
659.32	692.80
659.66	687.57
660.00	682.28
660.34	677.30
660.68	672.43
661.02	667.43
661.36	662.79
661.70	658.37
662.05	653.98
662.39	649.68
662.73	645.21
663.07	640.86
663.41	636.44
663.75	631.93
664.09	627.35
664.43	623.00
664.77	618.90
665.11	614.60
665.45	610.49
665.79	606.38
666.13	602.27
666.47	598.19
666.81	594.04
667.15	589.95
667.49	586.03
667.83	582.24
668.17	578.31
668.51	574.21
668.85	570.12
669.19	566.27
669.53	562.47
669.87	558.60
670.21	554.93
670.55	551.27
670.89	547.84
671.23	544.44
671.57	540.95
671.91	537.44
672.25	533.91
672.58	530.37
672.92	526.92
673.26	523.76
673.60	520.64
673.94	517.54
674.28	514.61
674.62	511.67
674.96	508.58
675.30	505.66
675.64	502.70
675.97	499.97
676.31	497.22
676.65	494.28
676.99	491.57
677.33	488.68
677.67	485.89
678.01	482.87
678.34	479.84
678.68	476.97
679.02	474.13
679.36	471.46
679.70	468.82
680.04	466.07
680.37	463.19
680.71	460.40
681.05	457.85
681.39	455.17
681.73	452.50
682.06	449.97
682.40	447.44
682.74	444.98
683.08	442.44
683.42	439.75
683.75	437.21
684.09	434.70
684.43	432.22
684.77	429.77
685.10	427.41
685.44	425.11
685.78	422.83
686.12	420.56
686.45	418.27
686.79	415.94
687.13	413.80
687.46	411.67
687.80	409.48
688.14	407.21
688.48	405.14
688.81	402.95
689.15	400.80
689.49	398.66
689.82	396.58
690.16	394.49
690.50	392.55
690.83	390.65
691.17	388.65
691.51	386.75
691.84	384.86
692.18	382.88
692.52	380.93
692.85	378.98
693.19	377.16
693.52	375.27
693.86	373.49
694.20	371.73
694.53	369.90
694.87	368.13
695.21	366.37
695.54	364.52
695.88	362.76
696.21	361.04
696.55	359.36
696.88	357.61
697.22	355.95
697.56	354.31
697.89	352.64
698.23	351.05
698.56	349.42
698.90	347.83
699.23	346.22
699.57	344.72
699.90	343.19
700.24	341.62
700.58	340.10
700.91	338.61
701.25	337.14
701.58	335.80
701.92	334.42
702.25	333.07
702.59	331.69
702.92	330.42
703.26	329.10
703.59	327.79
703.93	326.66
704.26	325.46
704.60	324.18
704.93	322.94
705.26	321.69
705.60	320.55
705.93	319.40
706.27	318.41
706.60	317.32
706.94	316.29
707.27	315.16
707.61	314.15
707.94	313.12
708.27	312.00
708.61	310.91
708.94	309.90
709.28	308.94
709.61	308.02
709.94	307.05
710.28	306.02
710.61	305.06
710.95	303.97
711.28	303.04
711.61	302.11
711.95	301.16
712.28	300.21
712.61	299.22
712.95	298.28
713.28	297.36
713.61	296.46
713.95	295.52
714.28	294.66
714.61	293.78
714.95	292.91
715.28	292.09
715.61	291.23
715.95	290.36
716.28	289.47
716.61	288.63
716.95	287.81
717.28	287.11
717.61	286.35
717.94	285.60
718.28	284.79
718.61	284.03
718.94	283.34
719.27	282.68
719.61	281.99
719.94	281.36
720.27	280.66
720.60	279.98
720.94	279.39
721.27	278.79
721.60	278.24
721.93	277.63
722.27	277.07
722.60	276.53
722.93	275.98
723.26	275.41
723.59	274.84
723.93	274.29
724.26	273.74
724.59	273.21
724.92	272.71
725.25	272.18
725.59	271.65
725.92	271.12
726.25	270.61
726.58	270.15
726.91	269.65
727.24	269.18
727.57	268.68
727.91	268.14
728.24	267.67
728.57	267.12
728.90	266.68
729.23	266.17
729.56	265.70
729.89	265.21
730.22	264.75
730.55	264.26
730.89	263.83
731.22	263.36
731.55	262.94
731.88	262.47
732.21	262.04
732.54	261.66
732.87	261.25
733.20	260.90
733.53	260.51
733.86	260.12
734.19	259.71
734.52	259.35
734.85	259.05
735.18	258.65
735.51	258.31
735.84	257.93
736.17	257.57
736.50	257.15
736.83	256.91
737.16	256.58
737.49	256.28
737.82	255.91
738.15	255.60
738.48	255.24
738.81	254.95
739.14	254.62
739.47	254.32
739.80	253.99
740.13	253.65
740.46	253.30
740.79	252.97
741.12	252.68
741.45	252.38
741.78	252.04
742.11	251.76
742.44	251.45
742.77	251.17
743.10	250.87
743.43	250.61
743.75	250.25
744.08	250.09
744.41	249.81
744.74	249.53
745.07	249.25
745.40	248.99
745.73	248.75
746.06	248.48
746.39	248.20
746.71	247.96
747.04	247.67
747.37	247.46
747.70	247.28
748.03	247.03
748.36	246.80
748.68	246.61
749.01	246.37
749.34	246.15
749.67	245.92
750.00	245.73
750.33	245.63
750.65	245.42
750.98	245.07
751.31	244.85
751.64	244.68
751.97	244.50
752.29	244.27
752.62	244.05
752.95	243.85
753.28	243.65
753.60	243.46
753.93	243.33
754.26	243.13
754.59	242.86
754.91	242.65
755.24	242.46
755.57	242.25
755.90	242.04
756.22	241.86
756.55	241.67
756.88	241.48
757.20	241.20
757.53	241.01
757.86	240.85
758.19	240.72
758.51	240.55
758.84	240.34
759.17	240.19
759.49	240.03
759.82	239.91
760.15	239.74
760.47	239.56
760.80	239.37
761.13	239.20
761.45	239.06
761.78	238.93
762.11	238.76
762.43	238.58
762.76	238.45
763.08	238.31
763.41	238.18
763.74	238.03
764.06	237.87
764.39	237.70
764.71	237.57
765.04	237.44
765.37	237.35
765.69	237.22
766.02	237.08
766.34	236.91
766.67	236.76
767.00	236.65
767.32	236.63
767.65	236.56
767.97	236.49
768.30	236.40
768.62	236.28
768.95	236.19
769.27	236.08
769.60	235.96
769.92	235.85
770.25	235.72
770.57	235.59
770.90	235.49
771.22	235.42
771.55	235.33
771.87	235.21
772.20	235.05
772.52	235.03
772.85	235.04
773.17	234.98
773.50	234.89
773.82	234.80
774.15	234.64
774.47	234.46
774.80	234.34
775.12	234.23
775.45	234.16
775.77	234.05
776.09	233.97
776.42	233.91
776.74	233.82
777.07	233.75
777.39	233.71
777.72	233.63
778.04	233.55
778.36	233.46
778.69	233.41
779.01	233.37
779.33	233.22
779.66	233.05
779.98	232.94
780.31	232.88
780.63	232.85
780.95	232.80
781.28	232.76
781.60	232.67
781.92	232.58
782.25	232.49
782.57	232.46
782.89	232.40
783.22	232.33
783.54	232.31
783.86	232.25
784.19	232.16
784.51	232.12
784.83	232.07
785.16	232.01
785.48	231.94
785.80	231.90
786.12	231.87
786.45	231.84
786.77	231.83
787.09	231.79
