SpectraSuite Data File
++++++++++++++++++++++++++++++++++++
Date: Fri Feb 01 15:17:00 EST 2013
User: group
Dark Spectrum Present: No
Reference Spectrum Present: No
Number of Sampled Component Spectra: 1
Spectrometers: USB2E7196
Integration Time (usec): 35000 (USB2E7196)
Spectra Averaged: 100 (USB2E7196)
Boxcar Smoothing: 10 (USB2E7196)
Correct for Electrical Dark: No (USB2E7196)
Strobe/Lamp Enabled: No (USB2E7196)
Correct for Detector Non-linearity: No (USB2E7196)
Correct for Stray Light: No (USB2E7196)
Number of Pixels in Processed Spectrum: 2048
>>>>>Begin Processed Spectral Data<<<<<
339.09	0.00
339.48	214.67
339.86	216.65
340.24	217.92
340.63	219.34
341.01	221.59
341.39	222.32
341.78	223.11
342.16	224.30
342.54	225.02
342.93	213.43
343.31	224.22
343.69	224.78
344.07	225.26
344.46	225.69
344.84	226.05
345.22	226.31
345.60	226.55
345.99	226.74
346.37	226.88
346.75	227.00
347.13	227.09
347.52	227.16
347.90	227.24
348.28	227.27
348.66	227.36
349.05	227.32
349.43	227.32
349.81	227.36
350.19	227.44
350.57	227.52
350.96	227.56
351.34	227.64
351.72	227.74
352.10	227.85
352.48	227.91
352.87	228.01
353.25	228.10
353.63	228.17
354.01	228.25
354.39	228.34
354.77	228.40
355.15	228.48
355.54	228.50
355.92	228.57
356.30	228.62
356.68	228.77
357.06	228.84
357.44	228.90
357.82	228.96
358.20	228.99
358.58	229.06
358.97	229.11
359.35	229.19
359.73	229.26
360.11	229.27
360.49	229.32
360.87	229.33
361.25	229.38
361.63	229.43
362.01	229.46
362.39	229.47
362.77	229.52
363.15	229.52
363.53	229.55
363.91	229.53
364.29	229.55
364.67	229.41
365.05	229.44
365.43	229.47
365.81	229.48
366.19	229.56
366.57	229.54
366.95	229.54
367.33	229.50
367.71	229.44
368.09	229.43
368.47	229.43
368.85	229.40
369.23	229.35
369.61	229.30
369.99	229.28
370.37	229.28
370.75	229.24
371.13	229.17
371.51	229.14
371.89	229.12
372.27	229.07
372.65	229.03
373.03	228.94
373.41	228.86
373.78	228.78
374.16	228.65
374.54	228.55
374.92	228.49
375.30	228.42
375.68	228.35
376.06	228.28
376.44	228.17
376.82	228.13
377.19	228.04
377.57	227.97
377.95	227.86
378.33	227.76
378.71	227.68
379.09	227.63
379.47	227.56
379.84	227.48
380.22	227.42
380.60	227.37
380.98	227.28
381.36	227.23
381.73	227.14
382.11	227.09
382.49	227.03
382.87	226.92
383.25	226.86
383.62	226.93
384.00	226.87
384.38	226.81
384.76	226.77
385.13	226.78
385.51	226.74
385.89	226.69
386.27	226.64
386.64	226.61
387.02	226.54
387.40	226.49
387.78	226.45
388.15	226.42
388.53	226.38
388.91	226.37
389.29	226.33
389.66	226.35
390.04	226.34
390.42	226.37
390.79	226.39
391.17	226.40
391.55	226.30
391.92	226.29
392.30	226.35
392.68	226.32
393.05	226.31
393.43	226.33
393.81	226.35
394.18	226.36
394.56	226.38
394.94	226.47
395.31	226.50
395.69	226.56
396.06	226.60
396.44	226.66
396.82	226.71
397.19	226.81
397.57	226.85
397.95	226.92
398.32	226.96
398.70	227.06
399.07	227.16
399.45	227.22
399.82	227.28
400.20	227.33
400.58	227.43
400.95	227.48
401.33	227.58
401.70	227.74
402.08	227.86
402.45	227.96
402.83	228.06
403.20	228.17
403.58	228.29
403.95	228.43
404.33	228.56
404.71	228.68
405.08	228.85
405.46	228.98
405.83	229.15
406.21	229.31
406.58	229.44
406.96	229.56
407.33	229.72
407.70	229.94
408.08	230.22
408.45	230.43
408.83	230.66
409.20	230.86
409.58	231.02
409.95	231.28
410.33	231.55
410.70	231.78
411.08	232.10
411.45	232.39
411.82	232.72
412.20	233.07
412.57	233.49
412.95	233.78
413.32	234.16
413.69	234.56
414.07	235.01
414.44	235.47
414.82	235.95
415.19	236.50
415.56	237.05
415.94	237.58
416.31	238.23
416.68	238.85
417.06	239.58
417.43	240.25
417.81	241.03
418.18	241.83
418.55	242.70
418.93	243.53
419.30	244.39
419.67	245.33
420.04	246.28
420.42	247.28
420.79	248.48
421.16	249.65
421.54	250.81
421.91	252.02
422.28	253.26
422.66	254.60
423.03	255.89
423.40	257.24
423.77	258.62
424.15	260.00
424.52	261.50
424.89	263.09
425.26	264.62
425.64	266.04
426.01	267.60
426.38	269.25
426.75	270.95
427.13	272.67
427.50	274.43
427.87	276.32
428.24	278.20
428.61	279.94
428.99	281.87
429.36	283.99
429.73	286.06
430.10	288.09
430.47	290.18
430.85	292.25
431.22	294.48
431.59	296.87
431.96	299.16
432.33	301.67
432.70	304.10
433.08	306.95
433.45	309.60
433.82	312.22
434.19	315.08
434.56	317.90
434.93	320.60
435.30	323.26
435.68	326.14
436.05	328.97
436.42	331.75
436.79	334.28
437.16	337.00
437.53	339.80
437.90	342.64
438.27	345.38
438.64	348.33
439.01	350.97
439.38	353.22
439.75	355.39
440.13	357.92
440.50	360.25
440.87	362.13
441.24	364.12
441.61	366.27
441.98	367.82
442.35	369.61
442.72	371.47
443.09	373.27
443.46	374.27
443.83	374.85
444.20	375.39
444.57	376.28
444.94	376.54
445.31	376.91
445.68	377.25
446.05	377.25
446.42	376.85
446.79	376.42
447.16	375.99
447.53	375.63
447.90	374.47
448.27	373.29
448.64	371.67
449.01	370.52
449.37	368.55
449.74	366.63
450.11	364.41
450.48	361.91
450.85	359.37
451.22	357.17
451.59	355.11
451.96	353.19
452.33	350.53
452.70	348.17
453.07	345.35
453.43	342.45
453.80	339.73
454.17	337.01
454.54	334.41
454.91	331.68
455.28	329.02
455.65	326.48
456.02	324.00
456.38	321.85
456.75	319.15
457.12	316.88
457.49	314.64
457.86	312.44
458.23	310.61
458.59	308.58
458.96	306.48
459.33	304.64
459.70	302.76
460.07	301.28
460.43	299.56
460.80	297.89
461.17	296.46
461.54	294.94
461.91	293.50
462.27	292.07
462.64	290.82
463.01	289.43
463.38	288.10
463.74	286.74
464.11	285.57
464.48	284.57
464.85	283.46
465.21	282.55
465.58	281.59
465.95	280.48
466.32	279.60
466.68	278.72
467.05	277.80
467.42	276.88
467.78	275.92
468.15	275.04
468.52	274.37
468.88	273.48
469.25	272.72
469.62	272.11
469.98	271.42
470.35	270.78
470.72	270.25
471.08	269.62
471.45	269.08
471.82	268.52
472.18	267.89
472.55	267.46
472.92	266.95
473.28	266.50
473.65	266.07
474.02	265.59
474.38	265.23
474.75	264.90
475.11	264.55
475.48	264.29
475.85	264.02
476.21	263.82
476.58	263.65
476.94	263.52
477.31	263.33
477.67	263.20
478.04	263.08
478.41	262.96
478.77	263.00
479.14	262.92
479.50	262.96
479.87	263.06
480.23	263.16
480.60	263.25
480.96	263.36
481.33	263.56
481.69	263.78
482.06	263.98
482.42	264.18
482.79	264.51
483.15	264.82
483.52	265.25
483.88	265.59
484.25	265.99
484.61	266.40
484.98	266.83
485.34	267.41
485.71	268.02
486.07	268.67
486.44	269.20
486.80	269.94
487.17	270.66
487.53	271.47
487.90	272.29
488.26	273.21
488.62	274.20
488.99	275.15
489.35	276.20
489.72	277.30
490.08	278.51
490.44	279.70
490.81	281.05
491.17	282.37
491.54	283.87
491.90	285.38
492.26	287.02
492.63	288.76
492.99	290.53
493.36	292.40
493.72	294.40
494.08	296.52
494.45	298.74
494.81	301.11
495.17	303.52
495.54	306.05
495.90	308.75
496.26	311.54
496.63	314.49
496.99	317.58
497.35	320.82
497.72	324.21
498.08	327.73
498.44	331.38
498.80	335.33
499.17	339.29
499.53	343.43
499.89	347.82
500.26	352.26
500.62	356.90
500.98	361.86
501.34	366.91
501.71	372.24
502.07	377.65
502.43	383.25
502.79	389.05
503.16	395.14
503.52	401.36
503.88	407.75
504.24	414.40
504.60	421.31
504.97	428.44
505.33	435.75
505.69	443.49
506.05	451.23
506.41	459.04
506.78	467.21
507.14	475.69
507.50	484.36
507.86	493.44
508.22	502.64
508.59	511.81
508.95	521.39
509.31	531.17
509.67	541.36
510.03	551.66
510.39	562.23
510.75	573.06
511.12	583.99
511.48	595.24
511.84	606.66
512.20	618.17
512.56	630.14
512.92	642.32
513.28	654.63
513.64	667.13
514.00	679.80
514.37	692.81
514.73	705.89
515.09	718.94
515.45	732.19
515.81	745.79
516.17	759.75
516.53	773.91
516.89	788.10
517.25	802.17
517.61	816.55
517.97	831.09
518.33	845.49
518.69	860.33
519.05	875.48
519.41	890.67
519.77	906.19
520.13	921.71
520.49	937.11
520.85	952.58
521.21	968.35
521.57	984.69
521.93	1000.50
522.29	1017.01
522.65	1033.40
523.01	1049.73
523.37	1065.76
523.73	1082.00
524.09	1098.21
524.45	1114.58
524.81	1131.32
525.17	1148.27
525.53	1165.19
525.89	1182.22
526.25	1199.08
526.61	1215.41
526.97	1232.32
527.33	1248.88
527.68	1265.49
528.04	1282.00
528.40	1298.77
528.76	1315.92
529.12	1332.56
529.48	1349.40
529.84	1365.37
530.20	1382.07
530.56	1399.22
530.91	1416.75
531.27	1433.63
531.63	1450.00
531.99	1466.72
532.35	1482.80
532.71	1498.70
533.07	1515.01
533.42	1530.95
533.78	1547.05
534.14	1563.50
534.50	1578.89
534.86	1594.79
535.21	1610.05
535.57	1626.23
535.93	1641.69
536.29	1656.57
536.65	1671.74
537.00	1686.78
537.36	1702.24
537.72	1716.80
538.08	1731.21
538.44	1745.04
538.79	1759.01
539.15	1772.92
539.51	1786.73
539.87	1801.20
540.22	1815.09
540.58	1828.99
540.94	1842.31
541.29	1855.33
541.65	1868.05
542.01	1881.29
542.37	1893.75
542.72	1906.30
543.08	1918.05
543.44	1930.54
543.79	1941.79
544.15	1952.87
544.51	1964.55
544.87	1975.51
545.22	1986.33
545.58	1996.60
545.94	2006.39
546.29	2016.26
546.65	2025.98
547.01	2035.14
547.36	2043.81
547.72	2052.26
548.07	2060.09
548.43	2068.35
548.79	2076.45
549.14	2083.91
549.50	2091.40
549.86	2099.06
550.21	2106.39
550.57	2113.50
550.92	2120.04
551.28	2127.07
551.64	2134.17
551.99	2140.41
552.35	2146.45
552.70	2152.63
553.06	2158.51
553.41	2164.97
553.77	2171.08
554.13	2177.26
554.48	2183.48
554.84	2188.78
555.19	2194.03
555.55	2199.16
555.90	2203.66
556.26	2208.43
556.61	2213.27
556.97	2217.21
557.32	2221.36
557.68	2225.54
558.03	2229.94
558.39	2233.72
558.74	2238.45
559.10	2242.21
559.45	2245.90
559.81	2250.29
560.16	2254.15
560.52	2257.47
560.87	2260.88
561.23	2263.49
561.58	2266.41
561.94	2268.87
562.29	2271.33
562.64	2274.13
563.00	2276.79
563.35	2280.37
563.71	2283.60
564.06	2286.68
564.42	2289.65
564.77	2292.14
565.12	2294.18
565.48	2295.86
565.83	2297.63
566.19	2298.90
566.54	2299.90
566.89	2301.09
567.25	2301.70
567.60	2302.96
567.96	2304.50
568.31	2305.23
568.66	2306.29
569.02	2306.82
569.37	2307.16
569.72	2307.96
570.08	2307.98
570.43	2307.81
570.78	2307.04
571.14	2305.36
571.49	2304.01
571.84	2303.77
572.20	2302.44
572.55	2301.32
572.90	2299.79
573.26	2298.27
573.61	2296.42
573.96	2294.46
574.31	2291.34
574.67	2288.10
575.02	2284.37
575.37	2280.92
575.72	2277.04
576.08	2273.57
576.43	2270.19
576.78	2266.35
577.13	2263.03
577.49	2259.87
577.84	2256.39
578.19	2252.52
578.54	2248.72
578.90	2244.31
579.25	2238.62
579.60	2233.60
579.95	2228.65
580.30	2223.59
580.66	2218.29
581.01	2213.23
581.36	2208.28
581.71	2203.97
582.06	2199.44
582.42	2194.87
582.77	2189.67
583.12	2184.92
583.47	2180.14
583.82	2174.99
584.17	2169.65
584.53	2164.20
584.88	2158.24
585.23	2152.28
585.58	2146.70
585.93	2141.25
586.28	2136.53
586.63	2131.26
586.98	2126.19
587.34	2121.39
587.69	2116.37
588.04	2111.15
588.39	2105.35
588.74	2098.79
589.09	2092.62
589.44	2085.86
589.79	2079.82
590.14	2073.97
590.49	2067.35
590.84	2060.86
591.19	2054.82
591.54	2048.33
591.89	2040.84
592.25	2034.06
592.60	2026.84
592.95	2019.19
593.30	2011.67
593.65	2003.96
594.00	1996.80
594.35	1989.45
594.70	1981.27
595.05	1973.94
595.40	1966.41
595.75	1958.84
596.10	1952.59
596.45	1945.67
596.80	1939.39
597.15	1932.56
597.50	1925.45
597.85	1918.96
598.19	1912.18
598.54	1904.90
598.89	1898.35
599.24	1892.38
599.59	1885.55
599.94	1879.22
600.29	1872.87
600.64	1866.30
600.99	1858.75
601.34	1851.89
601.69	1844.82
602.04	1837.78
602.39	1830.40
602.74	1823.64
603.08	1816.91
603.43	1810.02
603.78	1802.87
604.13	1795.60
604.48	1788.23
604.83	1781.36
605.18	1774.32
605.53	1766.22
605.87	1758.21
606.22	1750.76
606.57	1742.79
606.92	1735.58
607.27	1728.37
607.62	1721.46
607.96	1714.05
608.31	1707.36
608.66	1699.84
609.01	1692.34
609.36	1684.80
609.70	1676.74
610.05	1668.65
610.40	1660.96
610.75	1652.74
611.10	1644.96
611.44	1636.79
611.79	1628.99
612.14	1620.25
612.49	1611.19
612.83	1602.88
613.18	1594.74
613.53	1586.70
613.88	1578.21
614.22	1569.78
614.57	1561.28
614.92	1553.15
615.27	1545.68
615.61	1537.32
615.96	1529.29
616.31	1521.72
616.65	1514.48
617.00	1506.92
617.35	1499.30
617.70	1490.86
618.04	1482.23
618.39	1474.05
618.74	1466.29
619.08	1457.87
619.43	1450.34
619.78	1443.49
620.12	1436.37
620.47	1428.90
620.82	1420.79
621.16	1413.44
621.51	1405.92
621.85	1398.26
622.20	1389.80
622.55	1381.43
622.89	1373.68
623.24	1366.13
623.59	1358.74
623.93	1351.28
624.28	1344.10
624.62	1336.53
624.97	1329.35
625.32	1322.71
625.66	1315.74
626.01	1308.46
626.35	1301.00
626.70	1293.35
627.04	1285.59
627.39	1277.82
627.73	1270.44
628.08	1263.43
628.43	1256.06
628.77	1248.68
629.12	1241.17
629.46	1233.96
629.81	1226.64
630.15	1219.44
630.50	1211.99
630.84	1203.71
631.19	1195.76
631.53	1188.28
631.88	1180.76
632.22	1173.27
632.57	1165.96
632.91	1158.24
633.26	1150.82
633.60	1143.50
633.95	1136.38
634.29	1129.32
634.64	1122.68
634.98	1115.33
635.32	1108.24
635.67	1101.63
636.01	1094.99
636.36	1088.26
636.70	1081.83
637.05	1075.23
637.39	1068.82
637.73	1062.30
638.08	1056.61
638.42	1050.49
638.77	1044.12
639.11	1037.50
639.45	1031.05
639.80	1024.38
640.14	1018.06
640.49	1011.54
640.83	1005.16
641.17	998.88
641.52	992.56
641.86	986.13
642.20	980.30
642.55	974.00
642.89	967.47
643.23	960.99
643.58	955.04
643.92	948.84
644.26	942.73
644.61	936.73
644.95	930.69
645.29	923.92
645.64	917.26
645.98	910.86
646.32	905.11
646.66	899.15
647.01	893.38
647.35	887.66
647.69	881.87
648.04	876.39
648.38	870.58
648.72	864.57
649.06	858.46
649.41	852.56
649.75	846.52
650.09	840.64
650.43	834.84
650.78	828.78
651.12	822.81
651.46	817.12
651.80	811.30
652.14	805.89
652.49	800.61
652.83	795.45
653.17	789.79
653.51	783.94
653.85	778.52
654.20	772.85
654.54	766.88
654.88	761.17
655.22	755.36
655.56	749.70
655.90	744.22
656.25	738.97
656.59	733.60
656.93	728.54
657.27	723.37
657.61	717.93
657.95	712.83
658.29	707.70
658.64	702.43
658.98	697.17
659.32	691.73
659.66	686.50
660.00	681.14
660.34	676.23
660.68	671.38
661.02	666.39
661.36	661.75
661.70	657.29
662.05	652.91
662.39	648.56
662.73	644.15
663.07	639.83
663.41	635.46
663.75	631.02
664.09	626.51
664.43	622.08
664.77	618.00
665.11	613.70
665.45	609.58
665.79	605.54
666.13	601.44
666.47	597.35
666.81	593.20
667.15	589.16
667.49	585.26
667.83	581.52
668.17	577.62
668.51	573.53
668.85	569.58
669.19	565.78
669.53	561.97
669.87	558.07
670.21	554.39
670.55	550.72
670.89	547.29
671.23	543.86
671.57	540.44
671.91	536.92
672.25	533.60
672.58	530.16
672.92	526.79
673.26	523.66
673.60	520.54
673.94	517.43
674.28	514.51
674.62	511.56
674.96	508.45
675.30	505.53
675.64	502.63
675.97	499.83
676.31	496.98
676.65	494.03
676.99	491.28
677.33	488.40
677.67	485.59
678.01	482.54
678.34	479.52
678.68	476.62
679.02	473.82
679.36	470.99
679.70	468.29
680.04	465.57
680.37	462.71
680.71	459.91
681.05	457.27
681.39	454.56
681.73	451.93
682.06	449.40
682.40	446.85
682.74	444.35
683.08	441.79
683.42	439.22
683.75	436.71
684.09	434.21
684.43	431.77
684.77	429.30
685.10	426.98
685.44	424.77
685.78	422.49
686.12	420.24
686.45	417.95
686.79	415.63
687.13	413.39
687.46	411.22
687.80	409.07
688.14	406.89
688.48	404.81
688.81	402.58
689.15	400.41
689.49	398.28
689.82	396.17
690.16	394.07
690.50	392.07
690.83	390.16
691.17	388.19
691.51	386.31
691.84	384.45
692.18	382.54
692.52	380.54
692.85	378.62
693.19	376.79
693.52	375.04
693.86	373.22
694.20	371.46
694.53	369.67
694.87	367.85
695.21	366.11
695.54	364.30
695.88	362.55
696.21	360.84
696.55	359.13
696.88	357.45
697.22	355.84
697.56	354.22
697.89	352.56
698.23	350.95
698.56	349.31
698.90	347.78
699.23	346.10
699.57	344.59
699.90	343.08
700.24	341.47
700.58	339.90
700.91	338.41
701.25	336.94
701.58	335.58
701.92	334.21
702.25	332.80
702.59	331.47
702.92	330.18
703.26	328.87
703.59	327.60
703.93	326.45
704.26	325.24
704.60	323.96
704.93	322.74
705.26	321.52
705.60	320.39
705.93	319.26
706.27	318.23
706.60	317.19
706.94	316.06
707.27	314.97
707.61	313.90
707.94	312.91
708.27	311.86
708.61	310.78
708.94	309.80
709.28	308.83
709.61	307.88
709.94	306.93
710.28	305.95
710.61	305.00
710.95	303.91
711.28	303.02
711.61	302.10
711.95	301.15
712.28	300.19
712.61	299.21
712.95	298.28
713.28	297.43
713.61	296.56
713.95	295.69
714.28	294.87
714.61	294.03
714.95	293.14
715.28	292.32
715.61	291.47
715.95	290.55
716.28	289.70
716.61	288.87
716.95	288.08
717.28	287.35
717.61	286.58
717.94	285.81
718.28	284.97
718.61	284.27
718.94	283.56
719.27	282.89
719.61	282.25
719.94	281.56
720.27	280.83
720.60	280.14
720.94	279.52
721.27	278.97
721.60	278.39
721.93	277.82
722.27	277.27
722.60	276.70
722.93	276.19
723.26	275.63
723.59	275.08
723.93	274.49
724.26	273.91
724.59	273.35
724.92	272.88
725.25	272.36
725.59	271.81
725.92	271.31
726.25	270.82
726.58	270.27
726.91	269.78
727.24	269.31
727.57	268.86
727.91	268.38
728.24	267.86
728.57	267.37
728.90	266.90
729.23	266.38
729.56	265.96
729.89	265.49
730.22	265.00
730.55	264.51
730.89	264.09
731.22	263.61
731.55	263.17
731.88	262.74
732.21	262.32
732.54	261.87
732.87	261.46
733.20	261.05
733.53	260.71
733.86	260.32
734.19	259.95
734.52	259.55
734.85	259.21
735.18	258.82
735.51	258.45
735.84	258.07
736.17	257.74
736.50	257.32
736.83	257.10
737.16	256.82
737.49	256.51
737.82	256.18
738.15	255.89
738.48	255.55
738.81	255.22
739.14	254.89
739.47	254.64
739.80	254.36
740.13	254.04
740.46	253.71
740.79	253.42
741.12	253.09
741.45	252.77
741.78	252.42
742.11	252.12
742.44	251.81
742.77	251.54
743.10	251.22
743.43	250.95
743.75	250.57
744.08	250.41
744.41	250.10
744.74	249.81
745.07	249.51
745.40	249.29
745.73	249.04
746.06	248.77
746.39	248.48
746.71	248.20
747.04	247.91
747.37	247.65
747.70	247.38
748.03	247.15
748.36	246.93
748.68	246.70
749.01	246.45
749.34	246.20
749.67	245.97
750.00	245.75
750.33	245.58
750.65	245.34
750.98	244.99
751.31	244.78
751.64	244.60
751.97	244.47
752.29	244.26
752.62	244.03
752.95	243.84
753.28	243.64
753.60	243.44
753.93	243.26
754.26	243.07
754.59	242.85
754.91	242.61
755.24	242.45
755.57	242.29
755.90	242.09
756.22	241.90
756.55	241.70
756.88	241.53
757.20	241.32
757.53	241.13
757.86	240.96
758.19	240.81
758.51	240.65
758.84	240.48
759.17	240.28
759.49	240.12
759.82	240.00
760.15	239.85
760.47	239.69
760.80	239.55
761.13	239.42
761.45	239.32
761.78	239.20
762.11	239.01
762.43	238.82
762.76	238.69
763.08	238.58
763.41	238.44
763.74	238.27
764.06	238.12
764.39	238.03
764.71	237.90
765.04	237.77
765.37	237.62
765.69	237.46
766.02	237.32
766.34	237.21
766.67	237.06
767.00	236.94
767.32	236.87
767.65	236.82
767.97	236.71
768.30	236.56
768.62	236.44
768.95	236.36
769.27	236.26
769.60	236.16
769.92	236.03
770.25	235.93
770.57	235.86
770.90	235.77
771.22	235.64
771.55	235.53
771.87	235.43
772.20	235.33
772.52	235.31
772.85	235.37
773.17	235.29
773.50	235.17
773.82	235.07
774.15	234.91
774.47	234.76
774.80	234.64
775.12	234.55
775.45	234.49
775.77	234.38
776.09	234.31
776.42	234.22
776.74	234.18
777.07	234.11
777.39	233.98
777.72	233.88
778.04	233.83
778.36	233.76
778.69	233.67
779.01	233.66
779.33	233.50
779.66	233.28
779.98	233.18
780.31	233.13
780.63	233.09
780.95	233.06
781.28	232.98
781.60	232.93
781.92	232.86
782.25	232.78
782.57	232.73
782.89	232.68
783.22	232.64
783.54	232.54
783.86	232.50
784.19	232.46
784.51	232.44
784.83	232.36
785.16	232.30
785.48	232.27
785.80	232.16
786.12	232.13
786.45	232.09
786.77	232.06
787.09	232.00
