SpectraSuite Data File
++++++++++++++++++++++++++++++++++++
Date: Fri Feb 01 15:29:27 EST 2013
User: group
Dark Spectrum Present: No
Reference Spectrum Present: No
Number of Sampled Component Spectra: 1
Spectrometers: USB2E7196
Integration Time (usec): 35000 (USB2E7196)
Spectra Averaged: 100 (USB2E7196)
Boxcar Smoothing: 10 (USB2E7196)
Correct for Electrical Dark: No (USB2E7196)
Strobe/Lamp Enabled: No (USB2E7196)
Correct for Detector Non-linearity: No (USB2E7196)
Correct for Stray Light: No (USB2E7196)
Number of Pixels in Processed Spectrum: 2048
>>>>>Begin Processed Spectral Data<<<<<
339.09	0.00
339.48	215.22
339.86	216.50
340.24	217.30
340.63	218.61
341.01	221.28
341.39	220.95
341.78	223.54
342.16	224.09
342.54	224.29
342.93	213.10
343.31	223.88
343.69	224.40
344.07	224.87
344.46	225.31
344.84	225.73
345.22	226.01
345.60	226.30
345.99	226.46
346.37	226.59
346.75	226.72
347.13	226.76
347.52	226.85
347.90	226.90
348.28	226.90
348.66	226.99
349.05	226.96
349.43	227.02
349.81	227.10
350.19	227.16
350.57	227.20
350.96	227.25
351.34	227.32
351.72	227.41
352.10	227.46
352.48	227.56
352.87	227.58
353.25	227.62
353.63	227.68
354.01	227.77
354.39	227.87
354.77	227.94
355.15	228.04
355.54	228.10
355.92	228.16
356.30	228.25
356.68	228.36
357.06	228.39
357.44	228.46
357.82	228.50
358.20	228.56
358.58	228.60
358.97	228.67
359.35	228.76
359.73	228.82
360.11	228.89
360.49	228.92
360.87	228.97
361.25	229.04
361.63	229.09
362.01	229.10
362.39	229.12
362.77	229.12
363.15	229.18
363.53	229.19
363.91	229.24
364.29	229.25
364.67	229.18
365.05	229.22
365.43	229.21
365.81	229.23
366.19	229.25
366.57	229.25
366.95	229.27
367.33	229.23
367.71	229.27
368.09	229.27
368.47	229.26
368.85	229.24
369.23	229.22
369.61	229.19
369.99	229.21
370.37	229.19
370.75	229.25
371.13	229.16
371.51	229.12
371.89	229.06
372.27	229.00
372.65	228.94
373.03	228.90
373.41	228.84
373.78	228.75
374.16	228.67
374.54	228.62
374.92	228.55
375.30	228.50
375.68	228.40
376.06	228.36
376.44	228.28
376.82	228.21
377.19	228.16
377.57	228.09
377.95	228.02
378.33	227.93
378.71	227.79
379.09	227.76
379.47	227.72
379.84	227.65
380.22	227.60
380.60	227.55
380.98	227.48
381.36	227.45
381.73	227.38
382.11	227.33
382.49	227.27
382.87	227.20
383.25	227.13
383.62	227.16
384.00	227.08
384.38	227.01
384.76	226.98
385.13	226.95
385.51	226.91
385.89	226.82
386.27	226.76
386.64	226.71
387.02	226.67
387.40	226.59
387.78	226.54
388.15	226.52
388.53	226.49
388.91	226.49
389.29	226.42
389.66	226.44
390.04	226.39
390.42	226.40
390.79	226.40
391.17	226.40
391.55	226.28
391.92	226.28
392.30	226.30
392.68	226.27
393.05	226.30
393.43	226.32
393.81	226.31
394.18	226.32
394.56	226.36
394.94	226.39
395.31	226.44
395.69	226.52
396.06	226.54
396.44	226.57
396.82	226.58
397.19	226.69
397.57	226.70
397.95	226.78
398.32	226.81
398.70	226.86
399.07	226.92
399.45	226.98
399.82	227.05
400.20	227.12
400.58	227.21
400.95	227.22
401.33	227.31
401.70	227.49
402.08	227.59
402.45	227.69
402.83	227.80
403.20	227.90
403.58	227.98
403.95	228.11
404.33	228.25
404.71	228.37
405.08	228.56
405.46	228.69
405.83	228.82
406.21	228.96
406.58	229.14
406.96	229.31
407.33	229.51
407.70	229.69
408.08	229.96
408.45	230.19
408.83	230.42
409.20	230.63
409.58	230.81
409.95	231.07
410.33	231.33
410.70	231.55
411.08	231.84
411.45	232.16
411.82	232.47
412.20	232.83
412.57	233.23
412.95	233.50
413.32	233.92
413.69	234.37
414.07	234.80
414.44	235.26
414.82	235.73
415.19	236.26
415.56	236.81
415.94	237.33
416.31	237.96
416.68	238.59
417.06	239.30
417.43	239.97
417.81	240.74
418.18	241.50
418.55	242.35
418.93	243.22
419.30	244.12
419.67	245.03
420.04	245.98
420.42	246.97
420.79	248.14
421.16	249.31
421.54	250.45
421.91	251.66
422.28	252.88
422.66	254.24
423.03	255.58
423.40	256.95
423.77	258.33
424.15	259.78
424.52	261.29
424.89	262.90
425.26	264.48
425.64	265.94
426.01	267.53
426.38	269.17
426.75	270.88
427.13	272.58
427.50	274.43
427.87	276.32
428.24	278.21
428.61	279.98
428.99	281.93
429.36	284.05
429.73	286.14
430.10	288.18
430.47	290.24
430.85	292.37
431.22	294.62
431.59	297.02
431.96	299.25
432.33	301.73
432.70	304.15
433.08	306.91
433.45	309.55
433.82	312.24
434.19	315.19
434.56	318.00
434.93	320.72
435.30	323.33
435.68	326.21
436.05	329.04
436.42	331.86
436.79	334.37
437.16	337.11
437.53	339.97
437.90	342.83
438.27	345.57
438.64	348.39
439.01	350.94
439.38	353.24
439.75	355.44
440.13	357.98
440.50	360.30
440.87	362.21
441.24	364.17
441.61	366.29
441.98	367.76
442.35	369.60
442.72	371.42
443.09	373.24
443.46	374.24
443.83	374.85
444.20	375.33
444.57	376.14
444.94	376.39
445.31	376.72
445.68	377.03
446.05	377.08
446.42	376.70
446.79	376.35
447.16	375.85
447.53	375.49
447.90	374.27
448.27	373.11
448.64	371.50
449.01	370.33
449.37	368.36
449.74	366.44
450.11	364.13
450.48	361.68
450.85	359.13
451.22	356.97
451.59	354.95
451.96	353.02
452.33	350.41
452.70	348.05
453.07	345.19
453.43	342.24
453.80	339.48
454.17	336.77
454.54	334.17
454.91	331.45
455.28	328.78
455.65	326.32
456.02	323.82
456.38	321.65
456.75	318.98
457.12	316.76
457.49	314.55
457.86	312.39
458.23	310.50
458.59	308.42
458.96	306.33
459.33	304.42
459.70	302.50
460.07	301.01
460.43	299.30
460.80	297.66
461.17	296.25
461.54	294.76
461.91	293.35
462.27	291.88
462.64	290.62
463.01	289.30
463.38	287.95
463.74	286.62
464.11	285.43
464.48	284.41
464.85	283.26
465.21	282.36
465.58	281.41
465.95	280.32
466.32	279.43
466.68	278.52
467.05	277.63
467.42	276.77
467.78	275.83
468.15	274.94
468.52	274.32
468.88	273.46
469.25	272.70
469.62	272.10
469.98	271.45
470.35	270.82
470.72	270.20
471.08	269.54
471.45	268.98
471.82	268.47
472.18	267.88
472.55	267.46
472.92	266.96
473.28	266.50
473.65	266.06
474.02	265.62
474.38	265.25
474.75	264.94
475.11	264.60
475.48	264.35
475.85	264.12
476.21	263.88
476.58	263.71
476.94	263.54
477.31	263.34
477.67	263.19
478.04	263.10
478.41	263.03
478.77	263.06
479.14	263.02
479.50	263.03
479.87	263.10
480.23	263.16
480.60	263.25
480.96	263.37
481.33	263.55
481.69	263.73
482.06	263.95
482.42	264.15
482.79	264.41
483.15	264.70
483.52	265.10
483.88	265.45
484.25	265.87
484.61	266.32
484.98	266.76
485.34	267.32
485.71	267.89
486.07	268.49
486.44	269.08
486.80	269.76
487.17	270.48
487.53	271.33
487.90	272.17
488.26	273.09
488.62	274.06
488.99	275.08
489.35	276.14
489.72	277.25
490.08	278.43
490.44	279.67
490.81	281.02
491.17	282.35
491.54	283.82
491.90	285.32
492.26	286.96
492.63	288.68
492.99	290.47
493.36	292.37
493.72	294.43
494.08	296.53
494.45	298.78
494.81	301.19
495.17	303.60
495.54	306.21
495.90	308.91
496.26	311.74
496.63	314.69
496.99	317.75
497.35	321.01
497.72	324.41
498.08	327.89
498.44	331.58
498.80	335.49
499.17	339.51
499.53	343.65
499.89	348.00
500.26	352.54
500.62	357.22
500.98	362.19
501.34	367.22
501.71	372.55
502.07	378.01
502.43	383.60
502.79	389.38
503.16	395.43
503.52	401.68
503.88	408.08
504.24	414.69
504.60	421.61
504.97	428.71
505.33	436.04
505.69	443.74
506.05	451.47
506.41	459.33
506.78	467.52
507.14	475.95
507.50	484.66
507.86	493.64
508.22	502.80
508.59	512.04
508.95	521.68
509.31	531.50
509.67	541.60
510.03	551.80
510.39	562.42
510.75	573.21
511.12	584.17
511.48	595.47
511.84	606.87
512.20	618.39
512.56	630.44
512.92	642.61
513.28	655.00
513.64	667.57
514.00	680.33
514.37	693.28
514.73	706.30
515.09	719.40
515.45	732.70
515.81	746.29
516.17	760.30
516.53	774.38
516.89	788.60
517.25	802.87
517.61	817.54
517.97	831.95
518.33	846.39
518.69	861.16
519.05	876.13
519.41	891.41
519.77	906.99
520.13	922.42
520.49	937.83
520.85	953.36
521.21	969.13
521.57	985.42
521.93	1001.29
522.29	1017.85
522.65	1034.14
523.01	1050.48
523.37	1066.60
523.73	1082.79
524.09	1098.98
524.45	1115.33
524.81	1131.92
525.17	1148.65
525.53	1165.72
525.89	1182.75
526.25	1199.62
526.61	1216.15
526.97	1232.95
527.33	1249.55
527.68	1266.37
528.04	1282.97
528.40	1299.59
528.76	1316.61
529.12	1333.19
529.48	1350.13
529.84	1366.18
530.20	1382.84
530.56	1399.88
530.91	1417.24
531.27	1434.08
531.63	1450.67
531.99	1467.37
532.35	1483.46
532.71	1499.43
533.07	1515.66
533.42	1531.57
533.78	1547.67
534.14	1563.99
534.50	1579.34
534.86	1595.23
535.21	1610.28
535.57	1626.26
535.93	1641.83
536.29	1656.73
536.65	1672.06
537.00	1687.02
537.36	1702.51
537.72	1717.04
538.08	1731.53
538.44	1745.46
538.79	1759.42
539.15	1773.06
539.51	1786.91
539.87	1801.31
540.22	1815.15
540.58	1828.97
540.94	1842.46
541.29	1855.46
541.65	1868.22
542.01	1881.48
542.37	1893.87
542.72	1906.41
543.08	1918.17
543.44	1930.61
543.79	1941.77
544.15	1952.72
544.51	1964.13
544.87	1974.99
545.22	1985.87
545.58	1996.10
545.94	2006.04
546.29	2015.96
546.65	2025.88
547.01	2035.03
547.36	2043.76
547.72	2052.30
548.07	2060.32
548.43	2068.34
548.79	2076.41
549.14	2084.05
549.50	2091.47
549.86	2099.23
550.21	2106.52
550.57	2113.81
550.92	2120.41
551.28	2127.71
551.64	2134.74
551.99	2141.31
552.35	2147.51
552.70	2153.70
553.06	2159.65
553.41	2165.91
553.77	2171.89
554.13	2177.98
554.48	2184.12
554.84	2189.55
555.19	2194.75
555.55	2199.77
555.90	2204.21
556.26	2209.11
556.61	2213.74
556.97	2217.93
557.32	2222.03
557.68	2226.18
558.03	2230.44
558.39	2234.11
558.74	2238.64
559.10	2242.48
559.45	2246.19
559.81	2250.51
560.16	2254.38
560.52	2257.69
560.87	2261.12
561.23	2263.84
561.58	2266.79
561.94	2269.35
562.29	2271.77
562.64	2274.50
563.00	2277.16
563.35	2280.75
563.71	2283.84
564.06	2287.05
564.42	2289.94
564.77	2292.29
565.12	2294.52
565.48	2296.39
565.83	2298.21
566.19	2299.46
566.54	2300.48
566.89	2301.54
567.25	2302.11
567.60	2303.52
567.96	2305.18
568.31	2305.96
568.66	2306.98
569.02	2307.48
569.37	2307.79
569.72	2308.53
570.08	2308.47
570.43	2308.33
570.78	2307.62
571.14	2306.07
571.49	2304.66
571.84	2304.37
572.20	2303.29
572.55	2302.21
572.90	2300.71
573.26	2299.33
573.61	2297.65
573.96	2295.80
574.31	2292.75
574.67	2289.72
575.02	2285.88
575.37	2282.38
575.72	2278.55
576.08	2275.27
576.43	2271.86
576.78	2268.13
577.13	2264.89
577.49	2261.91
577.84	2258.49
578.19	2254.73
578.54	2250.86
578.90	2246.61
579.25	2241.01
579.60	2235.99
579.95	2231.08
580.30	2225.84
580.66	2220.58
581.01	2215.55
581.36	2210.54
581.71	2206.33
582.06	2201.89
582.42	2197.27
582.77	2192.04
583.12	2187.26
583.47	2182.28
583.82	2177.36
584.17	2171.99
584.53	2166.46
584.88	2160.64
585.23	2154.72
585.58	2149.28
585.93	2143.84
586.28	2139.03
586.63	2133.68
586.98	2128.44
587.34	2123.61
587.69	2118.75
588.04	2113.46
588.39	2107.56
588.74	2100.93
589.09	2094.57
589.44	2087.56
589.79	2081.40
590.14	2075.64
590.49	2069.12
590.84	2062.60
591.19	2056.30
591.54	2049.79
591.89	2042.20
592.25	2035.38
592.60	2028.21
592.95	2020.48
593.30	2012.94
593.65	2005.11
594.00	1998.14
594.35	1990.88
594.70	1982.61
595.05	1975.23
595.40	1967.98
595.75	1960.46
596.10	1954.18
596.45	1947.38
596.80	1941.29
597.15	1934.65
597.50	1927.53
597.85	1920.97
598.19	1914.34
598.54	1907.20
598.89	1900.58
599.24	1894.76
599.59	1888.05
599.94	1881.75
600.29	1875.47
600.64	1868.98
600.99	1861.61
601.34	1854.68
601.69	1847.67
602.04	1840.76
602.39	1833.44
602.74	1826.45
603.08	1819.67
603.43	1812.88
603.78	1805.57
604.13	1798.30
604.48	1790.92
604.83	1784.12
605.18	1777.21
605.53	1769.19
605.87	1761.23
606.22	1753.84
606.57	1745.93
606.92	1738.55
607.27	1731.36
607.62	1724.38
607.96	1717.10
608.31	1710.45
608.66	1702.81
609.01	1695.31
609.36	1687.65
609.70	1679.67
610.05	1671.66
610.40	1664.04
610.75	1655.82
611.10	1648.20
611.44	1639.79
611.79	1631.96
612.14	1623.17
612.49	1614.04
612.83	1605.61
613.18	1597.49
613.53	1589.44
613.88	1580.88
614.22	1572.60
614.57	1564.01
614.92	1555.99
615.27	1548.44
615.61	1540.09
615.96	1532.18
616.31	1524.55
616.65	1517.38
617.00	1509.78
617.35	1501.99
617.70	1493.61
618.04	1485.03
618.39	1476.77
618.74	1469.17
619.08	1460.81
619.43	1453.20
619.78	1446.29
620.12	1439.17
620.47	1431.62
620.82	1423.60
621.16	1416.18
621.51	1408.53
621.85	1400.83
622.20	1392.27
622.55	1383.86
622.89	1375.99
623.24	1368.29
623.59	1360.84
623.93	1353.21
624.28	1345.88
624.62	1338.36
624.97	1331.14
625.32	1324.37
625.66	1317.31
626.01	1310.10
626.35	1302.65
626.70	1294.93
627.04	1287.05
627.39	1279.24
627.73	1271.72
628.08	1264.69
628.43	1257.30
628.77	1249.96
629.12	1242.28
629.46	1235.05
629.81	1227.67
630.15	1220.48
630.50	1213.06
630.84	1204.93
631.19	1197.03
631.53	1189.51
631.88	1182.01
632.22	1174.42
632.57	1167.13
632.91	1159.59
633.26	1152.18
633.60	1144.78
633.95	1137.73
634.29	1130.76
634.64	1124.13
634.98	1116.79
635.32	1109.60
635.67	1103.12
636.01	1096.36
636.36	1089.58
636.70	1083.04
637.05	1076.47
637.39	1070.01
637.73	1063.46
638.08	1057.55
638.42	1051.58
638.77	1045.14
639.11	1038.45
639.45	1032.13
639.80	1025.46
640.14	1019.04
640.49	1012.44
640.83	1006.08
641.17	999.84
641.52	993.47
641.86	987.05
642.20	981.27
642.55	974.99
642.89	968.33
643.23	961.85
643.58	956.19
643.92	949.95
644.26	943.85
644.61	937.69
644.95	931.70
645.29	925.01
645.64	918.25
645.98	911.98
646.32	906.23
646.66	900.11
647.01	894.30
647.35	888.65
647.69	882.86
648.04	877.43
648.38	871.58
648.72	865.63
649.06	859.50
649.41	853.66
649.75	847.65
650.09	841.82
650.43	836.10
650.78	829.92
651.12	823.97
651.46	818.32
651.80	812.64
652.14	807.27
652.49	802.01
652.83	796.83
653.17	791.08
653.51	785.31
653.85	779.98
654.20	774.36
654.54	768.42
654.88	762.74
655.22	756.85
655.56	751.17
655.90	745.68
656.25	740.46
656.59	735.08
656.93	730.11
657.27	724.96
657.61	719.45
657.95	714.32
658.29	709.30
658.64	704.05
658.98	698.79
659.32	693.33
659.66	688.06
660.00	682.75
660.34	677.87
660.68	672.99
661.02	667.92
661.36	663.24
661.70	658.64
662.05	654.19
662.39	649.91
662.73	645.46
663.07	641.08
663.41	636.62
663.75	632.05
664.09	627.47
664.43	623.11
664.77	619.04
665.11	614.80
665.45	610.68
665.79	606.58
666.13	602.43
666.47	598.34
666.81	594.17
667.15	590.05
667.49	586.17
667.83	582.32
668.17	578.43
668.51	574.32
668.85	570.32
669.19	566.50
669.53	562.59
669.87	558.72
670.21	554.99
670.55	551.42
670.89	547.98
671.23	544.53
671.57	540.98
671.91	537.40
672.25	533.93
672.58	530.39
672.92	526.98
673.26	523.81
673.60	520.61
673.94	517.55
674.28	514.66
674.62	511.67
674.96	508.58
675.30	505.65
675.64	502.76
675.97	499.96
676.31	497.08
676.65	494.13
676.99	491.40
677.33	488.60
677.67	485.74
678.01	482.79
678.34	479.75
678.68	476.92
679.02	474.14
679.36	471.37
679.70	468.66
680.04	465.89
680.37	463.00
680.71	460.25
681.05	457.64
681.39	454.91
681.73	452.23
682.06	449.68
682.40	447.14
682.74	444.58
683.08	442.07
683.42	439.48
683.75	437.01
684.09	434.46
684.43	431.96
684.77	429.54
685.10	427.18
685.44	424.88
685.78	422.53
686.12	420.25
686.45	418.00
686.79	415.71
687.13	413.54
687.46	411.38
687.80	409.23
688.14	407.00
688.48	404.98
688.81	402.76
689.15	400.64
689.49	398.49
689.82	396.42
690.16	394.30
690.50	392.33
690.83	390.41
691.17	388.43
691.51	386.56
691.84	384.64
692.18	382.67
692.52	380.70
692.85	378.81
693.19	376.97
693.52	375.17
693.86	373.35
694.20	371.52
694.53	369.73
694.87	367.89
695.21	366.11
695.54	364.26
695.88	362.55
696.21	360.81
696.55	359.14
696.88	357.49
697.22	355.89
697.56	354.32
697.89	352.63
698.23	351.06
698.56	349.48
698.90	347.92
699.23	346.33
699.57	344.80
699.90	343.29
700.24	341.77
700.58	340.23
700.91	338.78
701.25	337.38
701.58	336.02
701.92	334.68
702.25	333.32
702.59	331.94
702.92	330.64
703.26	329.36
703.59	328.07
703.93	326.88
704.26	325.64
704.60	324.32
704.93	323.08
705.26	321.83
705.60	320.62
705.93	319.49
706.27	318.46
706.60	317.41
706.94	316.31
707.27	315.17
707.61	314.11
707.94	313.09
708.27	312.02
708.61	310.95
708.94	309.93
709.28	308.94
709.61	308.01
709.94	307.07
710.28	306.04
710.61	305.03
710.95	303.96
711.28	303.06
711.61	302.12
711.95	301.19
712.28	300.23
712.61	299.26
712.95	298.31
713.28	297.43
713.61	296.50
713.95	295.57
714.28	294.73
714.61	293.85
714.95	293.01
715.28	292.14
715.61	291.26
715.95	290.36
716.28	289.48
716.61	288.63
716.95	287.80
717.28	287.08
717.61	286.35
717.94	285.60
718.28	284.75
718.61	284.01
718.94	283.31
719.27	282.64
719.61	282.02
719.94	281.31
720.27	280.54
720.60	279.92
720.94	279.32
721.27	278.71
721.60	278.11
721.93	277.50
722.27	276.96
722.60	276.40
722.93	275.85
723.26	275.34
723.59	274.81
723.93	274.26
724.26	273.68
724.59	273.12
724.92	272.59
725.25	272.11
725.59	271.62
725.92	271.12
726.25	270.62
726.58	270.10
726.91	269.61
727.24	269.18
727.57	268.70
727.91	268.20
728.24	267.74
728.57	267.26
728.90	266.80
729.23	266.28
729.56	265.86
729.89	265.42
730.22	264.94
730.55	264.46
730.89	264.05
731.22	263.59
731.55	263.15
731.88	262.74
732.21	262.32
732.54	261.87
732.87	261.45
733.20	261.07
733.53	260.68
733.86	260.33
734.19	259.94
734.52	259.58
734.85	259.27
735.18	258.86
735.51	258.51
735.84	258.13
736.17	257.79
736.50	257.40
736.83	257.17
737.16	256.84
737.49	256.51
737.82	256.14
738.15	255.85
738.48	255.52
738.81	255.19
739.14	254.86
739.47	254.52
739.80	254.21
740.13	253.90
740.46	253.56
740.79	253.24
741.12	252.95
741.45	252.60
741.78	252.26
742.11	251.96
742.44	251.67
742.77	251.37
743.10	251.10
743.43	250.78
743.75	250.40
744.08	250.26
744.41	250.00
744.74	249.71
745.07	249.44
745.40	249.20
745.73	248.95
746.06	248.64
746.39	248.40
746.71	248.16
747.04	247.86
747.37	247.61
747.70	247.37
748.03	247.08
748.36	246.88
748.68	246.64
749.01	246.40
749.34	246.14
749.67	245.88
750.00	245.68
750.33	245.53
750.65	245.30
750.98	244.94
751.31	244.70
751.64	244.49
751.97	244.32
752.29	244.08
752.62	243.82
752.95	243.62
753.28	243.42
753.60	243.19
753.93	243.02
754.26	242.83
754.59	242.60
754.91	242.40
755.24	242.16
755.57	241.97
755.90	241.78
756.22	241.61
756.55	241.45
756.88	241.19
757.20	240.98
757.53	240.75
757.86	240.61
758.19	240.44
758.51	240.28
758.84	240.05
759.17	239.90
759.49	239.75
759.82	239.66
760.15	239.51
760.47	239.37
760.80	239.18
761.13	239.03
761.45	238.88
761.78	238.70
762.11	238.58
762.43	238.45
762.76	238.32
763.08	238.20
763.41	238.08
763.74	237.97
764.06	237.78
764.39	237.69
764.71	237.55
765.04	237.45
765.37	237.29
765.69	237.13
766.02	237.00
766.34	236.87
766.67	236.70
767.00	236.59
767.32	236.52
767.65	236.50
767.97	236.42
768.30	236.31
768.62	236.24
768.95	236.10
769.27	235.99
769.60	235.88
769.92	235.73
770.25	235.62
770.57	235.51
770.90	235.44
771.22	235.31
771.55	235.20
771.87	235.10
772.20	235.02
772.52	235.04
772.85	235.09
773.17	235.00
773.50	234.88
773.82	234.78
774.15	234.64
774.47	234.45
774.80	234.33
775.12	234.25
775.45	234.19
775.77	234.14
776.09	234.05
776.42	233.97
776.74	233.91
777.07	233.81
777.39	233.73
777.72	233.67
778.04	233.64
778.36	233.54
778.69	233.47
779.01	233.39
779.33	233.24
779.66	233.01
779.98	232.93
780.31	232.91
780.63	232.86
780.95	232.85
781.28	232.78
781.60	232.70
781.92	232.63
782.25	232.56
782.57	232.48
782.89	232.41
783.22	232.37
783.54	232.30
783.86	232.24
784.19	232.17
784.51	232.15
784.83	232.06
785.16	232.00
785.48	231.93
785.80	231.93
786.12	231.89
786.45	231.86
786.77	231.85
787.09	231.77
