SpectraSuite Data File
++++++++++++++++++++++++++++++++++++
Date: Fri Feb 01 18:10:00 EST 2013
User: group
Dark Spectrum Present: No
Reference Spectrum Present: No
Number of Sampled Component Spectra: 1
Spectrometers: USB2E7196
Integration Time (usec): 35000 (USB2E7196)
Spectra Averaged: 100 (USB2E7196)
Boxcar Smoothing: 10 (USB2E7196)
Correct for Electrical Dark: No (USB2E7196)
Strobe/Lamp Enabled: No (USB2E7196)
Correct for Detector Non-linearity: No (USB2E7196)
Correct for Stray Light: No (USB2E7196)
Number of Pixels in Processed Spectrum: 2048
>>>>>Begin Processed Spectral Data<<<<<
339.09	0.00
339.48	213.66
339.86	214.68
340.24	215.78
340.63	217.48
341.01	220.15
341.39	219.99
341.78	221.50
342.16	222.53
342.54	223.26
342.93	211.39
343.31	222.08
343.69	222.59
344.07	223.04
344.46	223.46
344.84	223.81
345.22	224.05
345.60	224.29
345.99	224.46
346.37	224.60
346.75	224.68
347.13	224.80
347.52	224.86
347.90	224.94
348.28	224.98
348.66	225.02
349.05	224.95
349.43	225.04
349.81	225.09
350.19	225.14
350.57	225.15
350.96	225.25
351.34	225.35
351.72	225.43
352.10	225.51
352.48	225.59
352.87	225.66
353.25	225.72
353.63	225.79
354.01	225.86
354.39	225.92
354.77	225.99
355.15	226.06
355.54	226.09
355.92	226.13
356.30	226.22
356.68	226.36
357.06	226.51
357.44	226.56
357.82	226.64
358.20	226.73
358.58	226.82
358.97	226.89
359.35	226.96
359.73	227.07
360.11	227.13
360.49	227.22
360.87	227.29
361.25	227.39
361.63	227.48
362.01	227.56
362.39	227.60
362.77	227.66
363.15	227.68
363.53	227.78
363.91	227.85
364.29	227.90
364.67	227.87
365.05	227.89
365.43	227.93
365.81	227.93
366.19	228.02
366.57	228.08
366.95	228.08
367.33	228.09
367.71	228.07
368.09	228.13
368.47	228.12
368.85	228.11
369.23	228.12
369.61	228.07
369.99	228.06
370.37	228.08
370.75	228.13
371.13	228.11
371.51	228.07
371.89	228.05
372.27	227.99
372.65	227.95
373.03	227.90
373.41	227.88
373.78	227.86
374.16	227.77
374.54	227.67
374.92	227.62
375.30	227.57
375.68	227.50
376.06	227.44
376.44	227.37
376.82	227.31
377.19	227.23
377.57	227.18
377.95	227.11
378.33	227.07
378.71	226.94
379.09	226.91
379.47	226.84
379.84	226.73
380.22	226.70
380.60	226.63
380.98	226.60
381.36	226.48
381.73	226.42
382.11	226.35
382.49	226.29
382.87	226.21
383.25	226.16
383.62	226.22
384.00	226.13
384.38	226.09
384.76	226.07
385.13	226.06
385.51	226.00
385.89	225.94
386.27	225.86
386.64	225.85
387.02	225.79
387.40	225.72
387.78	225.74
388.15	225.65
388.53	225.61
388.91	225.55
389.29	225.57
389.66	225.55
390.04	225.52
390.42	225.51
390.79	225.51
391.17	225.49
391.55	225.36
391.92	225.33
392.30	225.33
392.68	225.28
393.05	225.25
393.43	225.25
393.81	225.24
394.18	225.23
394.56	225.22
394.94	225.25
395.31	225.27
395.69	225.29
396.06	225.33
396.44	225.38
396.82	225.39
397.19	225.43
397.57	225.45
397.95	225.50
398.32	225.53
398.70	225.59
399.07	225.63
399.45	225.69
399.82	225.77
400.20	225.80
400.58	225.85
400.95	225.90
401.33	225.98
401.70	226.15
402.08	226.26
402.45	226.32
402.83	226.44
403.20	226.56
403.58	226.66
403.95	226.80
404.33	226.92
404.71	227.07
405.08	227.27
405.46	227.39
405.83	227.56
406.21	227.70
406.58	227.89
406.96	228.09
407.33	228.31
407.70	228.52
408.08	228.86
408.45	229.11
408.83	229.40
409.20	229.69
409.58	229.88
409.95	230.20
410.33	230.57
410.70	230.89
411.08	231.31
411.45	231.69
411.82	232.11
412.20	232.56
412.57	233.12
412.95	233.51
413.32	234.10
413.69	234.68
414.07	235.29
414.44	235.91
414.82	236.57
415.19	237.35
415.56	238.12
415.94	238.86
416.31	239.79
416.68	240.68
417.06	241.61
417.43	242.57
417.81	243.65
418.18	244.69
418.55	245.85
418.93	247.05
419.30	248.34
419.67	249.67
420.04	251.03
420.42	252.43
420.79	254.07
421.16	255.66
421.54	257.29
421.91	259.03
422.28	260.78
422.66	262.65
423.03	264.41
423.40	266.26
423.77	268.25
424.15	270.24
424.52	272.28
424.89	274.58
425.26	276.76
425.64	278.78
426.01	281.07
426.38	283.42
426.75	285.76
427.13	288.14
427.50	290.66
427.87	293.30
428.24	295.93
428.61	298.40
428.99	301.15
429.36	304.15
429.73	307.00
430.10	309.85
430.47	312.73
430.85	315.73
431.22	318.88
431.59	322.19
431.96	325.30
432.33	328.80
432.70	332.17
433.08	336.08
433.45	339.77
433.82	343.41
434.19	347.45
434.56	351.35
434.93	355.08
435.30	358.75
435.68	362.79
436.05	366.75
436.42	370.66
436.79	374.13
437.16	377.87
437.53	381.84
437.90	385.80
438.27	389.60
438.64	393.57
439.01	397.22
439.38	400.39
439.75	403.41
440.13	406.92
440.50	410.16
440.87	412.77
441.24	415.51
441.61	418.54
441.98	420.63
442.35	423.18
442.72	425.80
443.09	428.30
443.46	429.69
443.83	430.50
444.20	431.27
444.57	432.50
444.94	432.89
445.31	433.34
445.68	433.78
446.05	433.93
446.42	433.41
446.79	432.78
447.16	432.14
447.53	431.78
447.90	430.15
448.27	428.55
448.64	426.33
449.01	424.78
449.37	422.01
449.74	419.35
450.11	416.17
450.48	412.66
450.85	409.13
451.22	406.13
451.59	403.29
451.96	400.51
452.33	396.86
452.70	393.53
453.07	389.63
453.43	385.64
453.80	381.78
454.17	378.01
454.54	374.48
454.91	370.70
455.28	366.90
455.65	363.42
456.02	359.95
456.38	356.95
456.75	353.16
457.12	350.00
457.49	346.88
457.86	343.87
458.23	341.28
458.59	338.40
458.96	335.45
459.33	332.86
459.70	330.24
460.07	328.12
460.43	325.72
460.80	323.38
461.17	321.29
461.54	319.17
461.91	317.21
462.27	315.17
462.64	313.35
463.01	311.46
463.38	309.61
463.74	307.71
464.11	306.07
464.48	304.63
464.85	303.03
465.21	301.77
465.58	300.43
465.95	298.90
466.32	297.60
466.68	296.34
467.05	295.07
467.42	293.81
467.78	292.49
468.15	291.27
468.52	290.36
468.88	289.21
469.25	288.11
469.62	287.15
469.98	286.18
470.35	285.29
470.72	284.44
471.08	283.54
471.45	282.75
471.82	281.94
472.18	281.07
472.55	280.46
472.92	279.70
473.28	279.03
473.65	278.36
474.02	277.71
474.38	277.16
474.75	276.66
475.11	276.10
475.48	275.65
475.85	275.25
476.21	274.87
476.58	274.51
476.94	274.24
477.31	273.96
477.67	273.68
478.04	273.44
478.41	273.28
478.77	273.17
479.14	273.00
479.50	272.92
479.87	272.90
480.23	272.89
480.60	272.89
480.96	272.92
481.33	273.07
481.69	273.23
482.06	273.35
482.42	273.46
482.79	273.69
483.15	273.97
483.52	274.35
483.88	274.63
484.25	274.97
484.61	275.35
484.98	275.77
485.34	276.37
485.71	276.94
486.07	277.54
486.44	278.11
486.80	278.81
487.17	279.55
487.53	280.39
487.90	281.23
488.26	282.18
488.62	283.21
488.99	284.23
489.35	285.35
489.72	286.52
490.08	287.78
490.44	289.08
490.81	290.48
491.17	291.87
491.54	293.46
491.90	295.11
492.26	296.86
492.63	298.71
492.99	300.57
493.36	302.61
493.72	304.80
494.08	307.05
494.45	309.45
494.81	311.98
495.17	314.58
495.54	317.35
495.90	320.27
496.26	323.23
496.63	326.38
496.99	329.67
497.35	333.15
497.72	336.79
498.08	340.56
498.44	344.55
498.80	348.80
499.17	353.10
499.53	357.51
499.89	362.24
500.26	367.04
500.62	372.03
500.98	377.30
501.34	382.72
501.71	388.41
502.07	394.24
502.43	400.29
502.79	406.56
503.16	413.07
503.52	419.77
503.88	426.71
504.24	433.81
504.60	441.15
504.97	448.81
505.33	456.70
505.69	464.99
506.05	473.31
506.41	481.71
506.78	490.56
507.14	499.68
507.50	509.03
507.86	518.77
508.22	528.73
508.59	538.74
508.95	549.07
509.31	559.67
509.67	570.66
510.03	581.77
510.39	593.23
510.75	605.00
511.12	616.94
511.48	629.23
511.84	641.84
512.20	654.45
512.56	667.40
512.92	680.65
513.28	694.15
513.64	707.84
514.00	721.81
514.37	735.92
514.73	750.21
515.09	764.57
515.45	779.08
515.81	793.94
516.17	809.31
516.53	824.82
516.89	840.48
517.25	856.04
517.61	871.91
517.97	887.80
518.33	903.58
518.69	919.73
519.05	936.19
519.41	952.87
519.77	970.03
520.13	987.14
520.49	1004.23
520.85	1021.27
521.21	1038.59
521.57	1056.56
521.93	1074.04
522.29	1092.22
522.65	1110.29
523.01	1128.45
523.37	1146.46
523.73	1164.48
524.09	1182.49
524.45	1200.60
524.81	1219.16
525.17	1237.83
525.53	1256.73
525.89	1275.60
526.25	1294.56
526.61	1313.05
526.97	1331.86
527.33	1350.37
527.68	1369.01
528.04	1387.58
528.40	1406.24
528.76	1425.52
529.12	1444.41
529.48	1463.53
529.84	1481.72
530.20	1500.62
530.56	1519.79
530.91	1539.56
531.27	1558.66
531.63	1577.39
531.99	1596.33
532.35	1614.74
532.71	1633.14
533.07	1651.80
533.42	1670.27
533.78	1688.84
534.14	1707.57
534.50	1725.35
534.86	1743.71
535.21	1761.40
535.57	1779.94
535.93	1797.97
536.29	1815.27
536.65	1832.77
537.00	1850.12
537.36	1868.00
537.72	1884.96
538.08	1902.10
538.44	1918.33
538.79	1934.79
539.15	1950.96
539.51	1967.31
539.87	1984.39
540.22	2000.61
540.58	2016.90
540.94	2032.81
541.29	2048.11
541.65	2063.37
542.01	2079.17
542.37	2094.15
542.72	2109.19
543.08	2123.52
543.44	2138.50
543.79	2152.25
544.15	2165.73
544.51	2179.94
544.87	2193.31
545.22	2206.75
545.58	2219.42
545.94	2231.64
546.29	2243.96
546.65	2256.35
547.01	2268.10
547.36	2279.07
547.72	2290.02
548.07	2300.40
548.43	2310.75
548.79	2321.01
549.14	2330.83
549.50	2340.42
549.86	2350.25
550.21	2359.82
550.57	2369.20
550.92	2378.19
551.28	2387.49
551.64	2396.87
551.99	2405.60
552.35	2414.06
552.70	2422.26
553.06	2430.44
553.41	2438.93
553.77	2446.82
554.13	2454.99
554.48	2463.33
554.84	2471.00
555.19	2478.12
555.55	2485.10
555.90	2491.57
556.26	2498.62
556.61	2505.25
556.97	2511.55
557.32	2517.55
557.68	2523.35
558.03	2529.50
558.39	2534.85
558.74	2541.36
559.10	2547.02
559.45	2552.28
559.81	2558.30
560.16	2563.79
560.52	2568.60
560.87	2573.57
561.23	2577.87
561.58	2582.21
561.94	2586.10
562.29	2589.67
562.64	2594.11
563.00	2598.29
563.35	2603.39
563.71	2607.90
564.06	2612.54
564.42	2616.79
564.77	2620.91
565.12	2624.90
565.48	2628.00
565.83	2631.14
566.19	2633.80
566.54	2635.58
566.89	2637.94
567.25	2639.66
567.60	2642.22
567.96	2645.16
568.31	2647.00
568.66	2649.25
569.02	2651.03
569.37	2652.33
569.72	2654.26
570.08	2655.24
570.43	2656.02
570.78	2656.26
571.14	2655.31
571.49	2654.55
571.84	2654.91
572.20	2654.34
572.55	2653.74
572.90	2652.55
573.26	2651.79
573.61	2650.27
573.96	2649.29
574.31	2646.51
574.67	2643.65
575.02	2640.00
575.37	2636.48
575.72	2632.89
576.08	2629.49
576.43	2625.96
576.78	2622.41
577.13	2619.18
577.49	2615.90
577.84	2612.53
578.19	2608.56
578.54	2604.95
578.90	2600.76
579.25	2594.76
579.60	2589.52
579.95	2584.23
580.30	2579.00
580.66	2573.31
581.01	2567.90
581.36	2562.23
581.71	2557.72
582.06	2553.10
582.42	2548.47
582.77	2543.01
583.12	2538.06
583.47	2533.28
583.82	2528.15
584.17	2522.42
584.53	2516.43
584.88	2510.29
585.23	2503.91
585.58	2497.85
585.93	2491.81
586.28	2486.20
586.63	2480.65
586.98	2474.78
587.34	2469.40
587.69	2463.86
588.04	2458.14
588.39	2451.92
588.74	2444.68
589.09	2437.69
589.44	2429.98
589.79	2422.82
590.14	2416.16
590.49	2408.59
590.84	2401.00
591.19	2394.00
591.54	2386.45
591.89	2378.14
592.25	2370.42
592.60	2362.03
592.95	2353.38
593.30	2344.85
593.65	2336.16
594.00	2327.98
594.35	2319.75
594.70	2310.16
595.05	2301.99
595.40	2293.38
595.75	2284.68
596.10	2277.54
596.45	2269.85
596.80	2262.60
597.15	2254.97
597.50	2246.89
597.85	2239.26
598.19	2231.58
598.54	2223.48
598.89	2215.66
599.24	2208.65
599.59	2200.92
599.94	2193.51
600.29	2185.97
600.64	2178.06
600.99	2169.32
601.34	2161.27
601.69	2153.05
602.04	2145.35
602.39	2136.55
602.74	2128.51
603.08	2120.44
603.43	2112.37
603.78	2103.56
604.13	2094.92
604.48	2086.51
604.83	2078.35
605.18	2070.27
605.53	2060.71
605.87	2050.92
606.22	2042.26
606.57	2032.64
606.92	2023.54
607.27	2015.12
607.62	2006.94
607.96	1998.39
608.31	1990.61
608.66	1981.59
609.01	1972.47
609.36	1963.39
609.70	1953.96
610.05	1944.26
610.40	1935.02
610.75	1925.03
611.10	1915.86
611.44	1905.91
611.79	1896.09
612.14	1885.65
612.49	1874.65
612.83	1864.53
613.18	1854.85
613.53	1845.22
613.88	1835.19
614.22	1825.38
614.57	1814.92
614.92	1805.24
615.27	1796.32
615.61	1786.38
615.96	1776.71
616.31	1767.51
616.65	1758.50
617.00	1749.28
617.35	1740.12
617.70	1730.34
618.04	1720.34
618.39	1710.44
618.74	1701.32
619.08	1691.33
619.43	1682.29
619.78	1673.88
620.12	1665.43
620.47	1656.38
620.82	1646.45
621.16	1637.32
621.51	1628.07
621.85	1618.92
622.20	1608.74
622.55	1598.53
622.89	1588.99
623.24	1579.70
623.59	1570.67
623.93	1561.57
624.28	1552.91
624.62	1543.90
624.97	1535.16
625.32	1526.89
625.66	1518.50
626.01	1509.86
626.35	1501.20
626.70	1491.82
627.04	1482.58
627.39	1473.08
627.73	1464.24
628.08	1455.90
628.43	1447.27
628.77	1438.67
629.12	1429.70
629.46	1421.07
629.81	1412.10
630.15	1403.39
630.50	1394.62
630.84	1384.99
631.19	1375.49
631.53	1366.49
631.88	1357.28
632.22	1348.10
632.57	1339.27
632.91	1330.12
633.26	1321.21
633.60	1312.16
633.95	1303.50
634.29	1294.95
634.64	1286.94
634.98	1278.09
635.32	1269.55
635.67	1261.50
636.01	1253.40
636.36	1245.30
636.70	1237.44
637.05	1229.66
637.39	1221.86
637.73	1214.05
638.08	1206.92
638.42	1199.72
638.77	1191.95
639.11	1184.27
639.45	1176.73
639.80	1168.90
640.14	1161.36
640.49	1153.64
640.83	1146.21
641.17	1138.99
641.52	1131.56
641.86	1123.82
642.20	1116.84
642.55	1109.29
642.89	1101.74
643.23	1093.91
643.58	1087.07
643.92	1079.78
644.26	1072.69
644.61	1065.51
644.95	1058.36
645.29	1050.69
645.64	1042.78
645.98	1035.30
646.32	1028.16
646.66	1020.91
647.01	1014.04
647.35	1007.30
647.69	1000.24
648.04	993.60
648.38	986.71
648.72	979.63
649.06	972.60
649.41	965.60
649.75	958.73
650.09	951.68
650.43	944.92
650.78	937.63
651.12	930.55
651.46	923.73
651.80	917.09
652.14	910.74
652.49	904.28
652.83	898.18
653.17	891.57
653.51	884.92
653.85	878.62
654.20	871.99
654.54	864.87
654.88	858.11
655.22	851.07
655.56	844.25
655.90	837.75
656.25	831.54
656.59	825.24
656.93	819.13
657.27	813.02
657.61	806.59
657.95	800.53
658.29	794.44
658.64	788.19
658.98	781.74
659.32	775.25
659.66	769.13
660.00	762.88
660.34	756.95
660.68	751.12
661.02	745.15
661.36	739.52
661.70	734.24
662.05	729.17
662.39	724.18
662.73	718.95
663.07	713.75
663.41	708.52
663.75	703.23
664.09	697.83
664.43	692.67
664.77	687.94
665.11	682.92
665.45	678.12
665.79	673.34
666.13	668.66
666.47	663.86
666.81	658.99
667.15	654.12
667.49	649.52
667.83	644.97
668.17	640.32
668.51	635.55
668.85	630.78
669.19	626.15
669.53	621.71
669.87	617.22
670.21	612.91
670.55	608.62
670.89	604.58
671.23	600.56
671.57	596.40
671.91	592.21
672.25	588.06
672.58	583.93
672.92	579.89
673.26	576.15
673.60	572.43
673.94	568.76
674.28	565.36
674.62	561.95
674.96	558.38
675.30	554.95
675.64	551.52
675.97	548.27
676.31	544.95
676.65	541.45
676.99	538.21
677.33	534.83
677.67	531.54
678.01	528.01
678.34	524.52
678.68	521.10
679.02	517.74
679.36	514.53
679.70	511.34
680.04	508.14
680.37	504.74
680.71	501.45
681.05	498.36
681.39	495.15
681.73	492.01
682.06	489.02
682.40	486.12
682.74	483.16
683.08	480.13
683.42	477.08
683.75	474.13
684.09	471.13
684.43	468.21
684.77	465.34
685.10	462.57
685.44	459.83
685.78	457.23
686.12	454.59
686.45	451.85
686.79	449.18
687.13	446.61
687.46	444.04
687.80	441.50
688.14	438.88
688.48	436.45
688.81	433.85
689.15	431.36
689.49	428.74
689.82	426.27
690.16	423.81
690.50	421.51
690.83	419.23
691.17	416.88
691.51	414.71
691.84	412.49
692.18	410.22
692.52	407.93
692.85	405.59
693.19	403.31
693.52	401.14
693.86	398.95
694.20	396.77
694.53	394.68
694.87	392.44
695.21	390.34
695.54	388.23
695.88	386.14
696.21	384.04
696.55	382.09
696.88	380.08
697.22	378.06
697.56	376.12
697.89	374.17
698.23	372.28
698.56	370.34
698.90	368.45
699.23	366.55
699.57	364.69
699.90	362.86
700.24	361.07
700.58	359.32
700.91	357.52
701.25	355.82
701.58	354.17
701.92	352.61
702.25	350.97
702.59	349.37
702.92	347.81
703.26	346.25
703.59	344.71
703.93	343.30
704.26	341.89
704.60	340.33
704.93	338.88
705.26	337.43
705.60	335.95
705.93	334.55
706.27	333.28
706.60	332.00
706.94	330.75
707.27	329.36
707.61	328.03
707.94	326.86
708.27	325.57
708.61	324.27
708.94	323.06
709.28	321.95
709.61	320.75
709.94	319.60
710.28	318.40
710.61	317.25
710.95	315.98
711.28	314.89
711.61	313.81
711.95	312.68
712.28	311.54
712.61	310.46
712.95	309.36
713.28	308.35
713.61	307.30
713.95	306.23
714.28	305.30
714.61	304.31
714.95	303.29
715.28	302.26
715.61	301.27
715.95	300.23
716.28	299.18
716.61	298.17
716.95	297.17
717.28	296.29
717.61	295.35
717.94	294.47
718.28	293.51
718.61	292.64
718.94	291.78
719.27	291.01
719.61	290.23
719.94	289.48
720.27	288.60
720.60	287.82
720.94	287.11
721.27	286.38
721.60	285.68
721.93	285.01
722.27	284.37
722.60	283.69
722.93	283.08
723.26	282.45
723.59	281.81
723.93	281.21
724.26	280.55
724.59	279.94
724.92	279.33
725.25	278.75
725.59	278.15
725.92	277.56
726.25	276.97
726.58	276.39
726.91	275.78
727.24	275.23
727.57	274.66
727.91	274.05
728.24	273.49
728.57	272.89
728.90	272.32
729.23	271.76
729.56	271.27
729.89	270.65
730.22	270.06
730.55	269.52
730.89	268.98
731.22	268.45
731.55	267.93
731.88	267.44
732.21	266.93
732.54	266.39
732.87	265.88
733.20	265.40
733.53	264.91
733.86	264.45
734.19	263.99
734.52	263.55
734.85	263.16
735.18	262.67
735.51	262.26
735.84	261.83
736.17	261.42
736.50	260.94
736.83	260.66
737.16	260.24
737.49	259.83
737.82	259.40
738.15	258.99
738.48	258.55
738.81	258.14
739.14	257.75
739.47	257.37
739.80	257.03
740.13	256.69
740.46	256.30
740.79	255.93
741.12	255.54
741.45	255.16
741.78	254.75
742.11	254.43
742.44	254.04
742.77	253.69
743.10	253.32
743.43	252.95
743.75	252.48
744.08	252.31
744.41	252.02
744.74	251.68
745.07	251.37
745.40	251.10
745.73	250.81
746.06	250.48
746.39	250.16
746.71	249.79
747.04	249.43
747.37	249.10
747.70	248.78
748.03	248.46
748.36	248.19
748.68	247.91
749.01	247.59
749.34	247.31
749.67	247.01
750.00	246.72
750.33	246.55
750.65	246.30
750.98	245.89
751.31	245.60
751.64	245.40
751.97	245.20
752.29	244.94
752.62	244.65
752.95	244.42
753.28	244.17
753.60	243.92
753.93	243.73
754.26	243.53
754.59	243.30
754.91	243.08
755.24	242.87
755.57	242.62
755.90	242.44
756.22	242.23
756.55	242.00
756.88	241.79
757.20	241.48
757.53	241.27
757.86	241.07
758.19	240.89
758.51	240.66
758.84	240.39
759.17	240.19
759.49	240.00
759.82	239.87
760.15	239.71
760.47	239.56
760.80	239.38
761.13	239.20
761.45	239.02
761.78	238.84
762.11	238.67
762.43	238.52
762.76	238.33
763.08	238.18
763.41	238.05
763.74	237.88
764.06	237.74
764.39	237.60
764.71	237.44
765.04	237.28
765.37	237.16
765.69	237.03
766.02	236.86
766.34	236.74
766.67	236.55
767.00	236.44
767.32	236.39
767.65	236.32
767.97	236.19
768.30	236.07
768.62	235.94
768.95	235.80
769.27	235.66
769.60	235.56
769.92	235.42
770.25	235.26
770.57	235.16
770.90	235.04
771.22	234.90
771.55	234.83
771.87	234.72
772.20	234.60
772.52	234.59
772.85	234.61
773.17	234.50
773.50	234.36
773.82	234.21
774.15	234.02
774.47	233.87
774.80	233.75
775.12	233.65
775.45	233.57
775.77	233.47
776.09	233.36
776.42	233.24
776.74	233.19
777.07	233.12
777.39	233.02
777.72	232.91
778.04	232.83
778.36	232.73
778.69	232.63
779.01	232.51
779.33	232.34
779.66	232.16
779.98	232.06
780.31	231.97
780.63	231.99
780.95	231.91
781.28	231.79
781.60	231.72
781.92	231.65
782.25	231.56
782.57	231.50
782.89	231.46
783.22	231.40
783.54	231.29
783.86	231.21
784.19	231.15
784.51	231.11
784.83	231.03
785.16	230.96
785.48	230.88
785.80	230.84
786.12	230.78
786.45	230.72
