SpectraSuite Data File
++++++++++++++++++++++++++++++++++++
Date: Fri Feb 01 15:53:33 EST 2013
User: group
Dark Spectrum Present: No
Reference Spectrum Present: No
Number of Sampled Component Spectra: 1
Spectrometers: USB2E7196
Integration Time (usec): 35000 (USB2E7196)
Spectra Averaged: 100 (USB2E7196)
Boxcar Smoothing: 10 (USB2E7196)
Correct for Electrical Dark: No (USB2E7196)
Strobe/Lamp Enabled: No (USB2E7196)
Correct for Detector Non-linearity: No (USB2E7196)
Correct for Stray Light: No (USB2E7196)
Number of Pixels in Processed Spectrum: 2048
>>>>>Begin Processed Spectral Data<<<<<
339.09	0.00
339.48	214.13
339.86	216.52
340.24	218.07
340.63	219.02
341.01	221.76
341.39	221.64
341.78	223.46
342.16	224.38
342.54	224.76
342.93	213.13
343.31	223.89
343.69	224.48
344.07	224.92
344.46	225.33
344.84	225.69
345.22	225.93
345.60	226.17
345.99	226.34
346.37	226.47
346.75	226.54
347.13	226.62
347.52	226.69
347.90	226.74
348.28	226.79
348.66	226.83
349.05	226.83
349.43	226.85
349.81	226.87
350.19	226.90
350.57	226.96
350.96	227.04
351.34	227.11
351.72	227.17
352.10	227.27
352.48	227.34
352.87	227.38
353.25	227.45
353.63	227.52
354.01	227.58
354.39	227.65
354.77	227.72
355.15	227.82
355.54	227.89
355.92	227.90
356.30	227.97
356.68	228.09
357.06	228.14
357.44	228.18
357.82	228.25
358.20	228.31
358.58	228.37
358.97	228.44
359.35	228.52
359.73	228.60
360.11	228.68
360.49	228.75
360.87	228.81
361.25	228.85
361.63	228.91
362.01	228.95
362.39	228.98
362.77	229.02
363.15	229.05
363.53	229.06
363.91	229.09
364.29	229.08
364.67	229.01
365.05	229.05
365.43	229.11
365.81	229.12
366.19	229.17
366.57	229.19
366.95	229.16
367.33	229.14
367.71	229.14
368.09	229.11
368.47	229.08
368.85	229.07
369.23	229.04
369.61	229.01
369.99	229.02
370.37	228.99
370.75	229.00
371.13	228.94
371.51	228.89
371.89	228.86
372.27	228.84
372.65	228.83
373.03	228.76
373.41	228.69
373.78	228.62
374.16	228.49
374.54	228.45
374.92	228.40
375.30	228.34
375.68	228.28
376.06	228.25
376.44	228.17
376.82	228.11
377.19	228.08
377.57	228.02
377.95	227.92
378.33	227.84
378.71	227.74
379.09	227.68
379.47	227.67
379.84	227.61
380.22	227.53
380.60	227.44
380.98	227.37
381.36	227.31
381.73	227.27
382.11	227.26
382.49	227.15
382.87	227.07
383.25	227.01
383.62	227.05
384.00	226.93
384.38	226.88
384.76	226.86
385.13	226.83
385.51	226.77
385.89	226.71
386.27	226.67
386.64	226.63
387.02	226.59
387.40	226.54
387.78	226.50
388.15	226.46
388.53	226.43
388.91	226.37
389.29	226.31
389.66	226.28
390.04	226.23
390.42	226.25
390.79	226.23
391.17	226.22
391.55	226.09
391.92	226.10
392.30	226.12
392.68	226.08
393.05	226.05
393.43	226.03
393.81	226.04
394.18	226.03
394.56	226.06
394.94	226.08
395.31	226.06
395.69	226.09
396.06	226.13
396.44	226.18
396.82	226.23
397.19	226.35
397.57	226.39
397.95	226.44
398.32	226.44
398.70	226.51
399.07	226.60
399.45	226.66
399.82	226.70
400.20	226.73
400.58	226.81
400.95	226.84
401.33	226.97
401.70	227.10
402.08	227.20
402.45	227.30
402.83	227.45
403.20	227.58
403.58	227.66
403.95	227.80
404.33	227.91
404.71	228.04
405.08	228.21
405.46	228.35
405.83	228.51
406.21	228.68
406.58	228.85
406.96	229.00
407.33	229.18
407.70	229.40
408.08	229.68
408.45	229.87
408.83	230.12
409.20	230.31
409.58	230.50
409.95	230.78
410.33	231.04
410.70	231.28
411.08	231.58
411.45	231.93
411.82	232.26
412.20	232.63
412.57	233.05
412.95	233.35
413.32	233.74
413.69	234.17
414.07	234.62
414.44	235.10
414.82	235.59
415.19	236.16
415.56	236.72
415.94	237.31
416.31	237.99
416.68	238.62
417.06	239.37
417.43	240.08
417.81	240.83
418.18	241.62
418.55	242.49
418.93	243.37
419.30	244.25
419.67	245.17
420.04	246.13
420.42	247.15
420.79	248.30
421.16	249.47
421.54	250.68
421.91	251.91
422.28	253.16
422.66	254.52
423.03	255.84
423.40	257.16
423.77	258.56
424.15	259.99
424.52	261.49
424.89	263.10
425.26	264.67
425.64	266.11
426.01	267.75
426.38	269.41
426.75	271.07
427.13	272.80
427.50	274.63
427.87	276.51
428.24	278.36
428.61	280.10
428.99	282.04
429.36	284.14
429.73	286.22
430.10	288.23
430.47	290.26
430.85	292.35
431.22	294.57
431.59	296.93
431.96	299.18
432.33	301.63
432.70	303.98
433.08	306.77
433.45	309.43
433.82	312.01
434.19	314.85
434.56	317.64
434.93	320.28
435.30	322.90
435.68	325.76
436.05	328.58
436.42	331.39
436.79	333.90
437.16	336.55
437.53	339.35
437.90	342.14
438.27	344.88
438.64	347.68
439.01	350.31
439.38	352.57
439.75	354.70
440.13	357.18
440.50	359.48
440.87	361.31
441.24	363.24
441.61	365.35
441.98	366.86
442.35	368.66
442.72	370.51
443.09	372.26
443.46	373.25
443.83	373.82
444.20	374.30
444.57	375.07
444.94	375.36
445.31	375.66
445.68	376.03
446.05	376.11
446.42	375.68
446.79	375.20
447.16	374.68
447.53	374.37
447.90	373.24
448.27	372.09
448.64	370.50
449.01	369.33
449.37	367.36
449.74	365.39
450.11	363.15
450.48	360.64
450.85	358.12
451.22	355.96
451.59	353.94
451.96	351.97
452.33	349.39
452.70	347.00
453.07	344.19
453.43	341.27
453.80	338.49
454.17	335.86
454.54	333.34
454.91	330.66
455.28	327.95
455.65	325.46
456.02	323.03
456.38	320.90
456.75	318.22
457.12	315.97
457.49	313.81
457.86	311.66
458.23	309.83
458.59	307.80
458.96	305.72
459.33	303.87
459.70	302.05
460.07	300.57
460.43	298.87
460.80	297.28
461.17	295.84
461.54	294.35
461.91	292.96
462.27	291.54
462.64	290.30
463.01	288.99
463.38	287.68
463.74	286.33
464.11	285.21
464.48	284.23
464.85	283.10
465.21	282.25
465.58	281.30
465.95	280.25
466.32	279.37
466.68	278.52
467.05	277.63
467.42	276.72
467.78	275.82
468.15	275.00
468.52	274.33
468.88	273.50
469.25	272.74
469.62	272.08
469.98	271.43
470.35	270.82
470.72	270.22
471.08	269.61
471.45	269.08
471.82	268.50
472.18	267.91
472.55	267.53
472.92	266.99
473.28	266.57
473.65	266.13
474.02	265.67
474.38	265.29
474.75	265.00
475.11	264.68
475.48	264.44
475.85	264.22
476.21	264.01
476.58	263.82
476.94	263.66
477.31	263.49
477.67	263.34
478.04	263.26
478.41	263.19
478.77	263.21
479.14	263.12
479.50	263.16
479.87	263.25
480.23	263.32
480.60	263.42
480.96	263.48
481.33	263.66
481.69	263.90
482.06	264.11
482.42	264.27
482.79	264.53
483.15	264.82
483.52	265.18
483.88	265.49
484.25	265.88
484.61	266.33
484.98	266.79
485.34	267.35
485.71	267.92
486.07	268.52
486.44	269.09
486.80	269.83
487.17	270.55
487.53	271.31
487.90	272.10
488.26	273.03
488.62	274.04
488.99	275.04
489.35	276.09
489.72	277.19
490.08	278.43
490.44	279.67
490.81	280.97
491.17	282.33
491.54	283.81
491.90	285.34
492.26	286.99
492.63	288.72
492.99	290.49
493.36	292.34
493.72	294.40
494.08	296.48
494.45	298.69
494.81	301.04
495.17	303.48
495.54	306.07
495.90	308.74
496.26	311.53
496.63	314.47
496.99	317.57
497.35	320.80
497.72	324.17
498.08	327.67
498.44	331.36
498.80	335.22
499.17	339.26
499.53	343.45
499.89	347.82
500.26	352.30
500.62	356.93
500.98	361.89
501.34	366.97
501.71	372.29
502.07	377.71
502.43	383.35
502.79	389.17
503.16	395.26
503.52	401.55
503.88	407.92
504.24	414.55
504.60	421.40
504.97	428.61
505.33	435.93
505.69	443.68
506.05	451.47
506.41	459.34
506.78	467.56
507.14	476.03
507.50	484.71
507.86	493.74
508.22	502.98
508.59	512.24
508.95	521.80
509.31	531.61
509.67	541.78
510.03	552.04
510.39	562.58
510.75	573.42
511.12	584.31
511.48	595.60
511.84	607.06
512.20	618.63
512.56	630.52
512.92	642.74
513.28	655.06
513.64	667.50
514.00	680.27
514.37	693.16
514.73	706.19
515.09	719.24
515.45	732.49
515.81	746.07
516.17	760.07
516.53	774.19
516.89	788.37
517.25	802.42
517.61	816.91
517.97	831.35
518.33	845.80
518.69	860.62
519.05	875.65
519.41	890.82
519.77	906.39
520.13	921.83
520.49	937.14
520.85	952.46
521.21	968.25
521.57	984.43
521.93	1000.21
522.29	1016.67
522.65	1032.89
523.01	1049.16
523.37	1065.20
523.73	1081.26
524.09	1097.37
524.45	1113.61
524.81	1130.29
525.17	1147.01
525.53	1163.97
525.89	1180.74
526.25	1197.55
526.61	1213.94
526.97	1230.72
527.33	1247.14
527.68	1263.76
528.04	1280.26
528.40	1296.86
528.76	1313.84
529.12	1330.46
529.48	1347.25
529.84	1363.15
530.20	1379.81
530.56	1396.93
530.91	1414.22
531.27	1430.91
531.63	1447.34
531.99	1463.98
532.35	1479.94
532.71	1495.74
533.07	1511.90
533.42	1527.79
533.78	1543.81
534.14	1560.05
534.50	1575.29
534.86	1591.21
535.21	1606.23
535.57	1622.16
535.93	1637.67
536.29	1652.42
536.65	1667.38
537.00	1682.13
537.36	1697.44
537.72	1711.84
538.08	1726.26
538.44	1740.12
538.79	1754.08
539.15	1767.76
539.51	1781.39
539.87	1795.68
540.22	1809.53
540.58	1823.29
540.94	1836.73
541.29	1849.54
541.65	1862.05
542.01	1875.25
542.37	1887.41
542.72	1899.98
543.08	1911.73
543.44	1923.99
543.79	1935.35
544.15	1946.49
544.51	1958.04
544.87	1968.93
545.22	1979.83
545.58	1989.98
545.94	1999.66
546.29	2009.55
546.65	2019.32
547.01	2028.64
547.36	2037.42
547.72	2045.68
548.07	2053.51
548.43	2061.64
548.79	2069.77
549.14	2077.44
549.50	2084.74
549.86	2092.57
550.21	2099.89
550.57	2106.96
550.92	2113.60
551.28	2120.41
551.64	2127.28
551.99	2133.83
552.35	2140.10
552.70	2146.13
553.06	2152.04
553.41	2158.42
553.77	2164.43
554.13	2170.53
554.48	2176.67
554.84	2182.03
555.19	2187.61
555.55	2192.71
555.90	2197.08
556.26	2201.83
556.61	2206.50
556.97	2210.77
557.32	2214.81
557.68	2218.88
558.03	2223.21
558.39	2226.98
558.74	2231.77
559.10	2235.72
559.45	2239.48
559.81	2243.62
560.16	2247.66
560.52	2250.88
560.87	2254.27
561.23	2256.86
561.58	2259.91
561.94	2262.35
562.29	2264.79
562.64	2267.27
563.00	2269.92
563.35	2273.49
563.71	2276.74
564.06	2280.04
564.42	2282.90
564.77	2285.40
565.12	2287.64
565.48	2289.50
565.83	2291.41
566.19	2292.61
566.54	2293.51
566.89	2294.55
567.25	2295.21
567.60	2296.36
567.96	2298.01
568.31	2298.90
568.66	2299.99
569.02	2300.43
569.37	2300.71
569.72	2301.48
570.08	2301.62
570.43	2301.63
570.78	2300.99
571.14	2299.38
571.49	2298.06
571.84	2297.79
572.20	2296.68
572.55	2295.67
572.90	2294.19
573.26	2292.72
573.61	2291.06
573.96	2289.22
574.31	2286.17
574.67	2283.27
575.02	2279.77
575.37	2276.41
575.72	2272.58
576.08	2269.39
576.43	2266.07
576.78	2262.43
577.13	2259.47
577.49	2256.50
577.84	2253.11
578.19	2249.36
578.54	2245.68
578.90	2241.35
579.25	2235.64
579.60	2230.48
579.95	2225.49
580.30	2220.51
580.66	2215.33
581.01	2210.41
581.36	2205.44
581.71	2201.21
582.06	2196.67
582.42	2192.08
582.77	2186.74
583.12	2182.14
583.47	2177.33
583.82	2172.35
584.17	2167.09
584.53	2161.44
584.88	2155.77
585.23	2149.86
585.58	2144.45
585.93	2139.13
586.28	2134.32
586.63	2129.43
586.98	2124.53
587.34	2119.74
587.69	2114.83
588.04	2109.47
588.39	2103.83
588.74	2097.49
589.09	2091.38
589.44	2084.61
589.79	2078.74
590.14	2073.26
590.49	2066.80
590.84	2060.38
591.19	2054.32
591.54	2047.92
591.89	2040.51
592.25	2033.59
592.60	2026.55
592.95	2018.94
593.30	2011.48
593.65	2004.05
594.00	1996.98
594.35	1989.70
594.70	1981.71
595.05	1974.46
595.40	1967.27
595.75	1959.75
596.10	1953.53
596.45	1946.93
596.80	1940.73
597.15	1934.00
597.50	1926.65
597.85	1920.12
598.19	1913.48
598.54	1906.34
598.89	1899.65
599.24	1893.81
599.59	1887.12
599.94	1880.83
600.29	1874.52
600.64	1867.97
600.99	1860.41
601.34	1853.46
601.69	1846.55
602.04	1839.67
602.39	1832.29
602.74	1825.53
603.08	1818.88
603.43	1812.18
603.78	1804.86
604.13	1797.63
604.48	1790.43
604.83	1783.76
605.18	1776.88
605.53	1768.84
605.87	1760.92
606.22	1753.73
606.57	1745.81
606.92	1738.69
607.27	1731.49
607.62	1724.51
607.96	1717.23
608.31	1710.66
608.66	1703.15
609.01	1695.51
609.36	1687.87
609.70	1679.91
610.05	1671.79
610.40	1663.94
610.75	1655.54
611.10	1647.81
611.44	1639.49
611.79	1631.44
612.14	1622.76
612.49	1613.50
612.83	1605.16
613.18	1597.09
613.53	1589.05
613.88	1580.48
614.22	1572.03
614.57	1563.47
614.92	1555.43
615.27	1547.83
615.61	1539.48
615.96	1531.48
616.31	1523.97
616.65	1516.60
617.00	1508.95
617.35	1501.33
617.70	1493.02
618.04	1484.53
618.39	1476.35
618.74	1468.76
619.08	1460.39
619.43	1452.82
619.78	1445.89
620.12	1438.71
620.47	1431.06
620.82	1422.90
621.16	1415.48
621.51	1407.87
621.85	1400.25
622.20	1391.75
622.55	1383.34
622.89	1375.46
623.24	1367.76
623.59	1360.36
623.93	1352.91
624.28	1345.84
624.62	1338.33
624.97	1331.13
625.32	1324.51
625.66	1317.43
626.01	1310.14
626.35	1302.60
626.70	1294.81
627.04	1287.13
627.39	1279.46
627.73	1272.13
628.08	1265.20
628.43	1257.91
628.77	1250.49
629.12	1242.91
629.46	1235.75
629.81	1228.39
630.15	1221.15
630.50	1213.78
630.84	1205.46
631.19	1197.63
631.53	1189.97
631.88	1182.35
632.22	1174.83
632.57	1167.36
632.91	1159.84
633.26	1152.47
633.60	1145.20
633.95	1138.24
634.29	1131.20
634.64	1124.42
634.98	1117.06
635.32	1109.89
635.67	1103.34
636.01	1096.79
636.36	1089.97
636.70	1083.42
637.05	1076.86
637.39	1070.39
637.73	1063.91
638.08	1058.06
638.42	1051.93
638.77	1045.56
639.11	1038.94
639.45	1032.55
639.80	1026.00
640.14	1019.61
640.49	1012.99
640.83	1006.70
641.17	1000.36
641.52	994.04
641.86	987.62
642.20	981.70
642.55	975.36
642.89	968.84
643.23	962.39
643.58	956.70
643.92	950.51
644.26	944.38
644.61	938.49
644.95	932.53
645.29	925.92
645.64	919.26
645.98	912.94
646.32	907.11
646.66	901.02
647.01	895.15
647.35	889.35
647.69	883.62
648.04	878.17
648.38	872.36
648.72	866.40
649.06	860.39
649.41	854.55
649.75	848.54
650.09	842.62
650.43	836.76
650.78	830.59
651.12	824.62
651.46	818.87
651.80	813.03
652.14	807.52
652.49	802.14
652.83	797.01
653.17	791.34
653.51	785.61
653.85	780.22
654.20	774.61
654.54	768.60
654.88	762.84
655.22	756.87
655.56	751.23
655.90	745.69
656.25	740.34
656.59	734.95
656.93	729.93
657.27	724.74
657.61	719.30
657.95	714.17
658.29	709.11
658.64	704.00
658.98	698.65
659.32	693.19
659.66	687.95
660.00	682.57
660.34	677.60
660.68	672.66
661.02	667.66
661.36	662.93
661.70	658.50
662.05	654.10
662.39	649.74
662.73	645.29
663.07	640.95
663.41	636.51
663.75	632.06
664.09	627.49
664.43	623.06
664.77	618.93
665.11	614.64
665.45	610.55
665.79	606.41
666.13	602.32
666.47	598.23
666.81	594.09
667.15	589.99
667.49	586.04
667.83	582.29
668.17	578.29
668.51	574.22
668.85	570.18
669.19	566.38
669.53	562.52
669.87	558.58
670.21	554.83
670.55	551.19
670.89	547.73
671.23	544.33
671.57	540.86
671.91	537.28
672.25	533.78
672.58	530.25
672.92	526.85
673.26	523.70
673.60	520.57
673.94	517.53
674.28	514.58
674.62	511.68
674.96	508.60
675.30	505.70
675.64	502.71
675.97	499.90
676.31	497.03
676.65	494.09
676.99	491.36
677.33	488.53
677.67	485.74
678.01	482.73
678.34	479.75
678.68	476.86
679.02	474.08
679.36	471.36
679.70	468.66
680.04	465.88
680.37	462.97
680.71	460.13
681.05	457.46
681.39	454.73
681.73	452.05
682.06	449.55
682.40	447.02
682.74	444.52
683.08	442.00
683.42	439.42
683.75	436.96
684.09	434.41
684.43	432.02
684.77	429.60
685.10	427.23
685.44	424.90
685.78	422.64
686.12	420.37
686.45	418.06
686.79	415.74
687.13	413.62
687.46	411.54
687.80	409.46
688.14	407.28
688.48	405.26
688.81	403.03
689.15	400.81
689.49	398.71
689.82	396.67
690.16	394.59
690.50	392.62
690.83	390.68
691.17	388.75
691.51	386.78
691.84	384.91
692.18	382.99
692.52	381.01
692.85	379.06
693.19	377.14
693.52	375.36
693.86	373.55
694.20	371.76
694.53	369.94
694.87	368.09
695.21	366.33
695.54	364.54
695.88	362.84
696.21	361.13
696.55	359.40
696.88	357.71
697.22	356.06
697.56	354.41
697.89	352.73
698.23	351.10
698.56	349.50
698.90	347.91
699.23	346.24
699.57	344.69
699.90	343.14
700.24	341.63
700.58	340.06
700.91	338.52
701.25	337.02
701.58	335.62
701.92	334.25
702.25	332.82
702.59	331.42
702.92	330.08
703.26	328.79
703.59	327.55
703.93	326.39
704.26	325.12
704.60	323.84
704.93	322.57
705.26	321.34
705.60	320.16
705.93	318.95
706.27	317.92
706.60	316.87
706.94	315.78
707.27	314.65
707.61	313.61
707.94	312.61
708.27	311.55
708.61	310.48
708.94	309.48
709.28	308.52
709.61	307.60
709.94	306.64
710.28	305.63
710.61	304.63
710.95	303.55
711.28	302.65
711.61	301.71
711.95	300.82
712.28	299.86
712.61	298.88
712.95	298.00
713.28	297.14
713.61	296.24
713.95	295.38
714.28	294.54
714.61	293.65
714.95	292.80
715.28	291.93
715.61	291.04
715.95	290.18
716.28	289.34
716.61	288.43
716.95	287.63
717.28	286.89
717.61	286.12
717.94	285.40
718.28	284.61
718.61	283.94
718.94	283.25
719.27	282.60
719.61	281.98
719.94	281.30
720.27	280.61
720.60	279.95
720.94	279.30
721.27	278.72
721.60	278.15
721.93	277.58
722.27	276.98
722.60	276.46
722.93	275.89
723.26	275.34
723.59	274.83
723.93	274.28
724.26	273.73
724.59	273.14
724.92	272.60
725.25	272.14
725.59	271.58
725.92	271.08
726.25	270.55
726.58	270.03
726.91	269.55
727.24	269.09
727.57	268.62
727.91	268.14
728.24	267.68
728.57	267.22
728.90	266.74
729.23	266.31
729.56	265.85
729.89	265.38
730.22	264.92
730.55	264.44
730.89	263.99
731.22	263.53
731.55	263.13
731.88	262.72
732.21	262.30
732.54	261.87
732.87	261.46
733.20	261.07
733.53	260.68
733.86	260.31
734.19	259.90
734.52	259.52
734.85	259.22
735.18	258.78
735.51	258.39
735.84	258.01
736.17	257.64
736.50	257.26
736.83	257.01
737.16	256.64
737.49	256.30
737.82	255.95
738.15	255.64
738.48	255.31
738.81	254.95
739.14	254.59
739.47	254.26
739.80	253.91
740.13	253.61
740.46	253.30
740.79	252.95
741.12	252.61
741.45	252.28
741.78	251.90
742.11	251.62
742.44	251.29
742.77	251.03
743.10	250.73
743.43	250.42
743.75	250.07
744.08	249.95
744.41	249.65
744.74	249.40
745.07	249.08
745.40	248.80
745.73	248.58
746.06	248.27
746.39	248.02
746.71	247.76
747.04	247.47
747.37	247.17
747.70	246.91
748.03	246.65
748.36	246.43
748.68	246.23
749.01	245.98
749.34	245.78
749.67	245.52
750.00	245.33
750.33	245.19
750.65	244.96
750.98	244.60
751.31	244.41
751.64	244.18
751.97	244.03
752.29	243.84
752.62	243.58
752.95	243.41
753.28	243.19
753.60	242.99
753.93	242.81
754.26	242.65
754.59	242.40
754.91	242.21
755.24	241.99
755.57	241.80
755.90	241.63
756.22	241.45
756.55	241.25
756.88	241.05
757.20	240.78
757.53	240.59
757.86	240.46
758.19	240.30
758.51	240.16
758.84	239.99
759.17	239.84
759.49	239.68
759.82	239.57
760.15	239.42
760.47	239.27
760.80	239.12
761.13	239.03
761.45	238.89
761.78	238.77
762.11	238.68
762.43	238.53
762.76	238.38
763.08	238.28
763.41	238.17
763.74	238.04
764.06	237.91
764.39	237.79
764.71	237.64
765.04	237.51
765.37	237.35
765.69	237.20
766.02	237.07
766.34	236.95
766.67	236.79
767.00	236.72
767.32	236.67
767.65	236.61
767.97	236.45
768.30	236.39
768.62	236.27
768.95	236.19
769.27	236.08
769.60	236.00
769.92	235.84
770.25	235.74
770.57	235.61
770.90	235.52
771.22	235.39
771.55	235.28
771.87	235.22
772.20	235.13
772.52	235.10
772.85	235.11
773.17	235.05
773.50	234.93
773.82	234.83
774.15	234.69
774.47	234.57
774.80	234.47
775.12	234.36
775.45	234.27
775.77	234.15
776.09	234.07
776.42	233.97
776.74	233.94
777.07	233.84
777.39	233.75
777.72	233.63
778.04	233.58
778.36	233.50
778.69	233.39
779.01	233.32
779.33	233.16
779.66	233.02
779.98	232.92
780.31	232.86
780.63	232.82
780.95	232.78
781.28	232.66
781.60	232.59
781.92	232.52
782.25	232.45
782.57	232.36
782.89	232.27
783.22	232.22
783.54	232.13
783.86	232.08
784.19	232.01
784.51	232.00
784.83	231.92
785.16	231.87
785.48	231.80
785.80	231.73
786.12	231.72
786.45	231.64
786.77	231.62
787.09	231.55
