SpectraSuite Data File
++++++++++++++++++++++++++++++++++++
Date: Fri Feb 01 14:50:10 EST 2013
User: group
Dark Spectrum Present: No
Reference Spectrum Present: No
Number of Sampled Component Spectra: 1
Spectrometers: USB2E7196
Integration Time (usec): 35000 (USB2E7196)
Spectra Averaged: 100 (USB2E7196)
Boxcar Smoothing: 10 (USB2E7196)
Correct for Electrical Dark: No (USB2E7196)
Strobe/Lamp Enabled: No (USB2E7196)
Correct for Detector Non-linearity: No (USB2E7196)
Correct for Stray Light: No (USB2E7196)
Number of Pixels in Processed Spectrum: 2048
>>>>>Begin Processed Spectral Data<<<<<
339.09	0.00
339.48	215.91
339.86	217.76
340.24	218.72
340.63	219.85
341.01	222.69
341.39	223.27
341.78	223.64
342.16	224.76
342.54	225.93
342.93	214.03
343.31	224.84
343.69	225.35
344.07	225.77
344.46	226.20
344.84	226.57
345.22	226.79
345.60	227.00
345.99	227.22
346.37	227.36
346.75	227.44
347.13	227.49
347.52	227.53
347.90	227.60
348.28	227.62
348.66	227.66
349.05	227.65
349.43	227.67
349.81	227.71
350.19	227.75
350.57	227.81
350.96	227.88
351.34	227.97
351.72	228.04
352.10	228.13
352.48	228.19
352.87	228.25
353.25	228.33
353.63	228.38
354.01	228.43
354.39	228.50
354.77	228.59
355.15	228.66
355.54	228.72
355.92	228.76
356.30	228.80
356.68	228.94
357.06	229.00
357.44	229.06
357.82	229.14
358.20	229.20
358.58	229.24
358.97	229.32
359.35	229.39
359.73	229.49
360.11	229.57
360.49	229.65
360.87	229.69
361.25	229.72
361.63	229.80
362.01	229.85
362.39	229.88
362.77	229.92
363.15	229.95
363.53	229.99
363.91	230.01
364.29	230.07
364.67	230.00
365.05	230.02
365.43	230.05
365.81	230.05
366.19	230.11
366.57	230.17
366.95	230.14
367.33	230.09
367.71	230.06
368.09	230.05
368.47	229.99
368.85	229.95
369.23	229.96
369.61	229.89
369.99	229.86
370.37	229.84
370.75	229.81
371.13	229.76
371.51	229.70
371.89	229.65
372.27	229.60
372.65	229.52
373.03	229.48
373.41	229.42
373.78	229.33
374.16	229.20
374.54	229.09
374.92	229.01
375.30	228.97
375.68	228.88
376.06	228.81
376.44	228.74
376.82	228.66
377.19	228.60
377.57	228.53
377.95	228.42
378.33	228.34
378.71	228.23
379.09	228.16
379.47	228.13
379.84	228.06
380.22	227.94
380.60	227.86
380.98	227.78
381.36	227.71
381.73	227.63
382.11	227.62
382.49	227.54
382.87	227.47
383.25	227.40
383.62	227.44
384.00	227.33
384.38	227.28
384.76	227.23
385.13	227.17
385.51	227.10
385.89	227.05
386.27	227.01
386.64	226.96
387.02	226.93
387.40	226.87
387.78	226.85
388.15	226.82
388.53	226.79
388.91	226.73
389.29	226.71
389.66	226.72
390.04	226.69
390.42	226.71
390.79	226.70
391.17	226.66
391.55	226.55
391.92	226.58
392.30	226.60
392.68	226.59
393.05	226.60
393.43	226.67
393.81	226.70
394.18	226.72
394.56	226.78
394.94	226.80
395.31	226.79
395.69	226.83
396.06	226.89
396.44	226.94
396.82	227.01
397.19	227.09
397.57	227.12
397.95	227.16
398.32	227.19
398.70	227.31
399.07	227.42
399.45	227.50
399.82	227.61
400.20	227.72
400.58	227.83
400.95	227.90
401.33	228.00
401.70	228.18
402.08	228.27
402.45	228.39
402.83	228.53
403.20	228.70
403.58	228.84
403.95	229.01
404.33	229.16
404.71	229.30
405.08	229.50
405.46	229.66
405.83	229.82
406.21	230.01
406.58	230.18
406.96	230.35
407.33	230.58
407.70	230.74
408.08	230.96
408.45	231.22
408.83	231.47
409.20	231.67
409.58	231.86
409.95	232.12
410.33	232.37
410.70	232.66
411.08	232.96
411.45	233.28
411.82	233.54
412.20	233.90
412.57	234.32
412.95	234.59
413.32	234.97
413.69	235.40
414.07	235.83
414.44	236.30
414.82	236.79
415.19	237.28
415.56	237.88
415.94	238.44
416.31	239.05
416.68	239.67
417.06	240.36
417.43	241.04
417.81	241.80
418.18	242.58
418.55	243.36
418.93	244.25
419.30	245.11
419.67	246.06
420.04	246.99
420.42	247.94
420.79	249.12
421.16	250.27
421.54	251.43
421.91	252.62
422.28	253.88
422.66	255.21
423.03	256.50
423.40	257.76
423.77	259.16
424.15	260.57
424.52	262.06
424.89	263.67
425.26	265.18
425.64	266.58
426.01	268.18
426.38	269.81
426.75	271.44
427.13	273.10
427.50	274.86
427.87	276.75
428.24	278.60
428.61	280.34
428.99	282.28
429.36	284.40
429.73	286.44
430.10	288.39
430.47	290.42
430.85	292.55
431.22	294.78
431.59	297.17
431.96	299.40
432.33	301.87
432.70	304.23
433.08	307.07
433.45	309.74
433.82	312.29
434.19	315.16
434.56	317.96
434.93	320.70
435.30	323.35
435.68	326.23
436.05	329.07
436.42	331.81
436.79	334.31
437.16	336.96
437.53	339.82
437.90	342.63
438.27	345.34
438.64	348.16
439.01	350.74
439.38	352.91
439.75	355.05
440.13	357.50
440.50	359.80
440.87	361.63
441.24	363.59
441.61	365.79
441.98	367.29
442.35	369.11
442.72	370.93
443.09	372.73
443.46	373.75
443.83	374.35
444.20	374.89
444.57	375.78
444.94	376.12
445.31	376.47
445.68	376.86
446.05	376.98
446.42	376.62
446.79	376.25
447.16	375.81
447.53	375.54
447.90	374.45
448.27	373.31
448.64	371.74
449.01	370.62
449.37	368.64
449.74	366.81
450.11	364.55
450.48	362.14
450.85	359.66
451.22	357.46
451.59	355.43
451.96	353.50
452.33	350.91
452.70	348.56
453.07	345.75
453.43	342.87
453.80	340.12
454.17	337.48
454.54	334.93
454.91	332.29
455.28	329.59
455.65	327.05
456.02	324.64
456.38	322.51
456.75	319.89
457.12	317.64
457.49	315.39
457.86	313.26
458.23	311.39
458.59	309.33
458.96	307.27
459.33	305.44
459.70	303.59
460.07	302.08
460.43	300.36
460.80	298.74
461.17	297.30
461.54	295.78
461.91	294.33
462.27	292.87
462.64	291.59
463.01	290.28
463.38	289.02
463.74	287.65
464.11	286.46
464.48	285.39
464.85	284.27
465.21	283.40
465.58	282.47
465.95	281.37
466.32	280.44
466.68	279.51
467.05	278.62
467.42	277.73
467.78	276.78
468.15	275.92
468.52	275.21
468.88	274.31
469.25	273.53
469.62	272.89
469.98	272.19
470.35	271.55
470.72	270.90
471.08	270.22
471.45	269.65
471.82	269.10
472.18	268.49
472.55	268.03
472.92	267.49
473.28	266.99
473.65	266.48
474.02	265.99
474.38	265.61
474.75	265.27
475.11	264.86
475.48	264.53
475.85	264.27
476.21	264.02
476.58	263.82
476.94	263.64
477.31	263.44
477.67	263.28
478.04	263.13
478.41	263.08
478.77	263.09
479.14	263.02
479.50	263.00
479.87	263.06
480.23	263.12
480.60	263.14
480.96	263.20
481.33	263.41
481.69	263.61
482.06	263.79
482.42	263.99
482.79	264.23
483.15	264.56
483.52	264.89
483.88	265.18
484.25	265.52
484.61	265.95
484.98	266.43
485.34	266.98
485.71	267.57
486.07	268.14
486.44	268.68
486.80	269.39
487.17	270.07
487.53	270.87
487.90	271.72
488.26	272.66
488.62	273.66
488.99	274.60
489.35	275.65
489.72	276.78
490.08	277.98
490.44	279.23
490.81	280.52
491.17	281.86
491.54	283.37
491.90	284.94
492.26	286.58
492.63	288.28
492.99	290.04
493.36	291.94
493.72	293.95
494.08	296.08
494.45	298.32
494.81	300.71
495.17	303.09
495.54	305.61
495.90	308.28
496.26	311.04
496.63	313.98
496.99	317.04
497.35	320.20
497.72	323.57
498.08	327.08
498.44	330.77
498.80	334.61
499.17	338.65
499.53	342.78
499.89	347.12
500.26	351.62
500.62	356.22
500.98	361.13
501.34	366.21
501.71	371.48
502.07	376.87
502.43	382.40
502.79	388.20
503.16	394.27
503.52	400.49
503.88	406.83
504.24	413.43
504.60	420.28
504.97	427.42
505.33	434.71
505.69	442.36
506.05	450.07
506.41	457.95
506.78	466.00
507.14	474.42
507.50	483.06
507.86	492.00
508.22	501.17
508.59	510.29
508.95	519.82
509.31	529.57
509.67	539.60
510.03	549.85
510.39	560.38
510.75	571.12
511.12	582.02
511.48	593.33
511.84	604.73
512.20	616.17
512.56	628.15
512.92	640.22
513.28	652.47
513.64	664.92
514.00	677.60
514.37	690.51
514.73	703.46
515.09	716.47
515.45	729.73
515.81	743.24
516.17	757.26
516.53	771.38
516.89	785.52
517.25	799.73
517.61	814.17
517.97	828.61
518.33	843.02
518.69	857.86
519.05	872.84
519.41	888.03
519.77	903.73
520.13	919.19
520.49	934.59
520.85	950.00
521.21	965.69
521.57	981.99
521.93	997.83
522.29	1014.24
522.65	1030.61
523.01	1046.90
523.37	1063.01
523.73	1079.27
524.09	1095.39
524.45	1111.78
524.81	1128.46
525.17	1145.36
525.53	1162.29
525.89	1179.20
526.25	1195.97
526.61	1212.36
526.97	1229.12
527.33	1245.63
527.68	1262.16
528.04	1278.80
528.40	1295.43
528.76	1312.63
529.12	1329.24
529.48	1346.15
529.84	1362.27
530.20	1378.96
530.56	1395.88
530.91	1413.40
531.27	1430.16
531.63	1446.62
531.99	1463.27
532.35	1479.28
532.71	1495.00
533.07	1511.46
533.42	1527.53
533.78	1543.51
534.14	1559.86
534.50	1575.23
534.86	1591.01
535.21	1606.13
535.57	1621.98
535.93	1637.53
536.29	1652.25
536.65	1667.37
537.00	1682.21
537.36	1697.55
537.72	1712.18
538.08	1726.73
538.44	1740.43
538.79	1754.33
539.15	1768.09
539.51	1781.89
539.87	1796.35
540.22	1810.27
540.58	1824.00
540.94	1837.24
541.29	1850.25
541.65	1863.05
542.01	1876.44
542.37	1888.86
542.72	1901.52
543.08	1913.42
543.44	1926.06
543.79	1937.39
544.15	1948.42
544.51	1959.85
544.87	1970.79
545.22	1981.46
545.58	1991.76
545.94	2001.58
546.29	2011.51
546.65	2021.30
547.01	2030.47
547.36	2039.16
547.72	2047.67
548.07	2055.34
548.43	2063.54
548.79	2071.50
549.14	2078.86
549.50	2086.12
549.86	2093.86
550.21	2101.08
550.57	2108.14
550.92	2114.56
551.28	2121.63
551.64	2128.58
551.99	2135.09
552.35	2141.21
552.70	2147.39
553.06	2153.21
553.41	2159.59
553.77	2165.44
554.13	2171.44
554.48	2177.33
554.84	2182.55
555.19	2187.77
555.55	2192.83
555.90	2197.19
556.26	2202.02
556.61	2206.59
556.97	2210.83
557.32	2214.68
557.68	2218.77
558.03	2223.10
558.39	2226.66
558.74	2231.13
559.10	2234.90
559.45	2238.49
559.81	2242.77
560.16	2246.25
560.52	2249.38
560.87	2252.67
561.23	2255.34
561.58	2258.21
561.94	2260.83
562.29	2263.20
562.64	2265.74
563.00	2268.28
563.35	2271.77
563.71	2274.69
564.06	2277.80
564.42	2280.47
564.77	2282.99
565.12	2285.00
565.48	2286.65
565.83	2288.38
566.19	2289.38
566.54	2290.07
566.89	2290.99
567.25	2291.33
567.60	2292.67
567.96	2294.17
568.31	2294.56
568.66	2295.29
569.02	2295.72
569.37	2295.69
569.72	2296.19
570.08	2295.99
570.43	2295.70
570.78	2294.60
571.14	2292.83
571.49	2291.27
571.84	2290.61
572.20	2288.88
572.55	2287.52
572.90	2285.63
573.26	2283.86
573.61	2281.96
573.96	2279.97
574.31	2276.90
574.67	2273.54
575.02	2269.41
575.37	2265.66
575.72	2261.78
576.08	2258.31
576.43	2254.71
576.78	2250.90
577.13	2247.56
577.49	2244.27
577.84	2240.61
578.19	2236.76
578.54	2232.91
578.90	2228.47
579.25	2222.77
579.60	2217.86
579.95	2212.71
580.30	2207.46
580.66	2202.11
581.01	2197.06
581.36	2191.97
581.71	2187.48
582.06	2182.94
582.42	2178.45
582.77	2173.19
583.12	2168.39
583.47	2163.42
583.82	2158.21
584.17	2152.78
584.53	2147.18
584.88	2141.29
585.23	2135.31
585.58	2129.73
585.93	2124.03
586.28	2119.15
586.63	2113.86
586.98	2108.60
587.34	2103.89
587.69	2098.94
588.04	2093.56
588.39	2087.59
588.74	2080.93
589.09	2074.69
589.44	2067.76
589.79	2061.51
590.14	2055.53
590.49	2048.76
590.84	2042.22
591.19	2036.02
591.54	2029.45
591.89	2021.88
592.25	2015.02
592.60	2007.82
592.95	2000.06
593.30	1992.73
593.65	1984.91
594.00	1977.71
594.35	1970.26
594.70	1961.98
595.05	1954.65
595.40	1947.42
595.75	1939.96
596.10	1933.77
596.45	1926.90
596.80	1920.63
597.15	1913.93
597.50	1906.93
597.85	1900.49
598.19	1893.85
598.54	1886.84
598.89	1880.08
599.24	1874.06
599.59	1867.27
599.94	1860.93
600.29	1854.63
600.64	1847.93
600.99	1840.56
601.34	1833.81
601.69	1826.81
602.04	1819.84
602.39	1812.48
602.74	1805.58
603.08	1798.82
603.43	1792.02
603.78	1784.75
604.13	1777.62
604.48	1770.40
604.83	1763.53
605.18	1756.56
605.53	1748.49
605.87	1740.32
606.22	1733.19
606.57	1725.41
606.92	1718.30
607.27	1711.11
607.62	1704.26
607.96	1697.14
608.31	1690.58
608.66	1682.97
609.01	1675.49
609.36	1668.17
609.70	1660.21
610.05	1652.11
610.40	1644.57
610.75	1636.42
611.10	1628.83
611.44	1620.46
611.79	1612.69
612.14	1604.08
612.49	1595.02
612.83	1586.86
613.18	1578.98
613.53	1570.89
613.88	1562.44
614.22	1554.19
614.57	1545.90
614.92	1537.98
615.27	1530.60
615.61	1522.35
615.96	1514.45
616.31	1507.01
616.65	1499.70
617.00	1492.28
617.35	1484.73
617.70	1476.50
618.04	1467.89
618.39	1459.68
618.74	1452.17
619.08	1443.92
619.43	1436.50
619.78	1429.73
620.12	1422.62
620.47	1415.11
620.82	1407.11
621.16	1399.78
621.51	1392.21
621.85	1384.72
622.20	1376.28
622.55	1367.93
622.89	1360.17
623.24	1352.71
623.59	1345.45
623.93	1338.00
624.28	1330.80
624.62	1323.48
624.97	1316.22
625.32	1309.61
625.66	1302.72
626.01	1295.71
626.35	1288.28
626.70	1280.58
627.04	1273.05
627.39	1265.31
627.73	1257.99
628.08	1251.14
628.43	1243.93
628.77	1236.71
629.12	1229.23
629.46	1222.17
629.81	1214.87
630.15	1207.87
630.50	1200.65
630.84	1192.60
631.19	1184.69
631.53	1177.30
631.88	1169.87
632.22	1162.56
632.57	1155.46
632.91	1148.09
633.26	1140.78
633.60	1133.58
633.95	1126.62
634.29	1119.62
634.64	1113.02
634.98	1105.85
635.32	1098.89
635.67	1092.42
636.01	1085.93
636.36	1079.19
636.70	1072.70
637.05	1066.29
637.39	1059.92
637.73	1053.43
638.08	1047.69
638.42	1041.86
638.77	1035.51
639.11	1028.99
639.45	1022.59
639.80	1015.96
640.14	1009.68
640.49	1003.17
640.83	996.95
641.17	990.89
641.52	984.65
641.86	978.39
642.20	972.61
642.55	966.35
642.89	959.87
643.23	953.40
643.58	947.62
643.92	941.55
644.26	935.56
644.61	929.60
644.95	923.56
645.29	917.05
645.64	910.37
645.98	904.15
646.32	898.44
646.66	892.46
647.01	886.82
647.35	881.15
647.69	875.45
648.04	869.95
648.38	864.16
648.72	858.26
649.06	852.26
649.41	846.38
649.75	840.52
650.09	834.64
650.43	828.88
650.78	822.86
651.12	816.92
651.46	811.23
651.80	805.50
652.14	800.31
652.49	794.93
652.83	789.81
653.17	784.20
653.51	778.44
653.85	773.12
654.20	767.53
654.54	761.55
654.88	755.88
655.22	750.02
655.56	744.38
655.90	738.90
656.25	733.77
656.59	728.47
656.93	723.39
657.27	718.37
657.61	712.97
657.95	707.88
658.29	702.87
658.64	697.67
658.98	692.45
659.32	686.99
659.66	681.84
660.00	676.63
660.34	671.78
660.68	666.98
661.02	662.02
661.36	657.36
661.70	652.91
662.05	648.65
662.39	644.44
662.73	640.03
663.07	635.77
663.41	631.34
663.75	626.91
664.09	622.44
664.43	618.06
664.77	614.08
665.11	609.93
665.45	605.86
665.79	601.84
666.13	597.75
666.47	593.65
666.81	589.54
667.15	585.46
667.49	581.59
667.83	577.79
668.17	573.90
668.51	569.92
668.85	565.98
669.19	562.16
669.53	558.34
669.87	554.53
670.21	550.94
670.55	547.42
670.89	544.08
671.23	540.74
671.57	537.33
671.91	533.86
672.25	530.47
672.58	527.00
672.92	523.68
673.26	520.61
673.60	517.59
673.94	514.59
674.28	511.74
674.62	508.83
674.96	505.82
675.30	502.97
675.64	500.06
675.97	497.33
676.31	494.53
676.65	491.73
676.99	489.12
677.33	486.30
677.67	483.46
678.01	480.51
678.34	477.57
678.68	474.75
679.02	471.94
679.36	469.18
679.70	466.59
680.04	463.81
680.37	460.90
680.71	458.14
681.05	455.54
681.39	452.92
681.73	450.39
682.06	447.86
682.40	445.35
682.74	442.87
683.08	440.42
683.42	437.86
683.75	435.37
684.09	432.84
684.43	430.34
684.77	427.90
685.10	425.55
685.44	423.22
685.78	420.99
686.12	418.77
686.45	416.54
686.79	414.27
687.13	412.14
687.46	410.10
687.80	407.95
688.14	405.74
688.48	403.71
688.81	401.44
689.15	399.35
689.49	397.22
689.82	395.15
690.16	393.10
690.50	391.10
690.83	389.22
691.17	387.26
691.51	385.39
691.84	383.60
692.18	381.67
692.52	379.74
692.85	377.83
693.19	375.99
693.52	374.15
693.86	372.29
694.20	370.54
694.53	368.68
694.87	366.87
695.21	365.13
695.54	363.27
695.88	361.53
696.21	359.83
696.55	358.20
696.88	356.50
697.22	354.86
697.56	353.26
697.89	351.53
698.23	349.93
698.56	348.30
698.90	346.71
699.23	345.09
699.57	343.54
699.90	342.01
700.24	340.44
700.58	338.91
700.91	337.46
701.25	336.02
701.58	334.73
701.92	333.35
702.25	331.97
702.59	330.63
702.92	329.33
703.26	328.07
703.59	326.80
703.93	325.67
704.26	324.41
704.60	323.16
704.93	321.95
705.26	320.76
705.60	319.61
705.93	318.47
706.27	317.47
706.60	316.45
706.94	315.41
707.27	314.35
707.61	313.29
707.94	312.29
708.27	311.23
708.61	310.14
708.94	309.20
709.28	308.26
709.61	307.34
709.94	306.42
710.28	305.43
710.61	304.47
710.95	303.39
711.28	302.51
711.61	301.61
711.95	300.72
712.28	299.81
712.61	298.86
712.95	297.98
713.28	297.16
713.61	296.31
713.95	295.47
714.28	294.65
714.61	293.84
714.95	293.05
715.28	292.21
715.61	291.37
715.95	290.55
716.28	289.73
716.61	288.93
716.95	288.16
717.28	287.42
717.61	286.68
717.94	285.95
718.28	285.17
718.61	284.43
718.94	283.79
719.27	283.16
719.61	282.57
719.94	281.91
720.27	281.21
720.60	280.55
720.94	279.92
721.27	279.34
721.60	278.79
721.93	278.16
722.27	277.67
722.60	277.16
722.93	276.58
723.26	276.06
723.59	275.52
723.93	274.99
724.26	274.45
724.59	273.93
724.92	273.43
725.25	272.95
725.59	272.44
725.92	271.92
726.25	271.39
726.58	270.91
726.91	270.40
727.24	269.92
727.57	269.47
727.91	268.97
728.24	268.50
728.57	268.04
728.90	267.60
729.23	267.09
729.56	266.65
729.89	266.18
730.22	265.68
730.55	265.23
730.89	264.74
731.22	264.28
731.55	263.83
731.88	263.45
732.21	262.96
732.54	262.52
732.87	262.05
733.20	261.65
733.53	261.22
733.86	260.88
734.19	260.45
734.52	260.00
734.85	259.67
735.18	259.27
735.51	258.82
735.84	258.44
736.17	258.07
736.50	257.63
736.83	257.40
737.16	257.05
737.49	256.65
737.82	256.28
738.15	255.96
738.48	255.60
738.81	255.24
739.14	254.94
739.47	254.63
739.80	254.32
740.13	254.00
740.46	253.64
740.79	253.26
741.12	252.96
741.45	252.68
741.78	252.31
742.11	252.01
742.44	251.70
742.77	251.37
743.10	251.06
743.43	250.78
743.75	250.36
744.08	250.20
744.41	249.96
744.74	249.70
745.07	249.39
745.40	249.14
745.73	248.89
746.06	248.61
746.39	248.36
746.71	248.14
747.04	247.87
747.37	247.67
747.70	247.49
748.03	247.25
748.36	247.01
748.68	246.78
749.01	246.53
749.34	246.35
749.67	246.16
750.00	245.95
750.33	245.82
750.65	245.65
750.98	245.30
751.31	245.06
751.64	244.89
751.97	244.77
752.29	244.56
752.62	244.36
752.95	244.19
753.28	244.00
753.60	243.77
753.93	243.61
754.26	243.44
754.59	243.19
754.91	243.00
755.24	242.84
755.57	242.68
755.90	242.53
756.22	242.39
756.55	242.20
756.88	242.06
757.20	241.81
757.53	241.63
757.86	241.50
758.19	241.39
758.51	241.25
758.84	241.03
759.17	240.89
759.49	240.74
759.82	240.66
760.15	240.48
760.47	240.36
760.80	240.19
761.13	240.06
761.45	239.94
761.78	239.83
762.11	239.69
762.43	239.54
762.76	239.38
763.08	239.24
763.41	239.13
763.74	239.00
764.06	238.88
764.39	238.73
764.71	238.58
765.04	238.45
765.37	238.28
765.69	238.15
766.02	238.05
766.34	237.92
766.67	237.72
767.00	237.64
767.32	237.58
767.65	237.51
767.97	237.37
768.30	237.25
768.62	237.10
768.95	236.97
769.27	236.84
769.60	236.74
769.92	236.60
770.25	236.46
770.57	236.31
770.90	236.20
771.22	236.08
771.55	236.00
771.87	235.88
772.20	235.78
772.52	235.75
772.85	235.74
773.17	235.62
773.50	235.52
773.82	235.37
774.15	235.18
774.47	235.04
774.80	234.89
775.12	234.79
775.45	234.71
775.77	234.62
776.09	234.52
776.42	234.42
776.74	234.32
777.07	234.21
777.39	234.10
777.72	233.97
778.04	233.92
778.36	233.82
778.69	233.75
779.01	233.65
779.33	233.51
779.66	233.30
779.98	233.18
780.31	233.13
780.63	233.13
780.95	233.09
781.28	233.02
781.60	232.96
781.92	232.86
782.25	232.78
782.57	232.70
782.89	232.65
783.22	232.54
783.54	232.51
783.86	232.48
784.19	232.43
784.51	232.42
784.83	232.34
785.16	232.31
785.48	232.25
785.80	232.21
786.12	232.14
786.45	232.11
786.77	232.11
787.09	232.03
