SpectraSuite Data File
++++++++++++++++++++++++++++++++++++
Date: Fri Feb 01 15:47:37 EST 2013
User: group
Dark Spectrum Present: No
Reference Spectrum Present: No
Number of Sampled Component Spectra: 1
Spectrometers: USB2E7196
Integration Time (usec): 35000 (USB2E7196)
Spectra Averaged: 100 (USB2E7196)
Boxcar Smoothing: 10 (USB2E7196)
Correct for Electrical Dark: No (USB2E7196)
Strobe/Lamp Enabled: No (USB2E7196)
Correct for Detector Non-linearity: No (USB2E7196)
Correct for Stray Light: No (USB2E7196)
Number of Pixels in Processed Spectrum: 2048
>>>>>Begin Processed Spectral Data<<<<<
339.09	0.00
339.48	214.61
339.86	216.66
340.24	217.33
340.63	218.49
341.01	221.43
341.39	221.96
341.78	223.00
342.16	224.37
342.54	224.92
342.93	213.10
343.31	223.85
343.69	224.40
344.07	224.82
344.46	225.25
344.84	225.67
345.22	225.90
345.60	226.15
345.99	226.34
346.37	226.46
346.75	226.56
347.13	226.61
347.52	226.69
347.90	226.76
348.28	226.77
348.66	226.86
349.05	226.86
349.43	226.92
349.81	226.94
350.19	226.99
350.57	227.06
350.96	227.13
351.34	227.22
351.72	227.29
352.10	227.43
352.48	227.54
352.87	227.59
353.25	227.67
353.63	227.71
354.01	227.77
354.39	227.83
354.77	227.93
355.15	228.05
355.54	228.11
355.92	228.16
356.30	228.26
356.68	228.39
357.06	228.45
357.44	228.52
357.82	228.62
358.20	228.68
358.58	228.74
358.97	228.81
359.35	228.93
359.73	229.04
360.11	229.08
360.49	229.13
360.87	229.16
361.25	229.22
361.63	229.32
362.01	229.37
362.39	229.43
362.77	229.44
363.15	229.49
363.53	229.48
363.91	229.49
364.29	229.52
364.67	229.44
365.05	229.45
365.43	229.47
365.81	229.49
366.19	229.53
366.57	229.58
366.95	229.54
367.33	229.49
367.71	229.50
368.09	229.48
368.47	229.47
368.85	229.45
369.23	229.46
369.61	229.38
369.99	229.38
370.37	229.34
370.75	229.36
371.13	229.28
371.51	229.25
371.89	229.21
372.27	229.13
372.65	229.08
373.03	229.05
373.41	228.92
373.78	228.82
374.16	228.73
374.54	228.62
374.92	228.57
375.30	228.51
375.68	228.39
376.06	228.31
376.44	228.20
376.82	228.14
377.19	228.05
377.57	227.98
377.95	227.86
378.33	227.79
378.71	227.64
379.09	227.58
379.47	227.51
379.84	227.47
380.22	227.42
380.60	227.34
380.98	227.25
381.36	227.20
381.73	227.15
382.11	227.10
382.49	227.00
382.87	226.93
383.25	226.88
383.62	226.94
384.00	226.88
384.38	226.85
384.76	226.82
385.13	226.81
385.51	226.76
385.89	226.71
386.27	226.68
386.64	226.64
387.02	226.58
387.40	226.54
387.78	226.51
388.15	226.47
388.53	226.42
388.91	226.40
389.29	226.37
389.66	226.35
390.04	226.33
390.42	226.36
390.79	226.33
391.17	226.31
391.55	226.18
391.92	226.17
392.30	226.19
392.68	226.19
393.05	226.16
393.43	226.18
393.81	226.22
394.18	226.22
394.56	226.26
394.94	226.33
395.31	226.34
395.69	226.40
396.06	226.42
396.44	226.49
396.82	226.52
397.19	226.61
397.57	226.64
397.95	226.68
398.32	226.71
398.70	226.76
399.07	226.83
399.45	226.89
399.82	226.96
400.20	226.99
400.58	227.03
400.95	227.09
401.33	227.21
401.70	227.38
402.08	227.48
402.45	227.58
402.83	227.68
403.20	227.79
403.58	227.85
403.95	228.00
404.33	228.13
404.71	228.28
405.08	228.49
405.46	228.66
405.83	228.81
406.21	228.94
406.58	229.13
406.96	229.32
407.33	229.52
407.70	229.74
408.08	230.04
408.45	230.29
408.83	230.55
409.20	230.75
409.58	230.91
409.95	231.15
410.33	231.42
410.70	231.66
411.08	232.00
411.45	232.33
411.82	232.64
412.20	232.96
412.57	233.38
412.95	233.66
413.32	234.06
413.69	234.49
414.07	234.95
414.44	235.40
414.82	235.86
415.19	236.38
415.56	236.90
415.94	237.41
416.31	238.03
416.68	238.62
417.06	239.34
417.43	240.03
417.81	240.81
418.18	241.53
418.55	242.36
418.93	243.21
419.30	244.11
419.67	245.02
420.04	246.02
420.42	246.96
420.79	248.12
421.16	249.28
421.54	250.44
421.91	251.66
422.28	252.89
422.66	254.25
423.03	255.55
423.40	256.86
423.77	258.28
424.15	259.68
424.52	261.19
424.89	262.77
425.26	264.27
425.64	265.70
426.01	267.33
426.38	268.96
426.75	270.60
427.13	272.31
427.50	274.11
427.87	275.96
428.24	277.85
428.61	279.59
428.99	281.52
429.36	283.63
429.73	285.71
430.10	287.74
430.47	289.78
430.85	291.88
431.22	294.15
431.59	296.51
431.96	298.78
432.33	301.27
432.70	303.69
433.08	306.53
433.45	309.17
433.82	311.85
434.19	314.73
434.56	317.60
434.93	320.23
435.30	322.87
435.68	325.77
436.05	328.60
436.42	331.38
436.79	333.87
437.16	336.57
437.53	339.35
437.90	342.17
438.27	344.99
438.64	347.81
439.01	350.38
439.38	352.63
439.75	354.78
440.13	357.28
440.50	359.56
440.87	361.41
441.24	363.33
441.61	365.48
441.98	367.01
442.35	368.77
442.72	370.67
443.09	372.49
443.46	373.49
443.83	374.05
444.20	374.60
444.57	375.47
444.94	375.78
445.31	376.13
445.68	376.49
446.05	376.49
446.42	376.14
446.79	375.73
447.16	375.29
447.53	374.96
447.90	373.78
448.27	372.60
448.64	371.03
449.01	369.89
449.37	367.91
449.74	365.98
450.11	363.75
450.48	361.26
450.85	358.75
451.22	356.61
451.59	354.60
451.96	352.63
452.33	350.01
452.70	347.61
453.07	344.82
453.43	341.92
453.80	339.21
454.17	336.53
454.54	334.01
454.91	331.28
455.28	328.63
455.65	326.15
456.02	323.77
456.38	321.63
456.75	319.01
457.12	316.76
457.49	314.57
457.86	312.40
458.23	310.56
458.59	308.47
458.96	306.36
459.33	304.51
459.70	302.61
460.07	301.10
460.43	299.43
460.80	297.80
461.17	296.34
461.54	294.82
461.91	293.34
462.27	291.86
462.64	290.62
463.01	289.24
463.38	287.90
463.74	286.50
464.11	285.31
464.48	284.25
464.85	283.09
465.21	282.21
465.58	281.26
465.95	280.12
466.32	279.22
466.68	278.32
467.05	277.43
467.42	276.56
467.78	275.63
468.15	274.73
468.52	274.07
468.88	273.17
469.25	272.36
469.62	271.79
469.98	271.11
470.35	270.42
470.72	269.85
471.08	269.21
471.45	268.65
471.82	268.10
472.18	267.46
472.55	267.05
472.92	266.53
473.28	266.06
473.65	265.61
474.02	265.14
474.38	264.75
474.75	264.43
475.11	264.08
475.48	263.78
475.85	263.52
476.21	263.29
476.58	263.13
476.94	263.02
477.31	262.81
477.67	262.65
478.04	262.59
478.41	262.50
478.77	262.56
479.14	262.50
479.50	262.48
479.87	262.58
480.23	262.65
480.60	262.72
480.96	262.82
481.33	263.04
481.69	263.29
482.06	263.47
482.42	263.65
482.79	263.92
483.15	264.27
483.52	264.67
483.88	265.03
484.25	265.44
484.61	265.85
484.98	266.32
485.34	266.91
485.71	267.48
486.07	268.10
486.44	268.64
486.80	269.38
487.17	270.14
487.53	271.02
487.90	271.91
488.26	272.85
488.62	273.86
488.99	274.85
489.35	275.91
489.72	277.10
490.08	278.32
490.44	279.57
490.81	280.92
491.17	282.27
491.54	283.74
491.90	285.25
492.26	286.94
492.63	288.69
492.99	290.51
493.36	292.40
493.72	294.45
494.08	296.60
494.45	298.81
494.81	301.21
495.17	303.59
495.54	306.10
495.90	308.83
496.26	311.67
496.63	314.62
496.99	317.74
497.35	320.99
497.72	324.40
498.08	327.95
498.44	331.63
498.80	335.59
499.17	339.64
499.53	343.83
499.89	348.22
500.26	352.77
500.62	357.42
500.98	362.42
501.34	367.57
501.71	372.89
502.07	378.38
502.43	383.99
502.79	389.84
503.16	395.94
503.52	402.24
503.88	408.61
504.24	415.25
504.60	422.12
504.97	429.29
505.33	436.63
505.69	444.28
506.05	452.03
506.41	459.94
506.78	468.14
507.14	476.60
507.50	485.31
507.86	494.29
508.22	503.58
508.59	512.81
508.95	522.32
509.31	532.14
509.67	542.23
510.03	552.47
510.39	562.96
510.75	573.79
511.12	584.65
511.48	595.90
511.84	607.43
512.20	618.93
512.56	630.79
512.92	642.94
513.28	655.30
513.64	667.77
514.00	680.41
514.37	693.28
514.73	706.34
515.09	719.29
515.45	732.59
515.81	746.05
516.17	760.08
516.53	774.19
516.89	788.38
517.25	802.55
517.61	816.96
517.97	831.49
518.33	845.86
518.69	860.63
519.05	875.67
519.41	890.83
519.77	906.42
520.13	921.88
520.49	937.35
520.85	952.76
521.21	968.55
521.57	984.86
521.93	1000.68
522.29	1016.97
522.65	1033.33
523.01	1049.54
523.37	1065.59
523.73	1081.67
524.09	1097.70
524.45	1114.04
524.81	1130.68
525.17	1147.61
525.53	1164.54
525.89	1181.50
526.25	1198.42
526.61	1214.83
526.97	1231.54
527.33	1247.93
527.68	1264.53
528.04	1280.92
528.40	1297.54
528.76	1314.58
529.12	1331.14
529.48	1347.97
529.84	1364.03
530.20	1380.62
530.56	1397.61
530.91	1415.15
531.27	1431.82
531.63	1448.27
531.99	1464.82
532.35	1480.76
532.71	1496.56
533.07	1512.79
533.42	1528.62
533.78	1544.54
534.14	1560.73
534.50	1576.05
534.86	1591.85
535.21	1607.14
535.57	1623.28
535.93	1638.78
536.29	1653.55
536.65	1668.56
537.00	1683.40
537.36	1698.78
537.72	1713.29
538.08	1727.75
538.44	1741.42
538.79	1755.42
539.15	1769.17
539.51	1782.88
539.87	1797.25
540.22	1811.12
540.58	1824.90
540.94	1838.23
541.29	1851.17
541.65	1863.89
542.01	1877.09
542.37	1889.56
542.72	1901.88
543.08	1913.46
543.44	1925.93
543.79	1937.07
544.15	1948.08
544.51	1959.64
544.87	1970.62
545.22	1981.38
545.58	1991.56
545.94	2001.24
546.29	2011.06
546.65	2020.95
547.01	2030.30
547.36	2039.03
547.72	2047.38
548.07	2055.06
548.43	2063.26
548.79	2071.40
549.14	2078.95
549.50	2086.43
549.86	2094.08
550.21	2101.52
550.57	2108.58
550.92	2115.24
551.28	2122.34
551.64	2129.42
551.99	2135.92
552.35	2142.08
552.70	2148.38
553.06	2154.35
553.41	2160.72
553.77	2166.76
554.13	2172.90
554.48	2178.91
554.84	2184.22
555.19	2189.59
555.55	2194.71
555.90	2199.11
556.26	2203.79
556.61	2208.54
556.97	2212.68
557.32	2216.77
557.68	2220.81
558.03	2225.26
558.39	2228.81
558.74	2233.43
559.10	2237.22
559.45	2240.87
559.81	2245.13
560.16	2248.91
560.52	2252.12
560.87	2255.55
561.23	2258.11
561.58	2260.98
561.94	2263.55
562.29	2265.99
562.64	2268.60
563.00	2271.37
563.35	2274.96
563.71	2278.10
564.06	2281.44
564.42	2284.35
564.77	2286.91
565.12	2289.13
565.48	2290.94
565.83	2292.81
566.19	2294.12
566.54	2295.14
566.89	2296.26
567.25	2296.74
567.60	2298.03
567.96	2299.77
568.31	2300.68
568.66	2301.79
569.02	2302.30
569.37	2302.55
569.72	2303.45
570.08	2303.61
570.43	2303.59
570.78	2302.85
571.14	2301.32
571.49	2299.83
571.84	2299.53
572.20	2298.34
572.55	2297.38
572.90	2295.81
573.26	2294.43
573.61	2292.76
573.96	2290.92
574.31	2287.92
574.67	2284.87
575.02	2281.31
575.37	2277.94
575.72	2274.01
576.08	2270.78
576.43	2267.57
576.78	2263.96
577.13	2260.79
577.49	2257.76
577.84	2254.27
578.19	2250.61
578.54	2247.02
578.90	2242.86
579.25	2237.29
579.60	2232.31
579.95	2227.22
580.30	2222.24
580.66	2217.05
581.01	2212.10
581.36	2207.30
581.71	2203.16
582.06	2198.67
582.42	2194.15
582.77	2188.83
583.12	2184.32
583.47	2179.47
583.82	2174.33
584.17	2169.02
584.53	2163.49
584.88	2157.81
585.23	2151.99
585.58	2146.52
585.93	2141.06
586.28	2136.11
586.63	2130.99
586.98	2125.91
587.34	2121.30
587.69	2116.57
588.04	2111.15
588.39	2105.39
588.74	2098.85
589.09	2092.61
589.44	2085.95
589.79	2079.96
590.14	2074.43
590.49	2067.86
590.84	2061.55
591.19	2055.52
591.54	2049.11
591.89	2041.73
592.25	2034.84
592.60	2027.66
592.95	2020.07
593.30	2012.67
593.65	2005.14
594.00	1998.06
594.35	1990.79
594.70	1982.60
595.05	1975.23
595.40	1968.02
595.75	1960.59
596.10	1954.27
596.45	1947.58
596.80	1941.36
597.15	1934.55
597.50	1927.28
597.85	1920.85
598.19	1914.10
598.54	1906.94
598.89	1900.36
599.24	1894.55
599.59	1887.88
599.94	1881.69
600.29	1875.31
600.64	1868.78
600.99	1861.32
601.34	1854.52
601.69	1847.66
602.04	1840.70
602.39	1833.31
602.74	1826.44
603.08	1819.65
603.43	1812.91
603.78	1805.55
604.13	1798.30
604.48	1790.94
604.83	1784.06
605.18	1776.95
605.53	1768.94
605.87	1760.93
606.22	1753.56
606.57	1745.43
606.92	1738.08
607.27	1730.73
607.62	1723.87
607.96	1716.48
608.31	1709.75
608.66	1702.10
609.01	1694.43
609.36	1686.94
609.70	1678.91
610.05	1670.78
610.40	1663.06
610.75	1654.81
611.10	1647.10
611.44	1638.71
611.79	1630.87
612.14	1622.22
612.49	1613.16
612.83	1604.80
613.18	1596.72
613.53	1588.62
613.88	1580.10
614.22	1571.83
614.57	1563.33
614.92	1555.33
615.27	1547.70
615.61	1539.39
615.96	1531.36
616.31	1523.77
616.65	1516.42
617.00	1508.77
617.35	1501.11
617.70	1492.86
618.04	1484.23
618.39	1476.03
618.74	1468.43
619.08	1460.02
619.43	1452.51
619.78	1445.57
620.12	1438.42
620.47	1430.92
620.82	1422.76
621.16	1415.39
621.51	1407.87
621.85	1400.25
622.20	1391.61
622.55	1383.34
622.89	1375.56
623.24	1367.93
623.59	1360.53
623.93	1353.04
624.28	1345.89
624.62	1338.40
624.97	1331.13
625.32	1324.43
625.66	1317.38
626.01	1310.16
626.35	1302.64
626.70	1294.98
627.04	1287.23
627.39	1279.50
627.73	1272.18
628.08	1265.35
628.43	1257.99
628.77	1250.53
629.12	1243.00
629.46	1235.89
629.81	1228.53
630.15	1221.24
630.50	1213.86
630.84	1205.69
631.19	1197.77
631.53	1190.25
631.88	1182.72
632.22	1175.20
632.57	1167.91
632.91	1160.42
633.26	1153.04
633.60	1145.92
633.95	1138.81
634.29	1131.95
634.64	1125.28
634.98	1117.83
635.32	1110.63
635.67	1104.13
636.01	1097.51
636.36	1090.68
636.70	1084.15
637.05	1077.62
637.39	1071.21
637.73	1064.67
638.08	1058.76
638.42	1052.75
638.77	1046.32
639.11	1039.75
639.45	1033.33
639.80	1026.70
640.14	1020.30
640.49	1013.77
640.83	1007.27
641.17	1000.87
641.52	994.42
641.86	987.94
642.20	982.06
642.55	975.73
642.89	969.22
643.23	962.69
643.58	956.90
643.92	950.67
644.26	944.44
644.61	938.43
644.95	932.36
645.29	925.77
645.64	918.98
645.98	912.61
646.32	906.78
646.66	900.69
647.01	894.90
647.35	889.12
647.69	883.32
648.04	877.88
648.38	872.07
648.72	866.01
649.06	859.91
649.41	854.05
649.75	848.08
650.09	842.15
650.43	836.44
650.78	830.23
651.12	824.26
651.46	818.61
651.80	812.87
652.14	807.52
652.49	802.13
652.83	797.02
653.17	791.34
653.51	785.53
653.85	780.17
654.20	774.45
654.54	768.43
654.88	762.62
655.22	756.73
655.56	751.08
655.90	745.61
656.25	740.40
656.59	735.05
656.93	729.95
657.27	724.72
657.61	719.16
657.95	714.15
658.29	709.11
658.64	703.84
658.98	698.53
659.32	693.09
659.66	687.91
660.00	682.53
660.34	677.62
660.68	672.82
661.02	667.70
661.36	662.95
661.70	658.52
662.05	654.21
662.39	649.88
662.73	645.49
663.07	641.10
663.41	636.72
663.75	632.18
664.09	627.58
664.43	623.18
664.77	619.07
665.11	614.77
665.45	610.70
665.79	606.61
666.13	602.45
666.47	598.35
666.81	594.20
667.15	590.14
667.49	586.19
667.83	582.37
668.17	578.55
668.51	574.57
668.85	570.55
669.19	566.74
669.53	562.85
669.87	558.97
670.21	555.31
670.55	551.69
670.89	548.33
671.23	544.94
671.57	541.47
671.91	537.93
672.25	534.52
672.58	530.96
672.92	527.60
673.26	524.40
673.60	521.29
673.94	518.14
674.28	515.21
674.62	512.34
674.96	509.19
675.30	506.23
675.64	503.29
675.97	500.47
676.31	497.58
676.65	494.72
676.99	491.94
677.33	489.08
677.67	486.26
678.01	483.21
678.34	480.25
678.68	477.41
679.02	474.59
679.36	471.82
679.70	469.14
680.04	466.39
680.37	463.55
680.71	460.73
681.05	458.16
681.39	455.43
681.73	452.78
682.06	450.26
682.40	447.76
682.74	445.25
683.08	442.72
683.42	440.14
683.75	437.61
684.09	435.10
684.43	432.67
684.77	430.15
685.10	427.77
685.44	425.44
685.78	423.13
686.12	420.85
686.45	418.51
686.79	416.18
687.13	414.01
687.46	411.79
687.80	409.63
688.14	407.37
688.48	405.31
688.81	402.99
689.15	400.79
689.49	398.62
689.82	396.51
690.16	394.46
690.50	392.49
690.83	390.56
691.17	388.56
691.51	386.61
691.84	384.72
692.18	382.78
692.52	380.77
692.85	378.85
693.19	377.01
693.52	375.20
693.86	373.38
694.20	371.53
694.53	369.77
694.87	367.88
695.21	366.10
695.54	364.27
695.88	362.55
696.21	360.84
696.55	359.10
696.88	357.42
697.22	355.77
697.56	354.10
697.89	352.41
698.23	350.79
698.56	349.16
698.90	347.64
699.23	345.99
699.57	344.48
699.90	342.91
700.24	341.35
700.58	339.81
700.91	338.31
701.25	336.88
701.58	335.50
701.92	334.20
702.25	332.83
702.59	331.45
702.92	330.14
703.26	328.85
703.59	327.59
703.93	326.40
704.26	325.15
704.60	323.85
704.93	322.61
705.26	321.37
705.60	320.22
705.93	319.01
706.27	317.98
706.60	316.91
706.94	315.87
707.27	314.73
707.61	313.69
707.94	312.68
708.27	311.61
708.61	310.55
708.94	309.52
709.28	308.56
709.61	307.65
709.94	306.74
710.28	305.73
710.61	304.77
710.95	303.72
711.28	302.82
711.61	301.92
711.95	301.03
712.28	300.12
712.61	299.18
712.95	298.30
713.28	297.43
713.61	296.56
713.95	295.66
714.28	294.85
714.61	293.98
714.95	293.14
715.28	292.28
715.61	291.42
715.95	290.60
716.28	289.71
716.61	288.87
716.95	288.05
717.28	287.34
717.61	286.58
717.94	285.88
718.28	285.06
718.61	284.34
718.94	283.62
719.27	282.93
719.61	282.27
719.94	281.59
720.27	280.89
720.60	280.21
720.94	279.58
721.27	278.97
721.60	278.39
721.93	277.79
722.27	277.27
722.60	276.71
722.93	276.13
723.26	275.60
723.59	275.04
723.93	274.49
724.26	273.92
724.59	273.34
724.92	272.78
725.25	272.24
725.59	271.74
725.92	271.26
726.25	270.78
726.58	270.31
726.91	269.82
727.24	269.34
727.57	268.87
727.91	268.37
728.24	267.91
728.57	267.42
728.90	266.97
729.23	266.47
729.56	266.04
729.89	265.58
730.22	265.10
730.55	264.62
730.89	264.15
731.22	263.71
731.55	263.29
731.88	262.91
732.21	262.51
732.54	262.03
732.87	261.60
733.20	261.17
733.53	260.78
733.86	260.43
734.19	260.05
734.52	259.68
734.85	259.37
735.18	258.93
735.51	258.58
735.84	258.18
736.17	257.81
736.50	257.40
736.83	257.13
737.16	256.78
737.49	256.43
737.82	256.05
738.15	255.68
738.48	255.31
738.81	254.96
739.14	254.62
739.47	254.31
739.80	253.99
740.13	253.68
740.46	253.33
740.79	252.99
741.12	252.65
741.45	252.32
741.78	251.99
742.11	251.72
742.44	251.37
742.77	251.08
743.10	250.78
743.43	250.50
743.75	250.12
744.08	249.98
744.41	249.72
744.74	249.46
745.07	249.15
745.40	248.92
745.73	248.67
746.06	248.41
746.39	248.15
746.71	247.87
747.04	247.62
747.37	247.34
747.70	247.07
748.03	246.84
748.36	246.58
748.68	246.30
749.01	246.05
749.34	245.85
749.67	245.66
750.00	245.46
750.33	245.30
750.65	245.10
750.98	244.78
751.31	244.56
751.64	244.34
751.97	244.24
752.29	244.01
752.62	243.78
752.95	243.56
753.28	243.37
753.60	243.16
753.93	242.98
754.26	242.81
754.59	242.61
754.91	242.38
755.24	242.21
755.57	242.02
755.90	241.81
756.22	241.62
756.55	241.41
756.88	241.19
757.20	240.96
757.53	240.77
757.86	240.62
758.19	240.46
758.51	240.32
758.84	240.10
759.17	239.97
759.49	239.81
759.82	239.70
760.15	239.54
760.47	239.42
760.80	239.23
761.13	239.09
761.45	238.93
761.78	238.79
762.11	238.65
762.43	238.50
762.76	238.39
763.08	238.28
763.41	238.12
763.74	238.01
764.06	237.89
764.39	237.74
764.71	237.61
765.04	237.45
765.37	237.33
765.69	237.21
766.02	237.06
766.34	236.90
766.67	236.75
767.00	236.64
767.32	236.53
767.65	236.53
767.97	236.40
768.30	236.30
768.62	236.20
768.95	236.06
769.27	235.96
769.60	235.85
769.92	235.73
770.25	235.63
770.57	235.52
770.90	235.40
771.22	235.29
771.55	235.16
771.87	235.09
772.20	234.95
772.52	234.93
772.85	234.92
773.17	234.83
773.50	234.74
773.82	234.64
774.15	234.51
774.47	234.34
774.80	234.26
775.12	234.13
775.45	234.04
775.77	233.94
776.09	233.86
776.42	233.78
776.74	233.71
777.07	233.62
777.39	233.51
777.72	233.40
778.04	233.38
778.36	233.32
778.69	233.25
779.01	233.18
779.33	233.03
779.66	232.85
779.98	232.80
780.31	232.74
780.63	232.72
780.95	232.66
781.28	232.58
781.60	232.50
781.92	232.47
782.25	232.45
782.57	232.42
782.89	232.36
783.22	232.28
783.54	232.20
783.86	232.16
784.19	232.10
784.51	232.06
784.83	231.97
785.16	231.90
785.48	231.83
785.80	231.80
786.12	231.74
786.45	231.75
786.77	231.71
787.09	231.67
