SpectraSuite Data File
++++++++++++++++++++++++++++++++++++
Date: Fri Feb 01 16:26:02 EST 2013
User: group
Dark Spectrum Present: No
Reference Spectrum Present: No
Number of Sampled Component Spectra: 1
Spectrometers: USB2E7196
Integration Time (usec): 35000 (USB2E7196)
Spectra Averaged: 100 (USB2E7196)
Boxcar Smoothing: 10 (USB2E7196)
Correct for Electrical Dark: No (USB2E7196)
Strobe/Lamp Enabled: No (USB2E7196)
Correct for Detector Non-linearity: No (USB2E7196)
Correct for Stray Light: No (USB2E7196)
Number of Pixels in Processed Spectrum: 2048
>>>>>Begin Processed Spectral Data<<<<<
339.09	0.00
339.48	214.27
339.86	215.97
340.24	217.10
340.63	218.86
341.01	221.51
341.39	220.90
341.78	221.94
342.16	223.39
342.54	224.19
342.93	212.52
343.31	223.28
343.69	223.80
344.07	224.24
344.46	224.64
344.84	225.00
345.22	225.21
345.60	225.45
345.99	225.66
346.37	225.79
346.75	225.87
347.13	225.92
347.52	225.96
347.90	226.06
348.28	226.06
348.66	226.10
349.05	226.07
349.43	226.08
349.81	226.11
350.19	226.17
350.57	226.21
350.96	226.30
351.34	226.33
351.72	226.40
352.10	226.51
352.48	226.57
352.87	226.64
353.25	226.71
353.63	226.78
354.01	226.83
354.39	226.89
354.77	226.98
355.15	227.10
355.54	227.18
355.92	227.19
356.30	227.28
356.68	227.40
357.06	227.49
357.44	227.56
357.82	227.63
358.20	227.71
358.58	227.77
358.97	227.81
359.35	227.92
359.73	228.01
360.11	228.03
360.49	228.10
360.87	228.13
361.25	228.19
361.63	228.28
362.01	228.32
362.39	228.37
362.77	228.40
363.15	228.43
363.53	228.46
363.91	228.51
364.29	228.53
364.67	228.46
365.05	228.46
365.43	228.49
365.81	228.50
366.19	228.53
366.57	228.54
366.95	228.56
367.33	228.53
367.71	228.55
368.09	228.59
368.47	228.59
368.85	228.58
369.23	228.57
369.61	228.50
369.99	228.50
370.37	228.49
370.75	228.56
371.13	228.50
371.51	228.45
371.89	228.46
372.27	228.45
372.65	228.44
373.03	228.39
373.41	228.38
373.78	228.33
374.16	228.22
374.54	228.17
374.92	228.09
375.30	228.03
375.68	227.96
376.06	227.91
376.44	227.85
376.82	227.74
377.19	227.66
377.57	227.61
377.95	227.50
378.33	227.40
378.71	227.25
379.09	227.19
379.47	227.16
379.84	227.05
380.22	226.97
380.60	226.87
380.98	226.81
381.36	226.70
381.73	226.65
382.11	226.60
382.49	226.53
382.87	226.47
383.25	226.43
383.62	226.45
384.00	226.34
384.38	226.26
384.76	226.26
385.13	226.27
385.51	226.20
385.89	226.17
386.27	226.17
386.64	226.11
387.02	226.04
387.40	225.98
387.78	225.92
388.15	225.86
388.53	225.84
388.91	225.81
389.29	225.75
389.66	225.71
390.04	225.69
390.42	225.73
390.79	225.69
391.17	225.65
391.55	225.52
391.92	225.53
392.30	225.54
392.68	225.50
393.05	225.45
393.43	225.47
393.81	225.46
394.18	225.43
394.56	225.43
394.94	225.48
395.31	225.47
395.69	225.53
396.06	225.56
396.44	225.56
396.82	225.57
397.19	225.69
397.57	225.74
397.95	225.79
398.32	225.75
398.70	225.82
399.07	225.89
399.45	225.94
399.82	226.00
400.20	226.06
400.58	226.17
400.95	226.22
401.33	226.30
401.70	226.49
402.08	226.59
402.45	226.73
402.83	226.83
403.20	226.93
403.58	227.03
403.95	227.18
404.33	227.33
404.71	227.46
405.08	227.60
405.46	227.72
405.83	227.88
406.21	228.06
406.58	228.21
406.96	228.36
407.33	228.55
407.70	228.74
408.08	228.99
408.45	229.18
408.83	229.41
409.20	229.62
409.58	229.77
409.95	230.01
410.33	230.23
410.70	230.47
411.08	230.79
411.45	231.06
411.82	231.35
412.20	231.69
412.57	232.14
412.95	232.45
413.32	232.89
413.69	233.28
414.07	233.68
414.44	234.15
414.82	234.61
415.19	235.16
415.56	235.70
415.94	236.23
416.31	236.85
416.68	237.49
417.06	238.19
417.43	238.88
417.81	239.65
418.18	240.44
418.55	241.28
418.93	242.15
419.30	243.10
419.67	244.03
420.04	244.98
420.42	245.95
420.79	247.12
421.16	248.24
421.54	249.44
421.91	250.66
422.28	251.92
422.66	253.29
423.03	254.59
423.40	255.93
423.77	257.34
424.15	258.77
424.52	260.25
424.89	261.85
425.26	263.41
425.64	264.85
426.01	266.40
426.38	268.08
426.75	269.73
427.13	271.42
427.50	273.23
427.87	275.08
428.24	276.94
428.61	278.65
428.99	280.57
429.36	282.67
429.73	284.74
430.10	286.74
430.47	288.79
430.85	290.90
431.22	293.13
431.59	295.51
431.96	297.74
432.33	300.18
432.70	302.55
433.08	305.31
433.45	307.94
433.82	310.53
434.19	313.39
434.56	316.20
434.93	318.87
435.30	321.45
435.68	324.38
436.05	327.17
436.42	329.95
436.79	332.41
437.16	335.08
437.53	337.89
437.90	340.71
438.27	343.42
438.64	346.21
439.01	348.79
439.38	351.01
439.75	353.15
440.13	355.68
440.50	357.98
440.87	359.79
441.24	361.73
441.61	363.90
441.98	365.36
442.35	367.15
442.72	368.94
443.09	370.77
443.46	371.72
443.83	372.34
444.20	372.85
444.57	373.74
444.94	374.05
445.31	374.38
445.68	374.71
446.05	374.80
446.42	374.44
446.79	373.99
447.16	373.57
447.53	373.27
447.90	372.13
448.27	371.00
448.64	369.48
449.01	368.34
449.37	366.39
449.74	364.49
450.11	362.27
450.48	359.87
450.85	357.33
451.22	355.17
451.59	353.15
451.96	351.24
452.33	348.64
452.70	346.26
453.07	343.46
453.43	340.60
453.80	337.81
454.17	335.13
454.54	332.64
454.91	329.89
455.28	327.21
455.65	324.72
456.02	322.31
456.38	320.14
456.75	317.47
457.12	315.24
457.49	313.05
457.86	310.88
458.23	309.00
458.59	306.97
458.96	304.95
459.33	303.10
459.70	301.22
460.07	299.75
460.43	298.04
460.80	296.42
461.17	294.97
461.54	293.50
461.91	292.08
462.27	290.63
462.64	289.42
463.01	288.09
463.38	286.79
463.74	285.43
464.11	284.27
464.48	283.25
464.85	282.14
465.21	281.27
465.58	280.37
465.95	279.28
466.32	278.42
466.68	277.50
467.05	276.62
467.42	275.75
467.78	274.81
468.15	273.95
468.52	273.32
468.88	272.46
469.25	271.71
469.62	271.13
469.98	270.49
470.35	269.83
470.72	269.24
471.08	268.59
471.45	268.05
471.82	267.55
472.18	266.97
472.55	266.58
472.92	266.05
473.28	265.60
473.65	265.21
474.02	264.74
474.38	264.39
474.75	264.07
475.11	263.78
475.48	263.54
475.85	263.32
476.21	263.07
476.58	262.93
476.94	262.78
477.31	262.59
477.67	262.47
478.04	262.39
478.41	262.37
478.77	262.42
479.14	262.35
479.50	262.36
479.87	262.44
480.23	262.53
480.60	262.61
480.96	262.71
481.33	262.89
481.69	263.12
482.06	263.32
482.42	263.54
482.79	263.80
483.15	264.11
483.52	264.53
483.88	264.90
484.25	265.27
484.61	265.69
484.98	266.17
485.34	266.71
485.71	267.30
486.07	267.90
486.44	268.46
486.80	269.19
487.17	269.90
487.53	270.74
487.90	271.59
488.26	272.53
488.62	273.49
488.99	274.44
489.35	275.51
489.72	276.60
490.08	277.79
490.44	279.01
490.81	280.31
491.17	281.63
491.54	283.09
491.90	284.59
492.26	286.26
492.63	288.03
492.99	289.80
493.36	291.67
493.72	293.71
494.08	295.81
494.45	298.05
494.81	300.46
495.17	302.90
495.54	305.42
495.90	308.10
496.26	310.93
496.63	313.92
496.99	317.01
497.35	320.32
497.72	323.74
498.08	327.28
498.44	331.00
498.80	334.96
499.17	339.02
499.53	343.23
499.89	347.64
500.26	352.14
500.62	356.87
500.98	361.91
501.34	366.97
501.71	372.34
502.07	377.85
502.43	383.49
502.79	389.30
503.16	395.40
503.52	401.70
503.88	408.13
504.24	414.82
504.60	421.71
504.97	428.85
505.33	436.19
505.69	443.86
506.05	451.61
506.41	459.47
506.78	467.62
507.14	476.13
507.50	484.84
507.86	493.85
508.22	502.96
508.59	512.11
508.95	521.71
509.31	531.54
509.67	541.69
510.03	551.93
510.39	562.48
510.75	573.26
511.12	584.20
511.48	595.47
511.84	606.87
512.20	618.33
512.56	630.29
512.92	642.43
513.28	654.86
513.64	667.39
514.00	680.09
514.37	692.98
514.73	706.02
515.09	718.95
515.45	732.23
515.81	745.85
516.17	759.89
516.53	774.06
516.89	788.12
517.25	802.15
517.61	816.54
517.97	830.95
518.33	845.41
518.69	860.11
519.05	875.09
519.41	890.29
519.77	905.78
520.13	921.11
520.49	936.46
520.85	951.79
521.21	967.46
521.57	983.57
521.93	999.26
522.29	1015.45
522.65	1031.68
523.01	1047.85
523.37	1063.79
523.73	1079.84
524.09	1095.70
524.45	1111.91
524.81	1128.43
525.17	1145.13
525.53	1162.07
525.89	1178.82
526.25	1195.72
526.61	1212.03
526.97	1228.69
527.33	1245.07
527.68	1261.63
528.04	1278.09
528.40	1294.52
528.76	1311.44
529.12	1327.96
529.48	1344.83
529.84	1360.87
530.20	1377.45
530.56	1394.37
530.91	1411.73
531.27	1428.31
531.63	1444.91
531.99	1461.41
532.35	1477.33
532.71	1493.14
533.07	1509.21
533.42	1525.09
533.78	1540.97
534.14	1557.12
534.50	1572.31
534.86	1588.22
535.21	1603.30
535.57	1619.10
535.93	1634.47
536.29	1649.20
536.65	1664.04
537.00	1678.71
537.36	1693.81
537.72	1708.26
538.08	1722.65
538.44	1736.34
538.79	1750.22
539.15	1763.66
539.51	1777.37
539.87	1791.66
540.22	1805.22
540.58	1818.84
540.94	1831.96
541.29	1844.72
541.65	1857.21
542.01	1870.29
542.37	1882.52
542.72	1894.88
543.08	1906.54
543.44	1918.93
543.79	1929.98
544.15	1940.96
544.51	1952.37
544.87	1963.47
545.22	1974.18
545.58	1984.29
545.94	1993.93
546.29	2003.70
546.65	2013.50
547.01	2022.69
547.36	2031.30
547.72	2039.78
548.07	2047.66
548.43	2055.81
548.79	2063.85
549.14	2071.40
549.50	2078.63
549.86	2086.28
550.21	2093.51
550.57	2100.66
550.92	2107.12
551.28	2114.16
551.64	2121.18
551.99	2127.71
552.35	2133.64
552.70	2139.69
553.06	2145.66
553.41	2152.00
553.77	2158.04
554.13	2163.99
554.48	2170.09
554.84	2175.48
555.19	2180.85
555.55	2186.05
555.90	2190.52
556.26	2195.32
556.61	2200.14
556.97	2204.57
557.32	2208.60
557.68	2212.67
558.03	2217.10
558.39	2220.83
558.74	2225.42
559.10	2229.41
559.45	2233.07
559.81	2237.49
560.16	2241.38
560.52	2244.61
560.87	2248.02
561.23	2250.68
561.58	2253.75
561.94	2256.36
562.29	2258.91
562.64	2261.43
563.00	2263.98
563.35	2267.48
563.71	2270.59
564.06	2273.81
564.42	2276.58
564.77	2279.11
565.12	2281.45
565.48	2283.13
565.83	2285.05
566.19	2286.44
566.54	2287.23
566.89	2288.33
567.25	2288.87
567.60	2290.19
567.96	2291.86
568.31	2292.73
568.66	2293.87
569.02	2294.43
569.37	2294.70
569.72	2295.50
570.08	2295.72
570.43	2295.77
570.78	2295.30
571.14	2293.75
571.49	2292.45
571.84	2292.30
572.20	2291.30
572.55	2290.38
572.90	2288.96
573.26	2287.74
573.61	2286.24
573.96	2284.82
574.31	2282.06
574.67	2279.19
575.02	2275.78
575.37	2272.52
575.72	2268.85
576.08	2265.63
576.43	2262.37
576.78	2258.82
577.13	2255.88
577.49	2252.89
577.84	2249.44
578.19	2245.85
578.54	2242.33
578.90	2238.26
579.25	2232.65
579.60	2227.70
579.95	2222.76
580.30	2217.82
580.66	2212.68
581.01	2207.70
581.36	2202.70
581.71	2198.53
582.06	2194.22
582.42	2189.76
582.77	2184.57
583.12	2180.05
583.47	2175.36
583.82	2170.51
584.17	2165.35
584.53	2159.79
584.88	2154.28
585.23	2148.58
585.58	2142.94
585.93	2137.63
586.28	2132.79
586.63	2127.84
586.98	2122.80
587.34	2118.11
587.69	2113.34
588.04	2108.03
588.39	2102.34
588.74	2096.06
589.09	2089.91
589.44	2082.95
589.79	2076.92
590.14	2071.34
590.49	2064.80
590.84	2058.47
591.19	2052.36
591.54	2045.88
591.89	2038.62
592.25	2031.80
592.60	2024.62
592.95	2017.20
593.30	2009.77
593.65	2002.17
594.00	1995.09
594.35	1988.01
594.70	1979.94
595.05	1972.80
595.40	1965.67
595.75	1958.28
596.10	1952.04
596.45	1945.56
596.80	1939.67
597.15	1933.17
597.50	1926.09
597.85	1919.74
598.19	1913.06
598.54	1906.01
598.89	1899.42
599.24	1893.43
599.59	1886.72
599.94	1880.57
600.29	1874.13
600.64	1867.67
600.99	1860.37
601.34	1853.64
601.69	1846.58
602.04	1839.87
602.39	1832.42
602.74	1825.53
603.08	1818.72
603.43	1812.00
603.78	1804.55
604.13	1797.32
604.48	1789.93
604.83	1783.10
605.18	1776.15
605.53	1768.30
605.87	1760.34
606.22	1753.15
606.57	1745.26
606.92	1738.07
607.27	1730.95
607.62	1724.30
607.96	1717.15
608.31	1710.67
608.66	1703.15
609.01	1695.67
609.36	1688.05
609.70	1680.13
610.05	1672.11
610.40	1664.55
610.75	1656.18
611.10	1648.55
611.44	1640.13
611.79	1632.24
612.14	1623.62
612.49	1614.35
612.83	1605.97
613.18	1597.89
613.53	1589.73
613.88	1581.15
614.22	1572.90
614.57	1564.34
614.92	1556.15
615.27	1548.47
615.61	1540.05
615.96	1531.96
616.31	1524.25
616.65	1516.87
617.00	1509.31
617.35	1501.75
617.70	1493.51
618.04	1485.02
618.39	1476.87
618.74	1469.21
619.08	1460.88
619.43	1453.22
619.78	1446.38
620.12	1439.14
620.47	1431.57
620.82	1423.51
621.16	1416.18
621.51	1408.66
621.85	1400.98
622.20	1392.48
622.55	1384.19
622.89	1376.34
623.24	1368.74
623.59	1361.41
623.93	1353.90
624.28	1346.70
624.62	1339.00
624.97	1331.74
625.32	1325.09
625.66	1318.00
626.01	1310.88
626.35	1303.48
626.70	1295.77
627.04	1288.05
627.39	1280.29
627.73	1272.97
628.08	1266.03
628.43	1258.69
628.77	1251.18
629.12	1243.61
629.46	1236.51
629.81	1229.08
630.15	1221.80
630.50	1214.36
630.84	1206.14
631.19	1198.19
631.53	1190.63
631.88	1183.14
632.22	1175.55
632.57	1168.11
632.91	1160.54
633.26	1153.08
633.60	1145.61
633.95	1138.50
634.29	1131.45
634.64	1124.77
634.98	1117.34
635.32	1110.07
635.67	1103.41
636.01	1096.78
636.36	1089.91
636.70	1083.38
637.05	1076.76
637.39	1070.22
637.73	1063.73
638.08	1057.85
638.42	1051.90
638.77	1045.44
639.11	1038.79
639.45	1032.33
639.80	1025.75
640.14	1019.35
640.49	1012.85
640.83	1006.54
641.17	1000.26
641.52	993.81
641.86	987.29
642.20	981.43
642.55	975.18
642.89	968.78
643.23	962.19
643.58	956.40
643.92	950.14
644.26	944.03
644.61	938.07
644.95	932.04
645.29	925.48
645.64	918.78
645.98	912.43
646.32	906.61
646.66	900.61
647.01	894.77
647.35	889.03
647.69	883.12
648.04	877.54
648.38	871.74
648.72	865.81
649.06	859.80
649.41	853.93
649.75	848.03
650.09	842.03
650.43	836.29
650.78	830.23
651.12	824.30
651.46	818.56
651.80	812.74
652.14	807.33
652.49	801.93
652.83	796.68
653.17	790.93
653.51	785.19
653.85	779.72
654.20	774.05
654.54	768.08
654.88	762.38
655.22	756.58
655.56	750.93
655.90	745.52
656.25	740.30
656.59	734.92
656.93	729.77
657.27	724.66
657.61	719.20
657.95	714.13
658.29	709.06
658.64	703.88
658.98	698.63
659.32	693.15
659.66	687.99
660.00	682.68
660.34	677.82
660.68	672.99
661.02	667.93
661.36	663.22
661.70	658.78
662.05	654.39
662.39	650.01
662.73	645.56
663.07	641.16
663.41	636.71
663.75	632.25
664.09	627.77
664.43	623.38
664.77	619.29
665.11	614.98
665.45	610.86
665.79	606.76
666.13	602.62
666.47	598.58
666.81	594.36
667.15	590.31
667.49	586.41
667.83	582.59
668.17	578.69
668.51	574.62
668.85	570.55
669.19	566.73
669.53	562.94
669.87	559.04
670.21	555.40
670.55	551.74
670.89	548.28
671.23	544.79
671.57	541.27
671.91	537.74
672.25	534.23
672.58	530.69
672.92	527.28
673.26	524.14
673.60	521.01
673.94	517.89
674.28	514.99
674.62	512.00
674.96	508.88
675.30	505.98
675.64	503.01
675.97	500.26
676.31	497.36
676.65	494.41
676.99	491.68
677.33	488.73
677.67	485.88
678.01	482.83
678.34	479.86
678.68	477.01
679.02	474.20
679.36	471.38
679.70	468.67
680.04	465.88
680.37	462.93
680.71	460.07
681.05	457.45
681.39	454.68
681.73	452.04
682.06	449.47
682.40	446.94
682.74	444.38
683.08	441.78
683.42	439.21
683.75	436.68
684.09	434.14
684.43	431.68
684.77	429.18
685.10	426.85
685.44	424.49
685.78	422.18
686.12	419.95
686.45	417.67
686.79	415.39
687.13	413.21
687.46	411.08
687.80	408.91
688.14	406.68
688.48	404.62
688.81	402.34
689.15	400.22
689.49	398.03
689.82	395.95
690.16	393.89
690.50	391.90
690.83	389.97
691.17	387.99
691.51	386.08
691.84	384.30
692.18	382.35
692.52	380.37
692.85	378.40
693.19	376.51
693.52	374.69
693.86	372.86
694.20	371.06
694.53	369.26
694.87	367.43
695.21	365.66
695.54	363.81
695.88	362.09
696.21	360.32
696.55	358.68
696.88	357.03
697.22	355.36
697.56	353.75
697.89	352.07
698.23	350.49
698.56	348.87
698.90	347.25
699.23	345.62
699.57	344.09
699.90	342.56
700.24	340.99
700.58	339.49
700.91	338.00
701.25	336.57
701.58	335.13
701.92	333.77
702.25	332.37
702.59	331.04
702.92	329.76
703.26	328.47
703.59	327.16
703.93	325.98
704.26	324.72
704.60	323.36
704.93	322.12
705.26	320.84
705.60	319.71
705.93	318.55
706.27	317.56
706.60	316.55
706.94	315.45
707.27	314.34
707.61	313.27
707.94	312.24
708.27	311.19
708.61	310.17
708.94	309.17
709.28	308.22
709.61	307.27
709.94	306.29
710.28	305.28
710.61	304.32
710.95	303.21
711.28	302.29
711.61	301.38
711.95	300.47
712.28	299.53
712.61	298.51
712.95	297.57
713.28	296.64
713.61	295.69
713.95	294.82
714.28	293.97
714.61	293.09
714.95	292.24
715.28	291.35
715.61	290.48
715.95	289.61
716.28	288.75
716.61	287.88
716.95	287.07
717.28	286.36
717.61	285.61
717.94	284.86
718.28	284.06
718.61	283.32
718.94	282.60
719.27	281.94
719.61	281.31
719.94	280.63
720.27	279.95
720.60	279.30
720.94	278.67
721.27	278.04
721.60	277.43
721.93	276.82
722.27	276.28
722.60	275.71
722.93	275.17
723.26	274.61
723.59	274.05
723.93	273.47
724.26	272.86
724.59	272.27
724.92	271.77
725.25	271.29
725.59	270.77
725.92	270.25
726.25	269.74
726.58	269.26
726.91	268.76
727.24	268.26
727.57	267.79
727.91	267.26
728.24	266.81
728.57	266.32
728.90	265.86
729.23	265.33
729.56	264.88
729.89	264.38
730.22	263.89
730.55	263.43
730.89	262.99
731.22	262.55
731.55	262.15
731.88	261.71
732.21	261.25
732.54	260.83
732.87	260.41
733.20	260.01
733.53	259.59
733.86	259.21
734.19	258.80
734.52	258.42
734.85	258.13
735.18	257.73
735.51	257.39
735.84	257.01
736.17	256.66
736.50	256.27
736.83	256.05
737.16	255.73
737.49	255.39
737.82	255.09
738.15	254.73
738.48	254.39
738.81	254.06
739.14	253.73
739.47	253.41
739.80	253.10
740.13	252.81
740.46	252.45
740.79	252.14
741.12	251.84
741.45	251.52
741.78	251.15
742.11	250.89
742.44	250.54
742.77	250.26
743.10	249.95
743.43	249.65
743.75	249.25
744.08	249.10
744.41	248.82
744.74	248.54
745.07	248.30
745.40	248.05
745.73	247.82
746.06	247.57
746.39	247.28
746.71	247.02
747.04	246.73
747.37	246.51
747.70	246.27
748.03	246.05
748.36	245.83
748.68	245.61
749.01	245.36
749.34	245.16
749.67	244.93
750.00	244.73
750.33	244.60
750.65	244.40
750.98	244.06
751.31	243.86
751.64	243.62
751.97	243.47
752.29	243.24
752.62	243.02
752.95	242.84
753.28	242.66
753.60	242.50
753.93	242.31
754.26	242.12
754.59	241.91
754.91	241.70
755.24	241.50
755.57	241.33
755.90	241.15
756.22	240.96
756.55	240.80
756.88	240.61
757.20	240.38
757.53	240.20
757.86	240.04
758.19	239.90
758.51	239.78
758.84	239.55
759.17	239.43
759.49	239.27
759.82	239.14
760.15	239.00
760.47	238.81
760.80	238.63
761.13	238.53
761.45	238.37
761.78	238.19
762.11	238.09
762.43	237.90
762.76	237.74
763.08	237.58
763.41	237.45
763.74	237.33
764.06	237.16
764.39	236.96
764.71	236.81
765.04	236.67
765.37	236.52
765.69	236.39
766.02	236.22
766.34	236.09
766.67	235.93
767.00	235.81
767.32	235.74
767.65	235.67
767.97	235.53
768.30	235.41
768.62	235.29
768.95	235.13
769.27	235.02
769.60	234.91
769.92	234.82
770.25	234.68
770.57	234.57
770.90	234.48
771.22	234.39
771.55	234.30
771.87	234.20
772.20	234.10
772.52	234.07
772.85	234.08
773.17	233.99
773.50	233.90
773.82	233.81
774.15	233.67
774.47	233.55
774.80	233.45
775.12	233.34
775.45	233.28
775.77	233.20
776.09	233.12
776.42	233.07
776.74	233.02
777.07	232.95
777.39	232.85
777.72	232.80
778.04	232.76
778.36	232.69
778.69	232.60
779.01	232.52
779.33	232.37
779.66	232.22
779.98	232.13
780.31	232.04
780.63	232.01
780.95	231.97
781.28	231.88
781.60	231.82
781.92	231.81
782.25	231.72
782.57	231.66
782.89	231.58
783.22	231.49
783.54	231.41
783.86	231.35
784.19	231.32
784.51	231.27
784.83	231.20
785.16	231.14
785.48	231.09
785.80	231.05
786.12	231.02
786.45	230.94
786.77	230.92
787.09	230.91
