SpectraSuite Data File
++++++++++++++++++++++++++++++++++++
Date: Fri Feb 01 15:26:49 EST 2013
User: group
Dark Spectrum Present: No
Reference Spectrum Present: No
Number of Sampled Component Spectra: 1
Spectrometers: USB2E7196
Integration Time (usec): 35000 (USB2E7196)
Spectra Averaged: 100 (USB2E7196)
Boxcar Smoothing: 10 (USB2E7196)
Correct for Electrical Dark: No (USB2E7196)
Strobe/Lamp Enabled: No (USB2E7196)
Correct for Detector Non-linearity: No (USB2E7196)
Correct for Stray Light: No (USB2E7196)
Number of Pixels in Processed Spectrum: 2048
>>>>>Begin Processed Spectral Data<<<<<
339.09	0.00
339.48	215.78
339.86	216.67
340.24	218.38
340.63	219.25
341.01	222.05
341.39	222.31
341.78	223.06
342.16	224.45
342.54	224.86
342.93	213.47
343.31	224.26
343.69	224.76
344.07	225.21
344.46	225.62
344.84	226.00
345.22	226.24
345.60	226.49
345.99	226.68
346.37	226.83
346.75	226.91
347.13	227.00
347.52	227.03
347.90	227.11
348.28	227.14
348.66	227.14
349.05	227.10
349.43	227.14
349.81	227.14
350.19	227.21
350.57	227.25
350.96	227.33
351.34	227.41
351.72	227.49
352.10	227.61
352.48	227.68
352.87	227.74
353.25	227.80
353.63	227.86
354.01	227.91
354.39	227.94
354.77	228.05
355.15	228.14
355.54	228.22
355.92	228.22
356.30	228.28
356.68	228.42
357.06	228.49
357.44	228.55
357.82	228.66
358.20	228.71
358.58	228.76
358.97	228.80
359.35	228.86
359.73	228.91
360.11	228.95
360.49	229.00
360.87	229.05
361.25	229.13
361.63	229.15
362.01	229.22
362.39	229.26
362.77	229.28
363.15	229.29
363.53	229.30
363.91	229.34
364.29	229.37
364.67	229.30
365.05	229.32
365.43	229.35
365.81	229.33
366.19	229.36
366.57	229.42
366.95	229.44
367.33	229.40
367.71	229.39
368.09	229.39
368.47	229.35
368.85	229.31
369.23	229.29
369.61	229.24
369.99	229.24
370.37	229.23
370.75	229.23
371.13	229.19
371.51	229.13
371.89	229.10
372.27	229.09
372.65	229.07
373.03	229.01
373.41	228.93
373.78	228.87
374.16	228.77
374.54	228.66
374.92	228.59
375.30	228.55
375.68	228.47
376.06	228.42
376.44	228.37
376.82	228.29
377.19	228.23
377.57	228.16
377.95	228.08
378.33	227.97
378.71	227.85
379.09	227.77
379.47	227.74
379.84	227.67
380.22	227.57
380.60	227.44
380.98	227.40
381.36	227.32
381.73	227.24
382.11	227.19
382.49	227.14
382.87	227.08
383.25	227.00
383.62	227.06
384.00	226.95
384.38	226.89
384.76	226.88
385.13	226.87
385.51	226.82
385.89	226.78
386.27	226.74
386.64	226.72
387.02	226.67
387.40	226.60
387.78	226.55
388.15	226.52
388.53	226.52
388.91	226.51
389.29	226.47
389.66	226.49
390.04	226.46
390.42	226.44
390.79	226.41
391.17	226.39
391.55	226.28
391.92	226.31
392.30	226.28
392.68	226.22
393.05	226.19
393.43	226.20
393.81	226.19
394.18	226.22
394.56	226.23
394.94	226.27
395.31	226.30
395.69	226.33
396.06	226.36
396.44	226.40
396.82	226.41
397.19	226.51
397.57	226.53
397.95	226.60
398.32	226.62
398.70	226.73
399.07	226.81
399.45	226.88
399.82	226.93
400.20	227.02
400.58	227.11
400.95	227.15
401.33	227.27
401.70	227.40
402.08	227.50
402.45	227.63
402.83	227.80
403.20	227.91
403.58	228.01
403.95	228.16
404.33	228.28
404.71	228.44
405.08	228.64
405.46	228.78
405.83	228.97
406.21	229.16
406.58	229.29
406.96	229.47
407.33	229.69
407.70	229.90
408.08	230.20
408.45	230.44
408.83	230.69
409.20	230.91
409.58	231.11
409.95	231.39
410.33	231.65
410.70	231.90
411.08	232.23
411.45	232.58
411.82	232.89
412.20	233.24
412.57	233.65
412.95	233.94
413.32	234.37
413.69	234.78
414.07	235.23
414.44	235.73
414.82	236.18
415.19	236.72
415.56	237.30
415.94	237.81
416.31	238.47
416.68	239.13
417.06	239.84
417.43	240.52
417.81	241.28
418.18	242.05
418.55	242.90
418.93	243.75
419.30	244.64
419.67	245.58
420.04	246.57
420.42	247.56
420.79	248.70
421.16	249.85
421.54	251.04
421.91	252.27
422.28	253.55
422.66	254.92
423.03	256.21
423.40	257.50
423.77	258.91
424.15	260.32
424.52	261.79
424.89	263.40
425.26	264.96
425.64	266.38
426.01	268.00
426.38	269.60
426.75	271.29
427.13	272.98
427.50	274.80
427.87	276.66
428.24	278.52
428.61	280.29
428.99	282.24
429.36	284.34
429.73	286.38
430.10	288.41
430.47	290.46
430.85	292.59
431.22	294.85
431.59	297.27
431.96	299.51
432.33	302.01
432.70	304.39
433.08	307.18
433.45	309.87
433.82	312.43
434.19	315.36
434.56	318.18
434.93	320.85
435.30	323.47
435.68	326.34
436.05	329.20
436.42	331.99
436.79	334.48
437.16	337.17
437.53	340.05
437.90	342.81
438.27	345.55
438.64	348.36
439.01	350.99
439.38	353.24
439.75	355.41
440.13	357.89
440.50	360.18
440.87	362.03
441.24	363.98
441.61	366.11
441.98	367.59
442.35	369.42
442.72	371.28
443.09	373.11
443.46	374.10
443.83	374.66
444.20	375.22
444.57	376.09
444.94	376.35
445.31	376.67
445.68	377.04
446.05	377.10
446.42	376.78
446.79	376.31
447.16	375.86
447.53	375.55
447.90	374.39
448.27	373.26
448.64	371.68
449.01	370.54
449.37	368.61
449.74	366.72
450.11	364.43
450.48	361.93
450.85	359.36
451.22	357.21
451.59	355.21
451.96	353.24
452.33	350.60
452.70	348.27
453.07	345.40
453.43	342.50
453.80	339.73
454.17	337.03
454.54	334.50
454.91	331.73
455.28	329.07
455.65	326.58
456.02	324.15
456.38	322.01
456.75	319.32
457.12	317.07
457.49	314.82
457.86	312.64
458.23	310.78
458.59	308.71
458.96	306.63
459.33	304.73
459.70	302.82
460.07	301.32
460.43	299.55
460.80	297.95
461.17	296.52
461.54	295.02
461.91	293.58
462.27	292.15
462.64	290.89
463.01	289.48
463.38	288.18
463.74	286.79
464.11	285.64
464.48	284.60
464.85	283.49
465.21	282.61
465.58	281.68
465.95	280.62
466.32	279.74
466.68	278.84
467.05	277.95
467.42	277.07
467.78	276.15
468.15	275.27
468.52	274.60
468.88	273.73
469.25	272.94
469.62	272.28
469.98	271.59
470.35	270.95
470.72	270.40
471.08	269.76
471.45	269.20
471.82	268.62
472.18	268.03
472.55	267.61
472.92	267.10
473.28	266.64
473.65	266.16
474.02	265.71
474.38	265.33
474.75	265.01
475.11	264.65
475.48	264.33
475.85	264.10
476.21	263.86
476.58	263.65
476.94	263.49
477.31	263.30
477.67	263.12
478.04	263.03
478.41	262.92
478.77	262.92
479.14	262.88
479.50	262.88
479.87	262.93
480.23	263.02
480.60	263.09
480.96	263.19
481.33	263.39
481.69	263.57
482.06	263.77
482.42	263.95
482.79	264.23
483.15	264.59
483.52	264.96
483.88	265.29
484.25	265.68
484.61	266.11
484.98	266.58
485.34	267.17
485.71	267.74
486.07	268.35
486.44	268.90
486.80	269.61
487.17	270.31
487.53	271.13
487.90	271.96
488.26	272.85
488.62	273.84
488.99	274.83
489.35	275.88
489.72	276.99
490.08	278.23
490.44	279.49
490.81	280.81
491.17	282.14
491.54	283.60
491.90	285.13
492.26	286.76
492.63	288.47
492.99	290.23
493.36	292.15
493.72	294.22
494.08	296.34
494.45	298.59
494.81	300.97
495.17	303.39
495.54	305.91
495.90	308.62
496.26	311.40
496.63	314.38
496.99	317.48
497.35	320.76
497.72	324.11
498.08	327.61
498.44	331.28
498.80	335.20
499.17	339.30
499.53	343.46
499.89	347.81
500.26	352.34
500.62	357.05
500.98	362.01
501.34	367.11
501.71	372.49
502.07	377.90
502.43	383.54
502.79	389.37
503.16	395.40
503.52	401.65
503.88	408.06
504.24	414.68
504.60	421.59
504.97	428.72
505.33	436.08
505.69	443.77
506.05	451.51
506.41	459.48
506.78	467.63
507.14	476.07
507.50	484.89
507.86	493.91
508.22	503.04
508.59	512.18
508.95	521.76
509.31	531.56
509.67	541.71
510.03	551.95
510.39	562.51
510.75	573.37
511.12	584.36
511.48	595.68
511.84	607.14
512.20	618.61
512.56	630.61
512.92	642.81
513.28	655.11
513.64	667.64
514.00	680.30
514.37	693.22
514.73	706.34
515.09	719.34
515.45	732.69
515.81	746.34
516.17	760.35
516.53	774.50
516.89	788.65
517.25	802.85
517.61	817.39
517.97	831.83
518.33	846.37
518.69	861.24
519.05	876.26
519.41	891.41
519.77	907.04
520.13	922.55
520.49	938.02
520.85	953.55
521.21	969.39
521.57	985.76
521.93	1001.56
522.29	1017.90
522.65	1034.23
523.01	1050.50
523.37	1066.54
523.73	1082.81
524.09	1098.95
524.45	1115.34
524.81	1131.97
525.17	1148.85
525.53	1165.79
525.89	1182.56
526.25	1199.28
526.61	1215.67
526.97	1232.49
527.33	1248.94
527.68	1265.53
528.04	1282.14
528.40	1298.74
528.76	1315.72
529.12	1332.19
529.48	1349.17
529.84	1365.42
530.20	1382.04
530.56	1399.08
530.91	1416.54
531.27	1433.31
531.63	1449.79
531.99	1466.34
532.35	1482.48
532.71	1498.34
533.07	1514.69
533.42	1530.73
533.78	1546.81
534.14	1563.23
534.50	1578.63
534.86	1594.54
535.21	1609.75
535.57	1625.75
535.93	1641.33
536.29	1656.13
536.65	1671.33
537.00	1686.24
537.36	1701.45
537.72	1716.07
538.08	1730.49
538.44	1744.34
538.79	1758.32
539.15	1772.19
539.51	1786.06
539.87	1800.51
540.22	1814.36
540.58	1828.23
540.94	1841.71
541.29	1854.82
541.65	1867.41
542.01	1880.82
542.37	1893.26
542.72	1905.69
543.08	1917.39
543.44	1929.80
543.79	1941.30
544.15	1952.34
544.51	1963.91
544.87	1975.08
545.22	1985.80
545.58	1996.03
545.94	2005.80
546.29	2015.69
546.65	2025.43
547.01	2034.79
547.36	2043.49
547.72	2052.03
548.07	2059.92
548.43	2067.99
548.79	2076.09
549.14	2083.75
549.50	2091.02
549.86	2098.72
550.21	2106.04
550.57	2113.28
550.92	2120.04
551.28	2127.10
551.64	2134.31
551.99	2140.86
552.35	2146.81
552.70	2153.15
553.06	2159.27
553.41	2165.70
553.77	2171.88
554.13	2178.02
554.48	2184.11
554.84	2189.37
555.19	2194.74
555.55	2199.76
555.90	2204.27
556.26	2209.13
556.61	2213.98
556.97	2218.18
557.32	2222.36
557.68	2226.73
558.03	2230.94
558.39	2234.56
558.74	2239.10
559.10	2242.71
559.45	2246.25
559.81	2250.71
560.16	2254.55
560.52	2257.65
560.87	2261.01
561.23	2263.58
561.58	2266.56
561.94	2269.23
562.29	2271.72
562.64	2274.19
563.00	2276.87
563.35	2280.45
563.71	2283.44
564.06	2286.55
564.42	2289.38
564.77	2291.81
565.12	2293.81
565.48	2295.72
565.83	2297.45
566.19	2298.73
566.54	2299.85
566.89	2301.06
567.25	2301.65
567.60	2302.97
567.96	2304.75
568.31	2305.54
568.66	2306.59
569.02	2307.06
569.37	2307.16
569.72	2307.96
570.08	2308.14
570.43	2308.17
570.78	2307.53
571.14	2306.19
571.49	2304.75
571.84	2304.43
572.20	2303.26
572.55	2302.21
572.90	2300.69
573.26	2299.41
573.61	2297.68
573.96	2295.73
574.31	2292.62
574.67	2289.44
575.02	2285.63
575.37	2282.06
575.72	2278.29
576.08	2274.98
576.43	2271.66
576.78	2267.86
577.13	2264.66
577.49	2261.54
577.84	2257.86
578.19	2254.02
578.54	2250.15
578.90	2245.95
579.25	2240.42
579.60	2235.32
579.95	2230.31
580.30	2225.14
580.66	2219.78
581.01	2214.76
581.36	2209.86
581.71	2205.70
582.06	2201.24
582.42	2196.70
582.77	2191.41
583.12	2186.67
583.47	2181.70
583.82	2176.43
584.17	2171.24
584.53	2165.75
584.88	2160.03
585.23	2154.18
585.58	2148.66
585.93	2143.11
586.28	2138.22
586.63	2132.96
586.98	2127.80
587.34	2123.08
587.69	2118.09
588.04	2112.73
588.39	2106.98
588.74	2100.41
589.09	2094.06
589.44	2087.17
589.79	2081.13
590.14	2075.52
590.49	2068.98
590.84	2062.56
591.19	2056.59
591.54	2049.93
591.89	2042.29
592.25	2035.25
592.60	2028.03
592.95	2020.26
593.30	2012.80
593.65	2005.19
594.00	1998.13
594.35	1990.95
594.70	1982.85
595.05	1975.65
595.40	1968.35
595.75	1960.70
596.10	1954.41
596.45	1947.56
596.80	1941.32
597.15	1934.45
597.50	1927.18
597.85	1920.78
598.19	1914.12
598.54	1906.98
598.89	1900.42
599.24	1894.61
599.59	1887.98
599.94	1881.81
600.29	1875.57
600.64	1868.97
600.99	1861.33
601.34	1854.40
601.69	1847.39
602.04	1840.33
602.39	1832.87
602.74	1826.03
603.08	1819.20
603.43	1812.45
603.78	1805.18
604.13	1797.88
604.48	1790.73
604.83	1784.01
605.18	1776.71
605.53	1768.64
605.87	1760.54
606.22	1753.15
606.57	1745.07
606.92	1737.66
607.27	1730.30
607.62	1723.36
607.96	1716.07
608.31	1709.39
608.66	1701.80
609.01	1694.08
609.36	1686.53
609.70	1678.44
610.05	1670.21
610.40	1662.64
610.75	1654.26
611.10	1646.53
611.44	1638.21
611.79	1630.18
612.14	1621.39
612.49	1612.47
612.83	1604.09
613.18	1595.96
613.53	1587.90
613.88	1579.48
614.22	1571.20
614.57	1562.65
614.92	1554.50
615.27	1546.88
615.61	1538.65
615.96	1530.67
616.31	1523.15
616.65	1515.84
617.00	1508.31
617.35	1500.73
617.70	1492.23
618.04	1483.63
618.39	1475.52
618.74	1467.84
619.08	1459.50
619.43	1451.98
619.78	1445.01
620.12	1437.82
620.47	1430.28
620.82	1422.09
621.16	1414.65
621.51	1407.08
621.85	1399.49
622.20	1390.96
622.55	1382.69
622.89	1374.89
623.24	1367.21
623.59	1359.88
623.93	1352.33
624.28	1345.06
624.62	1337.49
624.97	1330.44
625.32	1323.80
625.66	1316.68
626.01	1309.51
626.35	1302.03
626.70	1294.31
627.04	1286.47
627.39	1278.75
627.73	1271.29
628.08	1264.39
628.43	1257.05
628.77	1249.63
629.12	1241.98
629.46	1234.79
629.81	1227.34
630.15	1220.08
630.50	1212.71
630.84	1204.50
631.19	1196.58
631.53	1189.20
631.88	1181.68
632.22	1174.15
632.57	1166.78
632.91	1159.35
633.26	1151.95
633.60	1144.65
633.95	1137.55
634.29	1130.53
634.64	1123.82
634.98	1116.60
635.32	1109.42
635.67	1102.93
636.01	1096.34
636.36	1089.70
636.70	1083.24
637.05	1076.60
637.39	1070.20
637.73	1063.65
638.08	1057.75
638.42	1051.71
638.77	1045.23
639.11	1038.67
639.45	1032.24
639.80	1025.58
640.14	1019.11
640.49	1012.60
640.83	1006.36
641.17	1000.02
641.52	993.71
641.86	987.33
642.20	981.44
642.55	975.20
642.89	968.63
643.23	962.17
643.58	956.26
643.92	950.05
644.26	943.98
644.61	937.92
644.95	931.92
645.29	925.25
645.64	918.54
645.98	912.18
646.32	906.37
646.66	900.30
647.01	894.54
647.35	888.86
647.69	883.01
648.04	877.45
648.38	871.65
648.72	865.65
649.06	859.49
649.41	853.58
649.75	847.54
650.09	841.56
650.43	835.68
650.78	829.58
651.12	823.55
651.46	817.89
651.80	812.04
652.14	806.55
652.49	801.27
652.83	796.10
653.17	790.35
653.51	784.54
653.85	779.15
654.20	773.44
654.54	767.40
654.88	761.72
655.22	755.82
655.56	750.19
655.90	744.71
656.25	739.49
656.59	734.19
656.93	729.12
657.27	724.01
657.61	718.56
657.95	713.47
658.29	708.48
658.64	703.27
658.98	698.01
659.32	692.57
659.66	687.27
660.00	681.92
660.34	677.07
660.68	672.20
661.02	667.18
661.36	662.51
661.70	658.08
662.05	653.62
662.39	649.23
662.73	644.80
663.07	640.46
663.41	636.04
663.75	631.53
664.09	626.96
664.43	622.52
664.77	618.45
665.11	614.19
665.45	610.04
665.79	605.88
666.13	601.78
666.47	597.75
666.81	593.64
667.15	589.56
667.49	585.58
667.83	581.81
668.17	577.89
668.51	573.82
668.85	569.75
669.19	565.93
669.53	562.14
669.87	558.20
670.21	554.51
670.55	550.90
670.89	547.44
671.23	544.09
671.57	540.61
671.91	537.11
672.25	533.70
672.58	530.19
672.92	526.88
673.26	523.75
673.60	520.57
673.94	517.45
674.28	514.64
674.62	511.74
674.96	508.66
675.30	505.78
675.64	502.87
675.97	500.13
676.31	497.28
676.65	494.37
676.99	491.69
677.33	488.82
677.67	486.03
678.01	483.00
678.34	479.99
678.68	477.14
679.02	474.35
679.36	471.57
679.70	468.87
680.04	466.11
680.37	463.20
680.71	460.47
681.05	457.90
681.39	455.17
681.73	452.49
682.06	449.90
682.40	447.35
682.74	444.84
683.08	442.30
683.42	439.73
683.75	437.20
684.09	434.68
684.43	432.24
684.77	429.78
685.10	427.47
685.44	425.18
685.78	422.94
686.12	420.68
686.45	418.35
686.79	416.04
687.13	413.82
687.46	411.69
687.80	409.52
688.14	407.31
688.48	405.22
688.81	403.02
689.15	400.90
689.49	398.74
689.82	396.63
690.16	394.53
690.50	392.57
690.83	390.63
691.17	388.65
691.51	386.76
691.84	384.87
692.18	382.93
692.52	380.90
692.85	378.97
693.19	377.05
693.52	375.29
693.86	373.53
694.20	371.76
694.53	369.97
694.87	368.17
695.21	366.36
695.54	364.55
695.88	362.81
696.21	361.09
696.55	359.39
696.88	357.72
697.22	356.08
697.56	354.42
697.89	352.80
698.23	351.19
698.56	349.56
698.90	347.97
699.23	346.30
699.57	344.82
699.90	343.28
700.24	341.74
700.58	340.13
700.91	338.62
701.25	337.15
701.58	335.76
701.92	334.36
702.25	332.94
702.59	331.59
702.92	330.30
703.26	329.03
703.59	327.80
703.93	326.60
704.26	325.42
704.60	324.17
704.93	322.91
705.26	321.66
705.60	320.52
705.93	319.37
706.27	318.37
706.60	317.27
706.94	316.19
707.27	315.08
707.61	314.04
707.94	313.02
708.27	311.93
708.61	310.85
708.94	309.86
709.28	308.93
709.61	307.92
709.94	306.91
710.28	305.89
710.61	304.91
710.95	303.87
711.28	302.93
711.61	301.98
711.95	301.05
712.28	300.09
712.61	299.09
712.95	298.16
713.28	297.25
713.61	296.39
713.95	295.49
714.28	294.65
714.61	293.83
714.95	292.99
715.28	292.20
715.61	291.35
715.95	290.47
716.28	289.63
716.61	288.81
716.95	288.03
717.28	287.27
717.61	286.50
717.94	285.75
718.28	284.96
718.61	284.24
718.94	283.55
719.27	282.92
719.61	282.27
719.94	281.62
720.27	280.90
720.60	280.20
720.94	279.58
721.27	279.01
721.60	278.43
721.93	277.84
722.27	277.27
722.60	276.71
722.93	276.20
723.26	275.66
723.59	275.12
723.93	274.57
724.26	274.02
724.59	273.44
724.92	272.91
725.25	272.38
725.59	271.90
725.92	271.37
726.25	270.89
726.58	270.39
726.91	269.90
727.24	269.48
727.57	269.06
727.91	268.53
728.24	268.02
728.57	267.52
728.90	267.04
729.23	266.55
729.56	266.12
729.89	265.58
730.22	265.06
730.55	264.59
730.89	264.13
731.22	263.72
731.55	263.30
731.88	262.90
732.21	262.46
732.54	261.99
732.87	261.53
733.20	261.13
733.53	260.72
733.86	260.32
734.19	259.90
734.52	259.47
734.85	259.18
735.18	258.76
735.51	258.38
735.84	258.03
736.17	257.67
736.50	257.27
736.83	257.07
737.16	256.75
737.49	256.44
737.82	256.08
738.15	255.74
738.48	255.39
738.81	255.04
739.14	254.74
739.47	254.41
739.80	254.14
740.13	253.84
740.46	253.51
740.79	253.18
741.12	252.90
741.45	252.60
741.78	252.24
742.11	251.96
742.44	251.61
742.77	251.33
743.10	251.01
743.43	250.69
743.75	250.29
744.08	250.16
744.41	249.85
744.74	249.57
745.07	249.29
745.40	249.05
745.73	248.81
746.06	248.51
746.39	248.28
746.71	247.99
747.04	247.67
747.37	247.40
747.70	247.16
748.03	246.88
748.36	246.68
748.68	246.44
749.01	246.17
749.34	245.96
749.67	245.69
750.00	245.48
750.33	245.37
750.65	245.13
750.98	244.76
751.31	244.60
751.64	244.41
751.97	244.26
752.29	244.01
752.62	243.76
752.95	243.59
753.28	243.37
753.60	243.18
753.93	243.00
754.26	242.84
754.59	242.65
754.91	242.45
755.24	242.23
755.57	242.07
755.90	241.93
756.22	241.79
756.55	241.60
756.88	241.46
757.20	241.18
757.53	241.03
757.86	240.89
758.19	240.73
758.51	240.57
758.84	240.36
759.17	240.22
759.49	240.08
759.82	239.96
760.15	239.82
760.47	239.69
760.80	239.55
761.13	239.43
761.45	239.25
761.78	239.14
762.11	239.03
762.43	238.88
762.76	238.74
763.08	238.59
763.41	238.51
763.74	238.33
764.06	238.24
764.39	238.09
764.71	237.93
765.04	237.78
765.37	237.66
765.69	237.50
766.02	237.36
766.34	237.23
766.67	237.08
767.00	236.99
767.32	236.94
767.65	236.90
767.97	236.75
768.30	236.68
768.62	236.57
768.95	236.43
769.27	236.29
769.60	236.17
769.92	236.06
770.25	235.93
770.57	235.80
770.90	235.68
771.22	235.57
771.55	235.50
771.87	235.41
772.20	235.30
772.52	235.33
772.85	235.39
773.17	235.31
773.50	235.19
773.82	235.05
774.15	234.90
774.47	234.73
774.80	234.66
775.12	234.53
775.45	234.42
775.77	234.32
776.09	234.25
776.42	234.19
776.74	234.10
777.07	233.98
777.39	233.93
777.72	233.83
778.04	233.77
778.36	233.68
778.69	233.57
779.01	233.47
779.33	233.29
779.66	233.07
779.98	233.01
780.31	232.94
780.63	232.95
780.95	232.88
781.28	232.79
781.60	232.72
781.92	232.65
782.25	232.60
782.57	232.53
782.89	232.48
783.22	232.43
783.54	232.35
783.86	232.32
784.19	232.25
784.51	232.24
784.83	232.16
785.16	232.09
785.48	232.06
785.80	232.03
786.12	231.99
786.45	231.91
786.77	231.83
787.09	231.77
