SpectraSuite Data File
++++++++++++++++++++++++++++++++++++
Date: Fri Feb 01 16:38:28 EST 2013
User: group
Dark Spectrum Present: No
Reference Spectrum Present: No
Number of Sampled Component Spectra: 1
Spectrometers: USB2E7196
Integration Time (usec): 35000 (USB2E7196)
Spectra Averaged: 100 (USB2E7196)
Boxcar Smoothing: 10 (USB2E7196)
Correct for Electrical Dark: No (USB2E7196)
Strobe/Lamp Enabled: No (USB2E7196)
Correct for Detector Non-linearity: No (USB2E7196)
Correct for Stray Light: No (USB2E7196)
Number of Pixels in Processed Spectrum: 2048
>>>>>Begin Processed Spectral Data<<<<<
339.09	0.00
339.48	213.97
339.86	215.15
340.24	216.58
340.63	217.68
341.01	220.96
341.39	220.81
341.78	221.97
342.16	223.10
342.54	223.70
342.93	212.26
343.31	222.96
343.69	223.48
344.07	223.97
344.46	224.41
344.84	224.82
345.22	225.07
345.60	225.33
345.99	225.51
346.37	225.66
346.75	225.75
347.13	225.77
347.52	225.83
347.90	225.86
348.28	225.85
348.66	225.92
349.05	225.91
349.43	225.95
349.81	225.95
350.19	225.98
350.57	226.04
350.96	226.11
351.34	226.21
351.72	226.29
352.10	226.37
352.48	226.41
352.87	226.49
353.25	226.52
353.63	226.55
354.01	226.64
354.39	226.69
354.77	226.76
355.15	226.87
355.54	226.93
355.92	226.98
356.30	227.07
356.68	227.16
357.06	227.24
357.44	227.27
357.82	227.34
358.20	227.43
358.58	227.49
358.97	227.55
359.35	227.63
359.73	227.72
360.11	227.77
360.49	227.81
360.87	227.83
361.25	227.90
361.63	227.99
362.01	228.00
362.39	228.04
362.77	228.10
363.15	228.11
363.53	228.18
363.91	228.21
364.29	228.22
364.67	228.18
365.05	228.17
365.43	228.20
365.81	228.24
366.19	228.29
366.57	228.34
366.95	228.34
367.33	228.35
367.71	228.35
368.09	228.35
368.47	228.38
368.85	228.34
369.23	228.35
369.61	228.31
369.99	228.32
370.37	228.32
370.75	228.34
371.13	228.32
371.51	228.24
371.89	228.23
372.27	228.22
372.65	228.19
373.03	228.16
373.41	228.14
373.78	228.07
374.16	227.98
374.54	227.88
374.92	227.79
375.30	227.72
375.68	227.61
376.06	227.57
376.44	227.47
376.82	227.44
377.19	227.39
377.57	227.30
377.95	227.22
378.33	227.14
378.71	226.98
379.09	226.89
379.47	226.85
379.84	226.81
380.22	226.74
380.60	226.65
380.98	226.56
381.36	226.44
381.73	226.37
382.11	226.30
382.49	226.24
382.87	226.22
383.25	226.15
383.62	226.24
384.00	226.15
384.38	226.10
384.76	226.03
385.13	226.02
385.51	225.96
385.89	225.91
386.27	225.89
386.64	225.88
387.02	225.86
387.40	225.82
387.78	225.73
388.15	225.69
388.53	225.69
388.91	225.68
389.29	225.68
389.66	225.67
390.04	225.64
390.42	225.64
390.79	225.61
391.17	225.56
391.55	225.40
391.92	225.39
392.30	225.40
392.68	225.40
393.05	225.36
393.43	225.39
393.81	225.39
394.18	225.40
394.56	225.41
394.94	225.44
395.31	225.46
395.69	225.53
396.06	225.56
396.44	225.56
396.82	225.57
397.19	225.64
397.57	225.66
397.95	225.71
398.32	225.71
398.70	225.75
399.07	225.85
399.45	225.92
399.82	225.98
400.20	226.04
400.58	226.12
400.95	226.18
401.33	226.27
401.70	226.40
402.08	226.46
402.45	226.54
402.83	226.64
403.20	226.74
403.58	226.82
403.95	226.91
404.33	227.05
404.71	227.21
405.08	227.41
405.46	227.56
405.83	227.69
406.21	227.88
406.58	228.04
406.96	228.20
407.33	228.38
407.70	228.59
408.08	228.84
408.45	229.05
408.83	229.26
409.20	229.44
409.58	229.63
409.95	229.87
410.33	230.12
410.70	230.37
411.08	230.64
411.45	230.96
411.82	231.24
412.20	231.59
412.57	231.97
412.95	232.22
413.32	232.62
413.69	233.03
414.07	233.46
414.44	233.91
414.82	234.37
415.19	234.91
415.56	235.47
415.94	236.01
416.31	236.64
416.68	237.26
417.06	237.96
417.43	238.61
417.81	239.40
418.18	240.20
418.55	241.00
418.93	241.88
419.30	242.77
419.67	243.71
420.04	244.65
420.42	245.66
420.79	246.86
421.16	248.03
421.54	249.21
421.91	250.40
422.28	251.67
422.66	253.03
423.03	254.30
423.40	255.58
423.77	256.99
424.15	258.37
424.52	259.85
424.89	261.46
425.26	263.03
425.64	264.47
426.01	266.01
426.38	267.67
426.75	269.30
427.13	271.02
427.50	272.85
427.87	274.74
428.24	276.60
428.61	278.33
428.99	280.23
429.36	282.34
429.73	284.38
430.10	286.37
430.47	288.39
430.85	290.49
431.22	292.72
431.59	295.08
431.96	297.31
432.33	299.79
432.70	302.14
433.08	304.95
433.45	307.57
433.82	310.19
434.19	313.06
434.56	315.88
434.93	318.54
435.30	321.12
435.68	323.96
436.05	326.69
436.42	329.45
436.79	331.95
437.16	334.61
437.53	337.40
437.90	340.19
438.27	342.91
438.64	345.74
439.01	348.30
439.38	350.50
439.75	352.62
440.13	355.09
440.50	357.38
440.87	359.22
441.24	361.16
441.61	363.29
441.98	364.80
442.35	366.61
442.72	368.44
443.09	370.25
443.46	371.26
443.83	371.91
444.20	372.42
444.57	373.23
444.94	373.56
445.31	373.92
445.68	374.29
446.05	374.37
446.42	373.99
446.79	373.59
447.16	373.17
447.53	372.87
447.90	371.74
448.27	370.64
448.64	369.06
449.01	367.94
449.37	365.98
449.74	364.11
450.11	361.82
450.48	359.35
450.85	356.80
451.22	354.68
451.59	352.65
451.96	350.72
452.33	348.13
452.70	345.79
453.07	343.01
453.43	340.10
453.80	337.36
454.17	334.70
454.54	332.17
454.91	329.47
455.28	326.83
455.65	324.32
456.02	321.90
456.38	319.74
456.75	317.09
457.12	314.87
457.49	312.64
457.86	310.51
458.23	308.68
458.59	306.66
458.96	304.57
459.33	302.74
459.70	300.88
460.07	299.38
460.43	297.64
460.80	296.03
461.17	294.65
461.54	293.19
461.91	291.78
462.27	290.34
462.64	289.08
463.01	287.72
463.38	286.46
463.74	285.08
464.11	283.95
464.48	282.91
464.85	281.80
465.21	280.96
465.58	280.08
465.95	279.00
466.32	278.11
466.68	277.21
467.05	276.36
467.42	275.50
467.78	274.64
468.15	273.75
468.52	273.09
468.88	272.25
469.25	271.47
469.62	270.90
469.98	270.28
470.35	269.68
470.72	269.13
471.08	268.49
471.45	267.95
471.82	267.40
472.18	266.84
472.55	266.47
472.92	265.93
473.28	265.48
473.65	265.03
474.02	264.61
474.38	264.26
474.75	263.91
475.11	263.55
475.48	263.29
475.85	263.12
476.21	262.87
476.58	262.70
476.94	262.57
477.31	262.39
477.67	262.21
478.04	262.09
478.41	262.04
478.77	262.11
479.14	262.07
479.50	262.10
479.87	262.21
480.23	262.27
480.60	262.37
480.96	262.45
481.33	262.66
481.69	262.85
482.06	263.04
482.42	263.27
482.79	263.54
483.15	263.83
483.52	264.23
483.88	264.59
484.25	264.97
484.61	265.38
484.98	265.83
485.34	266.42
485.71	267.02
486.07	267.64
486.44	268.18
486.80	268.88
487.17	269.62
487.53	270.41
487.90	271.27
488.26	272.18
488.62	273.15
488.99	274.17
489.35	275.24
489.72	276.35
490.08	277.55
490.44	278.80
490.81	280.15
491.17	281.47
491.54	282.97
491.90	284.49
492.26	286.15
492.63	287.87
492.99	289.66
493.36	291.56
493.72	293.57
494.08	295.65
494.45	297.88
494.81	300.24
495.17	302.69
495.54	305.28
495.90	307.96
496.26	310.75
496.63	313.70
496.99	316.79
497.35	320.07
497.72	323.45
498.08	326.98
498.44	330.65
498.80	334.60
499.17	338.65
499.53	342.85
499.89	347.18
500.26	351.68
500.62	356.36
500.98	361.32
501.34	366.42
501.71	371.75
502.07	377.28
502.43	382.87
502.79	388.62
503.16	394.65
503.52	400.91
503.88	407.31
504.24	413.94
504.60	420.81
504.97	427.98
505.33	435.32
505.69	443.03
506.05	450.85
506.41	458.69
506.78	466.84
507.14	475.27
507.50	483.97
507.86	493.02
508.22	502.21
508.59	511.40
508.95	520.97
509.31	530.80
509.67	540.88
510.03	551.17
510.39	561.78
510.75	572.57
511.12	583.48
511.48	594.84
511.84	606.24
512.20	617.71
512.56	629.54
512.92	641.63
513.28	653.96
513.64	666.34
514.00	679.06
514.37	692.01
514.73	705.05
515.09	718.09
515.45	731.38
515.81	744.87
516.17	758.80
516.53	772.86
516.89	786.97
517.25	801.09
517.61	815.46
517.97	829.79
518.33	844.14
518.69	858.88
519.05	873.76
519.41	888.81
519.77	904.30
520.13	919.65
520.49	935.01
520.85	950.31
521.21	965.91
521.57	982.05
521.93	997.63
522.29	1013.86
522.65	1030.04
523.01	1045.98
523.37	1061.90
523.73	1077.95
524.09	1093.98
524.45	1110.14
524.81	1126.62
525.17	1143.28
525.53	1159.99
525.89	1176.87
526.25	1193.66
526.61	1210.07
526.97	1226.78
527.33	1243.23
527.68	1259.74
528.04	1276.17
528.40	1292.59
528.76	1309.51
529.12	1325.93
529.48	1342.78
529.84	1358.68
530.20	1375.19
530.56	1392.15
530.91	1409.48
531.27	1426.20
531.63	1442.60
531.99	1459.14
532.35	1475.08
532.71	1490.90
533.07	1507.25
533.42	1523.03
533.78	1538.92
534.14	1554.94
534.50	1570.17
534.86	1585.81
535.21	1601.01
535.57	1616.81
535.93	1632.17
536.29	1646.86
536.65	1661.91
537.00	1676.48
537.36	1691.74
537.72	1706.03
538.08	1720.31
538.44	1733.99
538.79	1747.72
539.15	1761.13
539.51	1774.58
539.87	1788.72
540.22	1802.23
540.58	1815.54
540.94	1828.53
541.29	1841.00
541.65	1853.44
542.01	1866.40
542.37	1878.67
542.72	1890.83
543.08	1902.42
543.44	1914.61
543.79	1925.92
544.15	1936.59
544.51	1948.06
544.87	1958.92
545.22	1969.64
545.58	1979.77
545.94	1989.45
546.29	1999.13
546.65	2008.98
547.01	2018.23
547.36	2026.81
547.72	2035.22
548.07	2043.31
548.43	2051.48
548.79	2059.46
549.14	2067.17
549.50	2074.47
549.86	2081.89
550.21	2089.20
550.57	2096.41
550.92	2103.06
551.28	2110.00
551.64	2116.94
551.99	2123.36
552.35	2129.52
552.70	2135.73
553.06	2141.66
553.41	2147.99
553.77	2153.91
554.13	2159.85
554.48	2166.00
554.84	2171.53
555.19	2176.80
555.55	2181.75
555.90	2186.17
556.26	2191.36
556.61	2195.79
556.97	2200.25
557.32	2204.44
557.68	2208.41
558.03	2212.62
558.39	2216.29
558.74	2220.76
559.10	2224.71
559.45	2228.32
559.81	2232.46
560.16	2236.21
560.52	2239.58
560.87	2243.02
561.23	2245.68
561.58	2248.60
561.94	2251.00
562.29	2253.25
562.64	2256.05
563.00	2258.62
563.35	2262.27
563.71	2265.31
564.06	2268.54
564.42	2271.39
564.77	2274.07
565.12	2276.56
565.48	2278.51
565.83	2280.49
566.19	2281.98
566.54	2282.85
566.89	2284.12
567.25	2284.86
567.60	2286.13
567.96	2287.88
568.31	2288.74
568.66	2290.01
569.02	2290.67
569.37	2291.09
569.72	2292.14
570.08	2292.40
570.43	2292.55
570.78	2291.96
571.14	2290.34
571.49	2289.10
571.84	2288.77
572.20	2287.78
572.55	2286.71
572.90	2285.12
573.26	2283.73
573.61	2281.94
573.96	2280.55
574.31	2277.77
574.67	2274.75
575.02	2271.18
575.37	2267.68
575.72	2263.97
576.08	2260.52
576.43	2257.21
576.78	2253.75
577.13	2250.38
577.49	2247.13
577.84	2243.76
578.19	2240.09
578.54	2236.79
578.90	2232.79
579.25	2227.36
579.60	2222.50
579.95	2217.67
580.30	2212.77
580.66	2207.73
581.01	2202.94
581.36	2197.95
581.71	2193.76
582.06	2189.45
582.42	2185.25
582.77	2180.08
583.12	2175.57
583.47	2171.24
583.82	2166.48
584.17	2161.32
584.53	2156.09
584.88	2150.58
585.23	2144.93
585.58	2139.59
585.93	2133.94
586.28	2129.07
586.63	2124.12
586.98	2118.99
587.34	2114.17
587.69	2109.26
588.04	2104.11
588.39	2098.54
588.74	2092.08
589.09	2086.01
589.44	2079.42
589.79	2073.24
590.14	2067.66
590.49	2061.11
590.84	2054.60
591.19	2048.53
591.54	2042.03
591.89	2034.83
592.25	2028.26
592.60	2021.18
592.95	2013.84
593.30	2006.78
593.65	1999.26
594.00	1992.17
594.35	1985.04
594.70	1976.99
595.05	1970.07
595.40	1962.78
595.75	1955.35
596.10	1949.39
596.45	1942.81
596.80	1936.55
597.15	1930.12
597.50	1923.32
597.85	1916.99
598.19	1910.47
598.54	1903.72
598.89	1897.23
599.24	1891.36
599.59	1884.89
599.94	1878.55
600.29	1872.10
600.64	1865.47
600.99	1858.11
601.34	1851.41
601.69	1844.41
602.04	1837.78
602.39	1830.37
602.74	1823.66
603.08	1816.98
603.43	1810.08
603.78	1802.68
604.13	1795.54
604.48	1788.40
604.83	1781.60
605.18	1774.80
605.53	1766.92
605.87	1758.73
606.22	1751.43
606.57	1743.40
606.92	1735.74
607.27	1728.84
607.62	1721.98
607.96	1714.80
608.31	1708.45
608.66	1700.91
609.01	1693.54
609.36	1686.05
609.70	1678.03
610.05	1669.99
610.40	1662.25
610.75	1654.10
611.10	1646.48
611.44	1638.15
611.79	1630.00
612.14	1621.27
612.49	1612.03
612.83	1603.54
613.18	1595.45
613.53	1587.38
613.88	1578.88
614.22	1570.71
614.57	1561.88
614.92	1553.84
615.27	1546.42
615.61	1537.97
615.96	1529.85
616.31	1522.05
616.65	1514.67
617.00	1507.31
617.35	1499.57
617.70	1491.38
618.04	1482.95
618.39	1474.79
618.74	1467.32
619.08	1459.10
619.43	1451.59
619.78	1444.71
620.12	1437.63
620.47	1430.10
620.82	1421.93
621.16	1414.54
621.51	1406.91
621.85	1399.30
622.20	1390.77
622.55	1382.40
622.89	1374.59
623.24	1366.94
623.59	1359.56
623.93	1351.97
624.28	1344.61
624.62	1337.20
624.97	1329.97
625.32	1323.05
625.66	1315.97
626.01	1308.77
626.35	1301.58
626.70	1293.82
627.04	1286.14
627.39	1278.42
627.73	1271.10
628.08	1264.26
628.43	1257.14
628.77	1249.98
629.12	1242.54
629.46	1235.40
629.81	1227.70
630.15	1220.46
630.50	1213.14
630.84	1205.01
631.19	1197.12
631.53	1189.62
631.88	1182.14
632.22	1174.50
632.57	1167.21
632.91	1159.68
633.26	1152.12
633.60	1144.58
633.95	1137.36
634.29	1130.17
634.64	1123.38
634.98	1116.07
635.32	1108.91
635.67	1102.17
636.01	1095.44
636.36	1088.70
636.70	1082.08
637.05	1075.72
637.39	1069.31
637.73	1062.82
638.08	1056.94
638.42	1050.94
638.77	1044.55
639.11	1037.99
639.45	1031.65
639.80	1025.06
640.14	1018.73
640.49	1012.28
640.83	1005.93
641.17	999.79
641.52	993.62
641.86	987.12
642.20	981.16
642.55	974.70
642.89	968.27
643.23	961.57
643.58	955.74
643.92	949.65
644.26	943.68
644.61	937.54
644.95	931.60
645.29	925.10
645.64	918.50
645.98	912.03
646.32	906.00
646.66	899.99
647.01	894.12
647.35	888.43
647.69	882.57
648.04	877.08
648.38	871.26
648.72	865.28
649.06	859.30
649.41	853.39
649.75	847.56
650.09	841.65
650.43	835.95
650.78	829.84
651.12	823.87
651.46	818.01
651.80	812.35
652.14	806.89
652.49	801.38
652.83	796.13
653.17	790.60
653.51	785.01
653.85	779.63
654.20	774.09
654.54	768.04
654.88	762.27
655.22	756.34
655.56	750.58
655.90	745.02
656.25	739.75
656.59	734.46
656.93	729.40
657.27	724.16
657.61	718.68
657.95	713.60
658.29	708.53
658.64	703.21
658.98	697.81
659.32	692.33
659.66	687.20
660.00	681.96
660.34	676.95
660.68	672.01
661.02	666.96
661.36	662.27
661.70	657.79
662.05	653.49
662.39	649.23
662.73	644.83
663.07	640.51
663.41	636.17
663.75	631.66
664.09	627.10
664.43	622.77
664.77	618.80
665.11	614.50
665.45	610.41
665.79	606.46
666.13	602.51
666.47	598.42
666.81	594.23
667.15	590.06
667.49	586.16
667.83	582.28
668.17	578.34
668.51	574.31
668.85	570.27
669.19	566.40
669.53	562.54
669.87	558.67
670.21	554.93
670.55	551.23
670.89	547.84
671.23	544.41
671.57	540.90
671.91	537.38
672.25	533.97
672.58	530.50
672.92	526.99
673.26	523.73
673.60	520.56
673.94	517.54
674.28	514.67
674.62	511.76
674.96	508.70
675.30	505.85
675.64	502.87
675.97	500.13
676.31	497.24
676.65	494.35
676.99	491.65
677.33	488.84
677.67	486.02
678.01	482.98
678.34	480.05
678.68	477.18
679.02	474.34
679.36	471.52
679.70	468.71
680.04	466.07
680.37	463.22
680.71	460.44
681.05	457.77
681.39	455.04
681.73	452.38
682.06	449.88
682.40	447.28
682.74	444.75
683.08	442.17
683.42	439.58
683.75	437.03
684.09	434.46
684.43	431.94
684.77	429.47
685.10	427.09
685.44	424.74
685.78	422.38
686.12	420.06
686.45	417.71
686.79	415.43
687.13	413.16
687.46	410.96
687.80	408.79
688.14	406.50
688.48	404.45
688.81	402.23
689.15	400.04
689.49	397.83
689.82	395.74
690.16	393.64
690.50	391.64
690.83	389.71
691.17	387.72
691.51	385.77
691.84	383.94
692.18	381.99
692.52	380.04
692.85	378.17
693.19	376.32
693.52	374.53
693.86	372.71
694.20	370.91
694.53	369.16
694.87	367.25
695.21	365.49
695.54	363.64
695.88	361.82
696.21	360.13
696.55	358.46
696.88	356.76
697.22	355.11
697.56	353.49
697.89	351.83
698.23	350.25
698.56	348.64
698.90	347.00
699.23	345.39
699.57	343.82
699.90	342.25
700.24	340.69
700.58	339.14
700.91	337.66
701.25	336.23
701.58	334.84
701.92	333.52
702.25	332.16
702.59	330.79
702.92	329.52
703.26	328.16
703.59	326.89
703.93	325.70
704.26	324.46
704.60	323.17
704.93	321.94
705.26	320.68
705.60	319.49
705.93	318.34
706.27	317.31
706.60	316.27
706.94	315.19
707.27	314.03
707.61	313.00
707.94	311.95
708.27	310.86
708.61	309.75
708.94	308.72
709.28	307.72
709.61	306.74
709.94	305.79
710.28	304.76
710.61	303.77
710.95	302.71
711.28	301.82
711.61	300.89
711.95	299.97
712.28	299.04
712.61	298.05
712.95	297.15
713.28	296.26
713.61	295.31
713.95	294.46
714.28	293.64
714.61	292.75
714.95	291.91
715.28	291.06
715.61	290.21
715.95	289.37
716.28	288.54
716.61	287.67
716.95	286.82
717.28	286.08
717.61	285.34
717.94	284.56
718.28	283.70
718.61	282.96
718.94	282.24
719.27	281.60
719.61	281.00
719.94	280.32
720.27	279.59
720.60	278.95
720.94	278.33
721.27	277.72
721.60	277.17
721.93	276.58
722.27	276.01
722.60	275.44
722.93	274.89
723.26	274.36
723.59	273.84
723.93	273.30
724.26	272.74
724.59	272.18
724.92	271.64
725.25	271.14
725.59	270.60
725.92	270.14
726.25	269.60
726.58	269.06
726.91	268.56
727.24	268.10
727.57	267.66
727.91	267.09
728.24	266.66
728.57	266.14
728.90	265.67
729.23	265.22
729.56	264.80
729.89	264.29
730.22	263.75
730.55	263.27
730.89	262.84
731.22	262.41
731.55	261.99
731.88	261.57
732.21	261.15
732.54	260.71
732.87	260.25
733.20	259.85
733.53	259.46
733.86	259.10
734.19	258.73
734.52	258.35
734.85	258.05
735.18	257.61
735.51	257.27
735.84	256.88
736.17	256.52
736.50	256.11
736.83	255.91
737.16	255.59
737.49	255.26
737.82	254.87
738.15	254.55
738.48	254.22
738.81	253.90
739.14	253.60
739.47	253.29
739.80	252.98
740.13	252.71
740.46	252.41
740.79	252.05
741.12	251.73
741.45	251.42
741.78	251.09
742.11	250.83
742.44	250.51
742.77	250.25
743.10	249.96
743.43	249.66
743.75	249.29
744.08	249.17
744.41	248.91
744.74	248.71
745.07	248.41
745.40	248.15
745.73	247.90
746.06	247.62
746.39	247.39
746.71	247.11
747.04	246.81
747.37	246.55
747.70	246.33
748.03	246.09
748.36	245.84
748.68	245.61
749.01	245.35
749.34	245.08
749.67	244.86
750.00	244.61
750.33	244.48
750.65	244.24
750.98	243.93
751.31	243.71
751.64	243.45
751.97	243.27
752.29	243.05
752.62	242.81
752.95	242.62
753.28	242.40
753.60	242.20
753.93	242.03
754.26	241.83
754.59	241.59
754.91	241.37
755.24	241.14
755.57	240.92
755.90	240.72
756.22	240.55
756.55	240.35
756.88	240.15
757.20	239.87
757.53	239.69
757.86	239.49
758.19	239.35
758.51	239.20
758.84	239.02
759.17	238.83
759.49	238.70
759.82	238.51
760.15	238.33
760.47	238.19
760.80	237.99
761.13	237.85
761.45	237.69
761.78	237.52
762.11	237.38
762.43	237.24
762.76	237.12
763.08	236.98
763.41	236.84
763.74	236.71
764.06	236.59
764.39	236.46
764.71	236.30
765.04	236.14
765.37	235.99
765.69	235.85
766.02	235.71
766.34	235.59
766.67	235.46
767.00	235.38
767.32	235.28
767.65	235.23
767.97	235.13
768.30	235.06
768.62	234.96
768.95	234.83
769.27	234.73
769.60	234.62
769.92	234.51
770.25	234.35
770.57	234.23
770.90	234.13
771.22	234.02
771.55	233.92
771.87	233.83
772.20	233.74
772.52	233.76
772.85	233.78
773.17	233.65
773.50	233.58
773.82	233.47
774.15	233.36
774.47	233.24
774.80	233.15
775.12	233.05
775.45	232.99
775.77	232.97
776.09	232.89
776.42	232.84
776.74	232.82
777.07	232.75
777.39	232.69
777.72	232.61
778.04	232.55
778.36	232.51
778.69	232.44
779.01	232.39
779.33	232.20
779.66	232.06
779.98	232.03
780.31	231.98
780.63	231.98
780.95	231.93
781.28	231.86
781.60	231.82
781.92	231.76
782.25	231.69
782.57	231.63
782.89	231.57
783.22	231.52
783.54	231.43
783.86	231.39
784.19	231.30
784.51	231.32
784.83	231.26
785.16	231.20
785.48	231.16
785.80	231.08
786.12	231.04
786.45	231.01
786.77	230.95
787.09	230.92
