SpectraSuite Data File
++++++++++++++++++++++++++++++++++++
Date: Fri Feb 01 17:16:56 EST 2013
User: group
Dark Spectrum Present: No
Reference Spectrum Present: No
Number of Sampled Component Spectra: 1
Spectrometers: USB2E7196
Integration Time (usec): 35000 (USB2E7196)
Spectra Averaged: 100 (USB2E7196)
Boxcar Smoothing: 10 (USB2E7196)
Correct for Electrical Dark: No (USB2E7196)
Strobe/Lamp Enabled: No (USB2E7196)
Correct for Detector Non-linearity: No (USB2E7196)
Correct for Stray Light: No (USB2E7196)
Number of Pixels in Processed Spectrum: 2048
>>>>>Begin Processed Spectral Data<<<<<
339.09	0.00
339.48	213.56
339.86	214.44
340.24	216.63
340.63	217.23
341.01	219.62
341.39	219.73
341.78	221.36
342.16	222.25
342.54	223.44
342.93	211.51
343.31	222.19
343.69	222.70
344.07	223.14
344.46	223.53
344.84	223.90
345.22	224.16
345.60	224.42
345.99	224.56
346.37	224.69
346.75	224.74
347.13	224.81
347.52	224.83
347.90	224.88
348.28	224.89
348.66	224.92
349.05	224.92
349.43	224.97
349.81	225.04
350.19	225.07
350.57	225.12
350.96	225.19
351.34	225.27
351.72	225.35
352.10	225.50
352.48	225.57
352.87	225.64
353.25	225.69
353.63	225.76
354.01	225.86
354.39	225.97
354.77	226.07
355.15	226.18
355.54	226.28
355.92	226.31
356.30	226.38
356.68	226.51
357.06	226.57
357.44	226.63
357.82	226.69
358.20	226.79
358.58	226.83
358.97	226.87
359.35	226.96
359.73	227.05
360.11	227.07
360.49	227.12
360.87	227.18
361.25	227.26
361.63	227.32
362.01	227.37
362.39	227.40
362.77	227.44
363.15	227.46
363.53	227.50
363.91	227.53
364.29	227.60
364.67	227.53
365.05	227.56
365.43	227.61
365.81	227.66
366.19	227.67
366.57	227.71
366.95	227.76
367.33	227.75
367.71	227.74
368.09	227.77
368.47	227.77
368.85	227.76
369.23	227.74
369.61	227.72
369.99	227.72
370.37	227.70
370.75	227.73
371.13	227.69
371.51	227.64
371.89	227.63
372.27	227.58
372.65	227.54
373.03	227.52
373.41	227.47
373.78	227.40
374.16	227.30
374.54	227.24
374.92	227.16
375.30	227.10
375.68	227.04
376.06	226.99
376.44	226.91
376.82	226.82
377.19	226.77
377.57	226.67
377.95	226.57
378.33	226.47
378.71	226.31
379.09	226.28
379.47	226.22
379.84	226.13
380.22	226.05
380.60	225.96
380.98	225.89
381.36	225.79
381.73	225.72
382.11	225.67
382.49	225.60
382.87	225.51
383.25	225.41
383.62	225.45
384.00	225.37
384.38	225.31
384.76	225.30
385.13	225.27
385.51	225.21
385.89	225.16
386.27	225.16
386.64	225.14
387.02	225.07
387.40	225.02
387.78	225.01
388.15	224.95
388.53	224.91
388.91	224.87
389.29	224.84
389.66	224.81
390.04	224.76
390.42	224.78
390.79	224.77
391.17	224.79
391.55	224.66
391.92	224.63
392.30	224.60
392.68	224.57
393.05	224.57
393.43	224.60
393.81	224.60
394.18	224.57
394.56	224.59
394.94	224.59
395.31	224.60
395.69	224.63
396.06	224.67
396.44	224.71
396.82	224.74
397.19	224.81
397.57	224.86
397.95	224.95
398.32	224.93
398.70	224.96
399.07	225.02
399.45	225.07
399.82	225.14
400.20	225.20
400.58	225.27
400.95	225.29
401.33	225.37
401.70	225.54
402.08	225.64
402.45	225.73
402.83	225.84
403.20	225.97
403.58	226.05
403.95	226.17
404.33	226.27
404.71	226.38
405.08	226.55
405.46	226.66
405.83	226.78
406.21	226.93
406.58	227.11
406.96	227.26
407.33	227.44
407.70	227.61
408.08	227.89
408.45	228.12
408.83	228.37
409.20	228.56
409.58	228.71
409.95	228.96
410.33	229.24
410.70	229.50
411.08	229.77
411.45	230.13
411.82	230.43
412.20	230.83
412.57	231.26
412.95	231.55
413.32	232.01
413.69	232.45
414.07	232.89
414.44	233.35
414.82	233.88
415.19	234.46
415.56	235.04
415.94	235.62
416.31	236.24
416.68	236.86
417.06	237.59
417.43	238.31
417.81	239.12
418.18	239.90
418.55	240.76
418.93	241.64
419.30	242.53
419.67	243.49
420.04	244.48
420.42	245.47
420.79	246.71
421.16	247.83
421.54	249.05
421.91	250.32
422.28	251.60
422.66	252.92
423.03	254.22
423.40	255.60
423.77	257.03
424.15	258.53
424.52	260.05
424.89	261.69
425.26	263.27
425.64	264.73
426.01	266.39
426.38	268.11
426.75	269.83
427.13	271.59
427.50	273.48
427.87	275.36
428.24	277.24
428.61	279.02
428.99	281.03
429.36	283.16
429.73	285.25
430.10	287.30
430.47	289.41
430.85	291.59
431.22	293.87
431.59	296.30
431.96	298.57
432.33	301.10
432.70	303.55
433.08	306.43
433.45	309.13
433.82	311.75
434.19	314.72
434.56	317.57
434.93	320.33
435.30	323.01
435.68	325.99
436.05	328.96
436.42	331.80
436.79	334.36
437.16	337.19
437.53	340.06
437.90	342.95
438.27	345.75
438.64	348.64
439.01	351.30
439.38	353.60
439.75	355.82
440.13	358.41
440.50	360.84
440.87	362.73
441.24	364.73
441.61	367.01
441.98	368.55
442.35	370.45
442.72	372.37
443.09	374.20
443.46	375.22
443.83	375.82
444.20	376.38
444.57	377.29
444.94	377.54
445.31	377.94
445.68	378.40
446.05	378.53
446.42	378.16
446.79	377.75
447.16	377.31
447.53	377.06
447.90	375.90
448.27	374.75
448.64	373.18
449.01	372.05
449.37	370.06
449.74	368.12
450.11	365.82
450.48	363.27
450.85	360.74
451.22	358.60
451.59	356.55
451.96	354.57
452.33	351.91
452.70	349.52
453.07	346.71
453.43	343.72
453.80	340.87
454.17	338.16
454.54	335.59
454.91	332.82
455.28	330.04
455.65	327.49
456.02	324.98
456.38	322.78
456.75	320.05
457.12	317.74
457.49	315.46
457.86	313.25
458.23	311.37
458.59	309.29
458.96	307.18
459.33	305.27
459.70	303.37
460.07	301.82
460.43	300.09
460.80	298.37
461.17	296.88
461.54	295.38
461.91	293.90
462.27	292.37
462.64	291.09
463.01	289.72
463.38	288.39
463.74	286.97
464.11	285.75
464.48	284.67
464.85	283.52
465.21	282.61
465.58	281.67
465.95	280.51
466.32	279.54
466.68	278.58
467.05	277.65
467.42	276.73
467.78	275.80
468.15	274.89
468.52	274.21
468.88	273.36
469.25	272.53
469.62	271.91
469.98	271.21
470.35	270.57
470.72	269.91
471.08	269.25
471.45	268.69
471.82	268.15
472.18	267.56
472.55	267.10
472.92	266.56
473.28	266.05
473.65	265.63
474.02	265.21
474.38	264.83
474.75	264.50
475.11	264.14
475.48	263.85
475.85	263.61
476.21	263.36
476.58	263.16
476.94	263.00
477.31	262.83
477.67	262.68
478.04	262.57
478.41	262.53
478.77	262.55
479.14	262.48
479.50	262.50
479.87	262.60
480.23	262.69
480.60	262.77
480.96	262.87
481.33	263.05
481.69	263.26
482.06	263.48
482.42	263.67
482.79	263.90
483.15	264.22
483.52	264.62
483.88	264.94
484.25	265.35
484.61	265.83
484.98	266.28
485.34	266.87
485.71	267.44
486.07	268.06
486.44	268.68
486.80	269.39
487.17	270.06
487.53	270.83
487.90	271.71
488.26	272.65
488.62	273.62
488.99	274.58
489.35	275.59
489.72	276.66
490.08	277.88
490.44	279.13
490.81	280.45
491.17	281.75
491.54	283.24
491.90	284.76
492.26	286.36
492.63	288.06
492.99	289.84
493.36	291.73
493.72	293.75
494.08	295.78
494.45	298.03
494.81	300.41
495.17	302.86
495.54	305.39
495.90	308.03
496.26	310.82
496.63	313.76
496.99	316.87
497.35	320.16
497.72	323.51
498.08	327.02
498.44	330.66
498.80	334.61
499.17	338.66
499.53	342.84
499.89	347.20
500.26	351.73
500.62	356.42
500.98	361.32
501.34	366.34
501.71	371.66
502.07	377.03
502.43	382.67
502.79	388.42
503.16	394.42
503.52	400.65
503.88	407.06
504.24	413.65
504.60	420.44
504.97	427.52
505.33	434.79
505.69	442.42
506.05	450.16
506.41	457.96
506.78	466.00
507.14	474.34
507.50	482.96
507.86	491.89
508.22	500.92
508.59	510.09
508.95	519.59
509.31	529.27
509.67	539.28
510.03	549.31
510.39	559.69
510.75	570.36
511.12	581.13
511.48	592.24
511.84	603.57
512.20	614.95
512.56	626.67
512.92	638.63
513.28	650.86
513.64	663.13
514.00	675.61
514.37	688.37
514.73	701.20
515.09	713.99
515.45	727.03
515.81	740.42
516.17	754.03
516.53	767.96
516.89	781.88
517.25	795.77
517.61	810.03
517.97	824.30
518.33	838.44
518.69	852.97
519.05	867.63
519.41	882.51
519.77	897.66
520.13	912.76
520.49	927.90
520.85	942.93
521.21	958.25
521.57	974.15
521.93	989.58
522.29	1005.52
522.65	1021.43
523.01	1037.25
523.37	1052.93
523.73	1068.81
524.09	1084.46
524.45	1100.33
524.81	1116.65
525.17	1132.98
525.53	1149.40
525.89	1165.89
526.25	1182.36
526.61	1198.39
526.97	1214.72
527.33	1230.96
527.68	1247.20
528.04	1263.28
528.40	1279.48
528.76	1296.26
529.12	1312.47
529.48	1329.07
529.84	1344.81
530.20	1361.14
530.56	1377.72
530.91	1394.69
531.27	1411.16
531.63	1427.34
531.99	1443.62
532.35	1459.37
532.71	1475.06
533.07	1491.14
533.42	1506.75
533.78	1522.56
534.14	1538.54
534.50	1553.65
534.86	1569.25
535.21	1584.28
535.57	1599.92
535.93	1615.10
536.29	1629.55
536.65	1644.40
537.00	1658.81
537.36	1673.92
537.72	1688.21
538.08	1702.51
538.44	1716.12
538.79	1729.81
539.15	1743.23
539.51	1756.83
539.87	1770.94
540.22	1784.51
540.58	1797.98
540.94	1811.01
541.29	1823.53
541.65	1836.13
542.01	1849.17
542.37	1861.39
542.72	1873.66
543.08	1885.53
543.44	1897.96
543.79	1909.27
544.15	1920.17
544.51	1931.75
544.87	1942.69
545.22	1953.56
545.58	1963.85
545.94	1973.85
546.29	1983.81
546.65	1993.68
547.01	2003.08
547.36	2011.81
547.72	2020.32
548.07	2028.42
548.43	2036.79
548.79	2044.83
549.14	2052.65
549.50	2060.02
549.86	2067.65
550.21	2075.07
550.57	2082.22
550.92	2088.99
551.28	2096.18
551.64	2103.42
551.99	2109.97
552.35	2116.25
552.70	2122.46
553.06	2128.61
553.41	2135.01
553.77	2140.92
554.13	2147.15
554.48	2153.38
554.84	2159.20
555.19	2164.54
555.55	2169.85
555.90	2174.71
556.26	2180.10
556.61	2184.97
556.97	2189.77
557.32	2194.26
557.68	2198.78
558.03	2203.17
558.39	2206.99
558.74	2211.65
559.10	2215.72
559.45	2219.78
559.81	2224.20
560.16	2228.45
560.52	2232.00
560.87	2235.58
561.23	2238.78
561.58	2242.08
561.94	2244.93
562.29	2247.30
562.64	2250.60
563.00	2253.46
563.35	2257.26
563.71	2260.52
564.06	2263.75
564.42	2266.88
564.77	2269.73
565.12	2272.34
565.48	2274.69
565.83	2277.03
566.19	2278.97
566.54	2280.12
566.89	2281.54
567.25	2282.69
567.60	2284.19
567.96	2286.20
568.31	2287.48
568.66	2288.86
569.02	2289.65
569.37	2290.24
569.72	2291.52
570.08	2291.94
570.43	2292.21
570.78	2291.93
571.14	2290.81
571.49	2289.73
571.84	2289.48
572.20	2288.62
572.55	2287.82
572.90	2286.49
573.26	2285.37
573.61	2283.85
573.96	2282.71
574.31	2280.15
574.67	2277.45
575.02	2274.08
575.37	2270.90
575.72	2267.51
576.08	2264.36
576.43	2261.22
576.78	2258.00
577.13	2255.04
577.49	2252.02
577.84	2248.91
578.19	2245.35
578.54	2242.16
578.90	2238.53
579.25	2233.34
579.60	2228.70
579.95	2224.01
580.30	2219.31
580.66	2214.32
581.01	2209.44
581.36	2204.68
581.71	2200.74
582.06	2196.64
582.42	2192.52
582.77	2187.50
583.12	2183.20
583.47	2179.01
583.82	2174.51
584.17	2169.53
584.53	2164.31
584.88	2158.91
585.23	2153.33
585.58	2148.09
585.93	2142.72
586.28	2137.86
586.63	2133.09
586.98	2128.24
587.34	2123.73
587.69	2119.05
588.04	2114.23
588.39	2108.88
588.74	2102.61
589.09	2096.71
589.44	2090.06
589.79	2084.08
590.14	2078.67
590.49	2072.08
590.84	2065.71
591.19	2059.83
591.54	2053.45
591.89	2046.62
592.25	2040.24
592.60	2033.24
592.95	2025.86
593.30	2018.66
593.65	2011.35
594.00	2004.49
594.35	1997.33
594.70	1989.30
595.05	1982.43
595.40	1975.14
595.75	1967.77
596.10	1961.74
596.45	1955.08
596.80	1949.04
597.15	1942.54
597.50	1935.93
597.85	1929.69
598.19	1923.22
598.54	1916.39
598.89	1909.85
599.24	1903.70
599.59	1897.29
599.94	1891.11
600.29	1884.81
600.64	1878.25
600.99	1871.10
601.34	1864.22
601.69	1857.24
602.04	1850.55
602.39	1843.30
602.74	1836.64
603.08	1830.09
603.43	1823.34
603.78	1816.10
604.13	1808.92
604.48	1801.87
604.83	1794.85
605.18	1788.08
605.53	1780.20
605.87	1772.03
606.22	1764.86
606.57	1756.96
606.92	1749.25
607.27	1742.30
607.62	1735.56
607.96	1728.49
608.31	1721.97
608.66	1714.52
609.01	1707.20
609.36	1699.59
609.70	1691.48
610.05	1683.45
610.40	1675.68
610.75	1667.41
611.10	1659.74
611.44	1651.26
611.79	1643.09
612.14	1634.45
612.49	1625.04
612.83	1616.43
613.18	1608.25
613.53	1600.07
613.88	1591.52
614.22	1583.20
614.57	1574.40
614.92	1566.28
615.27	1558.64
615.61	1550.23
615.96	1542.15
616.31	1534.38
616.65	1527.00
617.00	1519.34
617.35	1511.42
617.70	1503.19
618.04	1494.60
618.39	1486.20
618.74	1478.62
619.08	1470.30
619.43	1462.56
619.78	1455.50
620.12	1448.35
620.47	1440.75
620.82	1432.41
621.16	1424.76
621.51	1417.12
621.85	1409.37
622.20	1400.76
622.55	1392.17
622.89	1384.04
623.24	1376.25
623.59	1368.55
623.93	1360.86
624.28	1353.51
624.62	1345.99
624.97	1338.65
625.32	1331.64
625.66	1324.50
626.01	1317.19
626.35	1309.84
626.70	1301.97
627.04	1294.35
627.39	1286.41
627.73	1278.90
628.08	1272.09
628.43	1265.01
628.77	1257.68
629.12	1250.18
629.46	1243.00
629.81	1235.42
630.15	1228.17
630.50	1220.76
630.84	1212.59
631.19	1204.54
631.53	1196.88
631.88	1189.23
632.22	1181.51
632.57	1174.20
632.91	1166.71
633.26	1159.29
633.60	1151.70
633.95	1144.39
634.29	1137.15
634.64	1130.43
634.98	1123.13
635.32	1115.82
635.67	1109.03
636.01	1102.20
636.36	1095.34
636.70	1088.68
637.05	1082.19
637.39	1075.66
637.73	1069.14
638.08	1063.31
638.42	1057.29
638.77	1050.86
639.11	1044.33
639.45	1037.92
639.80	1031.26
640.14	1024.90
640.49	1018.34
640.83	1012.00
641.17	1005.77
641.52	999.50
641.86	992.96
642.20	987.07
642.55	980.68
642.89	974.20
643.23	967.58
643.58	961.69
643.92	955.47
644.26	949.50
644.61	943.40
644.95	937.34
645.29	930.74
645.64	924.00
645.98	917.67
646.32	911.60
646.66	905.54
647.01	899.62
647.35	893.86
647.69	887.99
648.04	882.38
648.38	876.65
648.72	870.66
649.06	864.65
649.41	858.63
649.75	852.70
650.09	846.68
650.43	840.93
650.78	834.82
651.12	828.82
651.46	822.95
651.80	817.24
652.14	811.76
652.49	806.32
652.83	801.17
653.17	795.54
653.51	789.91
653.85	784.41
654.20	778.86
654.54	772.76
654.88	766.85
655.22	760.93
655.56	755.11
655.90	749.52
656.25	744.22
656.59	738.95
656.93	733.72
657.27	728.64
657.61	723.11
657.95	717.96
658.29	712.81
658.64	707.49
658.98	702.14
659.32	696.60
659.66	691.40
660.00	686.04
660.34	680.98
660.68	676.04
661.02	670.97
661.36	666.23
661.70	661.74
662.05	657.49
662.39	653.22
662.73	648.69
663.07	644.26
663.41	639.81
663.75	635.22
664.09	630.70
664.43	626.17
664.77	622.09
665.11	617.82
665.45	613.68
665.79	609.59
666.13	605.47
666.47	601.34
666.81	597.10
667.15	592.89
667.49	588.93
667.83	584.99
668.17	581.06
668.51	576.97
668.85	572.79
669.19	568.80
669.53	564.92
669.87	561.15
670.21	557.39
670.55	553.66
670.89	550.23
671.23	546.76
671.57	543.26
671.91	539.67
672.25	536.10
672.58	532.58
672.92	529.08
673.26	525.85
673.60	522.69
673.94	519.62
674.28	516.71
674.62	513.77
674.96	510.65
675.30	507.70
675.64	504.79
675.97	501.96
676.31	499.06
676.65	496.10
676.99	493.33
677.33	490.52
677.67	487.73
678.01	484.65
678.34	481.73
678.68	478.80
679.02	476.00
679.36	473.21
679.70	470.42
680.04	467.68
680.37	464.85
680.71	462.03
681.05	459.34
681.39	456.58
681.73	453.89
682.06	451.40
682.40	448.89
682.74	446.30
683.08	443.78
683.42	441.17
683.75	438.63
684.09	436.03
684.43	433.53
684.77	431.10
685.10	428.74
685.44	426.37
685.78	424.09
686.12	421.80
686.45	419.51
686.79	417.26
687.13	415.02
687.46	412.83
687.80	410.65
688.14	408.46
688.48	406.43
688.81	404.21
689.15	402.02
689.49	399.78
689.82	397.67
690.16	395.56
690.50	393.57
690.83	391.66
691.17	389.64
691.51	387.70
691.84	385.81
692.18	383.86
692.52	381.88
692.85	379.91
693.19	378.00
693.52	376.15
693.86	374.24
694.20	372.45
694.53	370.66
694.87	368.82
695.21	366.99
695.54	365.12
695.88	363.35
696.21	361.56
696.55	359.88
696.88	358.16
697.22	356.46
697.56	354.85
697.89	353.14
698.23	351.57
698.56	349.94
698.90	348.32
699.23	346.69
699.57	345.15
699.90	343.59
700.24	342.02
700.58	340.50
700.91	339.04
701.25	337.57
701.58	336.10
701.92	334.69
702.25	333.32
702.59	331.91
702.92	330.57
703.26	329.28
703.59	328.01
703.93	326.82
704.26	325.59
704.60	324.27
704.93	322.96
705.26	321.65
705.60	320.43
705.93	319.22
706.27	318.16
706.60	317.04
706.94	315.95
707.27	314.80
707.61	313.69
707.94	312.66
708.27	311.57
708.61	310.46
708.94	309.40
709.28	308.37
709.61	307.40
709.94	306.40
710.28	305.33
710.61	304.33
710.95	303.24
711.28	302.29
711.61	301.30
711.95	300.37
712.28	299.43
712.61	298.46
712.95	297.53
713.28	296.60
713.61	295.69
713.95	294.79
714.28	293.93
714.61	293.02
714.95	292.15
715.28	291.29
715.61	290.45
715.95	289.59
716.28	288.70
716.61	287.85
716.95	287.06
717.28	286.32
717.61	285.48
717.94	284.72
718.28	283.89
718.61	283.15
718.94	282.44
719.27	281.74
719.61	281.06
719.94	280.37
720.27	279.65
720.60	279.01
720.94	278.33
721.27	277.76
721.60	277.19
721.93	276.59
722.27	275.98
722.60	275.45
722.93	274.86
723.26	274.35
723.59	273.79
723.93	273.21
724.26	272.65
724.59	272.06
724.92	271.53
725.25	271.03
725.59	270.54
725.92	270.00
726.25	269.50
726.58	269.00
726.91	268.50
727.24	268.01
727.57	267.49
727.91	266.96
728.24	266.45
728.57	265.95
728.90	265.44
729.23	264.93
729.56	264.46
729.89	263.99
730.22	263.49
730.55	263.01
730.89	262.57
731.22	262.11
731.55	261.68
731.88	261.22
732.21	260.74
732.54	260.29
732.87	259.87
733.20	259.49
733.53	259.08
733.86	258.71
734.19	258.29
734.52	257.88
734.85	257.55
735.18	257.13
735.51	256.77
735.84	256.41
736.17	256.11
736.50	255.69
736.83	255.44
737.16	255.12
737.49	254.75
737.82	254.37
738.15	254.06
738.48	253.73
738.81	253.41
739.14	253.08
739.47	252.76
739.80	252.46
740.13	252.13
740.46	251.81
740.79	251.46
741.12	251.16
741.45	250.86
741.78	250.55
742.11	250.27
742.44	249.91
742.77	249.60
743.10	249.28
743.43	248.99
743.75	248.61
744.08	248.44
744.41	248.21
744.74	247.94
745.07	247.65
745.40	247.44
745.73	247.21
746.06	246.96
746.39	246.72
746.71	246.44
747.04	246.18
747.37	245.91
747.70	245.67
748.03	245.42
748.36	245.23
748.68	244.98
749.01	244.72
749.34	244.57
749.67	244.34
750.00	244.13
750.33	243.96
750.65	243.77
750.98	243.44
751.31	243.20
751.64	242.98
751.97	242.80
752.29	242.58
752.62	242.30
752.95	242.12
753.28	241.88
753.60	241.70
753.93	241.53
754.26	241.35
754.59	241.11
754.91	240.91
755.24	240.67
755.57	240.47
755.90	240.27
756.22	240.01
756.55	239.83
756.88	239.57
757.20	239.32
757.53	239.09
757.86	238.93
758.19	238.78
758.51	238.62
758.84	238.42
759.17	238.23
759.49	238.07
759.82	237.92
760.15	237.76
760.47	237.59
760.80	237.38
761.13	237.23
761.45	237.11
761.78	236.96
762.11	236.79
762.43	236.67
762.76	236.55
763.08	236.43
763.41	236.34
763.74	236.24
764.06	236.12
764.39	236.00
764.71	235.86
765.04	235.70
765.37	235.54
765.69	235.41
766.02	235.29
766.34	235.17
766.67	235.04
767.00	234.92
767.32	234.82
767.65	234.79
767.97	234.67
768.30	234.56
768.62	234.45
768.95	234.36
769.27	234.24
769.60	234.14
769.92	234.04
770.25	233.87
770.57	233.73
770.90	233.63
771.22	233.50
771.55	233.39
771.87	233.29
772.20	233.21
772.52	233.21
772.85	233.22
773.17	233.12
773.50	232.99
773.82	232.89
774.15	232.77
774.47	232.62
774.80	232.54
775.12	232.45
775.45	232.35
775.77	232.27
776.09	232.22
776.42	232.14
776.74	232.10
777.07	232.05
777.39	231.99
777.72	231.91
778.04	231.86
778.36	231.78
778.69	231.71
779.01	231.61
779.33	231.44
779.66	231.27
779.98	231.21
780.31	231.19
780.63	231.19
780.95	231.19
781.28	231.11
781.60	231.02
781.92	230.96
782.25	230.90
782.57	230.84
782.89	230.74
783.22	230.66
783.54	230.55
783.86	230.50
784.19	230.43
784.51	230.41
784.83	230.33
785.16	230.27
785.48	230.23
785.80	230.21
786.12	230.17
786.45	230.15
786.77	230.13
787.09	230.04
