SpectraSuite Data File
++++++++++++++++++++++++++++++++++++
Date: Fri Feb 01 16:19:28 EST 2013
User: group
Dark Spectrum Present: No
Reference Spectrum Present: No
Number of Sampled Component Spectra: 1
Spectrometers: USB2E7196
Integration Time (usec): 35000 (USB2E7196)
Spectra Averaged: 100 (USB2E7196)
Boxcar Smoothing: 10 (USB2E7196)
Correct for Electrical Dark: No (USB2E7196)
Strobe/Lamp Enabled: No (USB2E7196)
Correct for Detector Non-linearity: No (USB2E7196)
Correct for Stray Light: No (USB2E7196)
Number of Pixels in Processed Spectrum: 2048
>>>>>Begin Processed Spectral Data<<<<<
339.09	0.00
339.48	214.01
339.86	215.35
340.24	216.96
340.63	218.69
341.01	220.85
341.39	221.16
341.78	221.71
342.16	223.23
342.54	223.79
342.93	212.46
343.31	223.19
343.69	223.74
344.07	224.20
344.46	224.63
344.84	224.99
345.22	225.26
345.60	225.51
345.99	225.75
346.37	225.88
346.75	225.98
347.13	226.02
347.52	226.10
347.90	226.21
348.28	226.24
348.66	226.26
349.05	226.26
349.43	226.26
349.81	226.30
350.19	226.36
350.57	226.41
350.96	226.53
351.34	226.63
351.72	226.72
352.10	226.85
352.48	226.90
352.87	226.97
353.25	226.99
353.63	227.06
354.01	227.07
354.39	227.16
354.77	227.26
355.15	227.39
355.54	227.45
355.92	227.46
356.30	227.52
356.68	227.63
357.06	227.70
357.44	227.78
357.82	227.86
358.20	227.92
358.58	227.98
358.97	228.02
359.35	228.08
359.73	228.15
360.11	228.19
360.49	228.26
360.87	228.31
361.25	228.38
361.63	228.43
362.01	228.53
362.39	228.55
362.77	228.55
363.15	228.57
363.53	228.58
363.91	228.61
364.29	228.64
364.67	228.58
365.05	228.62
365.43	228.64
365.81	228.61
366.19	228.64
366.57	228.66
366.95	228.64
367.33	228.61
367.71	228.61
368.09	228.59
368.47	228.55
368.85	228.52
369.23	228.52
369.61	228.48
369.99	228.45
370.37	228.42
370.75	228.47
371.13	228.41
371.51	228.33
371.89	228.30
372.27	228.24
372.65	228.22
373.03	228.15
373.41	228.08
373.78	228.02
374.16	227.93
374.54	227.84
374.92	227.76
375.30	227.69
375.68	227.58
376.06	227.53
376.44	227.48
376.82	227.43
377.19	227.32
377.57	227.22
377.95	227.16
378.33	227.09
378.71	226.94
379.09	226.87
379.47	226.83
379.84	226.72
380.22	226.65
380.60	226.55
380.98	226.44
381.36	226.38
381.73	226.31
382.11	226.27
382.49	226.22
382.87	226.16
383.25	226.11
383.62	226.20
384.00	226.11
384.38	226.04
384.76	225.99
385.13	226.01
385.51	225.96
385.89	225.89
386.27	225.86
386.64	225.88
387.02	225.88
387.40	225.84
387.78	225.84
388.15	225.79
388.53	225.72
388.91	225.75
389.29	225.73
389.66	225.69
390.04	225.66
390.42	225.65
390.79	225.65
391.17	225.65
391.55	225.51
391.92	225.51
392.30	225.51
392.68	225.50
393.05	225.48
393.43	225.52
393.81	225.50
394.18	225.49
394.56	225.46
394.94	225.46
395.31	225.45
395.69	225.52
396.06	225.60
396.44	225.69
396.82	225.69
397.19	225.76
397.57	225.82
397.95	225.90
398.32	225.91
398.70	225.98
399.07	226.04
399.45	226.09
399.82	226.16
400.20	226.22
400.58	226.32
400.95	226.37
401.33	226.44
401.70	226.60
402.08	226.68
402.45	226.79
402.83	226.89
403.20	227.01
403.58	227.08
403.95	227.18
404.33	227.31
404.71	227.45
405.08	227.61
405.46	227.77
405.83	227.90
406.21	228.06
406.58	228.21
406.96	228.36
407.33	228.51
407.70	228.71
408.08	228.96
408.45	229.16
408.83	229.42
409.20	229.63
409.58	229.84
409.95	230.11
410.33	230.39
410.70	230.63
411.08	230.93
411.45	231.22
411.82	231.52
412.20	231.88
412.57	232.31
412.95	232.59
413.32	232.97
413.69	233.36
414.07	233.80
414.44	234.25
414.82	234.71
415.19	235.27
415.56	235.79
415.94	236.35
416.31	236.97
416.68	237.55
417.06	238.27
417.43	238.93
417.81	239.69
418.18	240.46
418.55	241.28
418.93	242.15
419.30	243.03
419.67	244.01
420.04	244.94
420.42	245.92
420.79	247.11
421.16	248.26
421.54	249.46
421.91	250.65
422.28	251.90
422.66	253.26
423.03	254.59
423.40	255.96
423.77	257.36
424.15	258.77
424.52	260.26
424.89	261.88
425.26	263.42
425.64	264.87
426.01	266.44
426.38	268.11
426.75	269.77
427.13	271.50
427.50	273.27
427.87	275.14
428.24	276.97
428.61	278.70
428.99	280.64
429.36	282.70
429.73	284.76
430.10	286.80
430.47	288.80
430.85	290.89
431.22	293.10
431.59	295.46
431.96	297.74
432.33	300.21
432.70	302.57
433.08	305.44
433.45	308.11
433.82	310.73
434.19	313.62
434.56	316.42
434.93	319.05
435.30	321.63
435.68	324.57
436.05	327.43
436.42	330.21
436.79	332.76
437.16	335.48
437.53	338.32
437.90	341.16
438.27	343.95
438.64	346.79
439.01	349.38
439.38	351.63
439.75	353.80
440.13	356.29
440.50	358.59
440.87	360.40
441.24	362.35
441.61	364.51
441.98	366.00
442.35	367.81
442.72	369.69
443.09	371.55
443.46	372.49
443.83	373.09
444.20	373.57
444.57	374.40
444.94	374.67
445.31	375.05
445.68	375.40
446.05	375.47
446.42	375.10
446.79	374.74
447.16	374.29
447.53	373.94
447.90	372.80
448.27	371.63
448.64	370.03
449.01	368.85
449.37	366.91
449.74	365.01
450.11	362.82
450.48	360.34
450.85	357.78
451.22	355.65
451.59	353.59
451.96	351.67
452.33	349.06
452.70	346.72
453.07	343.80
453.43	340.90
453.80	338.13
454.17	335.44
454.54	332.83
454.91	330.13
455.28	327.46
455.65	324.98
456.02	322.60
456.38	320.44
456.75	317.82
457.12	315.55
457.49	313.32
457.86	311.09
458.23	309.25
458.59	307.22
458.96	305.12
459.33	303.30
459.70	301.49
460.07	299.98
460.43	298.28
460.80	296.69
461.17	295.24
461.54	293.75
461.91	292.34
462.27	290.93
462.64	289.65
463.01	288.29
463.38	287.02
463.74	285.63
464.11	284.45
464.48	283.39
464.85	282.24
465.21	281.38
465.58	280.47
465.95	279.34
466.32	278.46
466.68	277.57
467.05	276.65
467.42	275.68
467.78	274.78
468.15	273.88
468.52	273.24
468.88	272.37
469.25	271.55
469.62	270.91
469.98	270.21
470.35	269.57
470.72	268.98
471.08	268.27
471.45	267.70
471.82	267.18
472.18	266.60
472.55	266.18
472.92	265.65
473.28	265.21
473.65	264.79
474.02	264.33
474.38	264.00
474.75	263.65
475.11	263.35
475.48	263.06
475.85	262.83
476.21	262.58
476.58	262.43
476.94	262.33
477.31	262.16
477.67	262.01
478.04	261.89
478.41	261.86
478.77	261.93
479.14	261.88
479.50	261.89
479.87	262.01
480.23	262.09
480.60	262.15
480.96	262.23
481.33	262.45
481.69	262.63
482.06	262.81
482.42	263.05
482.79	263.28
483.15	263.61
483.52	263.98
483.88	264.34
484.25	264.73
484.61	265.17
484.98	265.65
485.34	266.23
485.71	266.87
486.07	267.47
486.44	268.06
486.80	268.79
487.17	269.53
487.53	270.33
487.90	271.21
488.26	272.14
488.62	273.16
488.99	274.15
489.35	275.22
489.72	276.33
490.08	277.51
490.44	278.79
490.81	280.15
491.17	281.54
491.54	283.07
491.90	284.63
492.26	286.30
492.63	288.04
492.99	289.79
493.36	291.70
493.72	293.73
494.08	295.88
494.45	298.15
494.81	300.55
495.17	302.98
495.54	305.56
495.90	308.29
496.26	311.06
496.63	314.04
496.99	317.17
497.35	320.44
497.72	323.91
498.08	327.42
498.44	331.12
498.80	335.04
499.17	339.11
499.53	343.30
499.89	347.68
500.26	352.19
500.62	356.91
500.98	361.87
501.34	366.96
501.71	372.20
502.07	377.64
502.43	383.26
502.79	389.11
503.16	395.17
503.52	401.45
503.88	407.89
504.24	414.56
504.60	421.45
504.97	428.61
505.33	435.92
505.69	443.60
506.05	451.37
506.41	459.28
506.78	467.39
507.14	475.83
507.50	484.48
507.86	493.55
508.22	502.78
508.59	512.03
508.95	521.66
509.31	531.52
509.67	541.66
510.03	551.97
510.39	562.52
510.75	573.36
511.12	584.24
511.48	595.53
511.84	606.95
512.20	618.48
512.56	630.44
512.92	642.62
513.28	655.01
513.64	667.44
514.00	680.20
514.37	693.15
514.73	706.26
515.09	719.33
515.45	732.58
515.81	746.19
516.17	760.14
516.53	774.24
516.89	788.41
517.25	802.52
517.61	816.90
517.97	831.36
518.33	845.72
518.69	860.44
519.05	875.44
519.41	890.60
519.77	906.17
520.13	921.55
520.49	936.84
520.85	952.18
521.21	967.94
521.57	984.09
521.93	999.82
522.29	1016.12
522.65	1032.32
523.01	1048.51
523.37	1064.57
523.73	1080.63
524.09	1096.65
524.45	1112.84
524.81	1129.43
525.17	1146.17
525.53	1162.94
525.89	1179.86
526.25	1196.69
526.61	1212.95
526.97	1229.58
527.33	1245.95
527.68	1262.58
528.04	1279.06
528.40	1295.67
528.76	1312.60
529.12	1329.17
529.48	1345.95
529.84	1361.92
530.20	1378.59
530.56	1395.64
530.91	1412.90
531.27	1429.65
531.63	1446.14
531.99	1462.72
532.35	1478.62
532.71	1494.48
533.07	1510.80
533.42	1526.65
533.78	1542.71
534.14	1558.96
534.50	1574.35
534.86	1590.10
535.21	1605.12
535.57	1621.04
535.93	1636.54
536.29	1651.21
536.65	1666.07
537.00	1680.84
537.36	1696.02
537.72	1710.42
538.08	1724.66
538.44	1738.35
538.79	1752.22
539.15	1765.73
539.51	1779.40
539.87	1793.69
540.22	1807.41
540.58	1821.05
540.94	1834.31
541.29	1847.12
541.65	1859.70
542.01	1872.65
542.37	1884.98
542.72	1897.45
543.08	1909.14
543.44	1921.38
543.79	1932.60
544.15	1943.61
544.51	1955.16
544.87	1966.10
545.22	1976.90
545.58	1987.04
545.94	1996.74
546.29	2006.54
546.65	2016.45
547.01	2025.74
547.36	2034.30
547.72	2042.58
548.07	2050.40
548.43	2058.52
548.79	2066.61
549.14	2074.07
549.50	2081.45
549.86	2089.11
550.21	2096.37
550.57	2103.59
550.92	2110.25
551.28	2117.30
551.64	2124.37
551.99	2130.81
552.35	2137.09
552.70	2143.25
553.06	2149.36
553.41	2155.72
553.77	2161.71
554.13	2167.82
554.48	2173.90
554.84	2179.52
555.19	2184.78
555.55	2189.91
555.90	2194.36
556.26	2199.20
556.61	2204.13
556.97	2208.46
557.32	2212.52
557.68	2216.45
558.03	2220.57
558.39	2224.24
558.74	2228.91
559.10	2232.81
559.45	2236.35
559.81	2240.63
560.16	2244.34
560.52	2247.53
560.87	2250.90
561.23	2253.57
561.58	2256.41
561.94	2258.95
562.29	2261.28
562.64	2264.02
563.00	2266.59
563.35	2270.13
563.71	2273.11
564.06	2276.17
564.42	2279.05
564.77	2281.54
565.12	2284.08
565.48	2286.16
565.83	2287.93
566.19	2289.22
566.54	2290.06
566.89	2291.42
567.25	2292.00
567.60	2293.27
567.96	2294.95
568.31	2295.81
568.66	2296.91
569.02	2297.58
569.37	2297.90
569.72	2298.76
570.08	2298.97
570.43	2299.10
570.78	2298.62
571.14	2297.25
571.49	2295.93
571.84	2295.68
572.20	2294.71
572.55	2293.60
572.90	2292.00
573.26	2290.82
573.61	2289.32
573.96	2287.64
574.31	2284.64
574.67	2281.60
575.02	2278.15
575.37	2274.86
575.72	2271.12
576.08	2267.80
576.43	2264.38
576.78	2260.91
577.13	2257.82
577.49	2254.70
577.84	2251.24
578.19	2247.45
578.54	2243.73
578.90	2239.63
579.25	2234.15
579.60	2229.21
579.95	2224.17
580.30	2219.25
580.66	2214.07
581.01	2209.03
581.36	2204.16
581.71	2200.15
582.06	2195.87
582.42	2191.46
582.77	2186.31
583.12	2181.92
583.47	2177.30
583.82	2172.41
584.17	2167.15
584.53	2161.70
584.88	2156.32
585.23	2150.67
585.58	2145.34
585.93	2139.97
586.28	2135.34
586.63	2130.39
586.98	2125.48
587.34	2120.99
587.69	2116.08
588.04	2110.75
588.39	2105.11
588.74	2098.75
589.09	2092.50
589.44	2085.59
589.79	2079.59
590.14	2073.93
590.49	2067.34
590.84	2061.02
591.19	2055.12
591.54	2048.65
591.89	2041.41
592.25	2034.41
592.60	2027.20
592.95	2019.67
593.30	2012.42
593.65	2004.73
594.00	1997.64
594.35	1990.23
594.70	1982.18
595.05	1975.01
595.40	1967.83
595.75	1960.38
596.10	1954.12
596.45	1947.39
596.80	1941.37
597.15	1934.85
597.50	1927.76
597.85	1921.37
598.19	1914.67
598.54	1907.46
598.89	1900.77
599.24	1894.81
599.59	1888.27
599.94	1882.13
600.29	1875.75
600.64	1869.15
600.99	1861.86
601.34	1855.07
601.69	1848.30
602.04	1841.47
602.39	1834.22
602.74	1827.39
603.08	1820.66
603.43	1813.99
603.78	1806.81
604.13	1799.60
604.48	1792.20
604.83	1785.28
605.18	1778.31
605.53	1770.33
605.87	1762.39
606.22	1755.23
606.57	1747.34
606.92	1740.08
607.27	1732.86
607.62	1725.97
607.96	1718.57
608.31	1711.88
608.66	1704.32
609.01	1696.68
609.36	1689.04
609.70	1680.92
610.05	1672.93
610.40	1665.18
610.75	1656.93
611.10	1649.16
611.44	1640.77
611.79	1632.90
612.14	1624.29
612.49	1614.99
612.83	1606.66
613.18	1598.58
613.53	1590.43
613.88	1581.84
614.22	1573.57
614.57	1564.87
614.92	1556.77
615.27	1549.35
615.61	1541.09
615.96	1532.95
616.31	1525.32
616.65	1518.00
617.00	1510.59
617.35	1502.94
617.70	1494.64
618.04	1486.09
618.39	1477.96
618.74	1470.26
619.08	1461.85
619.43	1454.28
619.78	1447.49
620.12	1440.30
620.47	1432.67
620.82	1424.49
621.16	1417.08
621.51	1409.51
621.85	1402.00
622.20	1393.57
622.55	1385.15
622.89	1377.21
623.24	1369.64
623.59	1362.25
623.93	1354.62
624.28	1347.33
624.62	1339.82
624.97	1332.61
625.32	1325.96
625.66	1318.81
626.01	1311.68
626.35	1304.29
626.70	1296.58
627.04	1288.87
627.39	1281.04
627.73	1273.68
628.08	1266.79
628.43	1259.56
628.77	1252.09
629.12	1244.42
629.46	1237.16
629.81	1229.74
630.15	1222.57
630.50	1215.12
630.84	1206.88
631.19	1199.05
631.53	1191.43
631.88	1183.74
632.22	1176.16
632.57	1168.73
632.91	1161.31
633.26	1153.83
633.60	1146.38
633.95	1139.28
634.29	1132.19
634.64	1125.53
634.98	1118.18
635.32	1111.00
635.67	1104.32
636.01	1097.64
636.36	1090.82
636.70	1084.24
637.05	1077.70
637.39	1071.11
637.73	1064.62
638.08	1058.78
638.42	1052.72
638.77	1046.25
639.11	1039.63
639.45	1033.32
639.80	1026.67
640.14	1020.13
640.49	1013.61
640.83	1007.33
641.17	1000.97
641.52	994.64
641.86	988.18
642.20	982.32
642.55	976.04
642.89	969.66
643.23	963.14
643.58	957.47
643.92	951.24
644.26	945.10
644.61	939.09
644.95	932.98
645.29	926.31
645.64	919.61
645.98	913.31
646.32	907.51
646.66	901.40
647.01	895.57
647.35	889.87
647.69	884.04
648.04	878.46
648.38	872.64
648.72	866.58
649.06	860.54
649.41	854.70
649.75	848.67
650.09	842.60
650.43	836.84
650.78	830.69
651.12	824.75
651.46	819.11
651.80	813.31
652.14	807.92
652.49	802.58
652.83	797.39
653.17	791.75
653.51	786.02
653.85	780.62
654.20	774.95
654.54	768.95
654.88	763.20
655.22	757.32
655.56	751.70
655.90	746.24
656.25	740.93
656.59	735.48
656.93	730.42
657.27	725.24
657.61	719.79
657.95	714.62
658.29	709.56
658.64	704.25
658.98	699.01
659.32	693.56
659.66	688.35
660.00	682.98
660.34	677.96
660.68	673.06
661.02	668.02
661.36	663.23
661.70	658.72
662.05	654.32
662.39	649.99
662.73	645.50
663.07	641.19
663.41	636.78
663.75	632.34
664.09	627.73
664.43	623.39
664.77	619.23
665.11	614.96
665.45	610.85
665.79	606.73
666.13	602.58
666.47	598.46
666.81	594.23
667.15	590.17
667.49	586.32
667.83	582.50
668.17	578.58
668.51	574.56
668.85	570.56
669.19	566.72
669.53	562.88
669.87	559.05
670.21	555.31
670.55	551.61
670.89	548.16
671.23	544.79
671.57	541.25
671.91	537.67
672.25	534.16
672.58	530.61
672.92	527.21
673.26	524.01
673.60	520.84
673.94	517.80
674.28	514.84
674.62	511.90
674.96	508.75
675.30	505.83
675.64	502.88
675.97	500.06
676.31	497.19
676.65	494.28
676.99	491.58
677.33	488.66
677.67	485.86
678.01	482.80
678.34	479.74
678.68	476.87
679.02	474.09
679.36	471.33
679.70	468.62
680.04	465.88
680.37	463.04
680.71	460.30
681.05	457.69
681.39	454.94
681.73	452.28
682.06	449.78
682.40	447.20
682.74	444.73
683.08	442.23
683.42	439.62
683.75	437.05
684.09	434.46
684.43	432.00
684.77	429.57
685.10	427.26
685.44	425.00
685.78	422.68
686.12	420.42
686.45	418.15
686.79	415.87
687.13	413.64
687.46	411.46
687.80	409.25
688.14	407.03
688.48	404.97
688.81	402.72
689.15	400.56
689.49	398.43
689.82	396.30
690.16	394.21
690.50	392.27
690.83	390.34
691.17	388.32
691.51	386.44
691.84	384.59
692.18	382.62
692.52	380.64
692.85	378.74
693.19	376.84
693.52	374.97
693.86	373.15
694.20	371.42
694.53	369.61
694.87	367.77
695.21	365.95
695.54	364.14
695.88	362.36
696.21	360.61
696.55	358.88
696.88	357.21
697.22	355.54
697.56	353.88
697.89	352.23
698.23	350.61
698.56	348.98
698.90	347.31
699.23	345.64
699.57	344.07
699.90	342.52
700.24	340.97
700.58	339.45
700.91	337.95
701.25	336.48
701.58	335.10
701.92	333.73
702.25	332.36
702.59	331.00
702.92	329.66
703.26	328.36
703.59	327.09
703.93	325.89
704.26	324.63
704.60	323.35
704.93	322.08
705.26	320.84
705.60	319.66
705.93	318.56
706.27	317.53
706.60	316.46
706.94	315.39
707.27	314.29
707.61	313.22
707.94	312.14
708.27	311.05
708.61	309.98
708.94	309.00
709.28	307.96
709.61	307.00
709.94	306.09
710.28	305.08
710.61	304.12
710.95	303.08
711.28	302.16
711.61	301.19
711.95	300.30
712.28	299.34
712.61	298.37
712.95	297.41
713.28	296.54
713.61	295.66
713.95	294.79
714.28	293.94
714.61	293.09
714.95	292.33
715.28	291.47
715.61	290.60
715.95	289.73
716.28	288.89
716.61	288.08
716.95	287.24
717.28	286.53
717.61	285.77
717.94	285.02
718.28	284.19
718.61	283.49
718.94	282.78
719.27	282.13
719.61	281.49
719.94	280.87
720.27	280.16
720.60	279.50
720.94	278.86
721.27	278.27
721.60	277.66
721.93	277.00
722.27	276.46
722.60	275.93
722.93	275.38
723.26	274.88
723.59	274.31
723.93	273.78
724.26	273.18
724.59	272.62
724.92	272.08
725.25	271.60
725.59	271.08
725.92	270.60
726.25	270.12
726.58	269.64
726.91	269.12
727.24	268.64
727.57	268.14
727.91	267.61
728.24	267.13
728.57	266.65
728.90	266.21
729.23	265.68
729.56	265.20
729.89	264.71
730.22	264.19
730.55	263.68
730.89	263.21
731.22	262.77
731.55	262.34
731.88	261.87
732.21	261.43
732.54	260.98
732.87	260.57
733.20	260.16
733.53	259.77
733.86	259.36
734.19	258.94
734.52	258.57
734.85	258.26
735.18	257.85
735.51	257.45
735.84	257.08
736.17	256.74
736.50	256.34
736.83	256.14
737.16	255.78
737.49	255.46
737.82	255.11
738.15	254.73
738.48	254.39
738.81	254.06
739.14	253.74
739.47	253.41
739.80	253.03
740.13	252.67
740.46	252.33
740.79	252.03
741.12	251.73
741.45	251.40
741.78	251.02
742.11	250.76
742.44	250.50
742.77	250.19
743.10	249.83
743.43	249.53
743.75	249.12
744.08	248.97
744.41	248.69
744.74	248.41
745.07	248.15
745.40	247.88
745.73	247.68
746.06	247.38
746.39	247.13
746.71	246.87
747.04	246.60
747.37	246.34
747.70	246.10
748.03	245.84
748.36	245.62
748.68	245.40
749.01	245.10
749.34	244.87
749.67	244.65
750.00	244.46
750.33	244.31
750.65	244.08
750.98	243.75
751.31	243.53
751.64	243.34
751.97	243.20
752.29	242.96
752.62	242.72
752.95	242.51
753.28	242.34
753.60	242.16
753.93	241.98
754.26	241.77
754.59	241.55
754.91	241.35
755.24	241.14
755.57	241.00
755.90	240.83
756.22	240.61
756.55	240.41
756.88	240.27
757.20	240.05
757.53	239.89
757.86	239.75
758.19	239.63
758.51	239.46
758.84	239.23
759.17	239.09
759.49	238.95
759.82	238.84
760.15	238.69
760.47	238.53
760.80	238.39
761.13	238.28
761.45	238.15
761.78	238.01
762.11	237.91
762.43	237.74
762.76	237.61
763.08	237.51
763.41	237.41
763.74	237.23
764.06	237.12
764.39	236.97
764.71	236.82
765.04	236.67
765.37	236.56
765.69	236.43
766.02	236.28
766.34	236.14
766.67	235.97
767.00	235.84
767.32	235.78
767.65	235.72
767.97	235.61
768.30	235.50
768.62	235.36
768.95	235.23
769.27	235.09
769.60	235.03
769.92	234.91
770.25	234.77
770.57	234.67
770.90	234.54
771.22	234.42
771.55	234.35
771.87	234.28
772.20	234.18
772.52	234.19
772.85	234.19
773.17	234.12
773.50	234.08
773.82	233.98
774.15	233.84
774.47	233.68
774.80	233.56
775.12	233.45
775.45	233.39
775.77	233.30
776.09	233.22
776.42	233.08
776.74	233.01
777.07	232.95
777.39	232.88
777.72	232.79
778.04	232.75
778.36	232.64
778.69	232.56
779.01	232.50
779.33	232.33
779.66	232.17
779.98	232.05
780.31	231.95
780.63	231.93
780.95	231.88
781.28	231.78
781.60	231.71
781.92	231.66
782.25	231.56
782.57	231.48
782.89	231.41
783.22	231.34
783.54	231.24
783.86	231.18
784.19	231.08
784.51	231.03
784.83	230.96
785.16	230.89
785.48	230.78
785.80	230.68
786.12	230.64
786.45	230.60
786.77	230.57
787.09	230.53
