SpectraSuite Data File
++++++++++++++++++++++++++++++++++++
Date: Fri Feb 01 17:18:45 EST 2013
User: group
Dark Spectrum Present: No
Reference Spectrum Present: No
Number of Sampled Component Spectra: 1
Spectrometers: USB2E7196
Integration Time (usec): 35000 (USB2E7196)
Spectra Averaged: 100 (USB2E7196)
Boxcar Smoothing: 10 (USB2E7196)
Correct for Electrical Dark: No (USB2E7196)
Strobe/Lamp Enabled: No (USB2E7196)
Correct for Detector Non-linearity: No (USB2E7196)
Correct for Stray Light: No (USB2E7196)
Number of Pixels in Processed Spectrum: 2048
>>>>>Begin Processed Spectral Data<<<<<
339.09	0.00
339.48	212.59
339.86	214.21
340.24	215.71
340.63	216.96
341.01	219.77
341.39	219.87
341.78	221.23
342.16	222.12
342.54	223.24
342.93	211.27
343.31	221.95
343.69	222.48
344.07	222.94
344.46	223.35
344.84	223.72
345.22	223.96
345.60	224.20
345.99	224.37
346.37	224.49
346.75	224.54
347.13	224.61
347.52	224.69
347.90	224.71
348.28	224.70
348.66	224.69
349.05	224.66
349.43	224.70
349.81	224.76
350.19	224.80
350.57	224.84
350.96	224.92
351.34	225.02
351.72	225.15
352.10	225.25
352.48	225.34
352.87	225.42
353.25	225.51
353.63	225.56
354.01	225.66
354.39	225.74
354.77	225.84
355.15	225.93
355.54	225.98
355.92	226.03
356.30	226.16
356.68	226.32
357.06	226.43
357.44	226.46
357.82	226.52
358.20	226.63
358.58	226.71
358.97	226.79
359.35	226.86
359.73	226.92
360.11	227.02
360.49	227.11
360.87	227.16
361.25	227.23
361.63	227.33
362.01	227.36
362.39	227.44
362.77	227.51
363.15	227.58
363.53	227.65
363.91	227.72
364.29	227.72
364.67	227.65
365.05	227.70
365.43	227.75
365.81	227.77
366.19	227.81
366.57	227.85
366.95	227.85
367.33	227.82
367.71	227.82
368.09	227.79
368.47	227.77
368.85	227.78
369.23	227.79
369.61	227.75
369.99	227.78
370.37	227.74
370.75	227.78
371.13	227.71
371.51	227.67
371.89	227.62
372.27	227.63
372.65	227.61
373.03	227.52
373.41	227.47
373.78	227.44
374.16	227.33
374.54	227.28
374.92	227.24
375.30	227.21
375.68	227.13
376.06	227.07
376.44	226.99
376.82	226.90
377.19	226.82
377.57	226.75
377.95	226.64
378.33	226.57
378.71	226.38
379.09	226.30
379.47	226.22
379.84	226.16
380.22	226.07
380.60	226.01
380.98	225.95
381.36	225.89
381.73	225.79
382.11	225.74
382.49	225.65
382.87	225.57
383.25	225.52
383.62	225.59
384.00	225.54
384.38	225.50
384.76	225.46
385.13	225.42
385.51	225.39
385.89	225.33
386.27	225.27
386.64	225.24
387.02	225.21
387.40	225.17
387.78	225.10
388.15	225.09
388.53	225.04
388.91	225.04
389.29	225.02
389.66	225.00
390.04	225.00
390.42	224.99
390.79	224.98
391.17	224.93
391.55	224.80
391.92	224.75
392.30	224.73
392.68	224.70
393.05	224.70
393.43	224.68
393.81	224.68
394.18	224.67
394.56	224.66
394.94	224.70
395.31	224.71
395.69	224.77
396.06	224.77
396.44	224.78
396.82	224.79
397.19	224.84
397.57	224.88
397.95	224.91
398.32	224.89
398.70	224.91
399.07	225.00
399.45	225.03
399.82	225.08
400.20	225.12
400.58	225.21
400.95	225.20
401.33	225.28
401.70	225.44
402.08	225.55
402.45	225.65
402.83	225.77
403.20	225.90
403.58	225.97
403.95	226.10
404.33	226.20
404.71	226.29
405.08	226.46
405.46	226.56
405.83	226.71
406.21	226.87
406.58	227.04
406.96	227.17
407.33	227.35
407.70	227.55
408.08	227.80
408.45	228.03
408.83	228.25
409.20	228.45
409.58	228.60
409.95	228.82
410.33	229.07
410.70	229.27
411.08	229.51
411.45	229.81
411.82	230.11
412.20	230.46
412.57	230.91
412.95	231.22
413.32	231.66
413.69	232.05
414.07	232.51
414.44	232.97
414.82	233.46
415.19	234.01
415.56	234.57
415.94	235.12
416.31	235.76
416.68	236.44
417.06	237.21
417.43	237.92
417.81	238.73
418.18	239.56
418.55	240.43
418.93	241.37
419.30	242.31
419.67	243.27
420.04	244.31
420.42	245.31
420.79	246.51
421.16	247.68
421.54	248.88
421.91	250.13
422.28	251.46
422.66	252.83
423.03	254.18
423.40	255.55
423.77	257.06
424.15	258.52
424.52	260.04
424.89	261.67
425.26	263.30
425.64	264.77
426.01	266.41
426.38	268.15
426.75	269.86
427.13	271.61
427.50	273.49
427.87	275.38
428.24	277.31
428.61	279.12
428.99	281.13
429.36	283.32
429.73	285.44
430.10	287.52
430.47	289.67
430.85	291.87
431.22	294.20
431.59	296.61
431.96	298.89
432.33	301.44
432.70	303.92
433.08	306.83
433.45	309.59
433.82	312.26
434.19	315.27
434.56	318.15
434.93	320.86
435.30	323.52
435.68	326.48
436.05	329.42
436.42	332.30
436.79	334.90
437.16	337.69
437.53	340.61
437.90	343.50
438.27	346.29
438.64	349.25
439.01	351.92
439.38	354.19
439.75	356.47
440.13	359.03
440.50	361.42
440.87	363.31
441.24	365.29
441.61	367.52
441.98	369.01
442.35	370.93
442.72	372.93
443.09	374.81
443.46	375.87
443.83	376.44
444.20	376.95
444.57	377.81
444.94	378.09
445.31	378.49
445.68	378.84
446.05	378.99
446.42	378.60
446.79	378.19
447.16	377.78
447.53	377.45
447.90	376.27
448.27	375.06
448.64	373.41
449.01	372.28
449.37	370.27
449.74	368.31
450.11	365.99
450.48	363.41
450.85	360.85
451.22	358.67
451.59	356.63
451.96	354.68
452.33	352.02
452.70	349.62
453.07	346.72
453.43	343.79
453.80	340.93
454.17	338.14
454.54	335.54
454.91	332.74
455.28	330.05
455.65	327.49
456.02	325.00
456.38	322.82
456.75	320.09
457.12	317.77
457.49	315.46
457.86	313.20
458.23	311.31
458.59	309.20
458.96	307.08
459.33	305.16
459.70	303.22
460.07	301.68
460.43	299.94
460.80	298.25
461.17	296.75
461.54	295.20
461.91	293.74
462.27	292.26
462.64	290.99
463.01	289.57
463.38	288.27
463.74	286.88
464.11	285.68
464.48	284.59
464.85	283.48
465.21	282.65
465.58	281.71
465.95	280.56
466.32	279.66
466.68	278.70
467.05	277.78
467.42	276.90
467.78	275.95
468.15	275.04
468.52	274.37
468.88	273.49
469.25	272.68
469.62	272.06
469.98	271.36
470.35	270.73
470.72	270.10
471.08	269.41
471.45	268.86
471.82	268.30
472.18	267.73
472.55	267.25
472.92	266.72
473.28	266.27
473.65	265.84
474.02	265.35
474.38	265.01
474.75	264.66
475.11	264.31
475.48	264.05
475.85	263.84
476.21	263.59
476.58	263.41
476.94	263.28
477.31	263.07
477.67	262.92
478.04	262.78
478.41	262.77
478.77	262.82
479.14	262.77
479.50	262.80
479.87	262.85
480.23	262.98
480.60	263.04
480.96	263.14
481.33	263.36
481.69	263.58
482.06	263.77
482.42	264.01
482.79	264.23
483.15	264.53
483.52	264.93
483.88	265.26
484.25	265.69
484.61	266.11
484.98	266.59
485.34	267.13
485.71	267.72
486.07	268.27
486.44	268.80
486.80	269.46
487.17	270.17
487.53	270.97
487.90	271.82
488.26	272.72
488.62	273.71
488.99	274.65
489.35	275.66
489.72	276.75
490.08	277.95
490.44	279.18
490.81	280.55
491.17	281.86
491.54	283.35
491.90	284.88
492.26	286.49
492.63	288.20
492.99	289.98
493.36	291.88
493.72	293.92
494.08	296.05
494.45	298.31
494.81	300.65
495.17	303.10
495.54	305.60
495.90	308.29
496.26	311.05
496.63	314.03
496.99	317.12
497.35	320.36
497.72	323.76
498.08	327.24
498.44	330.83
498.80	334.71
499.17	338.69
499.53	342.79
499.89	347.18
500.26	351.67
500.62	356.28
500.98	361.17
501.34	366.23
501.71	371.54
502.07	376.91
502.43	382.47
502.79	388.27
503.16	394.28
503.52	400.46
503.88	406.83
504.24	413.42
504.60	420.18
504.97	427.24
505.33	434.49
505.69	442.14
506.05	449.93
506.41	457.75
506.78	465.78
507.14	474.16
507.50	482.73
507.86	491.61
508.22	500.72
508.59	509.84
508.95	519.21
509.31	528.82
509.67	538.79
510.03	548.94
510.39	559.28
510.75	569.90
511.12	580.65
511.48	591.71
511.84	602.91
512.20	614.29
512.56	626.08
512.92	638.05
513.28	650.21
513.64	662.44
514.00	674.91
514.37	687.65
514.73	700.40
515.09	713.18
515.45	726.22
515.81	739.54
516.17	753.28
516.53	767.27
516.89	781.27
517.25	795.24
517.61	809.43
517.97	823.67
518.33	837.88
518.69	852.44
519.05	867.18
519.41	882.02
519.77	897.25
520.13	912.38
520.49	927.36
520.85	942.40
521.21	957.67
521.57	973.55
521.93	989.01
522.29	1005.00
522.65	1020.98
523.01	1036.93
523.37	1052.57
523.73	1068.24
524.09	1083.99
524.45	1099.89
524.81	1116.10
525.17	1132.47
525.53	1149.01
525.89	1165.56
526.25	1181.97
526.61	1198.00
526.97	1214.43
527.33	1230.55
527.68	1246.72
528.04	1262.87
528.40	1279.07
528.76	1295.75
529.12	1312.05
529.48	1328.58
529.84	1344.37
530.20	1360.59
530.56	1377.11
530.91	1394.18
531.27	1410.66
531.63	1426.79
531.99	1443.04
532.35	1458.70
532.71	1474.35
533.07	1490.25
533.42	1505.96
533.78	1521.79
534.14	1537.78
534.50	1552.91
534.86	1568.43
535.21	1583.46
535.57	1599.21
535.93	1614.39
536.29	1628.99
536.65	1643.68
537.00	1658.16
537.36	1673.26
537.72	1687.56
538.08	1701.91
538.44	1715.46
538.79	1729.26
539.15	1742.61
539.51	1756.06
539.87	1770.23
540.22	1783.77
540.58	1797.29
540.94	1810.08
541.29	1822.64
541.65	1835.12
542.01	1848.22
542.37	1860.54
542.72	1872.67
543.08	1884.37
543.44	1896.83
543.79	1908.13
544.15	1919.07
544.51	1930.68
544.87	1941.53
545.22	1952.43
545.58	1962.70
545.94	1972.57
546.29	1982.51
546.65	1992.44
547.01	2001.87
547.36	2010.64
547.72	2019.22
548.07	2027.30
548.43	2035.67
548.79	2043.76
549.14	2051.48
549.50	2058.77
549.86	2066.55
550.21	2073.96
550.57	2081.23
550.92	2087.83
551.28	2095.08
551.64	2102.40
551.99	2108.99
552.35	2115.51
552.70	2121.76
553.06	2127.87
553.41	2134.47
553.77	2140.54
554.13	2146.89
554.48	2153.21
554.84	2159.06
555.19	2164.41
555.55	2169.78
555.90	2174.67
556.26	2180.11
556.61	2184.99
556.97	2189.79
557.32	2194.14
557.68	2198.67
558.03	2203.10
558.39	2207.17
558.74	2211.97
559.10	2216.06
559.45	2219.99
559.81	2224.44
560.16	2228.60
560.52	2232.15
560.87	2235.76
561.23	2238.72
561.58	2241.81
561.94	2244.66
562.29	2247.10
562.64	2250.34
563.00	2253.21
563.35	2257.02
563.71	2260.32
564.06	2263.93
564.42	2267.13
564.77	2270.05
565.12	2272.81
565.48	2275.18
565.83	2277.54
566.19	2279.27
566.54	2280.45
566.89	2282.03
567.25	2282.85
567.60	2284.34
567.96	2286.48
568.31	2287.76
568.66	2289.38
569.02	2290.44
569.37	2291.16
569.72	2292.57
570.08	2292.86
570.43	2293.18
570.78	2292.90
571.14	2291.85
571.49	2290.72
571.84	2290.46
572.20	2289.77
572.55	2288.99
572.90	2287.66
573.26	2286.56
573.61	2285.15
573.96	2284.05
574.31	2281.59
574.67	2279.03
575.02	2275.73
575.37	2272.45
575.72	2268.98
576.08	2265.71
576.43	2262.47
576.78	2259.20
577.13	2256.08
577.49	2253.30
577.84	2250.17
578.19	2246.70
578.54	2243.22
578.90	2239.60
579.25	2234.52
579.60	2229.79
579.95	2225.20
580.30	2220.53
580.66	2215.46
581.01	2210.68
581.36	2205.75
581.71	2201.85
582.06	2197.74
582.42	2193.64
582.77	2188.82
583.12	2184.44
583.47	2180.18
583.82	2175.70
584.17	2170.65
584.53	2165.52
584.88	2160.19
585.23	2154.83
585.58	2149.48
585.93	2144.28
586.28	2139.46
586.63	2134.57
586.98	2129.73
587.34	2125.15
587.69	2120.38
588.04	2115.55
588.39	2110.12
588.74	2103.79
589.09	2097.74
589.44	2091.18
589.79	2085.13
590.14	2079.52
590.49	2073.15
590.84	2066.82
591.19	2060.91
591.54	2054.63
591.89	2047.59
592.25	2040.98
592.60	2033.81
592.95	2026.75
593.30	2019.65
593.65	2012.31
594.00	2005.34
594.35	1998.14
594.70	1990.09
595.05	1983.44
595.40	1976.22
595.75	1968.83
596.10	1963.07
596.45	1956.47
596.80	1950.45
597.15	1944.19
597.50	1937.41
597.85	1931.00
598.19	1924.44
598.54	1917.47
598.89	1910.87
599.24	1904.95
599.59	1898.49
599.94	1892.31
600.29	1885.94
600.64	1879.23
600.99	1871.94
601.34	1865.36
601.69	1858.52
602.04	1851.96
602.39	1844.38
602.74	1837.55
603.08	1830.94
603.43	1824.11
603.78	1816.85
604.13	1809.59
604.48	1802.42
604.83	1795.60
605.18	1788.98
605.53	1781.10
605.87	1773.14
606.22	1765.99
606.57	1758.00
606.92	1750.54
607.27	1743.56
607.62	1736.67
607.96	1729.56
608.31	1722.97
608.66	1715.42
609.01	1707.96
609.36	1700.35
609.70	1692.37
610.05	1684.37
610.40	1676.67
610.75	1668.34
611.10	1660.75
611.44	1652.17
611.79	1644.04
612.14	1635.23
612.49	1625.79
612.83	1617.37
613.18	1609.06
613.53	1600.87
613.88	1592.35
614.22	1584.00
614.57	1575.22
614.92	1567.02
615.27	1559.45
615.61	1551.05
615.96	1542.77
616.31	1534.97
616.65	1527.43
617.00	1519.82
617.35	1512.01
617.70	1503.72
618.04	1495.25
618.39	1486.74
618.74	1479.24
619.08	1470.90
619.43	1463.33
619.78	1456.35
620.12	1449.19
620.47	1441.79
620.82	1433.50
621.16	1425.93
621.51	1418.21
621.85	1410.44
622.20	1401.87
622.55	1393.45
622.89	1385.39
623.24	1377.65
623.59	1370.03
623.93	1362.48
624.28	1355.08
624.62	1347.52
624.97	1340.20
625.32	1333.17
625.66	1326.08
626.01	1318.83
626.35	1311.39
626.70	1303.53
627.04	1295.80
627.39	1287.81
627.73	1280.27
628.08	1273.36
628.43	1266.15
628.77	1258.84
629.12	1251.32
629.46	1244.03
629.81	1236.33
630.15	1229.12
630.50	1221.76
630.84	1213.56
631.19	1205.48
631.53	1197.87
631.88	1190.26
632.22	1182.44
632.57	1175.10
632.91	1167.48
633.26	1160.04
633.60	1152.47
633.95	1145.15
634.29	1138.00
634.64	1131.30
634.98	1123.86
635.32	1116.65
635.67	1109.77
636.01	1102.97
636.36	1096.15
636.70	1089.60
637.05	1083.01
637.39	1076.47
637.73	1069.83
638.08	1063.80
638.42	1057.76
638.77	1051.34
639.11	1044.70
639.45	1038.30
639.80	1031.60
640.14	1025.20
640.49	1018.65
640.83	1012.31
641.17	1006.11
641.52	999.71
641.86	993.12
642.20	987.23
642.55	980.65
642.89	974.27
643.23	967.61
643.58	961.70
643.92	955.53
644.26	949.49
644.61	943.27
644.95	937.30
645.29	930.78
645.64	924.00
645.98	917.63
646.32	911.65
646.66	905.59
647.01	899.68
647.35	893.92
647.69	887.93
648.04	882.29
648.38	876.42
648.72	870.40
649.06	864.45
649.41	858.41
649.75	852.56
650.09	846.54
650.43	840.77
650.78	834.64
651.12	828.61
651.46	822.92
651.80	817.36
652.14	811.87
652.49	806.48
652.83	801.28
653.17	795.65
653.51	789.99
653.85	784.54
654.20	778.99
654.54	772.95
654.88	767.14
655.22	761.27
655.56	755.54
655.90	749.99
656.25	744.61
656.59	739.35
656.93	734.19
657.27	728.99
657.61	723.54
657.95	718.38
658.29	713.24
658.64	707.84
658.98	702.38
659.32	696.90
659.66	691.68
660.00	686.37
660.34	681.30
660.68	676.28
661.02	671.21
661.36	666.45
661.70	661.97
662.05	657.62
662.39	653.34
662.73	648.88
663.07	644.49
663.41	640.05
663.75	635.53
664.09	630.98
664.43	626.57
664.77	622.45
665.11	618.18
665.45	613.96
665.79	609.82
666.13	605.71
666.47	601.58
666.81	597.42
667.15	593.16
667.49	589.21
667.83	585.41
668.17	581.45
668.51	577.36
668.85	573.21
669.19	569.30
669.53	565.43
669.87	561.57
670.21	557.78
670.55	554.05
670.89	550.60
671.23	547.14
671.57	543.55
671.91	540.01
672.25	536.46
672.58	532.96
672.92	529.56
673.26	526.35
673.60	523.16
673.94	520.01
674.28	517.15
674.62	514.18
674.96	511.02
675.30	508.08
675.64	505.13
675.97	502.30
676.31	499.42
676.65	496.46
676.99	493.71
677.33	490.89
677.67	488.06
678.01	484.98
678.34	481.98
678.68	479.09
679.02	476.22
679.36	473.43
679.70	470.66
680.04	467.89
680.37	465.04
680.71	462.20
681.05	459.57
681.39	456.81
681.73	454.10
682.06	451.56
682.40	449.01
682.74	446.40
683.08	443.84
683.42	441.22
683.75	438.67
684.09	436.01
684.43	433.53
684.77	431.06
685.10	428.68
685.44	426.34
685.78	424.04
686.12	421.76
686.45	419.39
686.79	417.12
687.13	414.85
687.46	412.65
687.80	410.48
688.14	408.22
688.48	406.15
688.81	403.93
689.15	401.75
689.49	399.59
689.82	397.47
690.16	395.35
690.50	393.34
690.83	391.37
691.17	389.39
691.51	387.44
691.84	385.59
692.18	383.66
692.52	381.68
692.85	379.72
693.19	377.82
693.52	376.00
693.86	374.13
694.20	372.31
694.53	370.50
694.87	368.61
695.21	366.79
695.54	364.93
695.88	363.18
696.21	361.44
696.55	359.72
696.88	358.02
697.22	356.38
697.56	354.75
697.89	353.11
698.23	351.50
698.56	349.91
698.90	348.33
699.23	346.63
699.57	345.03
699.90	343.46
700.24	341.90
700.58	340.38
700.91	338.90
701.25	337.48
701.58	336.07
701.92	334.70
702.25	333.31
702.59	331.92
702.92	330.58
703.26	329.25
703.59	327.98
703.93	326.77
704.26	325.53
704.60	324.24
704.93	322.91
705.26	321.67
705.60	320.45
705.93	319.25
706.27	318.18
706.60	317.16
706.94	316.09
707.27	314.97
707.61	313.87
707.94	312.82
708.27	311.71
708.61	310.59
708.94	309.56
709.28	308.54
709.61	307.54
709.94	306.53
710.28	305.53
710.61	304.47
710.95	303.39
711.28	302.45
711.61	301.49
711.95	300.57
712.28	299.60
712.61	298.60
712.95	297.66
713.28	296.77
713.61	295.81
713.95	294.91
714.28	294.01
714.61	293.12
714.95	292.22
715.28	291.35
715.61	290.45
715.95	289.57
716.28	288.75
716.61	287.90
716.95	287.10
717.28	286.30
717.61	285.58
717.94	284.81
718.28	283.96
718.61	283.16
718.94	282.42
719.27	281.74
719.61	281.06
719.94	280.39
720.27	279.67
720.60	279.02
720.94	278.37
721.27	277.74
721.60	277.13
721.93	276.56
722.27	275.99
722.60	275.46
722.93	274.85
723.26	274.27
723.59	273.70
723.93	273.13
724.26	272.56
724.59	271.94
724.92	271.42
725.25	270.91
725.59	270.42
725.92	269.91
726.25	269.36
726.58	268.86
726.91	268.35
727.24	267.84
727.57	267.30
727.91	266.77
728.24	266.34
728.57	265.85
728.90	265.34
729.23	264.83
729.56	264.39
729.89	263.95
730.22	263.43
730.55	262.96
730.89	262.56
731.22	262.12
731.55	261.68
731.88	261.26
732.21	260.83
732.54	260.37
732.87	259.96
733.20	259.55
733.53	259.17
733.86	258.81
734.19	258.43
734.52	258.07
734.85	257.74
735.18	257.30
735.51	256.93
735.84	256.57
736.17	256.23
736.50	255.79
736.83	255.57
737.16	255.23
737.49	254.90
737.82	254.51
738.15	254.13
738.48	253.82
738.81	253.46
739.14	253.16
739.47	252.88
739.80	252.61
740.13	252.31
740.46	251.99
740.79	251.66
741.12	251.34
741.45	251.03
741.78	250.66
742.11	250.41
742.44	250.08
742.77	249.79
743.10	249.48
743.43	249.19
743.75	248.76
744.08	248.67
744.41	248.41
744.74	248.15
745.07	247.89
745.40	247.63
745.73	247.38
746.06	247.11
746.39	246.81
746.71	246.48
747.04	246.20
747.37	245.90
747.70	245.63
748.03	245.34
748.36	245.11
748.68	244.92
749.01	244.63
749.34	244.39
749.67	244.17
750.00	243.99
750.33	243.88
750.65	243.68
750.98	243.31
751.31	243.10
751.64	242.90
751.97	242.72
752.29	242.50
752.62	242.28
752.95	242.05
753.28	241.84
753.60	241.64
753.93	241.49
754.26	241.32
754.59	241.08
754.91	240.92
755.24	240.69
755.57	240.47
755.90	240.30
756.22	240.10
756.55	239.87
756.88	239.62
757.20	239.34
757.53	239.13
757.86	238.93
758.19	238.74
758.51	238.54
758.84	238.35
759.17	238.17
759.49	238.02
759.82	237.87
760.15	237.71
760.47	237.56
760.80	237.37
761.13	237.24
761.45	237.09
761.78	236.93
762.11	236.81
762.43	236.64
762.76	236.51
763.08	236.40
763.41	236.27
763.74	236.14
764.06	236.03
764.39	235.87
764.71	235.73
765.04	235.57
765.37	235.45
765.69	235.34
766.02	235.23
766.34	235.08
766.67	234.94
767.00	234.86
767.32	234.81
767.65	234.75
767.97	234.60
768.30	234.49
768.62	234.38
768.95	234.25
769.27	234.15
769.60	234.04
769.92	233.89
770.25	233.77
770.57	233.66
770.90	233.58
771.22	233.49
771.55	233.42
771.87	233.38
772.20	233.23
772.52	233.21
772.85	233.22
773.17	233.14
773.50	233.07
773.82	232.94
774.15	232.77
774.47	232.61
774.80	232.53
775.12	232.42
775.45	232.35
775.77	232.31
776.09	232.23
776.42	232.14
776.74	232.13
777.07	232.05
777.39	232.00
777.72	231.91
778.04	231.87
778.36	231.76
778.69	231.66
779.01	231.62
779.33	231.45
779.66	231.25
779.98	231.16
780.31	231.07
780.63	231.08
780.95	231.07
781.28	230.99
781.60	230.94
781.92	230.89
782.25	230.82
782.57	230.73
782.89	230.65
783.22	230.56
783.54	230.47
783.86	230.41
784.19	230.33
784.51	230.29
784.83	230.23
785.16	230.21
785.48	230.17
785.80	230.13
786.12	230.09
786.45	230.06
786.77	230.06
787.09	230.03
