SpectraSuite Data File
++++++++++++++++++++++++++++++++++++
Date: Fri Feb 01 15:01:20 EST 2013
User: group
Dark Spectrum Present: No
Reference Spectrum Present: No
Number of Sampled Component Spectra: 1
Spectrometers: USB2E7196
Integration Time (usec): 35000 (USB2E7196)
Spectra Averaged: 100 (USB2E7196)
Boxcar Smoothing: 10 (USB2E7196)
Correct for Electrical Dark: No (USB2E7196)
Strobe/Lamp Enabled: No (USB2E7196)
Correct for Detector Non-linearity: No (USB2E7196)
Correct for Stray Light: No (USB2E7196)
Number of Pixels in Processed Spectrum: 2048
>>>>>Begin Processed Spectral Data<<<<<
339.09	0.00
339.48	215.42
339.86	216.87
340.24	218.85
340.63	219.96
341.01	221.86
341.39	222.20
341.78	223.40
342.16	224.75
342.54	225.40
342.93	213.63
343.31	224.44
343.69	224.98
344.07	225.44
344.46	225.85
344.84	226.22
345.22	226.50
345.60	226.74
345.99	226.92
346.37	227.05
346.75	227.12
347.13	227.17
347.52	227.18
347.90	227.23
348.28	227.29
348.66	227.31
349.05	227.31
349.43	227.36
349.81	227.40
350.19	227.43
350.57	227.46
350.96	227.52
351.34	227.56
351.72	227.62
352.10	227.70
352.48	227.76
352.87	227.78
353.25	227.83
353.63	227.93
354.01	227.98
354.39	228.05
354.77	228.14
355.15	228.27
355.54	228.38
355.92	228.41
356.30	228.47
356.68	228.62
357.06	228.70
357.44	228.74
357.82	228.84
358.20	228.93
358.58	228.98
358.97	229.06
359.35	229.15
359.73	229.20
360.11	229.23
360.49	229.28
360.87	229.31
361.25	229.36
361.63	229.39
362.01	229.44
362.39	229.46
362.77	229.51
363.15	229.51
363.53	229.49
363.91	229.54
364.29	229.54
364.67	229.43
365.05	229.46
365.43	229.46
365.81	229.44
366.19	229.46
366.57	229.50
366.95	229.49
367.33	229.41
367.71	229.40
368.09	229.39
368.47	229.39
368.85	229.38
369.23	229.37
369.61	229.30
369.99	229.29
370.37	229.28
370.75	229.26
371.13	229.20
371.51	229.16
371.89	229.12
372.27	229.10
372.65	229.05
373.03	228.97
373.41	228.94
373.78	228.84
374.16	228.76
374.54	228.65
374.92	228.56
375.30	228.56
375.68	228.49
376.06	228.45
376.44	228.36
376.82	228.29
377.19	228.20
377.57	228.10
377.95	228.01
378.33	227.93
378.71	227.80
379.09	227.73
379.47	227.65
379.84	227.59
380.22	227.51
380.60	227.44
380.98	227.35
381.36	227.28
381.73	227.23
382.11	227.15
382.49	227.11
382.87	227.02
383.25	226.93
383.62	227.00
384.00	226.90
384.38	226.85
384.76	226.83
385.13	226.83
385.51	226.83
385.89	226.76
386.27	226.71
386.64	226.68
387.02	226.66
387.40	226.63
387.78	226.54
388.15	226.49
388.53	226.48
388.91	226.46
389.29	226.42
389.66	226.40
390.04	226.36
390.42	226.34
390.79	226.34
391.17	226.34
391.55	226.24
391.92	226.27
392.30	226.28
392.68	226.25
393.05	226.21
393.43	226.20
393.81	226.22
394.18	226.24
394.56	226.24
394.94	226.24
395.31	226.26
395.69	226.35
396.06	226.39
396.44	226.41
396.82	226.44
397.19	226.52
397.57	226.54
397.95	226.63
398.32	226.66
398.70	226.76
399.07	226.83
399.45	226.86
399.82	226.93
400.20	227.00
400.58	227.12
400.95	227.17
401.33	227.28
401.70	227.47
402.08	227.58
402.45	227.67
402.83	227.84
403.20	227.96
403.58	228.06
403.95	228.20
404.33	228.34
404.71	228.49
405.08	228.71
405.46	228.88
405.83	229.02
406.21	229.19
406.58	229.35
406.96	229.55
407.33	229.76
407.70	229.95
408.08	230.20
408.45	230.41
408.83	230.67
409.20	230.87
409.58	231.05
409.95	231.31
410.33	231.61
410.70	231.87
411.08	232.13
411.45	232.44
411.82	232.74
412.20	233.10
412.57	233.52
412.95	233.79
413.32	234.19
413.69	234.60
414.07	235.02
414.44	235.52
414.82	235.98
415.19	236.53
415.56	237.06
415.94	237.60
416.31	238.21
416.68	238.87
417.06	239.63
417.43	240.28
417.81	241.06
418.18	241.82
418.55	242.65
418.93	243.61
419.30	244.52
419.67	245.45
420.04	246.40
420.42	247.41
420.79	248.62
421.16	249.75
421.54	250.95
421.91	252.19
422.28	253.42
422.66	254.74
423.03	256.06
423.40	257.40
423.77	258.85
424.15	260.29
424.52	261.73
424.89	263.35
425.26	264.94
425.64	266.39
426.01	268.01
426.38	269.67
426.75	271.31
427.13	273.00
427.50	274.83
427.87	276.69
428.24	278.57
428.61	280.30
428.99	282.28
429.36	284.41
429.73	286.50
430.10	288.54
430.47	290.61
430.85	292.75
431.22	295.01
431.59	297.39
431.96	299.62
432.33	302.14
432.70	304.49
433.08	307.28
433.45	309.89
433.82	312.46
434.19	315.33
434.56	318.17
434.93	320.88
435.30	323.51
435.68	326.45
436.05	329.25
436.42	332.08
436.79	334.59
437.16	337.28
437.53	340.08
437.90	342.86
438.27	345.64
438.64	348.43
439.01	351.04
439.38	353.27
439.75	355.47
440.13	357.96
440.50	360.31
440.87	362.17
441.24	364.12
441.61	366.33
441.98	367.85
442.35	369.58
442.72	371.41
443.09	373.20
443.46	374.14
443.83	374.71
444.20	375.21
444.57	376.07
444.94	376.37
445.31	376.73
445.68	377.14
446.05	377.22
446.42	376.87
446.79	376.42
447.16	375.99
447.53	375.70
447.90	374.54
448.27	373.36
448.64	371.80
449.01	370.68
449.37	368.67
449.74	366.76
450.11	364.53
450.48	362.05
450.85	359.57
451.22	357.47
451.59	355.48
451.96	353.49
452.33	350.87
452.70	348.47
453.07	345.65
453.43	342.69
453.80	339.92
454.17	337.22
454.54	334.68
454.91	331.92
455.28	329.20
455.65	326.71
456.02	324.26
456.38	322.05
456.75	319.35
457.12	317.13
457.49	314.93
457.86	312.76
458.23	310.92
458.59	308.83
458.96	306.69
459.33	304.83
459.70	302.97
460.07	301.47
460.43	299.79
460.80	298.17
461.17	296.73
461.54	295.20
461.91	293.75
462.27	292.31
462.64	291.10
463.01	289.73
463.38	288.42
463.74	287.06
464.11	285.91
464.48	284.95
464.85	283.79
465.21	282.89
465.58	281.94
465.95	280.85
466.32	279.91
466.68	279.04
467.05	278.16
467.42	277.27
467.78	276.31
468.15	275.39
468.52	274.69
468.88	273.84
469.25	273.07
469.62	272.45
469.98	271.79
470.35	271.11
470.72	270.48
471.08	269.83
471.45	269.28
471.82	268.75
472.18	268.12
472.55	267.68
472.92	267.16
473.28	266.72
473.65	266.25
474.02	265.83
474.38	265.47
474.75	265.11
475.11	264.76
475.48	264.46
475.85	264.25
476.21	264.01
476.58	263.81
476.94	263.66
477.31	263.48
477.67	263.33
478.04	263.20
478.41	263.16
478.77	263.22
479.14	263.14
479.50	263.14
479.87	263.19
480.23	263.30
480.60	263.36
480.96	263.42
481.33	263.63
481.69	263.82
482.06	263.97
482.42	264.15
482.79	264.40
483.15	264.77
483.52	265.13
483.88	265.47
484.25	265.85
484.61	266.25
484.98	266.69
485.34	267.21
485.71	267.79
486.07	268.39
486.44	268.93
486.80	269.62
487.17	270.33
487.53	271.13
487.90	271.92
488.26	272.86
488.62	273.84
488.99	274.78
489.35	275.83
489.72	276.98
490.08	278.16
490.44	279.38
490.81	280.68
491.17	282.04
491.54	283.55
491.90	285.06
492.26	286.70
492.63	288.43
492.99	290.18
493.36	292.03
493.72	294.06
494.08	296.14
494.45	298.36
494.81	300.71
495.17	303.13
495.54	305.74
495.90	308.40
496.26	311.18
496.63	314.13
496.99	317.21
497.35	320.39
497.72	323.77
498.08	327.30
498.44	330.93
498.80	334.87
499.17	338.82
499.53	342.93
499.89	347.31
500.26	351.78
500.62	356.38
500.98	361.33
501.34	366.41
501.71	371.68
502.07	377.09
502.43	382.68
502.79	388.49
503.16	394.52
503.52	400.75
503.88	407.19
504.24	413.85
504.60	420.71
504.97	427.80
505.33	435.14
505.69	442.77
506.05	450.51
506.41	458.27
506.78	466.45
507.14	474.94
507.50	483.61
507.86	492.64
508.22	501.79
508.59	511.02
508.95	520.61
509.31	530.42
509.67	540.54
510.03	550.82
510.39	561.36
510.75	572.14
511.12	583.03
511.48	594.27
511.84	605.70
512.20	617.24
512.56	629.22
512.92	641.34
513.28	653.75
513.64	666.24
514.00	679.04
514.37	691.95
514.73	705.05
515.09	718.13
515.45	731.41
515.81	745.10
516.17	759.05
516.53	773.11
516.89	787.32
517.25	801.47
517.61	815.89
517.97	830.32
518.33	844.79
518.69	859.68
519.05	874.77
519.41	889.95
519.77	905.55
520.13	921.09
520.49	936.57
520.85	951.97
521.21	967.78
521.57	983.97
521.93	999.91
522.29	1016.36
522.65	1032.71
523.01	1049.00
523.37	1065.10
523.73	1081.46
524.09	1097.56
524.45	1113.96
524.81	1130.78
525.17	1147.73
525.53	1164.76
525.89	1181.71
526.25	1198.59
526.61	1214.98
526.97	1231.80
527.33	1248.28
527.68	1264.86
528.04	1281.37
528.40	1298.08
528.76	1315.14
529.12	1331.81
529.48	1348.71
529.84	1364.75
530.20	1381.45
530.56	1398.60
530.91	1416.08
531.27	1432.82
531.63	1449.42
531.99	1466.08
532.35	1482.07
532.71	1497.95
533.07	1514.25
533.42	1530.22
533.78	1546.22
534.14	1562.60
534.50	1577.98
534.86	1594.04
535.21	1609.20
535.57	1625.28
535.93	1640.89
536.29	1655.75
536.65	1670.97
537.00	1685.93
537.36	1701.38
537.72	1715.97
538.08	1730.40
538.44	1744.23
538.79	1758.24
539.15	1772.12
539.51	1785.93
539.87	1800.31
540.22	1814.09
540.58	1828.03
540.94	1841.63
541.29	1854.73
541.65	1867.47
542.01	1880.88
542.37	1893.24
542.72	1905.95
543.08	1917.80
543.44	1930.25
543.79	1941.66
544.15	1952.76
544.51	1964.29
544.87	1975.18
545.22	1985.98
545.58	1996.28
545.94	2006.05
546.29	2016.04
546.65	2025.68
547.01	2035.04
547.36	2043.93
547.72	2052.53
548.07	2060.36
548.43	2068.51
548.79	2076.68
549.14	2084.29
549.50	2091.65
549.86	2099.37
550.21	2106.57
550.57	2113.85
550.92	2120.38
551.28	2127.45
551.64	2134.42
551.99	2140.89
552.35	2147.10
552.70	2153.31
553.06	2159.35
553.41	2165.80
553.77	2171.71
554.13	2177.95
554.48	2184.02
554.84	2189.31
555.19	2194.60
555.55	2199.68
555.90	2203.95
556.26	2208.56
556.61	2213.21
556.97	2217.24
557.32	2221.32
557.68	2225.51
558.03	2229.59
558.39	2233.37
558.74	2237.91
559.10	2241.73
559.45	2245.32
559.81	2249.67
560.16	2253.28
560.52	2256.22
560.87	2259.66
561.23	2262.29
561.58	2265.12
561.94	2267.51
562.29	2270.01
562.64	2272.49
563.00	2275.13
563.35	2278.68
563.71	2281.81
564.06	2285.08
564.42	2288.05
564.77	2290.39
565.12	2292.48
565.48	2294.23
565.83	2295.97
566.19	2297.04
566.54	2297.96
566.89	2298.96
567.25	2299.36
567.60	2300.71
567.96	2302.35
568.31	2302.97
568.66	2304.04
569.02	2304.46
569.37	2304.68
569.72	2305.36
570.08	2305.44
570.43	2305.21
570.78	2304.30
571.14	2302.56
571.49	2301.00
571.84	2300.41
572.20	2298.98
572.55	2297.80
572.90	2296.39
573.26	2294.72
573.61	2293.07
573.96	2291.02
574.31	2287.91
574.67	2284.72
575.02	2280.84
575.37	2277.36
575.72	2273.40
576.08	2269.93
576.43	2266.59
576.78	2262.79
577.13	2259.43
577.49	2256.29
577.84	2252.68
578.19	2248.93
578.54	2245.10
578.90	2240.63
579.25	2235.08
579.60	2230.09
579.95	2225.01
580.30	2219.66
580.66	2214.41
581.01	2209.36
581.36	2204.28
581.71	2199.95
582.06	2195.44
582.42	2190.90
582.77	2185.48
583.12	2180.76
583.47	2175.53
583.82	2170.34
584.17	2165.11
584.53	2159.39
584.88	2153.59
585.23	2147.59
585.58	2142.01
585.93	2136.50
586.28	2131.69
586.63	2126.39
586.98	2121.21
587.34	2116.33
587.69	2111.37
588.04	2106.03
588.39	2100.18
588.74	2093.66
589.09	2087.51
589.44	2080.52
589.79	2074.44
590.14	2068.76
590.49	2062.06
590.84	2055.77
591.19	2049.54
591.54	2042.82
591.89	2035.25
592.25	2028.23
592.60	2021.05
592.95	2013.36
593.30	2005.95
593.65	1998.27
594.00	1991.17
594.35	1983.76
594.70	1975.69
595.05	1968.25
595.40	1960.87
595.75	1953.30
596.10	1947.01
596.45	1940.09
596.80	1933.70
597.15	1927.01
597.50	1919.75
597.85	1913.37
598.19	1906.67
598.54	1899.61
598.89	1892.94
599.24	1887.06
599.59	1880.26
599.94	1873.90
600.29	1867.39
600.64	1860.69
600.99	1853.26
601.34	1846.42
601.69	1839.49
602.04	1832.52
602.39	1825.28
602.74	1818.43
603.08	1811.69
603.43	1805.02
603.78	1797.69
604.13	1790.56
604.48	1783.07
604.83	1776.31
605.18	1769.20
605.53	1761.10
605.87	1752.93
606.22	1745.71
606.57	1737.91
606.92	1730.61
607.27	1723.50
607.62	1716.60
607.96	1709.38
608.31	1702.58
608.66	1694.91
609.01	1687.44
609.36	1679.84
609.70	1671.77
610.05	1663.60
610.40	1655.80
610.75	1647.43
611.10	1639.80
611.44	1631.61
611.79	1623.84
612.14	1615.06
612.49	1606.04
612.83	1597.79
613.18	1589.82
613.53	1581.61
613.88	1572.98
614.22	1564.75
614.57	1556.20
614.92	1548.19
615.27	1540.66
615.61	1532.46
615.96	1524.51
616.31	1516.89
616.65	1509.60
617.00	1502.03
617.35	1494.45
617.70	1486.02
618.04	1477.54
618.39	1469.39
618.74	1461.71
619.08	1453.30
619.43	1445.78
619.78	1438.79
620.12	1431.65
620.47	1424.06
620.82	1415.97
621.16	1408.62
621.51	1401.16
621.85	1393.53
622.20	1385.08
622.55	1376.81
622.89	1369.00
623.24	1361.39
623.59	1354.09
623.93	1346.59
624.28	1339.39
624.62	1331.93
624.97	1324.91
625.32	1318.18
625.66	1311.16
626.01	1303.96
626.35	1296.52
626.70	1288.83
627.04	1281.10
627.39	1273.27
627.73	1265.98
628.08	1259.15
628.43	1251.77
628.77	1244.29
629.12	1236.84
629.46	1229.72
629.81	1222.35
630.15	1215.19
630.50	1207.79
630.84	1199.56
631.19	1191.64
631.53	1184.29
631.88	1176.74
632.22	1169.14
632.57	1161.86
632.91	1154.36
633.26	1147.03
633.60	1139.75
633.95	1132.82
634.29	1125.87
634.64	1119.29
634.98	1111.96
635.32	1104.89
635.67	1098.38
636.01	1091.87
636.36	1085.10
636.70	1078.70
637.05	1072.24
637.39	1065.75
637.73	1059.29
638.08	1053.50
638.42	1047.61
638.77	1041.12
639.11	1034.54
639.45	1028.23
639.80	1021.60
640.14	1015.15
640.49	1008.63
640.83	1002.43
641.17	996.16
641.52	989.88
641.86	983.48
642.20	977.66
642.55	971.36
642.89	964.94
643.23	958.43
643.58	952.58
643.92	946.35
644.26	940.19
644.61	934.16
644.95	928.15
645.29	921.55
645.64	914.87
645.98	908.59
646.32	902.90
646.66	896.98
647.01	891.20
647.35	885.66
647.69	879.90
648.04	874.30
648.38	868.51
648.72	862.49
649.06	856.48
649.41	850.61
649.75	844.73
650.09	838.78
650.43	833.00
650.78	826.90
651.12	820.95
651.46	815.25
651.80	809.49
652.14	804.17
652.49	798.79
652.83	793.60
653.17	787.95
653.51	782.16
653.85	776.66
654.20	771.07
654.54	765.05
654.88	759.33
655.22	753.55
655.56	747.87
655.90	742.46
656.25	737.24
656.59	731.95
656.93	726.87
657.27	721.74
657.61	716.34
657.95	711.39
658.29	706.37
658.64	701.22
658.98	696.02
659.32	690.54
659.66	685.41
660.00	680.14
660.34	675.15
660.68	670.28
661.02	665.32
661.36	660.58
661.70	656.03
662.05	651.74
662.39	647.46
662.73	643.09
663.07	638.77
663.41	634.28
663.75	629.77
664.09	625.20
664.43	620.90
664.77	616.78
665.11	612.50
665.45	608.36
665.79	604.33
666.13	600.21
666.47	596.16
666.81	592.00
667.15	587.85
667.49	584.02
667.83	580.27
668.17	576.35
668.51	572.33
668.85	568.38
669.19	564.54
669.53	560.68
669.87	556.80
670.21	553.17
670.55	549.63
670.89	546.23
671.23	542.79
671.57	539.33
671.91	535.85
672.25	532.37
672.58	528.87
672.92	525.46
673.26	522.30
673.60	519.20
673.94	516.17
674.28	513.33
674.62	510.41
674.96	507.32
675.30	504.47
675.64	501.57
675.97	498.85
676.31	495.95
676.65	493.06
676.99	490.38
677.33	487.50
677.67	484.64
678.01	481.64
678.34	478.69
678.68	475.81
679.02	473.03
679.36	470.25
679.70	467.57
680.04	464.81
680.37	461.98
680.71	459.18
681.05	456.57
681.39	453.90
681.73	451.23
682.06	448.72
682.40	446.17
682.74	443.69
683.08	441.12
683.42	438.59
683.75	436.14
684.09	433.60
684.43	431.14
684.77	428.72
685.10	426.42
685.44	424.16
685.78	421.92
686.12	419.67
686.45	417.42
686.79	415.11
687.13	412.94
687.46	410.77
687.80	408.64
688.14	406.43
688.48	404.40
688.81	402.19
689.15	400.07
689.49	397.98
689.82	395.89
690.16	393.87
690.50	391.96
690.83	390.00
691.17	388.05
691.51	386.20
691.84	384.39
692.18	382.46
692.52	380.47
692.85	378.51
693.19	376.61
693.52	374.86
693.86	373.09
694.20	371.39
694.53	369.64
694.87	367.81
695.21	366.00
695.54	364.19
695.88	362.51
696.21	360.79
696.55	359.12
696.88	357.49
697.22	355.87
697.56	354.23
697.89	352.59
698.23	350.97
698.56	349.36
698.90	347.76
699.23	346.14
699.57	344.66
699.90	343.15
700.24	341.64
700.58	340.11
700.91	338.61
701.25	337.10
701.58	335.74
701.92	334.37
702.25	333.03
702.59	331.64
702.92	330.29
703.26	328.99
703.59	327.70
703.93	326.50
704.26	325.20
704.60	323.91
704.93	322.65
705.26	321.37
705.60	320.18
705.93	319.02
706.27	317.99
706.60	316.94
706.94	315.85
707.27	314.75
707.61	313.71
707.94	312.70
708.27	311.64
708.61	310.56
708.94	309.59
709.28	308.60
709.61	307.64
709.94	306.71
710.28	305.70
710.61	304.72
710.95	303.64
711.28	302.76
711.61	301.81
711.95	300.86
712.28	299.96
712.61	299.00
712.95	298.05
713.28	297.12
713.61	296.23
713.95	295.32
714.28	294.47
714.61	293.57
714.95	292.71
715.28	291.84
715.61	290.95
715.95	290.09
716.28	289.25
716.61	288.43
716.95	287.64
717.28	286.91
717.61	286.13
717.94	285.36
718.28	284.56
718.61	283.83
718.94	283.16
719.27	282.50
719.61	281.87
719.94	281.23
720.27	280.57
720.60	279.86
720.94	279.24
721.27	278.67
721.60	278.06
721.93	277.45
722.27	276.93
722.60	276.34
722.93	275.73
723.26	275.18
723.59	274.64
723.93	274.07
724.26	273.50
724.59	272.98
724.92	272.47
725.25	271.97
725.59	271.42
725.92	270.91
726.25	270.37
726.58	269.87
726.91	269.38
727.24	268.90
727.57	268.44
727.91	267.94
728.24	267.46
728.57	267.01
728.90	266.57
729.23	266.05
729.56	265.66
729.89	265.20
730.22	264.72
730.55	264.22
730.89	263.77
731.22	263.32
731.55	262.86
731.88	262.46
732.21	262.03
732.54	261.61
732.87	261.20
733.20	260.84
733.53	260.44
733.86	260.10
734.19	259.71
734.52	259.36
734.85	259.05
735.18	258.63
735.51	258.25
735.84	257.85
736.17	257.52
736.50	257.11
736.83	256.91
737.16	256.57
737.49	256.29
737.82	255.98
738.15	255.65
738.48	255.36
738.81	255.02
739.14	254.71
739.47	254.41
739.80	254.13
740.13	253.80
740.46	253.48
740.79	253.12
741.12	252.81
741.45	252.46
741.78	252.12
742.11	251.85
742.44	251.59
742.77	251.33
743.10	251.02
743.43	250.74
743.75	250.38
744.08	250.26
744.41	249.97
744.74	249.68
745.07	249.43
745.40	249.16
745.73	248.94
746.06	248.69
746.39	248.45
746.71	248.13
747.04	247.89
747.37	247.65
747.70	247.42
748.03	247.16
748.36	247.00
748.68	246.78
749.01	246.56
749.34	246.30
749.67	246.06
750.00	245.87
750.33	245.73
750.65	245.54
750.98	245.20
751.31	245.01
751.64	244.80
751.97	244.59
752.29	244.38
752.62	244.14
752.95	243.96
753.28	243.78
753.60	243.60
753.93	243.39
754.26	243.20
754.59	242.97
754.91	242.75
755.24	242.53
755.57	242.31
755.90	242.09
756.22	241.90
756.55	241.74
756.88	241.56
757.20	241.32
757.53	241.09
757.86	240.91
758.19	240.76
758.51	240.59
758.84	240.39
759.17	240.21
759.49	240.03
759.82	239.87
760.15	239.69
760.47	239.56
760.80	239.45
761.13	239.28
761.45	239.11
761.78	238.97
762.11	238.82
762.43	238.71
762.76	238.57
763.08	238.44
763.41	238.28
763.74	238.11
764.06	237.96
764.39	237.80
764.71	237.67
765.04	237.53
765.37	237.40
765.69	237.29
766.02	237.17
766.34	237.02
766.67	236.88
767.00	236.76
767.32	236.68
767.65	236.60
767.97	236.52
768.30	236.44
768.62	236.33
768.95	236.22
769.27	236.10
769.60	235.99
769.92	235.88
770.25	235.76
770.57	235.65
770.90	235.54
771.22	235.48
771.55	235.38
771.87	235.25
772.20	235.15
772.52	235.14
772.85	235.15
773.17	235.10
773.50	234.98
773.82	234.87
774.15	234.74
774.47	234.57
774.80	234.47
775.12	234.37
775.45	234.28
775.77	234.22
776.09	234.12
776.42	234.07
776.74	234.01
777.07	233.94
777.39	233.86
777.72	233.78
778.04	233.70
778.36	233.63
778.69	233.59
779.01	233.52
779.33	233.36
779.66	233.19
779.98	233.11
780.31	233.06
780.63	233.06
780.95	232.99
781.28	232.94
781.60	232.85
781.92	232.82
782.25	232.79
782.57	232.73
782.89	232.69
783.22	232.60
783.54	232.53
783.86	232.48
784.19	232.44
784.51	232.42
784.83	232.37
785.16	232.29
785.48	232.24
785.80	232.20
786.12	232.15
786.45	232.11
786.77	232.07
787.09	232.04
