SpectraSuite Data File
++++++++++++++++++++++++++++++++++++
Date: Fri Feb 01 15:41:41 EST 2013
User: group
Dark Spectrum Present: No
Reference Spectrum Present: No
Number of Sampled Component Spectra: 1
Spectrometers: USB2E7196
Integration Time (usec): 35000 (USB2E7196)
Spectra Averaged: 100 (USB2E7196)
Boxcar Smoothing: 10 (USB2E7196)
Correct for Electrical Dark: No (USB2E7196)
Strobe/Lamp Enabled: No (USB2E7196)
Correct for Detector Non-linearity: No (USB2E7196)
Correct for Stray Light: No (USB2E7196)
Number of Pixels in Processed Spectrum: 2048
>>>>>Begin Processed Spectral Data<<<<<
339.09	0.00
339.48	215.36
339.86	216.12
340.24	217.86
340.63	219.45
341.01	221.89
341.39	221.32
341.78	223.58
342.16	224.12
342.54	224.95
342.93	213.26
343.31	224.00
343.69	224.51
344.07	225.00
344.46	225.41
344.84	225.75
345.22	225.97
345.60	226.23
345.99	226.38
346.37	226.52
346.75	226.64
347.13	226.71
347.52	226.78
347.90	226.89
348.28	226.90
348.66	226.97
349.05	226.96
349.43	227.01
349.81	227.04
350.19	227.08
350.57	227.13
350.96	227.21
351.34	227.29
351.72	227.38
352.10	227.44
352.48	227.52
352.87	227.59
353.25	227.67
353.63	227.73
354.01	227.79
354.39	227.88
354.77	227.95
355.15	228.05
355.54	228.11
355.92	228.11
356.30	228.19
356.68	228.32
357.06	228.40
357.44	228.44
357.82	228.53
358.20	228.56
358.58	228.63
358.97	228.70
359.35	228.81
359.73	228.90
360.11	228.97
360.49	229.05
360.87	229.12
361.25	229.17
361.63	229.29
362.01	229.38
362.39	229.40
362.77	229.41
363.15	229.44
363.53	229.44
363.91	229.49
364.29	229.51
364.67	229.43
365.05	229.42
365.43	229.44
365.81	229.45
366.19	229.50
366.57	229.57
366.95	229.53
367.33	229.52
367.71	229.51
368.09	229.51
368.47	229.47
368.85	229.46
369.23	229.46
369.61	229.37
369.99	229.36
370.37	229.35
370.75	229.37
371.13	229.31
371.51	229.25
371.89	229.24
372.27	229.22
372.65	229.17
373.03	229.14
373.41	229.08
373.78	229.01
374.16	228.92
374.54	228.81
374.92	228.78
375.30	228.68
375.68	228.62
376.06	228.54
376.44	228.46
376.82	228.36
377.19	228.28
377.57	228.18
377.95	228.07
378.33	227.97
378.71	227.83
379.09	227.78
379.47	227.73
379.84	227.62
380.22	227.49
380.60	227.40
380.98	227.31
381.36	227.22
381.73	227.19
382.11	227.13
382.49	227.06
382.87	226.97
383.25	226.89
383.62	226.91
384.00	226.86
384.38	226.82
384.76	226.79
385.13	226.79
385.51	226.75
385.89	226.67
386.27	226.63
386.64	226.58
387.02	226.52
387.40	226.47
387.78	226.44
388.15	226.42
388.53	226.38
388.91	226.35
389.29	226.31
389.66	226.25
390.04	226.23
390.42	226.23
390.79	226.23
391.17	226.24
391.55	226.13
391.92	226.10
392.30	226.07
392.68	226.07
393.05	226.04
393.43	226.06
393.81	226.10
394.18	226.06
394.56	226.09
394.94	226.10
395.31	226.11
395.69	226.15
396.06	226.18
396.44	226.22
396.82	226.25
397.19	226.33
397.57	226.42
397.95	226.49
398.32	226.51
398.70	226.57
399.07	226.62
399.45	226.66
399.82	226.75
400.20	226.80
400.58	226.89
400.95	226.91
401.33	227.01
401.70	227.18
402.08	227.32
402.45	227.41
402.83	227.56
403.20	227.67
403.58	227.78
403.95	227.93
404.33	228.09
404.71	228.23
405.08	228.42
405.46	228.49
405.83	228.63
406.21	228.80
406.58	228.98
406.96	229.20
407.33	229.40
407.70	229.60
408.08	229.94
408.45	230.17
408.83	230.44
409.20	230.65
409.58	230.83
409.95	231.12
410.33	231.42
410.70	231.69
411.08	232.03
411.45	232.37
411.82	232.70
412.20	233.07
412.57	233.49
412.95	233.79
413.32	234.25
413.69	234.67
414.07	235.11
414.44	235.56
414.82	236.01
415.19	236.56
415.56	237.11
415.94	237.63
416.31	238.28
416.68	238.89
417.06	239.63
417.43	240.32
417.81	241.09
418.18	241.85
418.55	242.68
418.93	243.55
419.30	244.42
419.67	245.32
420.04	246.26
420.42	247.29
420.79	248.46
421.16	249.61
421.54	250.82
421.91	252.02
422.28	253.29
422.66	254.60
423.03	255.90
423.40	257.22
423.77	258.59
424.15	259.98
424.52	261.48
424.89	263.09
425.26	264.61
425.64	266.02
426.01	267.62
426.38	269.26
426.75	270.94
427.13	272.69
427.50	274.52
427.87	276.38
428.24	278.21
428.61	279.97
428.99	281.89
429.36	283.96
429.73	286.00
430.10	288.00
430.47	290.07
430.85	292.22
431.22	294.48
431.59	296.87
431.96	299.08
432.33	301.60
432.70	303.95
433.08	306.75
433.45	309.39
433.82	312.02
434.19	314.90
434.56	317.67
434.93	320.32
435.30	322.95
435.68	325.85
436.05	328.66
436.42	331.43
436.79	333.94
437.16	336.66
437.53	339.52
437.90	342.36
438.27	345.11
438.64	347.95
439.01	350.50
439.38	352.74
439.75	354.93
440.13	357.40
440.50	359.73
440.87	361.57
441.24	363.53
441.61	365.63
441.98	367.11
442.35	368.90
442.72	370.71
443.09	372.48
443.46	373.43
443.83	373.97
444.20	374.45
444.57	375.30
444.94	375.54
445.31	375.90
445.68	376.22
446.05	376.28
446.42	375.88
446.79	375.49
447.16	375.05
447.53	374.70
447.90	373.52
448.27	372.36
448.64	370.80
449.01	369.64
449.37	367.68
449.74	365.77
450.11	363.57
450.48	361.08
450.85	358.54
451.22	356.43
451.59	354.49
451.96	352.56
452.33	349.93
452.70	347.59
453.07	344.72
453.43	341.86
453.80	339.11
454.17	336.42
454.54	333.86
454.91	331.12
455.28	328.49
455.65	326.04
456.02	323.58
456.38	321.42
456.75	318.78
457.12	316.55
457.49	314.36
457.86	312.15
458.23	310.34
458.59	308.32
458.96	306.26
459.33	304.37
459.70	302.53
460.07	301.07
460.43	299.33
460.80	297.70
461.17	296.25
461.54	294.77
461.91	293.35
462.27	291.94
462.64	290.69
463.01	289.33
463.38	287.99
463.74	286.68
464.11	285.55
464.48	284.55
464.85	283.45
465.21	282.55
465.58	281.69
465.95	280.61
466.32	279.69
466.68	278.78
467.05	277.95
467.42	277.01
467.78	276.09
468.15	275.21
468.52	274.58
468.88	273.73
469.25	272.95
469.62	272.32
469.98	271.63
470.35	271.00
470.72	270.39
471.08	269.77
471.45	269.19
471.82	268.63
472.18	268.01
472.55	267.59
472.92	267.10
473.28	266.59
473.65	266.14
474.02	265.71
474.38	265.33
474.75	264.98
475.11	264.63
475.48	264.35
475.85	264.11
476.21	263.86
476.58	263.66
476.94	263.53
477.31	263.33
477.67	263.20
478.04	263.09
478.41	263.00
478.77	263.05
479.14	262.96
479.50	262.94
479.87	263.00
480.23	263.05
480.60	263.09
480.96	263.15
481.33	263.39
481.69	263.55
482.06	263.80
482.42	263.98
482.79	264.26
483.15	264.59
483.52	265.00
483.88	265.35
484.25	265.70
484.61	266.10
484.98	266.59
485.34	267.15
485.71	267.73
486.07	268.34
486.44	268.89
486.80	269.61
487.17	270.37
487.53	271.17
487.90	272.01
488.26	272.95
488.62	273.96
488.99	274.90
489.35	275.93
489.72	277.03
490.08	278.26
490.44	279.53
490.81	280.82
491.17	282.14
491.54	283.63
491.90	285.19
492.26	286.83
492.63	288.56
492.99	290.34
493.36	292.22
493.72	294.27
494.08	296.36
494.45	298.56
494.81	300.92
495.17	303.31
495.54	305.91
495.90	308.62
496.26	311.43
496.63	314.35
496.99	317.47
497.35	320.71
497.72	324.05
498.08	327.54
498.44	331.24
498.80	335.14
499.17	339.16
499.53	343.33
499.89	347.67
500.26	352.16
500.62	356.84
500.98	361.82
501.34	366.89
501.71	372.25
502.07	377.74
502.43	383.32
502.79	389.19
503.16	395.22
503.52	401.44
503.88	407.86
504.24	414.54
504.60	421.48
504.97	428.64
505.33	436.01
505.69	443.76
506.05	451.57
506.41	459.51
506.78	467.71
507.14	476.17
507.50	484.92
507.86	493.95
508.22	503.12
508.59	512.28
508.95	521.93
509.31	531.74
509.67	541.87
510.03	552.16
510.39	562.73
510.75	573.61
511.12	584.64
511.48	595.93
511.84	607.33
512.20	618.84
512.56	630.79
512.92	642.95
513.28	655.25
513.64	667.73
514.00	680.49
514.37	693.45
514.73	706.53
515.09	719.58
515.45	732.85
515.81	746.45
516.17	760.45
516.53	774.56
516.89	788.78
517.25	802.98
517.61	817.42
517.97	831.87
518.33	846.32
518.69	861.12
519.05	876.17
519.41	891.43
519.77	906.99
520.13	922.44
520.49	937.93
520.85	953.40
521.21	969.15
521.57	985.42
521.93	1001.20
522.29	1017.61
522.65	1033.83
523.01	1049.98
523.37	1066.07
523.73	1082.33
524.09	1098.41
524.45	1114.71
524.81	1131.36
525.17	1148.22
525.53	1165.17
525.89	1182.04
526.25	1198.73
526.61	1215.01
526.97	1231.79
527.33	1248.29
527.68	1264.89
528.04	1281.33
528.40	1297.97
528.76	1314.96
529.12	1331.55
529.48	1348.39
529.84	1364.42
530.20	1381.18
530.56	1398.42
530.91	1415.88
531.27	1432.58
531.63	1449.08
531.99	1465.67
532.35	1481.56
532.71	1497.34
533.07	1513.62
533.42	1529.52
533.78	1545.65
534.14	1562.02
534.50	1577.30
534.86	1593.10
535.21	1608.33
535.57	1624.22
535.93	1639.64
536.29	1654.41
536.65	1669.42
537.00	1684.24
537.36	1699.43
537.72	1713.91
538.08	1728.18
538.44	1741.93
538.79	1755.79
539.15	1769.37
539.51	1783.14
539.87	1797.60
540.22	1811.53
540.58	1825.31
540.94	1838.50
541.29	1851.42
541.65	1864.04
542.01	1877.18
542.37	1889.49
542.72	1901.87
543.08	1913.64
543.44	1926.08
543.79	1937.36
544.15	1948.32
544.51	1959.85
544.87	1970.92
545.22	1981.73
545.58	1992.01
545.94	2001.79
546.29	2011.79
546.65	2021.75
547.01	2030.96
547.36	2039.57
547.72	2047.99
548.07	2055.77
548.43	2064.16
548.79	2072.20
549.14	2079.86
549.50	2087.26
549.86	2095.05
550.21	2102.27
550.57	2109.40
550.92	2115.85
551.28	2122.88
551.64	2129.98
551.99	2136.55
552.35	2142.65
552.70	2148.86
553.06	2154.79
553.41	2161.24
553.77	2167.22
554.13	2173.20
554.48	2179.34
554.84	2184.74
555.19	2189.95
555.55	2195.11
555.90	2199.39
556.26	2204.16
556.61	2208.70
556.97	2213.04
557.32	2217.09
557.68	2221.30
558.03	2225.63
558.39	2229.53
558.74	2234.23
559.10	2238.01
559.45	2241.70
559.81	2246.12
560.16	2249.85
560.52	2252.99
560.87	2256.21
561.23	2258.93
561.58	2262.12
561.94	2264.63
562.29	2267.08
562.64	2269.92
563.00	2272.49
563.35	2276.11
563.71	2279.31
564.06	2282.63
564.42	2285.49
564.77	2287.91
565.12	2290.13
565.48	2292.17
565.83	2293.89
566.19	2295.05
566.54	2296.12
566.89	2297.32
567.25	2297.79
567.60	2299.10
567.96	2300.96
568.31	2301.86
568.66	2302.80
569.02	2303.16
569.37	2303.51
569.72	2304.31
570.08	2304.19
570.43	2304.31
570.78	2303.70
571.14	2302.15
571.49	2300.79
571.84	2300.49
572.20	2299.51
572.55	2298.36
572.90	2296.83
573.26	2295.47
573.61	2293.87
573.96	2291.90
574.31	2288.69
574.67	2285.68
575.02	2282.04
575.37	2278.57
575.72	2274.70
576.08	2271.38
576.43	2268.11
576.78	2264.23
577.13	2261.24
577.49	2258.37
577.84	2254.74
578.19	2251.02
578.54	2247.28
578.90	2242.99
579.25	2237.36
579.60	2232.22
579.95	2227.21
580.30	2221.96
580.66	2216.84
581.01	2211.95
581.36	2207.13
581.71	2202.94
582.06	2198.47
582.42	2193.87
582.77	2188.65
583.12	2184.01
583.47	2179.43
583.82	2174.30
584.17	2169.02
584.53	2163.35
584.88	2157.67
585.23	2151.64
585.58	2146.15
585.93	2140.70
586.28	2135.88
586.63	2130.62
586.98	2125.69
587.34	2121.02
587.69	2116.25
588.04	2110.80
588.39	2105.04
588.74	2098.60
589.09	2092.48
589.44	2085.67
589.79	2079.77
590.14	2074.23
590.49	2067.71
590.84	2061.26
591.19	2055.29
591.54	2048.92
591.89	2041.54
592.25	2034.68
592.60	2027.64
592.95	2020.11
593.30	2012.78
593.65	2005.21
594.00	1998.29
594.35	1990.97
594.70	1982.98
595.05	1975.55
595.40	1968.26
595.75	1960.81
596.10	1954.49
596.45	1947.64
596.80	1941.48
597.15	1934.82
597.50	1927.48
597.85	1921.14
598.19	1914.21
598.54	1906.93
598.89	1900.29
599.24	1894.31
599.59	1887.48
599.94	1881.35
600.29	1874.87
600.64	1868.34
600.99	1860.89
601.34	1854.01
601.69	1847.01
602.04	1840.12
602.39	1832.78
602.74	1825.92
603.08	1819.15
603.43	1812.32
603.78	1805.08
604.13	1797.93
604.48	1790.50
604.83	1783.68
605.18	1776.45
605.53	1768.55
605.87	1760.57
606.22	1753.34
606.57	1745.34
606.92	1737.99
607.27	1730.80
607.62	1723.87
607.96	1716.56
608.31	1709.92
608.66	1702.30
609.01	1694.68
609.36	1687.09
609.70	1679.10
610.05	1671.05
610.40	1663.24
610.75	1654.98
611.10	1647.26
611.44	1638.73
611.79	1630.81
612.14	1622.09
612.49	1613.12
612.83	1604.77
613.18	1596.69
613.53	1588.64
613.88	1580.17
614.22	1571.90
614.57	1563.30
614.92	1555.21
615.27	1547.44
615.61	1539.13
615.96	1531.11
616.31	1523.56
616.65	1516.16
617.00	1508.58
617.35	1501.07
617.70	1492.72
618.04	1484.16
618.39	1476.03
618.74	1468.52
619.08	1460.13
619.43	1452.66
619.78	1445.67
620.12	1438.42
620.47	1430.88
620.82	1422.64
621.16	1415.30
621.51	1407.77
621.85	1400.09
622.20	1391.65
622.55	1383.40
622.89	1375.51
623.24	1367.86
623.59	1360.48
623.93	1352.94
624.28	1345.88
624.62	1338.20
624.97	1331.04
625.32	1324.43
625.66	1317.39
626.01	1310.14
626.35	1302.76
626.70	1294.99
627.04	1287.24
627.39	1279.58
627.73	1272.14
628.08	1265.15
628.43	1257.79
628.77	1250.34
629.12	1242.78
629.46	1235.59
629.81	1228.24
630.15	1221.07
630.50	1213.75
630.84	1205.50
631.19	1197.56
631.53	1189.86
631.88	1182.39
632.22	1174.82
632.57	1167.46
632.91	1159.87
633.26	1152.39
633.60	1145.03
633.95	1137.93
634.29	1130.99
634.64	1124.27
634.98	1116.94
635.32	1109.81
635.67	1103.30
636.01	1096.73
636.36	1089.91
636.70	1083.40
637.05	1076.81
637.39	1070.43
637.73	1063.79
638.08	1057.93
638.42	1052.00
638.77	1045.63
639.11	1039.01
639.45	1032.62
639.80	1025.85
640.14	1019.39
640.49	1012.92
640.83	1006.68
641.17	1000.37
641.52	993.94
641.86	987.60
642.20	981.82
642.55	975.59
642.89	969.07
643.23	962.58
643.58	956.81
643.92	950.65
644.26	944.57
644.61	938.49
644.95	932.48
645.29	925.90
645.64	919.19
645.98	912.80
646.32	906.98
646.66	900.94
647.01	895.18
647.35	889.49
647.69	883.71
648.04	878.12
648.38	872.39
648.72	866.38
649.06	860.20
649.41	854.30
649.75	848.32
650.09	842.31
650.43	836.48
650.78	830.36
651.12	824.34
651.46	818.62
651.80	812.82
652.14	807.47
652.49	802.11
652.83	796.91
653.17	791.24
653.51	785.40
653.85	780.03
654.20	774.44
654.54	768.41
654.88	762.62
655.22	756.73
655.56	751.01
655.90	745.58
656.25	740.33
656.59	734.98
656.93	729.88
657.27	724.74
657.61	719.28
657.95	714.10
658.29	708.99
658.64	703.75
658.98	698.51
659.32	693.08
659.66	687.82
660.00	682.46
660.34	677.51
660.68	672.68
661.02	667.60
661.36	662.89
661.70	658.45
662.05	654.14
662.39	649.75
662.73	645.32
663.07	640.99
663.41	636.58
663.75	632.09
664.09	627.55
664.43	623.15
664.77	619.02
665.11	614.87
665.45	610.81
665.79	606.70
666.13	602.45
666.47	598.32
666.81	594.18
667.15	590.10
667.49	586.24
667.83	582.47
668.17	578.50
668.51	574.37
668.85	570.37
669.19	566.53
669.53	562.70
669.87	558.76
670.21	554.98
670.55	551.27
670.89	547.81
671.23	544.35
671.57	540.84
671.91	537.35
672.25	533.76
672.58	530.18
672.92	526.77
673.26	523.70
673.60	520.55
673.94	517.41
674.28	514.52
674.62	511.51
674.96	508.37
675.30	505.53
675.64	502.60
675.97	499.87
676.31	497.03
676.65	494.11
676.99	491.45
677.33	488.69
677.67	485.90
678.01	482.85
678.34	479.93
678.68	477.07
679.02	474.19
679.36	471.47
679.70	468.82
680.04	466.04
680.37	463.11
680.71	460.32
681.05	457.77
681.39	455.04
681.73	452.44
682.06	449.97
682.40	447.41
682.74	444.88
683.08	442.30
683.42	439.68
683.75	437.19
684.09	434.64
684.43	432.12
684.77	429.70
685.10	427.40
685.44	425.06
685.78	422.78
686.12	420.54
686.45	418.27
686.79	415.94
687.13	413.77
687.46	411.64
687.80	409.54
688.14	407.32
688.48	405.27
688.81	403.01
689.15	400.81
689.49	398.65
689.82	396.64
690.16	394.53
690.50	392.56
690.83	390.60
691.17	388.62
691.51	386.71
691.84	384.84
692.18	382.94
692.52	380.98
692.85	379.06
693.19	377.25
693.52	375.43
693.86	373.60
694.20	371.83
694.53	370.01
694.87	368.14
695.21	366.35
695.54	364.50
695.88	362.76
696.21	361.07
696.55	359.39
696.88	357.65
697.22	356.00
697.56	354.41
697.89	352.74
698.23	351.13
698.56	349.51
698.90	347.88
699.23	346.20
699.57	344.66
699.90	343.09
700.24	341.49
700.58	339.94
700.91	338.42
701.25	336.98
701.58	335.64
701.92	334.29
702.25	332.91
702.59	331.53
702.92	330.22
703.26	328.88
703.59	327.61
703.93	326.44
704.26	325.19
704.60	323.85
704.93	322.57
705.26	321.31
705.60	320.15
705.93	319.02
706.27	317.97
706.60	316.89
706.94	315.80
707.27	314.69
707.61	313.65
707.94	312.69
708.27	311.62
708.61	310.51
708.94	309.48
709.28	308.51
709.61	307.58
709.94	306.61
710.28	305.58
710.61	304.59
710.95	303.52
711.28	302.62
711.61	301.71
711.95	300.87
712.28	299.97
712.61	298.97
712.95	298.02
713.28	297.13
713.61	296.19
713.95	295.33
714.28	294.48
714.61	293.63
714.95	292.73
715.28	291.87
715.61	291.02
715.95	290.18
716.28	289.30
716.61	288.48
716.95	287.66
717.28	286.98
717.61	286.23
717.94	285.50
718.28	284.72
718.61	283.99
718.94	283.27
719.27	282.60
719.61	281.99
719.94	281.37
720.27	280.65
720.60	280.00
720.94	279.39
721.27	278.80
721.60	278.21
721.93	277.63
722.27	277.10
722.60	276.55
722.93	275.98
723.26	275.45
723.59	274.88
723.93	274.35
724.26	273.78
724.59	273.25
724.92	272.72
725.25	272.19
725.59	271.67
725.92	271.18
726.25	270.66
726.58	270.13
726.91	269.60
727.24	269.13
727.57	268.69
727.91	268.15
728.24	267.69
728.57	267.18
728.90	266.70
729.23	266.17
729.56	265.77
729.89	265.30
730.22	264.83
730.55	264.36
730.89	263.92
731.22	263.44
731.55	262.97
731.88	262.54
732.21	262.08
732.54	261.63
732.87	261.20
733.20	260.79
733.53	260.39
733.86	260.05
734.19	259.66
734.52	259.28
734.85	258.97
735.18	258.58
735.51	258.25
735.84	257.93
736.17	257.58
736.50	257.13
736.83	256.91
737.16	256.59
737.49	256.27
737.82	255.89
738.15	255.58
738.48	255.28
738.81	254.94
739.14	254.66
739.47	254.37
739.80	254.06
740.13	253.76
740.46	253.44
740.79	253.12
741.12	252.84
741.45	252.51
741.78	252.16
742.11	251.85
742.44	251.53
742.77	251.24
743.10	250.95
743.43	250.65
743.75	250.25
744.08	250.10
744.41	249.83
744.74	249.58
745.07	249.30
745.40	249.03
745.73	248.84
746.06	248.56
746.39	248.28
746.71	247.98
747.04	247.75
747.37	247.52
747.70	247.26
748.03	247.02
748.36	246.82
748.68	246.62
749.01	246.39
749.34	246.21
749.67	245.96
750.00	245.78
750.33	245.65
750.65	245.50
750.98	245.16
751.31	244.96
751.64	244.77
751.97	244.63
752.29	244.39
752.62	244.11
752.95	243.90
753.28	243.71
753.60	243.56
753.93	243.35
754.26	243.16
754.59	242.95
754.91	242.72
755.24	242.52
755.57	242.31
755.90	242.12
756.22	241.90
756.55	241.67
756.88	241.48
757.20	241.23
757.53	240.99
757.86	240.82
758.19	240.66
758.51	240.48
758.84	240.26
759.17	240.13
759.49	240.00
759.82	239.86
760.15	239.70
760.47	239.50
760.80	239.31
761.13	239.17
761.45	239.00
761.78	238.90
762.11	238.78
762.43	238.63
762.76	238.46
763.08	238.33
763.41	238.24
763.74	238.06
764.06	237.91
764.39	237.75
764.71	237.63
765.04	237.45
765.37	237.31
765.69	237.17
766.02	237.00
766.34	236.84
766.67	236.72
767.00	236.64
767.32	236.58
767.65	236.53
767.97	236.39
768.30	236.28
768.62	236.13
768.95	235.96
769.27	235.85
769.60	235.75
769.92	235.59
770.25	235.42
770.57	235.29
770.90	235.17
771.22	235.08
771.55	234.96
771.87	234.85
772.20	234.75
772.52	234.73
772.85	234.78
773.17	234.68
773.50	234.55
773.82	234.40
774.15	234.24
774.47	234.09
774.80	234.01
775.12	233.92
775.45	233.86
775.77	233.78
776.09	233.67
776.42	233.58
776.74	233.52
777.07	233.48
777.39	233.42
777.72	233.37
778.04	233.27
778.36	233.18
778.69	233.13
779.01	233.09
779.33	232.96
779.66	232.74
779.98	232.66
780.31	232.61
780.63	232.62
780.95	232.59
781.28	232.53
781.60	232.46
781.92	232.40
782.25	232.33
782.57	232.26
782.89	232.22
783.22	232.18
783.54	232.13
783.86	232.06
784.19	232.02
784.51	232.03
784.83	232.02
785.16	232.01
785.48	231.96
785.80	231.93
786.12	231.90
786.45	231.83
786.77	231.80
787.09	231.73
