SpectraSuite Data File
++++++++++++++++++++++++++++++++++++
Date: Fri Feb 01 15:48:42 EST 2013
User: group
Dark Spectrum Present: No
Reference Spectrum Present: No
Number of Sampled Component Spectra: 1
Spectrometers: USB2E7196
Integration Time (usec): 35000 (USB2E7196)
Spectra Averaged: 100 (USB2E7196)
Boxcar Smoothing: 10 (USB2E7196)
Correct for Electrical Dark: No (USB2E7196)
Strobe/Lamp Enabled: No (USB2E7196)
Correct for Detector Non-linearity: No (USB2E7196)
Correct for Stray Light: No (USB2E7196)
Number of Pixels in Processed Spectrum: 2048
>>>>>Begin Processed Spectral Data<<<<<
339.09	0.00
339.48	214.62
339.86	216.45
340.24	218.03
340.63	219.35
341.01	222.23
341.39	221.51
341.78	223.29
342.16	224.17
342.54	224.96
342.93	213.34
343.31	224.15
343.69	224.74
344.07	225.21
344.46	225.63
344.84	226.03
345.22	226.24
345.60	226.48
345.99	226.68
346.37	226.81
346.75	226.91
347.13	227.00
347.52	227.05
347.90	227.10
348.28	227.13
348.66	227.16
349.05	227.15
349.43	227.15
349.81	227.22
350.19	227.33
350.57	227.38
350.96	227.47
351.34	227.53
351.72	227.58
352.10	227.65
352.48	227.73
352.87	227.74
353.25	227.80
353.63	227.87
354.01	227.94
354.39	228.02
354.77	228.12
355.15	228.20
355.54	228.26
355.92	228.31
356.30	228.36
356.68	228.52
357.06	228.59
357.44	228.65
357.82	228.70
358.20	228.74
358.58	228.81
358.97	228.81
359.35	228.89
359.73	228.98
360.11	229.04
360.49	229.08
360.87	229.12
361.25	229.20
361.63	229.30
362.01	229.32
362.39	229.34
362.77	229.36
363.15	229.36
363.53	229.40
363.91	229.41
364.29	229.44
364.67	229.35
365.05	229.37
365.43	229.37
365.81	229.39
366.19	229.43
366.57	229.46
366.95	229.49
367.33	229.48
367.71	229.47
368.09	229.48
368.47	229.46
368.85	229.45
369.23	229.45
369.61	229.38
369.99	229.40
370.37	229.37
370.75	229.38
371.13	229.35
371.51	229.29
371.89	229.27
372.27	229.24
372.65	229.19
373.03	229.13
373.41	229.12
373.78	229.03
374.16	228.95
374.54	228.85
374.92	228.77
375.30	228.69
375.68	228.58
376.06	228.51
376.44	228.45
376.82	228.38
377.19	228.32
377.57	228.22
377.95	228.13
378.33	228.05
378.71	227.93
379.09	227.88
379.47	227.79
379.84	227.69
380.22	227.63
380.60	227.55
380.98	227.46
381.36	227.37
381.73	227.32
382.11	227.24
382.49	227.19
382.87	227.15
383.25	227.09
383.62	227.12
384.00	227.03
384.38	226.98
384.76	226.94
385.13	226.91
385.51	226.87
385.89	226.79
386.27	226.74
386.64	226.70
387.02	226.66
387.40	226.63
387.78	226.59
388.15	226.54
388.53	226.49
388.91	226.47
389.29	226.42
389.66	226.36
390.04	226.32
390.42	226.30
390.79	226.23
391.17	226.22
391.55	226.13
391.92	226.10
392.30	226.12
392.68	226.09
393.05	226.08
393.43	226.11
393.81	226.10
394.18	226.10
394.56	226.11
394.94	226.17
395.31	226.17
395.69	226.23
396.06	226.26
396.44	226.31
396.82	226.34
397.19	226.46
397.57	226.51
397.95	226.55
398.32	226.57
398.70	226.63
399.07	226.71
399.45	226.78
399.82	226.89
400.20	226.92
400.58	226.98
400.95	227.01
401.33	227.11
401.70	227.28
402.08	227.38
402.45	227.47
402.83	227.52
403.20	227.63
403.58	227.75
403.95	227.89
404.33	228.00
404.71	228.12
405.08	228.28
405.46	228.40
405.83	228.58
406.21	228.76
406.58	228.95
406.96	229.09
407.33	229.26
407.70	229.46
408.08	229.73
408.45	229.99
408.83	230.26
409.20	230.47
409.58	230.64
409.95	230.94
410.33	231.23
410.70	231.48
411.08	231.80
411.45	232.07
411.82	232.37
412.20	232.73
412.57	233.16
412.95	233.43
413.32	233.84
413.69	234.22
414.07	234.64
414.44	235.12
414.82	235.60
415.19	236.15
415.56	236.67
415.94	237.24
416.31	237.84
416.68	238.47
417.06	239.17
417.43	239.87
417.81	240.57
418.18	241.34
418.55	242.22
418.93	243.08
419.30	243.98
419.67	244.94
420.04	245.93
420.42	246.91
420.79	248.12
421.16	249.30
421.54	250.48
421.91	251.68
422.28	252.93
422.66	254.21
423.03	255.49
423.40	256.82
423.77	258.20
424.15	259.61
424.52	261.10
424.89	262.69
425.26	264.23
425.64	265.67
426.01	267.25
426.38	268.92
426.75	270.59
427.13	272.32
427.50	274.10
427.87	275.95
428.24	277.78
428.61	279.54
428.99	281.46
429.36	283.55
429.73	285.64
430.10	287.67
430.47	289.78
430.85	291.89
431.22	294.14
431.59	296.53
431.96	298.79
432.33	301.26
432.70	303.66
433.08	306.47
433.45	309.12
433.82	311.73
434.19	314.56
434.56	317.39
434.93	320.05
435.30	322.67
435.68	325.56
436.05	328.40
436.42	331.17
436.79	333.67
437.16	336.38
437.53	339.21
437.90	342.04
438.27	344.76
438.64	347.59
439.01	350.19
439.38	352.46
439.75	354.63
440.13	357.10
440.50	359.44
440.87	361.25
441.24	363.20
441.61	365.38
441.98	366.88
442.35	368.69
442.72	370.53
443.09	372.34
443.46	373.35
443.83	373.96
444.20	374.47
444.57	375.32
444.94	375.62
445.31	375.95
445.68	376.26
446.05	376.33
446.42	375.98
446.79	375.52
447.16	375.01
447.53	374.75
447.90	373.58
448.27	372.39
448.64	370.88
449.01	369.72
449.37	367.73
449.74	365.87
450.11	363.65
450.48	361.17
450.85	358.68
451.22	356.49
451.59	354.47
451.96	352.52
452.33	349.95
452.70	347.62
453.07	344.79
453.43	341.92
453.80	339.19
454.17	336.50
454.54	333.97
454.91	331.26
455.28	328.56
455.65	326.14
456.02	323.76
456.38	321.59
456.75	318.99
457.12	316.75
457.49	314.53
457.86	312.33
458.23	310.50
458.59	308.45
458.96	306.35
459.33	304.52
459.70	302.67
460.07	301.13
460.43	299.37
460.80	297.77
461.17	296.35
461.54	294.85
461.91	293.44
462.27	292.03
462.64	290.79
463.01	289.42
463.38	288.09
463.74	286.68
464.11	285.50
464.48	284.50
464.85	283.38
465.21	282.50
465.58	281.59
465.95	280.51
466.32	279.57
466.68	278.75
467.05	277.86
467.42	276.98
467.78	276.07
468.15	275.25
468.52	274.61
468.88	273.73
469.25	272.94
469.62	272.30
469.98	271.64
470.35	271.04
470.72	270.44
471.08	269.77
471.45	269.19
471.82	268.64
472.18	267.98
472.55	267.55
472.92	267.01
473.28	266.52
473.65	266.05
474.02	265.58
474.38	265.17
474.75	264.82
475.11	264.45
475.48	264.18
475.85	263.89
476.21	263.60
476.58	263.41
476.94	263.26
477.31	263.10
477.67	262.92
478.04	262.76
478.41	262.71
478.77	262.72
479.14	262.69
479.50	262.73
479.87	262.89
480.23	262.94
480.60	263.02
480.96	263.14
481.33	263.32
481.69	263.51
482.06	263.70
482.42	263.91
482.79	264.18
483.15	264.51
483.52	264.91
483.88	265.25
484.25	265.64
484.61	266.07
484.98	266.52
485.34	267.09
485.71	267.69
486.07	268.31
486.44	268.91
486.80	269.61
487.17	270.33
487.53	271.12
487.90	271.99
488.26	272.93
488.62	273.91
488.99	274.92
489.35	275.98
489.72	277.14
490.08	278.34
490.44	279.57
490.81	280.93
491.17	282.27
491.54	283.78
491.90	285.33
492.26	286.98
492.63	288.71
492.99	290.48
493.36	292.39
493.72	294.43
494.08	296.54
494.45	298.79
494.81	301.17
495.17	303.55
495.54	306.14
495.90	308.78
496.26	311.62
496.63	314.57
496.99	317.69
497.35	320.98
497.72	324.40
498.08	327.90
498.44	331.57
498.80	335.47
499.17	339.55
499.53	343.69
499.89	348.08
500.26	352.60
500.62	357.27
500.98	362.27
501.34	367.39
501.71	372.73
502.07	378.18
502.43	383.81
502.79	389.64
503.16	395.73
503.52	402.06
503.88	408.44
504.24	415.11
504.60	422.02
504.97	429.08
505.33	436.42
505.69	444.25
506.05	452.01
506.41	459.95
506.78	468.05
507.14	476.52
507.50	485.26
507.86	494.32
508.22	503.61
508.59	512.80
508.95	522.36
509.31	532.17
509.67	542.25
510.03	552.54
510.39	563.13
510.75	573.92
511.12	584.82
511.48	596.16
511.84	607.64
512.20	619.19
512.56	631.27
512.92	643.51
513.28	655.77
513.64	668.27
514.00	681.00
514.37	693.89
514.73	706.98
515.09	719.98
515.45	733.23
515.81	746.69
516.17	760.70
516.53	774.81
516.89	789.05
517.25	803.27
517.61	817.69
517.97	832.01
518.33	846.39
518.69	861.13
519.05	875.94
519.41	891.03
519.77	906.51
520.13	921.88
520.49	937.11
520.85	952.56
521.21	968.26
521.57	984.42
521.93	1000.25
522.29	1016.65
522.65	1032.97
523.01	1049.23
523.37	1065.29
523.73	1081.44
524.09	1097.38
524.45	1113.71
524.81	1130.33
525.17	1147.08
525.53	1164.09
525.89	1181.03
526.25	1197.89
526.61	1214.32
526.97	1231.05
527.33	1247.52
527.68	1264.15
528.04	1280.71
528.40	1297.28
528.76	1314.37
529.12	1331.02
529.48	1347.88
529.84	1363.86
530.20	1380.43
530.56	1397.46
530.91	1414.91
531.27	1431.73
531.63	1448.35
531.99	1464.80
532.35	1480.73
532.71	1496.65
533.07	1512.87
533.42	1528.69
533.78	1544.75
534.14	1561.10
534.50	1576.46
534.86	1592.39
535.21	1607.40
535.57	1623.25
535.93	1638.71
536.29	1653.48
536.65	1668.44
537.00	1683.28
537.36	1698.56
537.72	1713.16
538.08	1727.55
538.44	1741.29
538.79	1755.15
539.15	1768.86
539.51	1782.57
539.87	1796.80
540.22	1810.55
540.58	1824.32
540.94	1837.65
541.29	1850.49
541.65	1863.29
542.01	1876.56
542.37	1888.90
542.72	1901.36
543.08	1913.12
543.44	1925.50
543.79	1936.65
544.15	1947.62
544.51	1959.10
544.87	1970.08
545.22	1980.79
545.58	1990.93
545.94	2000.70
546.29	2010.58
546.65	2020.41
547.01	2029.77
547.36	2038.67
547.72	2047.07
548.07	2054.80
548.43	2063.08
548.79	2071.20
549.14	2078.65
549.50	2085.98
549.86	2093.59
550.21	2101.02
550.57	2108.19
550.92	2114.77
551.28	2121.83
551.64	2129.01
551.99	2135.50
552.35	2141.65
552.70	2147.82
553.06	2153.80
553.41	2160.11
553.77	2166.05
554.13	2172.06
554.48	2178.20
554.84	2183.58
555.19	2188.93
555.55	2194.14
555.90	2198.52
556.26	2203.34
556.61	2207.96
556.97	2212.08
557.32	2216.29
557.68	2220.35
558.03	2224.77
558.39	2228.42
558.74	2233.08
559.10	2237.09
559.45	2240.78
559.81	2245.14
560.16	2248.94
560.52	2252.20
560.87	2255.66
561.23	2258.32
561.58	2261.37
561.94	2263.83
562.29	2266.19
562.64	2268.71
563.00	2271.32
563.35	2274.85
563.71	2277.95
564.06	2281.25
564.42	2284.29
564.77	2286.63
565.12	2288.95
565.48	2290.80
565.83	2292.71
566.19	2293.99
566.54	2294.71
566.89	2295.82
567.25	2296.28
567.60	2297.64
567.96	2299.40
568.31	2300.24
568.66	2301.31
569.02	2301.65
569.37	2301.99
569.72	2302.88
570.08	2303.12
570.43	2303.18
570.78	2302.53
571.14	2300.95
571.49	2299.58
571.84	2299.03
572.20	2297.96
572.55	2296.82
572.90	2295.27
573.26	2293.72
573.61	2292.09
573.96	2290.39
574.31	2287.41
574.67	2284.63
575.02	2280.94
575.37	2277.48
575.72	2273.61
576.08	2270.36
576.43	2267.10
576.78	2263.31
577.13	2260.07
577.49	2257.02
577.84	2253.39
578.19	2249.69
578.54	2246.16
578.90	2241.90
579.25	2236.49
579.60	2231.45
579.95	2226.47
580.30	2221.45
580.66	2216.37
581.01	2211.34
581.36	2206.29
581.71	2202.08
582.06	2197.45
582.42	2192.98
582.77	2187.71
583.12	2183.14
583.47	2178.31
583.82	2173.30
584.17	2168.10
584.53	2162.60
584.88	2156.95
585.23	2151.28
585.58	2145.69
585.93	2140.08
586.28	2135.27
586.63	2130.06
586.98	2125.08
587.34	2120.43
587.69	2115.51
588.04	2110.13
588.39	2104.53
588.74	2098.08
589.09	2091.89
589.44	2085.00
589.79	2078.97
590.14	2073.54
590.49	2066.93
590.84	2060.44
591.19	2054.39
591.54	2048.06
591.89	2040.67
592.25	2033.82
592.60	2026.66
592.95	2019.23
593.30	2011.94
593.65	2004.44
594.00	1997.44
594.35	1990.19
594.70	1982.15
595.05	1974.94
595.40	1967.73
595.75	1960.16
596.10	1953.97
596.45	1947.19
596.80	1941.05
597.15	1934.37
597.50	1926.99
597.85	1920.54
598.19	1913.83
598.54	1906.65
598.89	1899.89
599.24	1893.94
599.59	1887.26
599.94	1880.99
600.29	1874.60
600.64	1867.99
600.99	1860.39
601.34	1853.57
601.69	1846.62
602.04	1839.78
602.39	1832.36
602.74	1825.56
603.08	1818.86
603.43	1812.16
603.78	1804.98
604.13	1797.81
604.48	1790.45
604.83	1783.60
605.18	1776.61
605.53	1768.68
605.87	1760.71
606.22	1753.45
606.57	1745.54
606.92	1738.16
607.27	1730.91
607.62	1723.95
607.96	1716.59
608.31	1709.95
608.66	1702.23
609.01	1694.58
609.36	1686.88
609.70	1678.89
610.05	1670.86
610.40	1663.13
610.75	1654.61
611.10	1646.83
611.44	1638.43
611.79	1630.42
612.14	1621.74
612.49	1612.64
612.83	1604.28
613.18	1596.24
613.53	1588.24
613.88	1579.78
614.22	1571.44
614.57	1562.85
614.92	1554.77
615.27	1547.26
615.61	1539.03
615.96	1531.07
616.31	1523.48
616.65	1516.02
617.00	1508.42
617.35	1500.72
617.70	1492.34
618.04	1483.93
618.39	1475.74
618.74	1468.04
619.08	1459.84
619.43	1452.35
619.78	1445.50
620.12	1438.28
620.47	1430.73
620.82	1422.46
621.16	1415.04
621.51	1407.58
621.85	1400.07
622.20	1391.56
622.55	1383.21
622.89	1375.41
623.24	1367.91
623.59	1360.48
623.93	1353.02
624.28	1345.78
624.62	1338.34
624.97	1331.21
625.32	1324.53
625.66	1317.58
626.01	1310.39
626.35	1302.98
626.70	1295.28
627.04	1287.39
627.39	1279.70
627.73	1272.32
628.08	1265.41
628.43	1257.99
628.77	1250.58
629.12	1242.93
629.46	1235.80
629.81	1228.49
630.15	1221.28
630.50	1213.84
630.84	1205.64
631.19	1197.81
631.53	1190.34
631.88	1182.77
632.22	1175.10
632.57	1167.75
632.91	1160.16
633.26	1152.81
633.60	1145.47
633.95	1138.27
634.29	1131.36
634.64	1124.76
634.98	1117.24
635.32	1110.03
635.67	1103.50
636.01	1096.85
636.36	1090.16
636.70	1083.66
637.05	1077.05
637.39	1070.57
637.73	1064.01
638.08	1058.15
638.42	1052.05
638.77	1045.66
639.11	1038.95
639.45	1032.53
639.80	1025.87
640.14	1019.42
640.49	1012.98
640.83	1006.62
641.17	1000.36
641.52	993.96
641.86	987.40
642.20	981.70
642.55	975.46
642.89	969.05
643.23	962.53
643.58	956.63
643.92	950.42
644.26	944.27
644.61	938.21
644.95	932.18
645.29	925.58
645.64	918.87
645.98	912.48
646.32	906.75
646.66	900.76
647.01	894.97
647.35	889.35
647.69	883.47
648.04	877.91
648.38	872.08
648.72	866.09
649.06	860.07
649.41	854.14
649.75	848.18
650.09	842.14
650.43	836.36
650.78	830.22
651.12	824.26
651.46	818.56
651.80	812.80
652.14	807.43
652.49	802.05
652.83	796.85
653.17	791.15
653.51	785.35
653.85	779.95
654.20	774.32
654.54	768.24
654.88	762.45
655.22	756.55
655.56	750.96
655.90	745.56
656.25	740.24
656.59	734.94
656.93	729.87
657.27	724.73
657.61	719.26
657.95	714.20
658.29	709.15
658.64	704.01
658.98	698.75
659.32	693.25
659.66	688.03
660.00	682.74
660.34	677.78
660.68	672.94
661.02	667.90
661.36	663.18
661.70	658.72
662.05	654.41
662.39	650.10
662.73	645.57
663.07	641.15
663.41	636.74
663.75	632.21
664.09	627.61
664.43	623.22
664.77	619.17
665.11	614.96
665.45	610.80
665.79	606.65
666.13	602.46
666.47	598.41
666.81	594.28
667.15	590.22
667.49	586.33
667.83	582.54
668.17	578.62
668.51	574.57
668.85	570.55
669.19	566.69
669.53	562.86
669.87	559.03
670.21	555.36
670.55	551.72
670.89	548.31
671.23	544.92
671.57	541.40
671.91	537.81
672.25	534.28
672.58	530.76
672.92	527.31
673.26	524.15
673.60	520.99
673.94	517.89
674.28	515.02
674.62	512.09
674.96	508.91
675.30	505.96
675.64	503.02
675.97	500.22
676.31	497.37
676.65	494.45
676.99	491.74
677.33	488.88
677.67	486.08
678.01	483.00
678.34	479.97
678.68	477.14
679.02	474.32
679.36	471.56
679.70	468.86
680.04	466.15
680.37	463.28
680.71	460.49
681.05	457.83
681.39	455.05
681.73	452.45
682.06	449.93
682.40	447.40
682.74	444.88
683.08	442.34
683.42	439.76
683.75	437.26
684.09	434.72
684.43	432.24
684.77	429.76
685.10	427.48
685.44	425.20
685.78	422.86
686.12	420.62
686.45	418.33
686.79	416.00
687.13	413.74
687.46	411.60
687.80	409.46
688.14	407.25
688.48	405.20
688.81	402.92
689.15	400.78
689.49	398.64
689.82	396.51
690.16	394.47
690.50	392.49
690.83	390.55
691.17	388.56
691.51	386.62
691.84	384.82
692.18	382.88
692.52	380.90
692.85	378.98
693.19	377.12
693.52	375.35
693.86	373.57
694.20	371.86
694.53	370.02
694.87	368.18
695.21	366.41
695.54	364.61
695.88	362.87
696.21	361.17
696.55	359.53
696.88	357.90
697.22	356.20
697.56	354.58
697.89	352.92
698.23	351.30
698.56	349.75
698.90	348.14
699.23	346.48
699.57	344.88
699.90	343.39
700.24	341.87
700.58	340.27
700.91	338.75
701.25	337.27
701.58	335.92
701.92	334.58
702.25	333.21
702.59	331.82
702.92	330.50
703.26	329.22
703.59	327.92
703.93	326.76
704.26	325.53
704.60	324.24
704.93	322.97
705.26	321.71
705.60	320.52
705.93	319.37
706.27	318.34
706.60	317.31
706.94	316.22
707.27	315.04
707.61	313.99
707.94	313.01
708.27	311.94
708.61	310.87
708.94	309.84
709.28	308.84
709.61	307.89
709.94	306.93
710.28	305.92
710.61	304.90
710.95	303.78
711.28	302.86
711.61	301.88
711.95	300.97
712.28	300.03
712.61	299.04
712.95	298.06
713.28	297.16
713.61	296.27
713.95	295.41
714.28	294.58
714.61	293.73
714.95	292.86
715.28	291.98
715.61	291.10
715.95	290.24
716.28	289.40
716.61	288.57
716.95	287.78
717.28	287.00
717.61	286.29
717.94	285.57
718.28	284.75
718.61	284.06
718.94	283.38
719.27	282.72
719.61	282.08
719.94	281.48
720.27	280.77
720.60	280.10
720.94	279.46
721.27	278.86
721.60	278.27
721.93	277.67
722.27	277.12
722.60	276.57
722.93	275.99
723.26	275.46
723.59	274.90
723.93	274.35
724.26	273.81
724.59	273.23
724.92	272.72
725.25	272.25
725.59	271.71
725.92	271.19
726.25	270.70
726.58	270.22
726.91	269.70
727.24	269.22
727.57	268.75
727.91	268.25
728.24	267.75
728.57	267.27
728.90	266.83
729.23	266.33
729.56	265.90
729.89	265.43
730.22	264.94
730.55	264.48
730.89	264.00
731.22	263.57
731.55	263.18
731.88	262.72
732.21	262.28
732.54	261.85
732.87	261.45
733.20	261.07
733.53	260.67
733.86	260.32
734.19	259.92
734.52	259.55
734.85	259.24
735.18	258.88
735.51	258.52
735.84	258.16
736.17	257.82
736.50	257.42
736.83	257.21
737.16	256.89
737.49	256.56
737.82	256.25
738.15	255.90
738.48	255.55
738.81	255.20
739.14	254.88
739.47	254.57
739.80	254.23
740.13	253.90
740.46	253.57
740.79	253.25
741.12	252.92
741.45	252.59
741.78	252.23
742.11	251.93
742.44	251.58
742.77	251.28
743.10	250.96
743.43	250.64
743.75	250.26
744.08	250.08
744.41	249.80
744.74	249.51
745.07	249.23
745.40	248.93
745.73	248.71
746.06	248.42
746.39	248.16
746.71	247.89
747.04	247.61
747.37	247.36
747.70	247.08
748.03	246.85
748.36	246.66
748.68	246.40
749.01	246.16
749.34	245.94
749.67	245.70
750.00	245.52
750.33	245.42
750.65	245.20
750.98	244.87
751.31	244.68
751.64	244.50
751.97	244.34
752.29	244.15
752.62	243.91
752.95	243.75
753.28	243.53
753.60	243.34
753.93	243.14
754.26	242.93
754.59	242.72
754.91	242.51
755.24	242.28
755.57	242.10
755.90	241.89
756.22	241.69
756.55	241.52
756.88	241.30
757.20	241.03
757.53	240.82
757.86	240.64
758.19	240.48
758.51	240.28
758.84	240.06
759.17	239.87
759.49	239.69
759.82	239.54
760.15	239.39
760.47	239.23
760.80	239.10
761.13	238.99
761.45	238.84
761.78	238.69
762.11	238.54
762.43	238.37
762.76	238.22
763.08	238.14
763.41	238.00
763.74	237.86
764.06	237.73
764.39	237.62
764.71	237.47
765.04	237.28
765.37	237.16
765.69	237.04
766.02	236.92
766.34	236.80
766.67	236.64
767.00	236.54
767.32	236.49
767.65	236.42
767.97	236.30
768.30	236.19
768.62	236.10
768.95	235.98
769.27	235.89
769.60	235.82
769.92	235.67
770.25	235.54
770.57	235.42
770.90	235.27
771.22	235.12
771.55	235.05
771.87	235.00
772.20	234.91
772.52	234.89
772.85	234.90
773.17	234.83
773.50	234.70
773.82	234.59
774.15	234.43
774.47	234.26
774.80	234.15
775.12	234.06
775.45	233.98
775.77	233.89
776.09	233.80
776.42	233.71
776.74	233.69
777.07	233.61
777.39	233.57
777.72	233.48
778.04	233.44
778.36	233.34
778.69	233.24
779.01	233.17
779.33	233.01
779.66	232.80
779.98	232.73
780.31	232.68
780.63	232.68
780.95	232.62
781.28	232.54
781.60	232.46
781.92	232.36
782.25	232.28
782.57	232.24
782.89	232.20
783.22	232.11
783.54	232.01
783.86	231.94
784.19	231.85
784.51	231.88
784.83	231.81
785.16	231.78
785.48	231.71
785.80	231.67
786.12	231.64
786.45	231.63
786.77	231.60
787.09	231.56
