SpectraSuite Data File
++++++++++++++++++++++++++++++++++++
Date: Fri Feb 01 17:25:32 EST 2013
User: group
Dark Spectrum Present: No
Reference Spectrum Present: No
Number of Sampled Component Spectra: 1
Spectrometers: USB2E7196
Integration Time (usec): 35000 (USB2E7196)
Spectra Averaged: 100 (USB2E7196)
Boxcar Smoothing: 10 (USB2E7196)
Correct for Electrical Dark: No (USB2E7196)
Strobe/Lamp Enabled: No (USB2E7196)
Correct for Detector Non-linearity: No (USB2E7196)
Correct for Stray Light: No (USB2E7196)
Number of Pixels in Processed Spectrum: 2048
>>>>>Begin Processed Spectral Data<<<<<
339.09	0.00
339.48	213.17
339.86	214.29
340.24	215.99
340.63	217.47
341.01	220.28
341.39	220.02
341.78	221.62
342.16	223.00
342.54	223.18
342.93	211.39
343.31	222.07
343.69	222.58
344.07	223.04
344.46	223.42
344.84	223.78
345.22	223.98
345.60	224.19
345.99	224.33
346.37	224.41
346.75	224.48
347.13	224.54
347.52	224.60
347.90	224.70
348.28	224.71
348.66	224.74
349.05	224.68
349.43	224.71
349.81	224.76
350.19	224.78
350.57	224.82
350.96	224.91
351.34	224.94
351.72	225.01
352.10	225.09
352.48	225.19
352.87	225.22
353.25	225.26
353.63	225.36
354.01	225.43
354.39	225.48
354.77	225.57
355.15	225.66
355.54	225.72
355.92	225.76
356.30	225.83
356.68	225.97
357.06	226.06
357.44	226.11
357.82	226.15
358.20	226.24
358.58	226.31
358.97	226.39
359.35	226.52
359.73	226.62
360.11	226.68
360.49	226.72
360.87	226.80
361.25	226.90
361.63	226.96
362.01	227.02
362.39	227.07
362.77	227.11
363.15	227.20
363.53	227.22
363.91	227.28
364.29	227.34
364.67	227.27
365.05	227.30
365.43	227.32
365.81	227.37
366.19	227.43
366.57	227.47
366.95	227.46
367.33	227.43
367.71	227.43
368.09	227.46
368.47	227.47
368.85	227.46
369.23	227.45
369.61	227.40
369.99	227.42
370.37	227.41
370.75	227.43
371.13	227.33
371.51	227.30
371.89	227.26
372.27	227.21
372.65	227.18
373.03	227.17
373.41	227.15
373.78	227.09
374.16	226.97
374.54	226.91
374.92	226.86
375.30	226.81
375.68	226.74
376.06	226.68
376.44	226.64
376.82	226.61
377.19	226.56
377.57	226.50
377.95	226.41
378.33	226.36
378.71	226.26
379.09	226.25
379.47	226.20
379.84	226.12
380.22	226.05
380.60	225.97
380.98	225.90
381.36	225.81
381.73	225.74
382.11	225.73
382.49	225.67
382.87	225.63
383.25	225.55
383.62	225.61
384.00	225.52
384.38	225.45
384.76	225.39
385.13	225.36
385.51	225.31
385.89	225.26
386.27	225.20
386.64	225.17
387.02	225.12
387.40	225.06
387.78	225.01
388.15	224.98
388.53	224.94
388.91	224.89
389.29	224.88
389.66	224.86
390.04	224.84
390.42	224.79
390.79	224.77
391.17	224.74
391.55	224.63
391.92	224.63
392.30	224.63
392.68	224.59
393.05	224.59
393.43	224.58
393.81	224.58
394.18	224.56
394.56	224.54
394.94	224.54
395.31	224.55
395.69	224.62
396.06	224.64
396.44	224.67
396.82	224.66
397.19	224.75
397.57	224.75
397.95	224.79
398.32	224.82
398.70	224.85
399.07	224.93
399.45	224.96
399.82	224.97
400.20	225.01
400.58	225.05
400.95	225.04
401.33	225.14
401.70	225.26
402.08	225.41
402.45	225.51
402.83	225.63
403.20	225.72
403.58	225.77
403.95	225.88
404.33	226.00
404.71	226.15
405.08	226.27
405.46	226.41
405.83	226.53
406.21	226.67
406.58	226.82
406.96	226.97
407.33	227.14
407.70	227.35
408.08	227.63
408.45	227.86
408.83	228.12
409.20	228.33
409.58	228.51
409.95	228.73
410.33	228.99
410.70	229.23
411.08	229.54
411.45	229.87
411.82	230.20
412.20	230.57
412.57	230.98
412.95	231.31
413.32	231.73
413.69	232.16
414.07	232.62
414.44	233.13
414.82	233.61
415.19	234.21
415.56	234.78
415.94	235.37
416.31	236.10
416.68	236.74
417.06	237.48
417.43	238.21
417.81	239.01
418.18	239.80
418.55	240.70
418.93	241.60
419.30	242.55
419.67	243.52
420.04	244.51
420.42	245.56
420.79	246.80
421.16	248.01
421.54	249.30
421.91	250.56
422.28	251.85
422.66	253.24
423.03	254.58
423.40	255.97
423.77	257.41
424.15	258.82
424.52	260.35
424.89	262.02
425.26	263.66
425.64	265.16
426.01	266.86
426.38	268.56
426.75	270.32
427.13	272.07
427.50	273.97
427.87	275.94
428.24	277.84
428.61	279.64
428.99	281.65
429.36	283.78
429.73	285.87
430.10	287.95
430.47	290.10
430.85	292.32
431.22	294.65
431.59	297.12
431.96	299.43
432.33	302.00
432.70	304.49
433.08	307.36
433.45	310.11
433.82	312.79
434.19	315.80
434.56	318.67
434.93	321.43
435.30	324.14
435.68	327.09
436.05	330.03
436.42	332.92
436.79	335.51
437.16	338.35
437.53	341.32
437.90	344.26
438.27	347.09
438.64	350.04
439.01	352.74
439.38	355.04
439.75	357.34
440.13	359.94
440.50	362.31
440.87	364.21
441.24	366.20
441.61	368.43
441.98	369.99
442.35	371.88
442.72	373.86
443.09	375.77
443.46	376.84
443.83	377.45
444.20	378.03
444.57	378.94
444.94	379.22
445.31	379.61
445.68	379.96
446.05	380.05
446.42	379.68
446.79	379.27
447.16	378.84
447.53	378.50
447.90	377.34
448.27	376.19
448.64	374.59
449.01	373.47
449.37	371.48
449.74	369.50
450.11	367.19
450.48	364.60
450.85	361.92
451.22	359.71
451.59	357.65
451.96	355.62
452.33	352.90
452.70	350.48
453.07	347.54
453.43	344.55
453.80	341.71
454.17	338.90
454.54	336.25
454.91	333.47
455.28	330.71
455.65	328.15
456.02	325.61
456.38	323.42
456.75	320.62
457.12	318.25
457.49	315.96
457.86	313.70
458.23	311.78
458.59	309.68
458.96	307.53
459.33	305.61
459.70	303.71
460.07	302.15
460.43	300.37
460.80	298.70
461.17	297.20
461.54	295.66
461.91	294.19
462.27	292.67
462.64	291.34
463.01	289.94
463.38	288.59
463.74	287.15
464.11	285.93
464.48	284.90
464.85	283.79
465.21	282.88
465.58	281.94
465.95	280.81
466.32	279.89
466.68	278.97
467.05	278.05
467.42	277.12
467.78	276.15
468.15	275.27
468.52	274.62
468.88	273.76
469.25	272.93
469.62	272.30
469.98	271.61
470.35	270.98
470.72	270.36
471.08	269.65
471.45	269.13
471.82	268.54
472.18	267.93
472.55	267.45
472.92	266.92
473.28	266.45
473.65	265.96
474.02	265.52
474.38	265.11
474.75	264.79
475.11	264.42
475.48	264.17
475.85	263.92
476.21	263.67
476.58	263.49
476.94	263.34
477.31	263.19
477.67	263.04
478.04	262.94
478.41	262.90
478.77	262.95
479.14	262.87
479.50	262.87
479.87	262.95
480.23	263.06
480.60	263.14
480.96	263.22
481.33	263.43
481.69	263.64
482.06	263.82
482.42	264.02
482.79	264.23
483.15	264.54
483.52	264.89
483.88	265.21
484.25	265.53
484.61	265.97
484.98	266.38
485.34	266.95
485.71	267.51
486.07	268.12
486.44	268.67
486.80	269.40
487.17	270.12
487.53	270.92
487.90	271.72
488.26	272.62
488.62	273.58
488.99	274.58
489.35	275.59
489.72	276.70
490.08	277.89
490.44	279.16
490.81	280.46
491.17	281.81
491.54	283.28
491.90	284.78
492.26	286.39
492.63	288.12
492.99	289.86
493.36	291.71
493.72	293.67
494.08	295.77
494.45	298.00
494.81	300.35
495.17	302.77
495.54	305.31
495.90	307.96
496.26	310.72
496.63	313.64
496.99	316.75
497.35	319.99
497.72	323.34
498.08	326.81
498.44	330.48
498.80	334.35
499.17	338.30
499.53	342.44
499.89	346.76
500.26	351.18
500.62	355.78
500.98	360.68
501.34	365.73
501.71	370.96
502.07	376.32
502.43	381.90
502.79	387.66
503.16	393.69
503.52	399.90
503.88	406.24
504.24	412.77
504.60	419.56
504.97	426.65
505.33	433.85
505.69	441.45
506.05	449.08
506.41	456.82
506.78	464.89
507.14	473.20
507.50	481.77
507.86	490.70
508.22	499.79
508.59	508.90
508.95	518.31
509.31	528.06
509.67	537.98
510.03	548.06
510.39	558.41
510.75	568.97
511.12	579.64
511.48	590.72
511.84	601.97
512.20	613.24
512.56	624.86
512.92	636.81
513.28	648.92
513.64	661.12
514.00	673.59
514.37	686.28
514.73	699.06
515.09	711.87
515.45	724.74
515.81	737.98
516.17	751.56
516.53	765.41
516.89	779.15
517.25	793.01
517.61	807.05
517.97	821.16
518.33	835.26
518.69	849.73
519.05	864.33
519.41	879.11
519.77	894.24
520.13	909.15
520.49	924.14
520.85	939.03
521.21	954.37
521.57	970.23
521.93	985.55
522.29	1001.41
522.65	1017.27
523.01	1033.10
523.37	1048.71
523.73	1064.45
524.09	1080.03
524.45	1095.96
524.81	1112.08
525.17	1128.46
525.53	1144.82
525.89	1161.23
526.25	1177.65
526.61	1193.60
526.97	1209.92
527.33	1225.97
527.68	1242.30
528.04	1258.33
528.40	1274.51
528.76	1291.06
529.12	1307.19
529.48	1323.71
529.84	1339.41
530.20	1355.58
530.56	1372.06
530.91	1388.99
531.27	1405.31
531.63	1421.44
531.99	1437.46
532.35	1453.11
532.71	1468.64
533.07	1484.53
533.42	1500.01
533.78	1515.62
534.14	1531.50
534.50	1546.50
534.86	1562.07
535.21	1576.94
535.57	1592.44
535.93	1607.54
536.29	1622.05
536.65	1636.76
537.00	1651.20
537.36	1666.31
537.72	1680.45
538.08	1694.75
538.44	1708.35
538.79	1722.12
539.15	1735.47
539.51	1748.96
539.87	1763.19
540.22	1776.61
540.58	1790.17
540.94	1803.38
541.29	1815.99
541.65	1828.60
542.01	1841.57
542.37	1853.73
542.72	1866.02
543.08	1877.89
543.44	1890.42
543.79	1901.75
544.15	1912.62
544.51	1924.17
544.87	1934.97
545.22	1946.00
545.58	1956.20
545.94	1966.03
546.29	1975.87
546.65	1985.87
547.01	1995.36
547.36	2003.99
547.72	2012.65
548.07	2020.68
548.43	2028.87
548.79	2036.96
549.14	2044.65
549.50	2052.18
549.86	2059.93
550.21	2067.52
550.57	2074.91
550.92	2081.70
551.28	2088.91
551.64	2096.27
551.99	2102.88
552.35	2109.41
552.70	2115.59
553.06	2121.86
553.41	2128.59
553.77	2134.89
554.13	2141.22
554.48	2147.51
554.84	2153.49
555.19	2159.01
555.55	2164.63
555.90	2169.53
556.26	2174.98
556.61	2179.85
556.97	2184.67
557.32	2189.25
557.68	2193.65
558.03	2198.06
558.39	2201.83
558.74	2206.63
559.10	2210.82
559.45	2214.90
559.81	2219.27
560.16	2223.56
560.52	2227.31
560.87	2230.81
561.23	2233.71
561.58	2236.75
561.94	2239.64
562.29	2242.12
562.64	2245.32
563.00	2248.13
563.35	2251.95
563.71	2255.36
564.06	2258.93
564.42	2262.15
564.77	2265.11
565.12	2267.93
565.48	2270.30
565.83	2272.77
566.19	2274.68
566.54	2275.78
566.89	2277.45
567.25	2278.67
567.60	2280.24
567.96	2282.25
568.31	2283.60
568.66	2285.19
569.02	2286.48
569.37	2287.26
569.72	2288.71
570.08	2289.15
570.43	2289.52
570.78	2289.47
571.14	2288.30
571.49	2287.31
571.84	2287.13
572.20	2286.36
572.55	2285.51
572.90	2284.25
573.26	2283.27
573.61	2281.75
573.96	2280.67
574.31	2278.05
574.67	2275.49
575.02	2272.20
575.37	2268.95
575.72	2265.60
576.08	2262.46
576.43	2259.12
576.78	2255.92
577.13	2252.94
577.49	2250.01
577.84	2246.91
578.19	2243.39
578.54	2240.20
578.90	2236.62
579.25	2231.47
579.60	2226.79
579.95	2222.27
580.30	2217.50
580.66	2212.58
581.01	2207.91
581.36	2203.11
581.71	2199.27
582.06	2195.08
582.42	2191.08
582.77	2186.27
583.12	2181.92
583.47	2177.76
583.82	2173.47
584.17	2168.55
584.53	2163.32
584.88	2158.18
585.23	2152.67
585.58	2147.41
585.93	2142.11
586.28	2137.30
586.63	2132.58
586.98	2127.78
587.34	2123.14
587.69	2118.56
588.04	2113.66
588.39	2108.11
588.74	2101.99
589.09	2096.12
589.44	2089.68
589.79	2083.63
590.14	2078.23
590.49	2071.90
590.84	2065.36
591.19	2059.55
591.54	2053.27
591.89	2046.24
592.25	2039.65
592.60	2032.71
592.95	2025.56
593.30	2018.52
593.65	2011.03
594.00	2004.14
594.35	1997.03
594.70	1989.13
595.05	1982.30
595.40	1975.15
595.75	1968.00
596.10	1962.03
596.45	1955.38
596.80	1949.24
597.15	1942.99
597.50	1936.17
597.85	1929.77
598.19	1923.58
598.54	1916.63
598.89	1910.04
599.24	1904.28
599.59	1897.93
599.94	1891.87
600.29	1885.39
600.64	1878.69
600.99	1871.57
601.34	1864.79
601.69	1857.95
602.04	1851.23
602.39	1843.97
602.74	1837.26
603.08	1830.77
603.43	1823.93
603.78	1816.65
604.13	1809.47
604.48	1802.35
604.83	1795.56
605.18	1788.82
605.53	1780.93
605.87	1772.90
606.22	1765.63
606.57	1757.56
606.92	1749.93
607.27	1742.85
607.62	1736.12
607.96	1729.13
608.31	1722.81
608.66	1715.36
609.01	1707.80
609.36	1700.33
609.70	1692.33
610.05	1684.30
610.40	1676.52
610.75	1668.28
611.10	1660.63
611.44	1652.13
611.79	1643.98
612.14	1635.19
612.49	1625.92
612.83	1617.33
613.18	1609.05
613.53	1600.96
613.88	1592.40
614.22	1584.15
614.57	1575.25
614.92	1567.19
615.27	1559.56
615.61	1551.06
615.96	1542.79
616.31	1535.07
616.65	1527.54
617.00	1519.81
617.35	1511.97
617.70	1503.53
618.04	1494.96
618.39	1486.55
618.74	1479.02
619.08	1470.66
619.43	1463.04
619.78	1455.91
620.12	1448.86
620.47	1441.31
620.82	1432.96
621.16	1425.40
621.51	1417.63
621.85	1409.94
622.20	1401.24
622.55	1392.78
622.89	1384.80
623.24	1377.09
623.59	1369.56
623.93	1361.94
624.28	1354.63
624.62	1347.05
624.97	1339.73
625.32	1332.81
625.66	1325.71
626.01	1318.50
626.35	1311.07
626.70	1303.29
627.04	1295.60
627.39	1287.52
627.73	1279.98
628.08	1273.11
628.43	1265.88
628.77	1258.62
629.12	1251.09
629.46	1243.88
629.81	1236.22
630.15	1228.82
630.50	1221.40
630.84	1213.15
631.19	1205.02
631.53	1197.37
631.88	1189.65
632.22	1182.03
632.57	1174.66
632.91	1167.06
633.26	1159.58
633.60	1151.94
633.95	1144.50
634.29	1137.27
634.64	1130.57
634.98	1123.17
635.32	1115.91
635.67	1109.15
636.01	1102.40
636.36	1095.61
636.70	1088.99
637.05	1082.49
637.39	1076.02
637.73	1069.44
638.08	1063.54
638.42	1057.59
638.77	1051.10
639.11	1044.53
639.45	1038.14
639.80	1031.50
640.14	1025.11
640.49	1018.51
640.83	1012.17
641.17	1006.03
641.52	999.70
641.86	993.22
642.20	987.29
642.55	980.85
642.89	974.33
643.23	967.61
643.58	961.74
643.92	955.55
644.26	949.45
644.61	943.26
644.95	937.20
645.29	930.60
645.64	923.84
645.98	917.50
646.32	911.51
646.66	905.45
647.01	899.57
647.35	893.90
647.69	887.92
648.04	882.41
648.38	876.57
648.72	870.73
649.06	864.60
649.41	858.72
649.75	852.77
650.09	846.81
650.43	841.06
650.78	834.90
651.12	828.88
651.46	823.20
651.80	817.56
652.14	812.12
652.49	806.74
652.83	801.57
653.17	795.94
653.51	790.31
653.85	784.83
654.20	779.11
654.54	773.02
654.88	767.20
655.22	761.21
655.56	755.48
655.90	749.87
656.25	744.65
656.59	739.24
656.93	734.12
657.27	728.98
657.61	723.55
657.95	718.37
658.29	713.27
658.64	707.83
658.98	702.41
659.32	696.93
659.66	691.65
660.00	686.32
660.34	681.21
660.68	676.25
661.02	671.13
661.36	666.45
661.70	661.90
662.05	657.60
662.39	653.30
662.73	648.85
663.07	644.41
663.41	639.96
663.75	635.48
664.09	630.87
664.43	626.43
664.77	622.28
665.11	618.07
665.45	613.83
665.79	609.75
666.13	605.61
666.47	601.49
666.81	597.38
667.15	593.20
667.49	589.30
667.83	585.41
668.17	581.51
668.51	577.42
668.85	573.32
669.19	569.38
669.53	565.56
669.87	561.69
670.21	558.01
670.55	554.32
670.89	550.90
671.23	547.52
671.57	543.94
671.91	540.44
672.25	536.85
672.58	533.33
672.92	529.87
673.26	526.64
673.60	523.51
673.94	520.41
674.28	517.44
674.62	514.52
674.96	511.39
675.30	508.50
675.64	505.62
675.97	502.80
676.31	499.97
676.65	496.99
676.99	494.20
677.33	491.27
677.67	488.45
678.01	485.36
678.34	482.34
678.68	479.45
679.02	476.61
679.36	473.84
679.70	471.16
680.04	468.39
680.37	465.56
680.71	462.64
681.05	459.89
681.39	457.17
681.73	454.49
682.06	451.94
682.40	449.35
682.74	446.72
683.08	444.18
683.42	441.48
683.75	438.93
684.09	436.32
684.43	433.82
684.77	431.37
685.10	428.97
685.44	426.62
685.78	424.37
686.12	422.06
686.45	419.73
686.79	417.39
687.13	415.18
687.46	413.02
687.80	410.88
688.14	408.62
688.48	406.58
688.81	404.35
689.15	402.15
689.49	399.95
689.82	397.85
690.16	395.71
690.50	393.77
690.83	391.86
691.17	389.87
691.51	387.96
691.84	386.02
692.18	384.15
692.52	382.19
692.85	380.15
693.19	378.18
693.52	376.29
693.86	374.45
694.20	372.61
694.53	370.80
694.87	368.92
695.21	367.17
695.54	365.31
695.88	363.53
696.21	361.86
696.55	360.19
696.88	358.47
697.22	356.82
697.56	355.15
697.89	353.47
698.23	351.85
698.56	350.22
698.90	348.63
699.23	346.96
699.57	345.35
699.90	343.79
700.24	342.24
700.58	340.72
700.91	339.22
701.25	337.80
701.58	336.37
701.92	335.03
702.25	333.61
702.59	332.20
702.92	330.85
703.26	329.45
703.59	328.13
703.93	326.91
704.26	325.64
704.60	324.33
704.93	323.02
705.26	321.75
705.60	320.55
705.93	319.34
706.27	318.26
706.60	317.19
706.94	316.11
707.27	314.99
707.61	313.90
707.94	312.84
708.27	311.67
708.61	310.58
708.94	309.49
709.28	308.50
709.61	307.53
709.94	306.57
710.28	305.56
710.61	304.54
710.95	303.42
711.28	302.47
711.61	301.51
711.95	300.60
712.28	299.65
712.61	298.65
712.95	297.69
713.28	296.76
713.61	295.82
713.95	294.91
714.28	294.06
714.61	293.16
714.95	292.31
715.28	291.45
715.61	290.56
715.95	289.69
716.28	288.81
716.61	287.95
716.95	287.06
717.28	286.28
717.61	285.50
717.94	284.79
718.28	283.96
718.61	283.22
718.94	282.54
719.27	281.83
719.61	281.17
719.94	280.51
720.27	279.76
720.60	279.10
720.94	278.47
721.27	277.83
721.60	277.28
721.93	276.66
722.27	276.09
722.60	275.51
722.93	274.92
723.26	274.36
723.59	273.77
723.93	273.23
724.26	272.65
724.59	272.08
724.92	271.52
725.25	271.00
725.59	270.48
725.92	269.93
726.25	269.43
726.58	268.95
726.91	268.43
727.24	268.02
727.57	267.52
727.91	266.99
728.24	266.53
728.57	266.03
728.90	265.54
729.23	265.06
729.56	264.63
729.89	264.16
730.22	263.65
730.55	263.18
730.89	262.76
731.22	262.31
731.55	261.90
731.88	261.45
732.21	261.03
732.54	260.57
732.87	260.12
733.20	259.72
733.53	259.32
733.86	258.95
734.19	258.52
734.52	258.11
734.85	257.82
735.18	257.42
735.51	257.03
735.84	256.66
736.17	256.34
736.50	255.92
736.83	255.72
737.16	255.41
737.49	255.10
737.82	254.75
738.15	254.45
738.48	254.06
738.81	253.77
739.14	253.42
739.47	253.12
739.80	252.82
740.13	252.52
740.46	252.19
740.79	251.85
741.12	251.54
741.45	251.26
741.78	250.90
742.11	250.59
742.44	250.26
742.77	249.97
743.10	249.66
743.43	249.38
743.75	248.99
744.08	248.85
744.41	248.57
744.74	248.28
745.07	248.02
745.40	247.78
745.73	247.54
746.06	247.29
746.39	246.99
746.71	246.71
747.04	246.40
747.37	246.10
747.70	245.86
748.03	245.60
748.36	245.37
748.68	245.11
749.01	244.84
749.34	244.62
749.67	244.39
750.00	244.16
750.33	243.98
750.65	243.72
750.98	243.38
751.31	243.14
751.64	242.93
751.97	242.73
752.29	242.48
752.62	242.21
752.95	242.00
753.28	241.83
753.60	241.59
753.93	241.41
754.26	241.23
754.59	240.98
754.91	240.74
755.24	240.52
755.57	240.33
755.90	240.14
756.22	239.94
756.55	239.74
756.88	239.50
757.20	239.23
757.53	239.03
757.86	238.82
758.19	238.68
758.51	238.52
758.84	238.29
759.17	238.13
759.49	237.98
759.82	237.85
760.15	237.68
760.47	237.54
760.80	237.33
761.13	237.18
761.45	237.01
761.78	236.90
762.11	236.77
762.43	236.59
762.76	236.45
763.08	236.30
763.41	236.17
763.74	236.04
764.06	235.91
764.39	235.77
764.71	235.62
765.04	235.44
765.37	235.27
765.69	235.13
766.02	235.02
766.34	234.86
766.67	234.71
767.00	234.60
767.32	234.54
767.65	234.55
767.97	234.43
768.30	234.36
768.62	234.21
768.95	234.07
769.27	233.97
769.60	233.86
769.92	233.72
770.25	233.59
770.57	233.47
770.90	233.38
771.22	233.29
771.55	233.18
771.87	233.12
772.20	233.00
772.52	233.02
772.85	233.00
773.17	232.89
773.50	232.78
773.82	232.69
774.15	232.55
774.47	232.35
774.80	232.26
775.12	232.16
775.45	232.08
775.77	231.98
776.09	231.91
776.42	231.83
776.74	231.75
777.07	231.66
777.39	231.60
777.72	231.50
778.04	231.43
778.36	231.38
778.69	231.28
779.01	231.22
779.33	231.06
779.66	230.90
779.98	230.86
780.31	230.78
780.63	230.72
780.95	230.67
781.28	230.59
781.60	230.55
781.92	230.50
782.25	230.44
782.57	230.42
782.89	230.37
783.22	230.34
783.54	230.32
783.86	230.26
784.19	230.20
784.51	230.18
784.83	230.08
785.16	230.00
785.48	229.95
785.80	229.92
786.12	229.88
786.45	229.85
786.77	229.80
787.09	229.74
