SpectraSuite Data File
++++++++++++++++++++++++++++++++++++
Date: Fri Feb 01 17:37:51 EST 2013
User: group
Dark Spectrum Present: No
Reference Spectrum Present: No
Number of Sampled Component Spectra: 1
Spectrometers: USB2E7196
Integration Time (usec): 35000 (USB2E7196)
Spectra Averaged: 100 (USB2E7196)
Boxcar Smoothing: 10 (USB2E7196)
Correct for Electrical Dark: No (USB2E7196)
Strobe/Lamp Enabled: No (USB2E7196)
Correct for Detector Non-linearity: No (USB2E7196)
Correct for Stray Light: No (USB2E7196)
Number of Pixels in Processed Spectrum: 2048
>>>>>Begin Processed Spectral Data<<<<<
339.09	0.00
339.48	213.20
339.86	214.35
340.24	216.21
340.63	217.98
341.01	221.08
341.39	220.39
341.78	221.63
342.16	222.67
342.54	223.80
342.93	211.76
343.31	222.46
343.69	223.02
344.07	223.51
344.46	223.94
344.84	224.30
345.22	224.51
345.60	224.76
345.99	224.94
346.37	225.06
346.75	225.13
347.13	225.20
347.52	225.26
347.90	225.29
348.28	225.31
348.66	225.37
349.05	225.34
349.43	225.37
349.81	225.45
350.19	225.45
350.57	225.48
350.96	225.52
351.34	225.58
351.72	225.62
352.10	225.68
352.48	225.74
352.87	225.77
353.25	225.79
353.63	225.83
354.01	225.90
354.39	225.97
354.77	226.05
355.15	226.14
355.54	226.14
355.92	226.19
356.30	226.22
356.68	226.32
357.06	226.35
357.44	226.41
357.82	226.47
358.20	226.55
358.58	226.63
358.97	226.71
359.35	226.80
359.73	226.86
360.11	226.88
360.49	226.92
360.87	226.96
361.25	227.03
361.63	227.06
362.01	227.07
362.39	227.08
362.77	227.09
363.15	227.06
363.53	227.10
363.91	227.10
364.29	227.13
364.67	227.07
365.05	227.10
365.43	227.11
365.81	227.09
366.19	227.15
366.57	227.16
366.95	227.15
367.33	227.06
367.71	227.06
368.09	227.07
368.47	227.02
368.85	227.02
369.23	226.98
369.61	226.93
369.99	226.93
370.37	226.91
370.75	226.90
371.13	226.88
371.51	226.83
371.89	226.80
372.27	226.76
372.65	226.71
373.03	226.65
373.41	226.56
373.78	226.54
374.16	226.43
374.54	226.38
374.92	226.34
375.30	226.33
375.68	226.22
376.06	226.20
376.44	226.14
376.82	226.09
377.19	226.06
377.57	225.98
377.95	225.87
378.33	225.81
378.71	225.72
379.09	225.67
379.47	225.62
379.84	225.54
380.22	225.48
380.60	225.40
380.98	225.38
381.36	225.37
381.73	225.27
382.11	225.22
382.49	225.14
382.87	225.06
383.25	224.99
383.62	225.06
384.00	224.99
384.38	224.98
384.76	224.93
385.13	224.90
385.51	224.88
385.89	224.81
386.27	224.78
386.64	224.77
387.02	224.70
387.40	224.64
387.78	224.61
388.15	224.56
388.53	224.51
388.91	224.46
389.29	224.39
389.66	224.40
390.04	224.40
390.42	224.38
390.79	224.37
391.17	224.37
391.55	224.28
391.92	224.22
392.30	224.22
392.68	224.19
393.05	224.20
393.43	224.19
393.81	224.24
394.18	224.21
394.56	224.22
394.94	224.28
395.31	224.32
395.69	224.38
396.06	224.44
396.44	224.47
396.82	224.49
397.19	224.56
397.57	224.59
397.95	224.59
398.32	224.61
398.70	224.67
399.07	224.73
399.45	224.78
399.82	224.86
400.20	224.89
400.58	224.95
400.95	224.95
401.33	225.07
401.70	225.19
402.08	225.28
402.45	225.34
402.83	225.46
403.20	225.54
403.58	225.60
403.95	225.72
404.33	225.87
404.71	225.97
405.08	226.14
405.46	226.30
405.83	226.46
406.21	226.63
406.58	226.77
406.96	226.90
407.33	227.07
407.70	227.23
408.08	227.51
408.45	227.76
408.83	227.98
409.20	228.21
409.58	228.41
409.95	228.67
410.33	228.92
410.70	229.14
411.08	229.45
411.45	229.78
411.82	230.11
412.20	230.47
412.57	230.91
412.95	231.19
413.32	231.58
413.69	232.00
414.07	232.43
414.44	232.95
414.82	233.45
415.19	234.05
415.56	234.66
415.94	235.23
416.31	235.88
416.68	236.57
417.06	237.31
417.43	238.02
417.81	238.86
418.18	239.70
418.55	240.57
418.93	241.49
419.30	242.41
419.67	243.41
420.04	244.43
420.42	245.48
420.79	246.75
421.16	247.97
421.54	249.24
421.91	250.51
422.28	251.82
422.66	253.21
423.03	254.60
423.40	255.99
423.77	257.49
424.15	259.02
424.52	260.56
424.89	262.21
425.26	263.87
425.64	265.38
426.01	267.06
426.38	268.82
426.75	270.56
427.13	272.39
427.50	274.25
427.87	276.22
428.24	278.15
428.61	279.98
428.99	281.96
429.36	284.19
429.73	286.39
430.10	288.51
430.47	290.70
430.85	292.89
431.22	295.25
431.59	297.71
431.96	300.04
432.33	302.64
432.70	305.14
433.08	308.06
433.45	310.83
433.82	313.54
434.19	316.56
434.56	319.51
434.93	322.30
435.30	325.04
435.68	328.05
436.05	331.03
436.42	334.00
436.79	336.63
437.16	339.42
437.53	342.34
437.90	345.29
438.27	348.15
438.64	351.11
439.01	353.85
439.38	356.19
439.75	358.44
440.13	361.08
440.50	363.51
440.87	365.49
441.24	367.48
441.61	369.77
441.98	371.35
442.35	373.28
442.72	375.17
443.09	377.08
443.46	378.14
443.83	378.77
444.20	379.30
444.57	380.22
444.94	380.53
445.31	380.91
445.68	381.26
446.05	381.36
446.42	380.95
446.79	380.47
447.16	380.02
447.53	379.74
447.90	378.51
448.27	377.35
448.64	375.70
449.01	374.53
449.37	372.48
449.74	370.48
450.11	368.13
450.48	365.62
450.85	362.95
451.22	360.72
451.59	358.59
451.96	356.54
452.33	353.82
452.70	351.34
453.07	348.38
453.43	345.38
453.80	342.45
454.17	339.68
454.54	337.03
454.91	334.16
455.28	331.31
455.65	328.71
456.02	326.11
456.38	323.85
456.75	321.08
457.12	318.75
457.49	316.38
457.86	314.10
458.23	312.14
458.59	310.00
458.96	307.84
459.33	305.90
459.70	304.00
460.07	302.43
460.43	300.62
460.80	298.93
461.17	297.44
461.54	295.87
461.91	294.39
462.27	292.90
462.64	291.60
463.01	290.19
463.38	288.84
463.74	287.42
464.11	286.19
464.48	285.11
464.85	283.93
465.21	283.06
465.58	282.09
465.95	280.94
466.32	280.01
466.68	279.02
467.05	278.10
467.42	277.18
467.78	276.20
468.15	275.30
468.52	274.62
468.88	273.70
469.25	272.90
469.62	272.24
469.98	271.52
470.35	270.88
470.72	270.27
471.08	269.63
471.45	269.06
471.82	268.48
472.18	267.85
472.55	267.40
472.92	266.87
473.28	266.39
473.65	265.92
474.02	265.42
474.38	265.03
474.75	264.70
475.11	264.29
475.48	264.00
475.85	263.77
476.21	263.52
476.58	263.34
476.94	263.20
477.31	263.01
477.67	262.86
478.04	262.74
478.41	262.72
478.77	262.73
479.14	262.70
479.50	262.73
479.87	262.80
480.23	262.84
480.60	262.88
480.96	262.94
481.33	263.16
481.69	263.40
482.06	263.62
482.42	263.82
482.79	264.08
483.15	264.43
483.52	264.79
483.88	265.15
484.25	265.49
484.61	265.92
484.98	266.38
485.34	266.92
485.71	267.52
486.07	268.09
486.44	268.63
486.80	269.30
487.17	270.03
487.53	270.85
487.90	271.69
488.26	272.66
488.62	273.67
488.99	274.62
489.35	275.67
489.72	276.80
490.08	277.96
490.44	279.20
490.81	280.52
491.17	281.90
491.54	283.35
491.90	284.86
492.26	286.49
492.63	288.20
492.99	289.98
493.36	291.83
493.72	293.84
494.08	295.93
494.45	298.18
494.81	300.57
495.17	302.96
495.54	305.53
495.90	308.14
496.26	310.96
496.63	313.89
496.99	316.95
497.35	320.16
497.72	323.56
498.08	327.06
498.44	330.64
498.80	334.51
499.17	338.51
499.53	342.61
499.89	346.94
500.26	351.39
500.62	355.98
500.98	360.87
501.34	365.90
501.71	371.18
502.07	376.48
502.43	381.96
502.79	387.70
503.16	393.64
503.52	399.79
503.88	406.04
504.24	412.52
504.60	419.30
504.97	426.31
505.33	433.49
505.69	441.04
506.05	448.69
506.41	456.40
506.78	464.38
507.14	472.71
507.50	481.17
507.86	489.93
508.22	498.95
508.59	508.01
508.95	517.30
509.31	526.86
509.67	536.74
510.03	546.82
510.39	557.07
510.75	567.60
511.12	578.35
511.48	589.37
511.84	600.56
512.20	611.72
512.56	623.29
512.92	635.11
513.28	647.18
513.64	659.32
514.00	671.65
514.37	684.22
514.73	696.96
515.09	709.69
515.45	722.65
515.81	735.82
516.17	749.37
516.53	763.10
516.89	776.86
517.25	790.62
517.61	804.60
517.97	818.69
518.33	832.70
518.69	847.00
519.05	861.41
519.41	876.11
519.77	891.20
520.13	906.15
520.49	921.18
520.85	935.91
521.21	951.02
521.57	966.79
521.93	982.00
522.29	997.80
522.65	1013.56
523.01	1029.17
523.37	1044.61
523.73	1060.20
524.09	1075.82
524.45	1091.48
524.81	1107.62
525.17	1123.70
525.53	1139.99
525.89	1156.27
526.25	1172.53
526.61	1188.56
526.97	1204.83
527.33	1220.78
527.68	1236.84
528.04	1252.67
528.40	1268.77
528.76	1285.30
529.12	1301.46
529.48	1317.92
529.84	1333.43
530.20	1349.54
530.56	1366.08
530.91	1383.06
531.27	1399.36
531.63	1415.35
531.99	1431.49
532.35	1447.08
532.71	1462.75
533.07	1478.53
533.42	1494.12
533.78	1509.76
534.14	1525.51
534.50	1540.40
534.86	1555.85
535.21	1570.57
535.57	1586.09
535.93	1601.15
536.29	1615.73
536.65	1630.29
537.00	1644.60
537.36	1659.58
537.72	1673.71
538.08	1687.79
538.44	1701.30
538.79	1714.92
539.15	1728.25
539.51	1741.74
539.87	1755.69
540.22	1768.98
540.58	1782.39
540.94	1795.35
541.29	1807.90
541.65	1820.40
542.01	1833.35
542.37	1845.53
542.72	1857.87
543.08	1869.62
543.44	1881.95
543.79	1892.98
544.15	1903.86
544.51	1915.49
544.87	1926.12
545.22	1936.89
545.58	1947.26
545.94	1957.03
546.29	1966.86
546.65	1976.75
547.01	1986.16
547.36	1994.94
547.72	2003.57
548.07	2011.79
548.43	2019.95
548.79	2027.90
549.14	2035.74
549.50	2043.10
549.86	2050.77
550.21	2058.18
550.57	2065.50
550.92	2072.32
551.28	2079.71
551.64	2086.92
551.99	2093.66
552.35	2100.36
552.70	2106.88
553.06	2112.93
553.41	2119.45
553.77	2125.75
554.13	2131.98
554.48	2138.33
554.84	2144.20
555.19	2149.69
555.55	2155.11
555.90	2160.09
556.26	2165.62
556.61	2170.58
556.97	2175.44
557.32	2180.06
557.68	2184.56
558.03	2189.08
558.39	2192.94
558.74	2197.83
559.10	2202.21
559.45	2206.15
559.81	2210.59
560.16	2214.63
560.52	2218.41
560.87	2222.26
561.23	2225.28
561.58	2228.49
561.94	2231.44
562.29	2233.96
562.64	2237.37
563.00	2240.21
563.35	2244.04
563.71	2247.53
564.06	2250.94
564.42	2254.21
564.77	2257.25
565.12	2260.23
565.48	2262.77
565.83	2265.24
566.19	2267.09
566.54	2268.33
566.89	2269.96
567.25	2271.26
567.60	2272.95
567.96	2275.19
568.31	2276.52
568.66	2278.14
569.02	2279.40
569.37	2280.22
569.72	2281.66
570.08	2282.23
570.43	2282.77
570.78	2282.83
571.14	2281.85
571.49	2280.93
571.84	2280.97
572.20	2280.30
572.55	2279.51
572.90	2278.10
573.26	2277.31
573.61	2275.86
573.96	2274.75
574.31	2272.32
574.67	2269.71
575.02	2266.61
575.37	2263.43
575.72	2260.11
576.08	2257.04
576.43	2253.93
576.78	2250.91
577.13	2248.09
577.49	2245.14
577.84	2242.15
578.19	2238.75
578.54	2235.52
578.90	2231.91
579.25	2226.84
579.60	2222.30
579.95	2217.95
580.30	2213.45
580.66	2208.51
581.01	2204.02
581.36	2199.26
581.71	2195.53
582.06	2191.57
582.42	2187.67
582.77	2182.88
583.12	2178.69
583.47	2174.68
583.82	2170.24
584.17	2165.17
584.53	2160.11
584.88	2154.88
585.23	2149.54
585.58	2144.11
585.93	2138.98
586.28	2134.24
586.63	2129.66
586.98	2124.88
587.34	2120.19
587.69	2115.47
588.04	2110.63
588.39	2105.27
588.74	2099.09
589.09	2093.10
589.44	2086.64
589.79	2080.48
590.14	2075.03
590.49	2068.62
590.84	2062.28
591.19	2056.53
591.54	2050.18
591.89	2043.21
592.25	2036.80
592.60	2029.68
592.95	2022.72
593.30	2015.57
593.65	2008.24
594.00	2001.19
594.35	1994.18
594.70	1986.30
595.05	1979.56
595.40	1972.43
595.75	1965.13
596.10	1959.23
596.45	1952.79
596.80	1946.70
597.15	1940.45
597.50	1933.78
597.85	1927.40
598.19	1920.94
598.54	1914.11
598.89	1907.65
599.24	1901.76
599.59	1895.34
599.94	1889.17
600.29	1882.86
600.64	1876.23
600.99	1869.06
601.34	1862.46
601.69	1855.43
602.04	1848.76
602.39	1841.48
602.74	1834.67
603.08	1828.09
603.43	1821.39
603.78	1813.99
604.13	1806.79
604.48	1799.71
604.83	1792.84
605.18	1786.29
605.53	1778.39
605.87	1770.40
606.22	1763.18
606.57	1755.29
606.92	1747.72
607.27	1740.72
607.62	1733.87
607.96	1726.86
608.31	1720.48
608.66	1712.96
609.01	1705.66
609.36	1698.25
609.70	1690.17
610.05	1682.24
610.40	1674.59
610.75	1666.43
611.10	1658.81
611.44	1650.38
611.79	1642.23
612.14	1633.55
612.49	1624.22
612.83	1615.76
613.18	1607.49
613.53	1599.39
613.88	1590.86
614.22	1582.64
614.57	1573.90
614.92	1565.79
615.27	1558.22
615.61	1549.83
615.96	1541.68
616.31	1533.76
616.65	1526.35
617.00	1518.82
617.35	1511.02
617.70	1502.62
618.04	1494.08
618.39	1485.77
618.74	1478.10
619.08	1469.71
619.43	1461.95
619.78	1454.95
620.12	1447.81
620.47	1440.15
620.82	1431.86
621.16	1424.16
621.51	1416.40
621.85	1408.68
622.20	1400.00
622.55	1391.50
622.89	1383.52
623.24	1375.67
623.59	1368.11
623.93	1360.39
624.28	1352.92
624.62	1345.35
624.97	1338.10
625.32	1331.07
625.66	1323.97
626.01	1316.78
626.35	1309.49
626.70	1301.68
627.04	1293.84
627.39	1285.88
627.73	1278.45
628.08	1271.48
628.43	1264.36
628.77	1257.01
629.12	1249.57
629.46	1242.39
629.81	1234.71
630.15	1227.41
630.50	1220.08
630.84	1212.02
631.19	1203.93
631.53	1196.42
631.88	1188.80
632.22	1181.04
632.57	1173.64
632.91	1166.04
633.26	1158.61
633.60	1150.94
633.95	1143.60
634.29	1136.42
634.64	1129.59
634.98	1122.27
635.32	1115.08
635.67	1108.27
636.01	1101.56
636.36	1094.65
636.70	1088.14
637.05	1081.62
637.39	1074.99
637.73	1068.41
638.08	1062.39
638.42	1056.32
638.77	1049.90
639.11	1043.34
639.45	1036.90
639.80	1030.25
640.14	1023.93
640.49	1017.34
640.83	1010.99
641.17	1004.87
641.52	998.60
641.86	992.12
642.20	986.15
642.55	979.72
642.89	973.23
643.23	966.56
643.58	960.76
643.92	954.43
644.26	948.39
644.61	942.29
644.95	936.21
645.29	929.66
645.64	923.01
645.98	916.52
646.32	910.42
646.66	904.33
647.01	898.46
647.35	892.59
647.69	886.61
648.04	881.11
648.38	875.24
648.72	869.27
649.06	863.23
649.41	857.25
649.75	851.37
650.09	845.39
650.43	839.65
650.78	833.51
651.12	827.56
651.46	821.77
651.80	816.11
652.14	810.67
652.49	805.29
652.83	800.05
653.17	794.58
653.51	789.09
653.85	783.59
654.20	778.01
654.54	772.00
654.88	766.28
655.22	760.28
655.56	754.56
655.90	749.04
656.25	743.89
656.59	738.63
656.93	733.50
657.27	728.40
657.61	722.92
657.95	717.74
658.29	712.65
658.64	707.32
658.98	701.91
659.32	696.39
659.66	691.11
660.00	685.84
660.34	680.76
660.68	675.72
661.02	670.77
661.36	666.04
661.70	661.59
662.05	657.24
662.39	653.05
662.73	648.55
663.07	644.09
663.41	639.54
663.75	635.00
664.09	630.41
664.43	625.97
664.77	621.87
665.11	617.55
665.45	613.34
665.79	609.29
666.13	605.12
666.47	601.04
666.81	596.87
667.15	592.68
667.49	588.70
667.83	584.85
668.17	580.89
668.51	576.84
668.85	572.76
669.19	568.84
669.53	565.04
669.87	561.27
670.21	557.58
670.55	553.92
670.89	550.49
671.23	547.02
671.57	543.45
671.91	539.90
672.25	536.43
672.58	532.98
672.92	529.56
673.26	526.42
673.60	523.27
673.94	520.21
674.28	517.25
674.62	514.31
674.96	511.26
675.30	508.33
675.64	505.41
675.97	502.62
676.31	499.79
676.65	496.76
676.99	493.98
677.33	491.12
677.67	488.34
678.01	485.30
678.34	482.37
678.68	479.49
679.02	476.71
679.36	473.91
679.70	471.17
680.04	468.36
680.37	465.55
680.71	462.70
681.05	460.02
681.39	457.31
681.73	454.63
682.06	452.08
682.40	449.56
682.74	446.96
683.08	444.33
683.42	441.66
683.75	439.11
684.09	436.50
684.43	434.02
684.77	431.51
685.10	429.11
685.44	426.68
685.78	424.40
686.12	422.07
686.45	419.74
686.79	417.47
687.13	415.24
687.46	413.03
687.80	410.86
688.14	408.62
688.48	406.55
688.81	404.34
689.15	402.14
689.49	399.97
689.82	397.84
690.16	395.70
690.50	393.69
690.83	391.76
691.17	389.71
691.51	387.73
691.84	385.93
692.18	383.98
692.52	382.04
692.85	380.06
693.19	378.15
693.52	376.30
693.86	374.35
694.20	372.55
694.53	370.68
694.87	368.81
695.21	366.99
695.54	365.13
695.88	363.30
696.21	361.50
696.55	359.76
696.88	358.04
697.22	356.39
697.56	354.71
697.89	353.05
698.23	351.49
698.56	349.86
698.90	348.20
699.23	346.54
699.57	344.99
699.90	343.45
700.24	341.88
700.58	340.32
700.91	338.85
701.25	337.37
701.58	336.04
701.92	334.67
702.25	333.28
702.59	331.91
702.92	330.61
703.26	329.33
703.59	328.04
703.93	326.81
704.26	325.58
704.60	324.32
704.93	323.03
705.26	321.77
705.60	320.55
705.93	319.33
706.27	318.30
706.60	317.21
706.94	316.08
707.27	314.95
707.61	313.85
707.94	312.81
708.27	311.71
708.61	310.60
708.94	309.56
709.28	308.53
709.61	307.52
709.94	306.51
710.28	305.46
710.61	304.45
710.95	303.35
711.28	302.41
711.61	301.46
711.95	300.53
712.28	299.57
712.61	298.62
712.95	297.66
713.28	296.71
713.61	295.78
713.95	294.90
714.28	294.04
714.61	293.19
714.95	292.32
715.28	291.46
715.61	290.56
715.95	289.66
716.28	288.79
716.61	287.92
716.95	287.04
717.28	286.30
717.61	285.52
717.94	284.77
718.28	283.93
718.61	283.14
718.94	282.39
719.27	281.70
719.61	281.03
719.94	280.37
720.27	279.62
720.60	278.92
720.94	278.29
721.27	277.67
721.60	277.08
721.93	276.44
722.27	275.87
722.60	275.30
722.93	274.73
723.26	274.18
723.59	273.64
723.93	273.11
724.26	272.50
724.59	271.91
724.92	271.37
725.25	270.85
725.59	270.31
725.92	269.81
726.25	269.28
726.58	268.73
726.91	268.22
727.24	267.77
727.57	267.34
727.91	266.83
728.24	266.32
728.57	265.80
728.90	265.35
729.23	264.83
729.56	264.38
729.89	263.90
730.22	263.40
730.55	262.92
730.89	262.46
731.22	262.05
731.55	261.62
731.88	261.18
732.21	260.74
732.54	260.31
732.87	259.87
733.20	259.44
733.53	259.05
733.86	258.68
734.19	258.27
734.52	257.88
734.85	257.52
735.18	257.12
735.51	256.72
735.84	256.35
736.17	255.98
736.50	255.57
736.83	255.36
737.16	255.03
737.49	254.69
737.82	254.37
738.15	253.98
738.48	253.62
738.81	253.26
739.14	252.96
739.47	252.64
739.80	252.35
740.13	252.05
740.46	251.72
740.79	251.38
741.12	251.06
741.45	250.72
741.78	250.37
742.11	250.10
742.44	249.80
742.77	249.50
743.10	249.22
743.43	248.97
743.75	248.62
744.08	248.47
744.41	248.20
744.74	247.90
745.07	247.62
745.40	247.40
745.73	247.16
746.06	246.86
746.39	246.58
746.71	246.30
747.04	246.00
747.37	245.76
747.70	245.50
748.03	245.27
748.36	245.02
748.68	244.78
749.01	244.54
749.34	244.30
749.67	244.08
750.00	243.84
750.33	243.62
750.65	243.36
750.98	243.01
751.31	242.75
751.64	242.54
751.97	242.40
752.29	242.16
752.62	241.91
752.95	241.73
753.28	241.52
753.60	241.30
753.93	241.17
754.26	240.96
754.59	240.73
754.91	240.49
755.24	240.35
755.57	240.13
755.90	239.92
756.22	239.77
756.55	239.57
756.88	239.37
757.20	239.16
757.53	238.95
757.86	238.75
758.19	238.61
758.51	238.46
758.84	238.24
759.17	238.08
759.49	237.95
759.82	237.82
760.15	237.65
760.47	237.49
760.80	237.31
761.13	237.16
761.45	237.01
761.78	236.85
762.11	236.68
762.43	236.56
762.76	236.43
763.08	236.30
763.41	236.15
763.74	236.00
764.06	235.87
764.39	235.75
764.71	235.66
765.04	235.52
765.37	235.41
765.69	235.24
766.02	235.09
766.34	234.95
766.67	234.79
767.00	234.72
767.32	234.66
767.65	234.59
767.97	234.47
768.30	234.35
768.62	234.24
768.95	234.12
769.27	233.99
769.60	233.88
769.92	233.72
770.25	233.60
770.57	233.50
770.90	233.43
771.22	233.34
771.55	233.22
771.87	233.12
772.20	232.98
772.52	233.02
772.85	233.07
773.17	232.97
773.50	232.87
773.82	232.75
774.15	232.58
774.47	232.46
774.80	232.37
775.12	232.31
775.45	232.23
775.77	232.14
776.09	232.05
776.42	231.95
776.74	231.90
777.07	231.84
777.39	231.74
777.72	231.64
778.04	231.55
778.36	231.45
778.69	231.38
779.01	231.31
779.33	231.15
779.66	230.94
779.98	230.86
780.31	230.81
780.63	230.77
780.95	230.71
781.28	230.59
781.60	230.50
781.92	230.43
782.25	230.33
782.57	230.25
782.89	230.20
783.22	230.14
783.54	230.06
783.86	230.01
784.19	229.94
784.51	229.87
784.83	229.80
785.16	229.76
785.48	229.69
785.80	229.65
786.12	229.58
786.45	229.52
786.77	229.48
787.09	229.41
