SpectraSuite Data File
++++++++++++++++++++++++++++++++++++
Date: Fri Feb 01 16:03:10 EST 2013
User: group
Dark Spectrum Present: No
Reference Spectrum Present: No
Number of Sampled Component Spectra: 1
Spectrometers: USB2E7196
Integration Time (usec): 35000 (USB2E7196)
Spectra Averaged: 100 (USB2E7196)
Boxcar Smoothing: 10 (USB2E7196)
Correct for Electrical Dark: No (USB2E7196)
Strobe/Lamp Enabled: No (USB2E7196)
Correct for Detector Non-linearity: No (USB2E7196)
Correct for Stray Light: No (USB2E7196)
Number of Pixels in Processed Spectrum: 2048
>>>>>Begin Processed Spectral Data<<<<<
339.09	0.00
339.48	215.15
339.86	216.46
340.24	218.12
340.63	219.35
341.01	222.51
341.39	222.45
341.78	223.37
342.16	224.39
342.54	224.51
342.93	213.27
343.31	224.03
343.69	224.55
344.07	225.03
344.46	225.45
344.84	225.86
345.22	226.06
345.60	226.26
345.99	226.45
346.37	226.55
346.75	226.67
347.13	226.76
347.52	226.83
347.90	226.90
348.28	226.94
348.66	226.98
349.05	226.96
349.43	227.02
349.81	227.03
350.19	227.04
350.57	227.08
350.96	227.20
351.34	227.29
351.72	227.38
352.10	227.45
352.48	227.51
352.87	227.52
353.25	227.59
353.63	227.69
354.01	227.74
354.39	227.83
354.77	227.90
355.15	227.98
355.54	228.05
355.92	228.08
356.30	228.15
356.68	228.27
357.06	228.34
357.44	228.37
357.82	228.47
358.20	228.58
358.58	228.65
358.97	228.70
359.35	228.78
359.73	228.85
360.11	228.90
360.49	228.97
360.87	229.05
361.25	229.08
361.63	229.14
362.01	229.16
362.39	229.20
362.77	229.22
363.15	229.23
363.53	229.23
363.91	229.24
364.29	229.25
364.67	229.17
365.05	229.20
365.43	229.21
365.81	229.24
366.19	229.25
366.57	229.29
366.95	229.28
367.33	229.26
367.71	229.23
368.09	229.23
368.47	229.17
368.85	229.09
369.23	229.09
369.61	229.03
369.99	229.04
370.37	228.98
370.75	229.01
371.13	228.97
371.51	228.93
371.89	228.92
372.27	228.87
372.65	228.81
373.03	228.74
373.41	228.69
373.78	228.60
374.16	228.50
374.54	228.37
374.92	228.30
375.30	228.21
375.68	228.15
376.06	228.08
376.44	228.01
376.82	227.98
377.19	227.94
377.57	227.85
377.95	227.76
378.33	227.71
378.71	227.56
379.09	227.52
379.47	227.44
379.84	227.36
380.22	227.27
380.60	227.20
380.98	227.13
381.36	227.08
381.73	227.00
382.11	226.96
382.49	226.90
382.87	226.81
383.25	226.78
383.62	226.83
384.00	226.75
384.38	226.74
384.76	226.71
385.13	226.67
385.51	226.62
385.89	226.53
386.27	226.49
386.64	226.48
387.02	226.40
387.40	226.34
387.78	226.30
388.15	226.28
388.53	226.25
388.91	226.21
389.29	226.17
389.66	226.15
390.04	226.10
390.42	226.10
390.79	226.11
391.17	226.08
391.55	225.96
391.92	225.97
392.30	225.95
392.68	225.92
393.05	225.92
393.43	225.94
393.81	225.95
394.18	225.92
394.56	225.92
394.94	225.97
395.31	226.03
395.69	226.08
396.06	226.12
396.44	226.17
396.82	226.20
397.19	226.28
397.57	226.33
397.95	226.41
398.32	226.44
398.70	226.51
399.07	226.59
399.45	226.64
399.82	226.69
400.20	226.75
400.58	226.79
400.95	226.85
401.33	226.95
401.70	227.16
402.08	227.29
402.45	227.40
402.83	227.52
403.20	227.64
403.58	227.71
403.95	227.85
404.33	227.98
404.71	228.12
405.08	228.33
405.46	228.49
405.83	228.62
406.21	228.79
406.58	228.94
406.96	229.11
407.33	229.28
407.70	229.51
408.08	229.79
408.45	230.05
408.83	230.27
409.20	230.45
409.58	230.60
409.95	230.86
410.33	231.13
410.70	231.36
411.08	231.64
411.45	232.01
411.82	232.30
412.20	232.63
412.57	233.03
412.95	233.27
413.32	233.68
413.69	234.07
414.07	234.51
414.44	234.97
414.82	235.46
415.19	236.01
415.56	236.54
415.94	237.07
416.31	237.70
416.68	238.32
417.06	239.04
417.43	239.72
417.81	240.49
418.18	241.30
418.55	242.15
418.93	243.02
419.30	243.89
419.67	244.83
420.04	245.79
420.42	246.78
420.79	247.99
421.16	249.14
421.54	250.38
421.91	251.57
422.28	252.83
422.66	254.13
423.03	255.45
423.40	256.78
423.77	258.17
424.15	259.58
424.52	261.08
424.89	262.70
425.26	264.26
425.64	265.74
426.01	267.30
426.38	268.98
426.75	270.60
427.13	272.34
427.50	274.13
427.87	276.02
428.24	277.90
428.61	279.64
428.99	281.55
429.36	283.62
429.73	285.71
430.10	287.74
430.47	289.81
430.85	291.95
431.22	294.20
431.59	296.57
431.96	298.81
432.33	301.30
432.70	303.68
433.08	306.50
433.45	309.10
433.82	311.75
434.19	314.57
434.56	317.44
434.93	320.06
435.30	322.69
435.68	325.61
436.05	328.43
436.42	331.22
436.79	333.75
437.16	336.43
437.53	339.19
437.90	342.01
438.27	344.76
438.64	347.55
439.01	350.10
439.38	352.35
439.75	354.50
440.13	356.99
440.50	359.37
440.87	361.22
441.24	363.18
441.61	365.27
441.98	366.80
442.35	368.58
442.72	370.49
443.09	372.28
443.46	373.18
443.83	373.78
444.20	374.28
444.57	375.11
444.94	375.42
445.31	375.82
445.68	376.13
446.05	376.19
446.42	375.78
446.79	375.42
447.16	374.98
447.53	374.70
447.90	373.49
448.27	372.28
448.64	370.66
449.01	369.52
449.37	367.57
449.74	365.67
450.11	363.41
450.48	360.89
450.85	358.32
451.22	356.26
451.59	354.21
451.96	352.27
452.33	349.67
452.70	347.27
453.07	344.41
453.43	341.55
453.80	338.77
454.17	336.11
454.54	333.51
454.91	330.72
455.28	328.05
455.65	325.56
456.02	323.07
456.38	320.92
456.75	318.23
457.12	316.01
457.49	313.79
457.86	311.61
458.23	309.74
458.59	307.74
458.96	305.65
459.33	303.78
459.70	301.90
460.07	300.43
460.43	298.76
460.80	297.17
461.17	295.70
461.54	294.23
461.91	292.80
462.27	291.39
462.64	290.18
463.01	288.83
463.38	287.56
463.74	286.22
464.11	285.08
464.48	284.06
464.85	282.94
465.21	282.05
465.58	281.11
465.95	280.06
466.32	279.13
466.68	278.20
467.05	277.35
467.42	276.45
467.78	275.49
468.15	274.63
468.52	273.94
468.88	273.09
469.25	272.34
469.62	271.76
469.98	271.04
470.35	270.42
470.72	269.79
471.08	269.12
471.45	268.58
471.82	268.08
472.18	267.48
472.55	267.03
472.92	266.52
473.28	266.08
473.65	265.62
474.02	265.19
474.38	264.82
474.75	264.47
475.11	264.13
475.48	263.89
475.85	263.65
476.21	263.40
476.58	263.22
476.94	263.04
477.31	262.84
477.67	262.72
478.04	262.59
478.41	262.60
478.77	262.66
479.14	262.63
479.50	262.63
479.87	262.71
480.23	262.79
480.60	262.85
480.96	262.98
481.33	263.20
481.69	263.38
482.06	263.60
482.42	263.83
482.79	264.12
483.15	264.43
483.52	264.81
483.88	265.16
484.25	265.56
484.61	266.01
484.98	266.49
485.34	267.08
485.71	267.67
486.07	268.29
486.44	268.85
486.80	269.53
487.17	270.26
487.53	271.08
487.90	271.94
488.26	272.93
488.62	273.95
488.99	274.92
489.35	275.99
489.72	277.10
490.08	278.28
490.44	279.51
490.81	280.89
491.17	282.24
491.54	283.76
491.90	285.31
492.26	286.94
492.63	288.71
492.99	290.48
493.36	292.43
493.72	294.47
494.08	296.58
494.45	298.84
494.81	301.19
495.17	303.60
495.54	306.18
495.90	308.82
496.26	311.59
496.63	314.57
496.99	317.70
497.35	320.99
497.72	324.39
498.08	327.91
498.44	331.50
498.80	335.37
499.17	339.43
499.53	343.59
499.89	347.98
500.26	352.46
500.62	357.19
500.98	362.12
501.34	367.21
501.71	372.58
502.07	378.04
502.43	383.68
502.79	389.54
503.16	395.68
503.52	401.94
503.88	408.37
504.24	415.03
504.60	421.91
504.97	429.04
505.33	436.39
505.69	444.13
506.05	451.92
506.41	459.88
506.78	468.09
507.14	476.57
507.50	485.27
507.86	494.37
508.22	503.51
508.59	512.72
508.95	522.29
509.31	532.06
509.67	542.19
510.03	552.47
510.39	563.04
510.75	573.83
511.12	584.84
511.48	596.19
511.84	607.59
512.20	619.11
512.56	631.06
512.92	643.31
513.28	655.68
513.64	668.25
514.00	680.95
514.37	693.84
514.73	706.91
515.09	720.00
515.45	733.22
515.81	746.79
516.17	760.80
516.53	774.87
516.89	788.97
517.25	803.08
517.61	817.61
517.97	832.14
518.33	846.56
518.69	861.28
519.05	876.20
519.41	891.43
519.77	906.99
520.13	922.43
520.49	937.68
520.85	953.12
521.21	968.83
521.57	985.14
521.93	1000.92
522.29	1017.27
522.65	1033.47
523.01	1049.68
523.37	1065.70
523.73	1081.84
524.09	1097.87
524.45	1114.29
524.81	1130.97
525.17	1147.66
525.53	1164.44
525.89	1181.27
526.25	1198.11
526.61	1214.61
526.97	1231.30
527.33	1247.70
527.68	1264.23
528.04	1280.76
528.40	1297.27
528.76	1314.33
529.12	1330.79
529.48	1347.61
529.84	1363.62
530.20	1380.23
530.56	1397.25
530.91	1414.63
531.27	1431.30
531.63	1447.81
531.99	1464.33
532.35	1480.30
532.71	1496.22
533.07	1512.43
533.42	1528.27
533.78	1544.28
534.14	1560.39
534.50	1575.85
534.86	1591.68
535.21	1606.91
535.57	1622.79
535.93	1638.31
536.29	1653.02
536.65	1668.02
537.00	1682.82
537.36	1698.04
537.72	1712.55
538.08	1726.88
538.44	1740.65
538.79	1754.50
539.15	1768.14
539.51	1781.78
539.87	1796.02
540.22	1809.71
540.58	1823.49
540.94	1836.80
541.29	1849.61
541.65	1862.14
542.01	1875.13
542.37	1887.56
542.72	1899.88
543.08	1911.66
543.44	1924.09
543.79	1935.24
544.15	1946.28
544.51	1957.74
544.87	1968.73
545.22	1979.41
545.58	1989.58
545.94	1999.26
546.29	2009.29
546.65	2019.27
547.01	2028.48
547.36	2037.27
547.72	2045.66
548.07	2053.38
548.43	2061.57
548.79	2069.67
549.14	2077.28
549.50	2084.76
549.86	2092.32
550.21	2099.65
550.57	2106.70
550.92	2113.03
551.28	2120.03
551.64	2126.99
551.99	2133.45
552.35	2139.55
552.70	2145.72
553.06	2151.77
553.41	2158.15
553.77	2164.08
554.13	2169.93
554.48	2176.14
554.84	2181.48
555.19	2186.93
555.55	2192.25
555.90	2196.72
556.26	2201.50
556.61	2206.30
556.97	2210.52
557.32	2214.62
557.68	2218.76
558.03	2223.15
558.39	2226.96
558.74	2231.61
559.10	2235.53
559.45	2239.34
559.81	2243.65
560.16	2247.60
560.52	2250.85
560.87	2254.31
561.23	2257.04
561.58	2260.07
561.94	2262.55
562.29	2264.98
562.64	2267.44
563.00	2269.86
563.35	2273.26
563.71	2276.44
564.06	2279.75
564.42	2282.42
564.77	2284.93
565.12	2287.09
565.48	2288.95
565.83	2290.80
566.19	2292.11
566.54	2293.04
566.89	2294.08
567.25	2294.52
567.60	2295.76
567.96	2297.41
568.31	2298.24
568.66	2299.33
569.02	2299.85
569.37	2300.26
569.72	2301.11
570.08	2301.23
570.43	2301.44
570.78	2300.87
571.14	2299.19
571.49	2297.79
571.84	2297.77
572.20	2296.76
572.55	2295.82
572.90	2294.32
573.26	2292.92
573.61	2291.34
573.96	2289.53
574.31	2286.73
574.67	2283.90
575.02	2280.30
575.37	2276.91
575.72	2273.18
576.08	2269.78
576.43	2266.52
576.78	2262.80
577.13	2259.70
577.49	2256.76
577.84	2253.22
578.19	2249.60
578.54	2246.20
578.90	2241.86
579.25	2236.17
579.60	2231.07
579.95	2226.10
580.30	2221.09
580.66	2216.07
581.01	2210.98
581.36	2206.14
581.71	2201.93
582.06	2197.36
582.42	2192.89
582.77	2187.71
583.12	2183.15
583.47	2178.59
583.82	2173.55
584.17	2168.29
584.53	2162.82
584.88	2157.14
585.23	2151.38
585.58	2145.86
585.93	2140.43
586.28	2135.65
586.63	2130.62
586.98	2125.61
587.34	2121.03
587.69	2116.09
588.04	2110.81
588.39	2105.29
588.74	2098.75
589.09	2092.52
589.44	2085.83
589.79	2079.93
590.14	2074.35
590.49	2067.78
590.84	2061.36
591.19	2055.36
591.54	2048.89
591.89	2041.43
592.25	2034.70
592.60	2027.53
592.95	2020.04
593.30	2012.56
593.65	2005.03
594.00	1997.96
594.35	1990.61
594.70	1982.62
595.05	1975.40
595.40	1968.05
595.75	1960.46
596.10	1954.26
596.45	1947.61
596.80	1941.57
597.15	1934.96
597.50	1927.68
597.85	1921.30
598.19	1914.65
598.54	1907.56
598.89	1901.02
599.24	1895.09
599.59	1888.33
599.94	1882.21
600.29	1875.75
600.64	1869.27
600.99	1861.87
601.34	1855.02
601.69	1848.25
602.04	1841.32
602.39	1834.13
602.74	1827.32
603.08	1820.58
603.43	1813.95
603.78	1806.66
604.13	1799.33
604.48	1791.89
604.83	1785.07
605.18	1778.00
605.53	1769.80
605.87	1761.75
606.22	1754.51
606.57	1746.64
606.92	1739.50
607.27	1732.17
607.62	1725.41
607.96	1718.13
608.31	1711.43
608.66	1703.85
609.01	1696.21
609.36	1688.61
609.70	1680.46
610.05	1672.36
610.40	1664.67
610.75	1656.27
611.10	1648.52
611.44	1640.06
611.79	1632.10
612.14	1623.38
612.49	1614.15
612.83	1605.89
613.18	1597.79
613.53	1589.67
613.88	1581.11
614.22	1572.68
614.57	1564.12
614.92	1555.90
615.27	1548.22
615.61	1540.00
615.96	1531.92
616.31	1524.34
616.65	1517.03
617.00	1509.53
617.35	1501.85
617.70	1493.52
618.04	1485.00
618.39	1476.76
618.74	1469.30
619.08	1461.08
619.43	1453.65
619.78	1446.83
620.12	1439.57
620.47	1431.98
620.82	1423.84
621.16	1416.44
621.51	1408.88
621.85	1401.32
622.20	1392.85
622.55	1384.44
622.89	1376.58
623.24	1369.04
623.59	1361.67
623.93	1353.95
624.28	1346.78
624.62	1339.24
624.97	1332.09
625.32	1325.40
625.66	1318.47
626.01	1311.18
626.35	1303.57
626.70	1295.76
627.04	1287.96
627.39	1280.25
627.73	1272.94
628.08	1266.00
628.43	1258.71
628.77	1251.31
629.12	1243.68
629.46	1236.62
629.81	1229.35
630.15	1222.01
630.50	1214.60
630.84	1206.44
631.19	1198.64
631.53	1191.11
631.88	1183.63
632.22	1176.01
632.57	1168.64
632.91	1161.06
633.26	1153.62
633.60	1146.41
633.95	1139.41
634.29	1132.49
634.64	1125.86
634.98	1118.51
635.32	1111.31
635.67	1104.76
636.01	1098.09
636.36	1091.18
636.70	1084.59
637.05	1077.93
637.39	1071.53
637.73	1064.99
638.08	1059.09
638.42	1053.08
638.77	1046.52
639.11	1039.88
639.45	1033.52
639.80	1026.95
640.14	1020.50
640.49	1013.95
640.83	1007.57
641.17	1001.31
641.52	994.89
641.86	988.34
642.20	982.42
642.55	976.13
642.89	969.62
643.23	963.05
643.58	957.43
643.92	951.23
644.26	945.23
644.61	939.28
644.95	933.26
645.29	926.57
645.64	919.83
645.98	913.62
646.32	907.91
646.66	901.87
647.01	896.01
647.35	890.30
647.69	884.52
648.04	879.02
648.38	873.16
648.72	867.16
649.06	861.15
649.41	855.29
649.75	849.29
650.09	843.38
650.43	837.59
650.78	831.42
651.12	825.53
651.46	819.75
651.80	813.87
652.14	808.44
652.49	803.09
652.83	797.94
653.17	792.14
653.51	786.35
653.85	780.96
654.20	775.26
654.54	769.23
654.88	763.48
655.22	757.54
655.56	751.83
655.90	746.38
656.25	741.05
656.59	735.68
656.93	730.60
657.27	725.40
657.61	719.95
657.95	714.86
658.29	709.70
658.64	704.56
658.98	699.29
659.32	693.85
659.66	688.68
660.00	683.24
660.34	678.32
660.68	673.34
661.02	668.21
661.36	663.53
661.70	659.05
662.05	654.70
662.39	650.41
662.73	645.90
663.07	641.54
663.41	637.07
663.75	632.60
664.09	628.01
664.43	623.59
664.77	619.40
665.11	615.14
665.45	611.02
665.79	606.79
666.13	602.69
666.47	598.60
666.81	594.35
667.15	590.27
667.49	586.35
667.83	582.54
668.17	578.69
668.51	574.63
668.85	570.52
669.19	566.70
669.53	562.88
669.87	559.01
670.21	555.30
670.55	551.71
670.89	548.25
671.23	544.85
671.57	541.35
671.91	537.83
672.25	534.27
672.58	530.74
672.92	527.40
673.26	524.18
673.60	521.03
673.94	517.95
674.28	515.05
674.62	512.07
674.96	508.99
675.30	506.01
675.64	503.06
675.97	500.38
676.31	497.46
676.65	494.55
676.99	491.87
677.33	488.98
677.67	486.18
678.01	483.15
678.34	480.17
678.68	477.35
679.02	474.55
679.36	471.75
679.70	469.07
680.04	466.26
680.37	463.43
680.71	460.63
681.05	458.00
681.39	455.28
681.73	452.64
682.06	450.08
682.40	447.52
682.74	444.98
683.08	442.43
683.42	439.90
683.75	437.36
684.09	434.78
684.43	432.34
684.77	429.87
685.10	427.56
685.44	425.28
685.78	423.00
686.12	420.77
686.45	418.50
686.79	416.15
687.13	413.95
687.46	411.77
687.80	409.61
688.14	407.45
688.48	405.37
688.81	403.11
689.15	401.03
689.49	398.95
689.82	396.85
690.16	394.75
690.50	392.76
690.83	390.85
691.17	388.94
691.51	387.02
691.84	385.15
692.18	383.20
692.52	381.22
692.85	379.25
693.19	377.35
693.52	375.54
693.86	373.78
694.20	372.02
694.53	370.19
694.87	368.37
695.21	366.53
695.54	364.73
695.88	363.01
696.21	361.24
696.55	359.53
696.88	357.87
697.22	356.21
697.56	354.57
697.89	352.92
698.23	351.26
698.56	349.65
698.90	348.06
699.23	346.38
699.57	344.81
699.90	343.24
700.24	341.71
700.58	340.15
700.91	338.64
701.25	337.23
701.58	335.88
701.92	334.45
702.25	333.08
702.59	331.71
702.92	330.40
703.26	329.06
703.59	327.82
703.93	326.65
704.26	325.41
704.60	324.10
704.93	322.75
705.26	321.52
705.60	320.34
705.93	319.18
706.27	318.14
706.60	317.07
706.94	315.95
707.27	314.80
707.61	313.77
707.94	312.73
708.27	311.59
708.61	310.53
708.94	309.54
709.28	308.58
709.61	307.63
709.94	306.66
710.28	305.64
710.61	304.60
710.95	303.51
711.28	302.59
711.61	301.66
711.95	300.79
712.28	299.83
712.61	298.82
712.95	297.91
713.28	297.05
713.61	296.14
713.95	295.29
714.28	294.45
714.61	293.56
714.95	292.70
715.28	291.87
715.61	290.94
715.95	290.08
716.28	289.22
716.61	288.41
716.95	287.55
717.28	286.83
717.61	286.10
717.94	285.35
718.28	284.55
718.61	283.84
718.94	283.13
719.27	282.47
719.61	281.83
719.94	281.14
720.27	280.41
720.60	279.76
720.94	279.09
721.27	278.50
721.60	277.92
721.93	277.35
722.27	276.77
722.60	276.25
722.93	275.64
723.26	275.09
723.59	274.50
723.93	273.99
724.26	273.45
724.59	272.88
724.92	272.36
725.25	271.84
725.59	271.30
725.92	270.82
726.25	270.31
726.58	269.84
726.91	269.36
727.24	268.89
727.57	268.43
727.91	267.94
728.24	267.50
728.57	267.03
728.90	266.56
729.23	266.07
729.56	265.68
729.89	265.23
730.22	264.76
730.55	264.29
730.89	263.84
731.22	263.38
731.55	262.92
731.88	262.50
732.21	262.10
732.54	261.69
732.87	261.24
733.20	260.86
733.53	260.43
733.86	260.08
734.19	259.66
734.52	259.25
734.85	258.99
735.18	258.57
735.51	258.17
735.84	257.80
736.17	257.45
736.50	256.99
736.83	256.80
737.16	256.46
737.49	256.15
737.82	255.79
738.15	255.45
738.48	255.11
738.81	254.76
739.14	254.41
739.47	254.08
739.80	253.75
740.13	253.43
740.46	253.11
740.79	252.75
741.12	252.46
741.45	252.16
741.78	251.74
742.11	251.44
742.44	251.14
742.77	250.85
743.10	250.55
743.43	250.29
743.75	249.85
744.08	249.71
744.41	249.42
744.74	249.17
745.07	248.91
745.40	248.68
745.73	248.44
746.06	248.20
746.39	247.91
746.71	247.63
747.04	247.33
747.37	247.08
747.70	246.84
748.03	246.57
748.36	246.33
748.68	246.10
749.01	245.87
749.34	245.65
749.67	245.40
750.00	245.16
750.33	244.96
750.65	244.74
750.98	244.43
751.31	244.20
751.64	243.99
751.97	243.83
752.29	243.61
752.62	243.33
752.95	243.09
753.28	242.89
753.60	242.68
753.93	242.50
754.26	242.30
754.59	242.03
754.91	241.86
755.24	241.67
755.57	241.50
755.90	241.31
756.22	241.11
756.55	240.91
756.88	240.73
757.20	240.54
757.53	240.36
757.86	240.16
758.19	239.97
758.51	239.79
758.84	239.57
759.17	239.38
759.49	239.25
759.82	239.14
760.15	239.01
760.47	238.89
760.80	238.74
761.13	238.63
761.45	238.51
761.78	238.36
762.11	238.22
762.43	238.09
762.76	237.96
763.08	237.85
763.41	237.75
763.74	237.59
764.06	237.43
764.39	237.28
764.71	237.15
765.04	237.07
765.37	236.95
765.69	236.81
766.02	236.72
766.34	236.60
766.67	236.45
767.00	236.38
767.32	236.26
767.65	236.23
767.97	236.09
768.30	235.96
768.62	235.86
768.95	235.70
769.27	235.59
769.60	235.49
769.92	235.37
770.25	235.23
770.57	235.12
770.90	235.04
771.22	234.97
771.55	234.86
771.87	234.76
772.20	234.66
772.52	234.67
772.85	234.71
773.17	234.62
773.50	234.53
773.82	234.39
774.15	234.32
774.47	234.17
774.80	234.09
775.12	234.06
775.45	233.97
775.77	233.90
776.09	233.82
776.42	233.74
776.74	233.68
777.07	233.58
777.39	233.52
777.72	233.45
778.04	233.35
778.36	233.28
778.69	233.22
779.01	233.14
779.33	232.98
779.66	232.79
779.98	232.72
780.31	232.66
780.63	232.64
780.95	232.56
781.28	232.53
781.60	232.48
781.92	232.39
782.25	232.32
782.57	232.27
782.89	232.23
783.22	232.15
783.54	232.08
783.86	232.06
784.19	232.01
784.51	231.99
784.83	231.94
785.16	231.88
785.48	231.79
785.80	231.77
786.12	231.70
786.45	231.66
786.77	231.62
787.09	231.54
