SpectraSuite Data File
++++++++++++++++++++++++++++++++++++
Date: Fri Feb 01 15:20:56 EST 2013
User: group
Dark Spectrum Present: No
Reference Spectrum Present: No
Number of Sampled Component Spectra: 1
Spectrometers: USB2E7196
Integration Time (usec): 35000 (USB2E7196)
Spectra Averaged: 100 (USB2E7196)
Boxcar Smoothing: 10 (USB2E7196)
Correct for Electrical Dark: No (USB2E7196)
Strobe/Lamp Enabled: No (USB2E7196)
Correct for Detector Non-linearity: No (USB2E7196)
Correct for Stray Light: No (USB2E7196)
Number of Pixels in Processed Spectrum: 2048
>>>>>Begin Processed Spectral Data<<<<<
339.09	0.00
339.48	215.42
339.86	217.72
340.24	217.97
340.63	220.34
341.01	222.85
341.39	222.54
341.78	223.28
342.16	224.61
342.54	225.29
342.93	213.76
343.31	224.60
343.69	225.13
344.07	225.52
344.46	225.93
344.84	226.27
345.22	226.49
345.60	226.72
345.99	226.90
346.37	227.01
346.75	227.11
347.13	227.16
347.52	227.20
347.90	227.29
348.28	227.28
348.66	227.34
349.05	227.32
349.43	227.35
349.81	227.41
350.19	227.47
350.57	227.53
350.96	227.59
351.34	227.63
351.72	227.69
352.10	227.80
352.48	227.90
352.87	227.96
353.25	228.01
353.63	228.08
354.01	228.15
354.39	228.25
354.77	228.34
355.15	228.42
355.54	228.47
355.92	228.52
356.30	228.61
356.68	228.73
357.06	228.83
357.44	228.89
357.82	228.91
358.20	228.95
358.58	229.02
358.97	229.06
359.35	229.17
359.73	229.23
360.11	229.29
360.49	229.34
360.87	229.34
361.25	229.39
361.63	229.48
362.01	229.52
362.39	229.54
362.77	229.55
363.15	229.56
363.53	229.60
363.91	229.62
364.29	229.61
364.67	229.52
365.05	229.50
365.43	229.53
365.81	229.57
366.19	229.61
366.57	229.63
366.95	229.62
367.33	229.55
367.71	229.54
368.09	229.53
368.47	229.49
368.85	229.50
369.23	229.45
369.61	229.41
369.99	229.42
370.37	229.37
370.75	229.39
371.13	229.36
371.51	229.29
371.89	229.22
372.27	229.17
372.65	229.13
373.03	229.10
373.41	229.02
373.78	228.93
374.16	228.81
374.54	228.72
374.92	228.65
375.30	228.60
375.68	228.52
376.06	228.44
376.44	228.36
376.82	228.28
377.19	228.22
377.57	228.12
377.95	228.01
378.33	227.93
378.71	227.81
379.09	227.74
379.47	227.69
379.84	227.63
380.22	227.58
380.60	227.50
380.98	227.42
381.36	227.38
381.73	227.31
382.11	227.24
382.49	227.19
382.87	227.09
383.25	227.02
383.62	227.07
384.00	227.01
384.38	226.97
384.76	226.93
385.13	226.93
385.51	226.86
385.89	226.77
386.27	226.74
386.64	226.75
387.02	226.69
387.40	226.63
387.78	226.59
388.15	226.51
388.53	226.46
388.91	226.43
389.29	226.35
389.66	226.35
390.04	226.33
390.42	226.30
390.79	226.35
391.17	226.30
391.55	226.20
391.92	226.23
392.30	226.23
392.68	226.19
393.05	226.18
393.43	226.23
393.81	226.27
394.18	226.26
394.56	226.26
394.94	226.29
395.31	226.33
395.69	226.37
396.06	226.44
396.44	226.47
396.82	226.50
397.19	226.61
397.57	226.68
397.95	226.74
398.32	226.76
398.70	226.78
399.07	226.87
399.45	226.94
399.82	227.00
400.20	227.06
400.58	227.18
400.95	227.24
401.33	227.31
401.70	227.44
402.08	227.56
402.45	227.65
402.83	227.77
403.20	227.90
403.58	228.01
403.95	228.20
404.33	228.37
404.71	228.51
405.08	228.71
405.46	228.83
405.83	228.97
406.21	229.15
406.58	229.34
406.96	229.57
407.33	229.77
407.70	229.95
408.08	230.24
408.45	230.46
408.83	230.72
409.20	230.93
409.58	231.14
409.95	231.40
410.33	231.69
410.70	231.91
411.08	232.17
411.45	232.50
411.82	232.78
412.20	233.13
412.57	233.55
412.95	233.84
413.32	234.25
413.69	234.71
414.07	235.16
414.44	235.64
414.82	236.07
415.19	236.60
415.56	237.16
415.94	237.67
416.31	238.32
416.68	238.94
417.06	239.66
417.43	240.36
417.81	241.15
418.18	241.93
418.55	242.80
418.93	243.72
419.30	244.62
419.67	245.55
420.04	246.52
420.42	247.52
420.79	248.74
421.16	249.87
421.54	251.04
421.91	252.25
422.28	253.49
422.66	254.86
423.03	256.16
423.40	257.46
423.77	258.88
424.15	260.34
424.52	261.81
424.89	263.44
425.26	265.00
425.64	266.42
426.01	268.02
426.38	269.69
426.75	271.35
427.13	273.06
427.50	274.86
427.87	276.72
428.24	278.57
428.61	280.31
428.99	282.28
429.36	284.37
429.73	286.45
430.10	288.48
430.47	290.55
430.85	292.73
431.22	294.99
431.59	297.42
431.96	299.63
432.33	302.13
432.70	304.48
433.08	307.27
433.45	309.93
433.82	312.51
434.19	315.39
434.56	318.23
434.93	320.89
435.30	323.49
435.68	326.38
436.05	329.23
436.42	332.00
436.79	334.50
437.16	337.25
437.53	340.06
437.90	342.86
438.27	345.61
438.64	348.47
439.01	351.05
439.38	353.27
439.75	355.42
440.13	357.88
440.50	360.21
440.87	362.05
441.24	363.97
441.61	366.12
441.98	367.61
442.35	369.40
442.72	371.26
443.09	373.10
443.46	374.10
443.83	374.63
444.20	375.16
444.57	375.98
444.94	376.20
445.31	376.57
445.68	376.90
446.05	376.92
446.42	376.47
446.79	376.04
447.16	375.61
447.53	375.31
447.90	374.16
448.27	373.01
448.64	371.45
449.01	370.36
449.37	368.38
449.74	366.49
450.11	364.20
450.48	361.72
450.85	359.20
451.22	357.05
451.59	355.04
451.96	353.07
452.33	350.46
452.70	348.11
453.07	345.27
453.43	342.40
453.80	339.68
454.17	337.01
454.54	334.50
454.91	331.76
455.28	329.09
455.65	326.62
456.02	324.17
456.38	322.03
456.75	319.29
457.12	317.07
457.49	314.88
457.86	312.73
458.23	310.86
458.59	308.79
458.96	306.72
459.33	304.89
459.70	303.01
460.07	301.51
460.43	299.81
460.80	298.17
461.17	296.72
461.54	295.22
461.91	293.75
462.27	292.28
462.64	291.00
463.01	289.63
463.38	288.34
463.74	286.98
464.11	285.83
464.48	284.83
464.85	283.71
465.21	282.81
465.58	281.86
465.95	280.75
466.32	279.84
466.68	278.94
467.05	278.03
467.42	277.17
467.78	276.22
468.15	275.30
468.52	274.68
468.88	273.79
469.25	273.02
469.62	272.36
469.98	271.71
470.35	271.08
470.72	270.46
471.08	269.79
471.45	269.22
471.82	268.66
472.18	268.07
472.55	267.59
472.92	267.10
473.28	266.66
473.65	266.23
474.02	265.79
474.38	265.39
474.75	265.07
475.11	264.72
475.48	264.47
475.85	264.30
476.21	264.05
476.58	263.85
476.94	263.67
477.31	263.54
477.67	263.38
478.04	263.27
478.41	263.24
478.77	263.26
479.14	263.16
479.50	263.17
479.87	263.22
480.23	263.30
480.60	263.31
480.96	263.42
481.33	263.61
481.69	263.82
482.06	264.04
482.42	264.23
482.79	264.46
483.15	264.77
483.52	265.12
483.88	265.43
484.25	265.82
484.61	266.25
484.98	266.71
485.34	267.26
485.71	267.85
486.07	268.44
486.44	269.01
486.80	269.74
487.17	270.41
487.53	271.25
487.90	272.12
488.26	273.05
488.62	274.04
488.99	274.99
489.35	276.01
489.72	277.13
490.08	278.32
490.44	279.57
490.81	280.88
491.17	282.20
491.54	283.68
491.90	285.23
492.26	286.89
492.63	288.61
492.99	290.37
493.36	292.25
493.72	294.27
494.08	296.38
494.45	298.60
494.81	300.98
495.17	303.36
495.54	305.93
495.90	308.65
496.26	311.41
496.63	314.35
496.99	317.41
497.35	320.64
497.72	324.07
498.08	327.59
498.44	331.28
498.80	335.22
499.17	339.28
499.53	343.42
499.89	347.79
500.26	352.27
500.62	357.00
500.98	361.96
501.34	366.99
501.71	372.33
502.07	377.77
502.43	383.41
502.79	389.24
503.16	395.32
503.52	401.59
503.88	408.00
504.24	414.65
504.60	421.62
504.97	428.82
505.33	436.18
505.69	443.89
506.05	451.66
506.41	459.53
506.78	467.71
507.14	476.18
507.50	484.95
507.86	494.03
508.22	503.16
508.59	512.36
508.95	522.00
509.31	531.83
509.67	541.98
510.03	552.22
510.39	562.81
510.75	573.54
511.12	584.46
511.48	595.73
511.84	607.22
512.20	618.67
512.56	630.60
512.92	642.74
513.28	655.06
513.64	667.55
514.00	680.20
514.37	693.10
514.73	706.18
515.09	719.26
515.45	732.53
515.81	746.18
516.17	760.15
516.53	774.23
516.89	788.46
517.25	802.72
517.61	817.26
517.97	831.71
518.33	846.28
518.69	861.09
519.05	876.11
519.41	891.34
519.77	906.91
520.13	922.28
520.49	937.67
520.85	953.06
521.21	968.86
521.57	985.23
521.93	1001.14
522.29	1017.53
522.65	1033.75
523.01	1049.98
523.37	1066.03
523.73	1082.38
524.09	1098.56
524.45	1114.89
524.81	1131.51
525.17	1148.39
525.53	1165.45
525.89	1182.43
526.25	1199.39
526.61	1215.85
526.97	1232.64
527.33	1249.13
527.68	1265.92
528.04	1282.50
528.40	1299.35
528.76	1316.52
529.12	1333.16
529.48	1350.08
529.84	1366.33
530.20	1383.02
530.56	1400.20
530.91	1417.62
531.27	1434.33
531.63	1450.83
531.99	1467.37
532.35	1483.36
532.71	1499.31
533.07	1515.51
533.42	1531.32
533.78	1547.41
534.14	1563.77
534.50	1579.22
534.86	1595.30
535.21	1610.41
535.57	1626.43
535.93	1641.83
536.29	1656.57
536.65	1671.79
537.00	1686.67
537.36	1701.87
537.72	1716.47
538.08	1730.87
538.44	1744.87
538.79	1758.83
539.15	1772.65
539.51	1786.53
539.87	1801.01
540.22	1814.83
540.58	1828.79
540.94	1842.29
541.29	1855.35
541.65	1867.95
542.01	1881.35
542.37	1893.60
542.72	1906.25
543.08	1918.10
543.44	1930.73
543.79	1942.04
544.15	1952.96
544.51	1964.50
544.87	1975.58
545.22	1986.45
545.58	1996.60
545.94	2006.19
546.29	2016.14
546.65	2025.90
547.01	2035.00
547.36	2043.67
547.72	2052.16
548.07	2059.92
548.43	2068.08
548.79	2076.04
549.14	2083.76
549.50	2091.06
549.86	2098.94
550.21	2106.13
550.57	2113.27
550.92	2119.84
551.28	2127.00
551.64	2134.03
551.99	2140.56
552.35	2146.71
552.70	2152.86
553.06	2158.92
553.41	2165.51
553.77	2171.60
554.13	2177.80
554.48	2183.99
554.84	2189.40
555.19	2194.72
555.55	2199.86
555.90	2204.26
556.26	2208.98
556.61	2213.66
556.97	2217.86
557.32	2221.85
557.68	2226.03
558.03	2230.37
558.39	2234.16
558.74	2238.74
559.10	2242.67
559.45	2246.33
559.81	2250.75
560.16	2254.56
560.52	2257.93
560.87	2261.23
561.23	2263.87
561.58	2266.74
561.94	2269.42
562.29	2271.84
562.64	2274.52
563.00	2277.14
563.35	2280.84
563.71	2284.12
564.06	2287.22
564.42	2289.92
564.77	2292.36
565.12	2294.61
565.48	2296.50
565.83	2298.15
566.19	2299.26
566.54	2300.24
566.89	2301.32
567.25	2301.57
567.60	2302.82
567.96	2304.36
568.31	2305.14
568.66	2306.07
569.02	2306.64
569.37	2306.84
569.72	2307.73
570.08	2307.70
570.43	2307.67
570.78	2306.76
571.14	2305.17
571.49	2303.85
571.84	2303.64
572.20	2302.32
572.55	2301.17
572.90	2299.44
573.26	2298.08
573.61	2296.46
573.96	2294.49
574.31	2291.39
574.67	2288.47
575.02	2284.81
575.37	2281.43
575.72	2277.57
576.08	2274.31
576.43	2271.05
576.78	2267.40
577.13	2264.21
577.49	2261.03
577.84	2257.60
578.19	2253.99
578.54	2250.14
578.90	2245.82
579.25	2240.04
579.60	2235.14
579.95	2230.01
580.30	2225.10
580.66	2219.85
581.01	2214.74
581.36	2209.69
581.71	2205.46
582.06	2200.97
582.42	2196.45
582.77	2191.02
583.12	2186.37
583.47	2181.33
583.82	2176.02
584.17	2170.63
584.53	2164.86
584.88	2159.14
585.23	2153.13
585.58	2147.42
585.93	2141.93
586.28	2137.04
586.63	2131.80
586.98	2126.60
587.34	2122.01
587.69	2116.88
588.04	2111.41
588.39	2105.64
588.74	2099.20
589.09	2093.02
589.44	2086.13
589.79	2079.95
590.14	2074.26
590.49	2067.65
590.84	2061.39
591.19	2055.47
591.54	2049.02
591.89	2041.52
592.25	2034.69
592.60	2027.45
592.95	2019.74
593.30	2012.43
593.65	2004.88
594.00	1997.98
594.35	1990.76
594.70	1982.67
595.05	1975.25
595.40	1967.90
595.75	1960.37
596.10	1954.09
596.45	1947.26
596.80	1941.01
597.15	1934.33
597.50	1927.21
597.85	1920.73
598.19	1913.93
598.54	1906.68
598.89	1899.85
599.24	1894.01
599.59	1887.08
599.94	1880.86
600.29	1874.66
600.64	1868.00
600.99	1860.35
601.34	1853.41
601.69	1846.44
602.04	1839.35
602.39	1832.11
602.74	1825.28
603.08	1818.55
603.43	1811.68
603.78	1804.34
604.13	1797.11
604.48	1789.65
604.83	1782.73
605.18	1775.58
605.53	1767.54
605.87	1759.50
606.22	1752.24
606.57	1744.30
606.92	1736.97
607.27	1729.69
607.62	1722.58
607.96	1715.18
608.31	1708.59
608.66	1700.89
609.01	1693.25
609.36	1685.64
609.70	1677.49
610.05	1669.32
610.40	1661.52
610.75	1653.15
611.10	1645.42
611.44	1637.01
611.79	1629.12
612.14	1620.36
612.49	1611.34
612.83	1603.02
613.18	1594.91
613.53	1586.87
613.88	1578.30
614.22	1570.15
614.57	1561.54
614.92	1553.55
615.27	1545.95
615.61	1537.54
615.96	1529.57
616.31	1521.93
616.65	1514.60
617.00	1507.08
617.35	1499.51
617.70	1491.16
618.04	1482.72
618.39	1474.48
618.74	1466.87
619.08	1458.55
619.43	1451.07
619.78	1444.13
620.12	1436.86
620.47	1429.29
620.82	1421.09
621.16	1413.79
621.51	1406.18
621.85	1398.69
622.20	1390.22
622.55	1381.99
622.89	1374.29
623.24	1366.68
623.59	1359.33
623.93	1351.85
624.28	1344.64
624.62	1337.05
624.97	1329.97
625.32	1323.24
625.66	1316.32
626.01	1309.11
626.35	1301.68
626.70	1294.00
627.04	1286.26
627.39	1278.53
627.73	1271.07
628.08	1264.08
628.43	1256.60
628.77	1249.12
629.12	1241.43
629.46	1234.14
629.81	1226.64
630.15	1219.31
630.50	1211.91
630.84	1203.73
631.19	1195.79
631.53	1188.40
631.88	1180.93
632.22	1173.28
632.57	1165.96
632.91	1158.36
633.26	1150.99
633.60	1143.65
633.95	1136.57
634.29	1129.59
634.64	1122.87
634.98	1115.56
635.32	1108.50
635.67	1102.02
636.01	1095.47
636.36	1088.69
636.70	1082.36
637.05	1075.85
637.39	1069.50
637.73	1062.99
638.08	1057.08
638.42	1051.18
638.77	1044.57
639.11	1037.92
639.45	1031.59
639.80	1025.00
640.14	1018.58
640.49	1012.04
640.83	1005.75
641.17	999.46
641.52	993.03
641.86	986.62
642.20	980.81
642.55	974.55
642.89	968.00
643.23	961.43
643.58	955.70
643.92	949.44
644.26	943.25
644.61	937.24
644.95	931.24
645.29	924.67
645.64	917.88
645.98	911.68
646.32	905.94
646.66	899.96
647.01	894.06
647.35	888.42
647.69	882.57
648.04	877.03
648.38	871.24
648.72	865.19
649.06	859.20
649.41	853.33
649.75	847.31
650.09	841.39
650.43	835.63
650.78	829.47
651.12	823.52
651.46	817.95
651.80	812.12
652.14	806.74
652.49	801.38
652.83	796.19
653.17	790.45
653.51	784.64
653.85	779.17
654.20	773.55
654.54	767.52
654.88	761.81
655.22	755.96
655.56	750.28
655.90	744.92
656.25	739.63
656.59	734.34
656.93	729.29
657.27	724.13
657.61	718.75
657.95	713.64
658.29	708.55
658.64	703.26
658.98	698.01
659.32	692.50
659.66	687.26
660.00	681.96
660.34	677.02
660.68	672.18
661.02	667.25
661.36	662.52
661.70	658.07
662.05	653.64
662.39	649.29
662.73	644.83
663.07	640.47
663.41	636.07
663.75	631.50
664.09	626.91
664.43	622.59
664.77	618.41
665.11	614.19
665.45	610.04
665.79	605.98
666.13	601.81
666.47	597.78
666.81	593.64
667.15	589.58
667.49	585.70
667.83	581.86
668.17	577.83
668.51	573.80
668.85	569.75
669.19	565.97
669.53	562.07
669.87	558.15
670.21	554.44
670.55	550.83
670.89	547.42
671.23	543.98
671.57	540.45
671.91	536.94
672.25	533.45
672.58	529.96
672.92	526.58
673.26	523.46
673.60	520.28
673.94	517.14
674.28	514.24
674.62	511.27
674.96	508.12
675.30	505.22
675.64	502.32
675.97	499.59
676.31	496.69
676.65	493.80
676.99	491.18
677.33	488.31
677.67	485.45
678.01	482.38
678.34	479.46
678.68	476.61
679.02	473.79
679.36	471.05
679.70	468.33
680.04	465.52
680.37	462.62
680.71	459.84
681.05	457.25
681.39	454.48
681.73	451.86
682.06	449.35
682.40	446.85
682.74	444.33
683.08	441.78
683.42	439.24
683.75	436.79
684.09	434.22
684.43	431.78
684.77	429.36
685.10	427.09
685.44	424.81
685.78	422.55
686.12	420.30
686.45	418.01
686.79	415.72
687.13	413.55
687.46	411.45
687.80	409.30
688.14	407.09
688.48	405.09
688.81	402.85
689.15	400.76
689.49	398.60
689.82	396.51
690.16	394.38
690.50	392.42
690.83	390.48
691.17	388.50
691.51	386.60
691.84	384.71
692.18	382.71
692.52	380.68
692.85	378.76
693.19	376.91
693.52	375.09
693.86	373.29
694.20	371.53
694.53	369.76
694.87	367.95
695.21	366.22
695.54	364.36
695.88	362.65
696.21	360.88
696.55	359.23
696.88	357.57
697.22	356.00
697.56	354.40
697.89	352.76
698.23	351.17
698.56	349.55
698.90	347.99
699.23	346.35
699.57	344.84
699.90	343.28
700.24	341.73
700.58	340.21
700.91	338.72
701.25	337.28
701.58	335.91
701.92	334.56
702.25	333.17
702.59	331.91
702.92	330.60
703.26	329.34
703.59	328.05
703.93	326.88
704.26	325.63
704.60	324.28
704.93	323.01
705.26	321.78
705.60	320.67
705.93	319.55
706.27	318.57
706.60	317.55
706.94	316.47
707.27	315.33
707.61	314.29
707.94	313.27
708.27	312.15
708.61	311.07
708.94	310.04
709.28	309.05
709.61	308.02
709.94	307.09
710.28	306.08
710.61	305.13
710.95	304.03
711.28	303.11
711.61	302.25
711.95	301.33
712.28	300.35
712.61	299.30
712.95	298.35
713.28	297.46
713.61	296.54
713.95	295.67
714.28	294.83
714.61	293.94
714.95	293.09
715.28	292.25
715.61	291.34
715.95	290.50
716.28	289.67
716.61	288.82
716.95	287.98
717.28	287.21
717.61	286.41
717.94	285.69
718.28	284.86
718.61	284.08
718.94	283.36
719.27	282.72
719.61	282.09
719.94	281.43
720.27	280.69
720.60	280.00
720.94	279.34
721.27	278.76
721.60	278.21
721.93	277.61
722.27	277.07
722.60	276.54
722.93	275.93
723.26	275.41
723.59	274.84
723.93	274.32
724.26	273.77
724.59	273.21
724.92	272.66
725.25	272.21
725.59	271.67
725.92	271.17
726.25	270.65
726.58	270.19
726.91	269.66
727.24	269.20
727.57	268.73
727.91	268.27
728.24	267.79
728.57	267.28
728.90	266.78
729.23	266.26
729.56	265.84
729.89	265.40
730.22	264.89
730.55	264.48
730.89	264.00
731.22	263.54
731.55	263.11
731.88	262.70
732.21	262.21
732.54	261.81
732.87	261.37
733.20	260.99
733.53	260.58
733.86	260.21
734.19	259.79
734.52	259.40
734.85	259.09
735.18	258.71
735.51	258.37
735.84	258.04
736.17	257.73
736.50	257.33
736.83	257.10
737.16	256.76
737.49	256.40
737.82	256.09
738.15	255.78
738.48	255.46
738.81	255.17
739.14	254.85
739.47	254.54
739.80	254.26
740.13	253.96
740.46	253.66
740.79	253.34
741.12	253.06
741.45	252.80
741.78	252.45
742.11	252.16
742.44	251.82
742.77	251.53
743.10	251.19
743.43	250.90
743.75	250.52
744.08	250.40
744.41	250.11
744.74	249.89
745.07	249.63
745.40	249.43
745.73	249.17
746.06	248.93
746.39	248.66
746.71	248.39
747.04	248.12
747.37	247.89
747.70	247.67
748.03	247.41
748.36	247.16
748.68	246.91
749.01	246.69
749.34	246.47
749.67	246.27
750.00	246.11
750.33	245.97
750.65	245.75
750.98	245.38
751.31	245.19
751.64	244.93
751.97	244.77
752.29	244.53
752.62	244.30
752.95	244.08
753.28	243.89
753.60	243.70
753.93	243.53
754.26	243.29
754.59	243.04
754.91	242.87
755.24	242.67
755.57	242.45
755.90	242.24
756.22	242.06
756.55	241.82
756.88	241.58
757.20	241.33
757.53	241.15
757.86	241.00
758.19	240.81
758.51	240.65
758.84	240.45
759.17	240.25
759.49	240.11
759.82	239.97
760.15	239.80
760.47	239.64
760.80	239.44
761.13	239.31
761.45	239.17
761.78	239.01
762.11	238.85
762.43	238.73
762.76	238.58
763.08	238.44
763.41	238.31
763.74	238.18
764.06	238.04
764.39	237.88
764.71	237.69
765.04	237.57
765.37	237.41
765.69	237.21
766.02	237.07
766.34	236.91
766.67	236.77
767.00	236.65
767.32	236.56
767.65	236.51
767.97	236.40
768.30	236.29
768.62	236.18
768.95	236.09
769.27	235.95
769.60	235.86
769.92	235.78
770.25	235.67
770.57	235.54
770.90	235.43
771.22	235.36
771.55	235.30
771.87	235.18
772.20	235.06
772.52	235.07
772.85	235.12
773.17	235.03
773.50	234.90
773.82	234.80
774.15	234.67
774.47	234.52
774.80	234.40
775.12	234.31
775.45	234.22
775.77	234.15
776.09	234.08
776.42	233.99
776.74	233.90
777.07	233.82
777.39	233.75
777.72	233.66
778.04	233.58
778.36	233.49
778.69	233.42
779.01	233.42
779.33	233.23
779.66	233.06
779.98	233.01
780.31	232.98
780.63	232.92
780.95	232.91
781.28	232.85
781.60	232.79
781.92	232.73
782.25	232.66
782.57	232.59
782.89	232.55
783.22	232.50
783.54	232.40
783.86	232.38
784.19	232.31
784.51	232.33
784.83	232.25
785.16	232.19
785.48	232.19
785.80	232.14
786.12	232.16
786.45	232.16
786.77	232.12
787.09	232.10
