SpectraSuite Data File
++++++++++++++++++++++++++++++++++++
Date: Fri Feb 01 16:24:34 EST 2013
User: group
Dark Spectrum Present: No
Reference Spectrum Present: No
Number of Sampled Component Spectra: 1
Spectrometers: USB2E7196
Integration Time (usec): 35000 (USB2E7196)
Spectra Averaged: 100 (USB2E7196)
Boxcar Smoothing: 10 (USB2E7196)
Correct for Electrical Dark: No (USB2E7196)
Strobe/Lamp Enabled: No (USB2E7196)
Correct for Detector Non-linearity: No (USB2E7196)
Correct for Stray Light: No (USB2E7196)
Number of Pixels in Processed Spectrum: 2048
>>>>>Begin Processed Spectral Data<<<<<
339.09	0.00
339.48	214.33
339.86	215.78
340.24	217.24
340.63	219.10
341.01	221.33
341.39	221.29
341.78	222.38
342.16	223.93
342.54	224.66
342.93	212.71
343.31	223.46
343.69	223.99
344.07	224.44
344.46	224.86
344.84	225.18
345.22	225.42
345.60	225.66
345.99	225.85
346.37	225.95
346.75	226.02
347.13	226.06
347.52	226.11
347.90	226.18
348.28	226.20
348.66	226.23
349.05	226.19
349.43	226.20
349.81	226.25
350.19	226.30
350.57	226.32
350.96	226.40
351.34	226.45
351.72	226.51
352.10	226.60
352.48	226.64
352.87	226.69
353.25	226.74
353.63	226.80
354.01	226.83
354.39	226.91
354.77	227.00
355.15	227.08
355.54	227.19
355.92	227.18
356.30	227.22
356.68	227.33
357.06	227.40
357.44	227.46
357.82	227.47
358.20	227.52
358.58	227.59
358.97	227.65
359.35	227.73
359.73	227.84
360.11	227.90
360.49	227.94
360.87	228.01
361.25	228.05
361.63	228.11
362.01	228.15
362.39	228.19
362.77	228.20
363.15	228.20
363.53	228.17
363.91	228.19
364.29	228.22
364.67	228.15
365.05	228.17
365.43	228.17
365.81	228.20
366.19	228.23
366.57	228.26
366.95	228.25
367.33	228.22
367.71	228.16
368.09	228.14
368.47	228.12
368.85	228.11
369.23	228.11
369.61	228.02
369.99	228.03
370.37	227.95
370.75	227.97
371.13	227.92
371.51	227.87
371.89	227.87
372.27	227.83
372.65	227.81
373.03	227.75
373.41	227.70
373.78	227.66
374.16	227.55
374.54	227.50
374.92	227.45
375.30	227.38
375.68	227.34
376.06	227.27
376.44	227.20
376.82	227.12
377.19	227.02
377.57	226.98
377.95	226.90
378.33	226.85
378.71	226.73
379.09	226.68
379.47	226.63
379.84	226.54
380.22	226.44
380.60	226.34
380.98	226.28
381.36	226.20
381.73	226.12
382.11	226.12
382.49	226.05
382.87	225.96
383.25	225.92
383.62	225.96
384.00	225.91
384.38	225.87
384.76	225.82
385.13	225.83
385.51	225.78
385.89	225.71
386.27	225.71
386.64	225.71
387.02	225.65
387.40	225.59
387.78	225.55
388.15	225.52
388.53	225.52
388.91	225.49
389.29	225.50
389.66	225.49
390.04	225.46
390.42	225.47
390.79	225.46
391.17	225.43
391.55	225.33
391.92	225.33
392.30	225.36
392.68	225.35
393.05	225.32
393.43	225.33
393.81	225.37
394.18	225.36
394.56	225.40
394.94	225.46
395.31	225.51
395.69	225.58
396.06	225.67
396.44	225.68
396.82	225.74
397.19	225.82
397.57	225.88
397.95	225.91
398.32	225.93
398.70	226.00
399.07	226.11
399.45	226.16
399.82	226.23
400.20	226.32
400.58	226.42
400.95	226.49
401.33	226.66
401.70	226.77
402.08	226.83
402.45	226.91
402.83	226.99
403.20	227.11
403.58	227.22
403.95	227.33
404.33	227.47
404.71	227.57
405.08	227.74
405.46	227.85
405.83	227.97
406.21	228.13
406.58	228.29
406.96	228.42
407.33	228.61
407.70	228.75
408.08	228.99
408.45	229.21
408.83	229.42
409.20	229.59
409.58	229.76
409.95	230.06
410.33	230.28
410.70	230.56
411.08	230.81
411.45	231.10
411.82	231.43
412.20	231.76
412.57	232.17
412.95	232.44
413.32	232.87
413.69	233.29
414.07	233.73
414.44	234.19
414.82	234.66
415.19	235.17
415.56	235.78
415.94	236.32
416.31	236.94
416.68	237.58
417.06	238.26
417.43	238.99
417.81	239.70
418.18	240.48
418.55	241.27
418.93	242.15
419.30	243.03
419.67	243.94
420.04	244.89
420.42	245.88
420.79	247.07
421.16	248.20
421.54	249.40
421.91	250.60
422.28	251.85
422.66	253.23
423.03	254.49
423.40	255.77
423.77	257.16
424.15	258.56
424.52	260.02
424.89	261.64
425.26	263.16
425.64	264.59
426.01	266.23
426.38	267.90
426.75	269.59
427.13	271.30
427.50	273.13
427.87	275.00
428.24	276.87
428.61	278.61
428.99	280.56
429.36	282.60
429.73	284.63
430.10	286.63
430.47	288.62
430.85	290.77
431.22	293.04
431.59	295.39
431.96	297.64
432.33	300.11
432.70	302.48
433.08	305.30
433.45	307.95
433.82	310.52
434.19	313.40
434.56	316.17
434.93	318.84
435.30	321.44
435.68	324.32
436.05	327.09
436.42	329.86
436.79	332.36
437.16	335.09
437.53	337.95
437.90	340.78
438.27	343.51
438.64	346.34
439.01	348.93
439.38	351.18
439.75	353.33
440.13	355.82
440.50	358.16
440.87	360.04
441.24	361.98
441.61	364.12
441.98	365.60
442.35	367.42
442.72	369.23
443.09	371.07
443.46	372.06
443.83	372.69
444.20	373.22
444.57	374.06
444.94	374.37
445.31	374.70
445.68	375.07
446.05	375.15
446.42	374.79
446.79	374.34
447.16	373.86
447.53	373.56
447.90	372.38
448.27	371.18
448.64	369.57
449.01	368.46
449.37	366.50
449.74	364.59
450.11	362.37
450.48	359.88
450.85	357.33
451.22	355.23
451.59	353.24
451.96	351.26
452.33	348.66
452.70	346.29
453.07	343.49
453.43	340.58
453.80	337.82
454.17	335.13
454.54	332.58
454.91	329.89
455.28	327.24
455.65	324.77
456.02	322.35
456.38	320.20
456.75	317.55
457.12	315.36
457.49	313.16
457.86	310.98
458.23	309.19
458.59	307.12
458.96	304.99
459.33	303.11
459.70	301.30
460.07	299.81
460.43	298.09
460.80	296.46
461.17	295.03
461.54	293.58
461.91	292.17
462.27	290.79
462.64	289.53
463.01	288.19
463.38	286.91
463.74	285.53
464.11	284.36
464.48	283.33
464.85	282.18
465.21	281.32
465.58	280.37
465.95	279.24
466.32	278.34
466.68	277.44
467.05	276.57
467.42	275.65
467.78	274.74
468.15	273.85
468.52	273.19
468.88	272.36
469.25	271.56
469.62	270.91
469.98	270.23
470.35	269.63
470.72	269.01
471.08	268.37
471.45	267.87
471.82	267.33
472.18	266.71
472.55	266.28
472.92	265.79
473.28	265.38
473.65	264.98
474.02	264.56
474.38	264.22
474.75	263.86
475.11	263.56
475.48	263.33
475.85	263.11
476.21	262.88
476.58	262.71
476.94	262.61
477.31	262.48
477.67	262.34
478.04	262.22
478.41	262.17
478.77	262.19
479.14	262.16
479.50	262.21
479.87	262.34
480.23	262.43
480.60	262.45
480.96	262.54
481.33	262.75
481.69	262.95
482.06	263.14
482.42	263.35
482.79	263.60
483.15	263.91
483.52	264.29
483.88	264.65
484.25	265.05
484.61	265.49
484.98	265.93
485.34	266.50
485.71	267.12
486.07	267.72
486.44	268.33
486.80	269.04
487.17	269.79
487.53	270.60
487.90	271.47
488.26	272.45
488.62	273.46
488.99	274.46
489.35	275.54
489.72	276.67
490.08	277.91
490.44	279.17
490.81	280.54
491.17	281.92
491.54	283.43
491.90	284.97
492.26	286.62
492.63	288.37
492.99	290.17
493.36	292.06
493.72	294.16
494.08	296.31
494.45	298.54
494.81	300.93
495.17	303.32
495.54	305.90
495.90	308.60
496.26	311.42
496.63	314.35
496.99	317.44
497.35	320.77
497.72	324.19
498.08	327.71
498.44	331.32
498.80	335.23
499.17	339.26
499.53	343.40
499.89	347.78
500.26	352.28
500.62	356.93
500.98	361.88
501.34	366.95
501.71	372.23
502.07	377.70
502.43	383.28
502.79	389.15
503.16	395.28
503.52	401.51
503.88	407.91
504.24	414.56
504.60	421.50
504.97	428.57
505.33	435.83
505.69	443.57
506.05	451.46
506.41	459.33
506.78	467.46
507.14	475.92
507.50	484.66
507.86	493.71
508.22	502.90
508.59	512.13
508.95	521.70
509.31	531.55
509.67	541.73
510.03	552.02
510.39	562.56
510.75	573.34
511.12	584.26
511.48	595.49
511.84	606.96
512.20	618.43
512.56	630.37
512.92	642.58
513.28	654.87
513.64	667.30
514.00	680.07
514.37	693.01
514.73	706.02
515.09	719.08
515.45	732.38
515.81	745.95
516.17	759.93
516.53	774.02
516.89	788.17
517.25	802.19
517.61	816.55
517.97	830.98
518.33	845.32
518.69	860.07
519.05	875.00
519.41	890.12
519.77	905.65
520.13	921.02
520.49	936.32
520.85	951.70
521.21	967.39
521.57	983.59
521.93	999.36
522.29	1015.78
522.65	1031.85
523.01	1047.93
523.37	1063.91
523.73	1079.97
524.09	1095.97
524.45	1112.15
524.81	1128.78
525.17	1145.51
525.53	1162.35
525.89	1179.17
526.25	1195.95
526.61	1212.37
526.97	1228.98
527.33	1245.36
527.68	1261.92
528.04	1278.39
528.40	1294.95
528.76	1311.92
529.12	1328.33
529.48	1345.09
529.84	1361.00
530.20	1377.55
530.56	1394.49
530.91	1411.86
531.27	1428.49
531.63	1444.83
531.99	1461.47
532.35	1477.27
532.71	1493.18
533.07	1509.33
533.42	1525.20
533.78	1541.13
534.14	1557.26
534.50	1572.55
534.86	1588.38
535.21	1603.43
535.57	1619.23
535.93	1634.57
536.29	1649.26
536.65	1664.24
537.00	1678.85
537.36	1694.13
537.72	1708.59
538.08	1722.95
538.44	1736.57
538.79	1750.45
539.15	1764.16
539.51	1777.58
539.87	1791.88
540.22	1805.59
540.58	1819.20
540.94	1832.32
541.29	1845.23
541.65	1857.89
542.01	1870.97
542.37	1883.15
542.72	1895.58
543.08	1907.36
543.44	1919.60
543.79	1930.82
544.15	1941.72
544.51	1953.26
544.87	1964.14
545.22	1974.82
545.58	1985.04
545.94	1994.81
546.29	2004.60
546.65	2014.37
547.01	2023.72
547.36	2032.28
547.72	2040.60
548.07	2048.41
548.43	2056.51
548.79	2064.40
549.14	2071.82
549.50	2079.06
549.86	2086.67
550.21	2093.82
550.57	2100.91
550.92	2107.53
551.28	2114.36
551.64	2121.52
551.99	2128.05
552.35	2134.14
552.70	2140.36
553.06	2146.14
553.41	2152.45
553.77	2158.41
554.13	2164.38
554.48	2170.42
554.84	2176.00
555.19	2181.23
555.55	2186.44
555.90	2191.01
556.26	2195.96
556.61	2200.66
556.97	2205.05
557.32	2209.07
557.68	2213.20
558.03	2217.57
558.39	2221.27
558.74	2226.03
559.10	2229.81
559.45	2233.38
559.81	2237.68
560.16	2241.51
560.52	2244.91
560.87	2248.05
561.23	2250.76
561.58	2253.88
561.94	2256.49
562.29	2258.88
562.64	2261.57
563.00	2264.15
563.35	2267.59
563.71	2270.60
564.06	2273.82
564.42	2276.60
564.77	2279.23
565.12	2281.55
565.48	2283.51
565.83	2285.48
566.19	2286.71
566.54	2287.72
566.89	2288.99
567.25	2289.57
567.60	2290.83
567.96	2292.49
568.31	2293.60
568.66	2294.76
569.02	2295.27
569.37	2295.54
569.72	2296.43
570.08	2296.59
570.43	2296.64
570.78	2296.32
571.14	2294.83
571.49	2293.69
571.84	2293.53
572.20	2292.65
572.55	2291.67
572.90	2289.89
573.26	2288.56
573.61	2286.97
573.96	2285.26
574.31	2282.31
574.67	2279.34
575.02	2275.87
575.37	2272.65
575.72	2268.94
576.08	2265.67
576.43	2262.44
576.78	2258.85
577.13	2255.61
577.49	2252.69
577.84	2249.22
578.19	2245.39
578.54	2241.87
578.90	2237.66
579.25	2232.14
579.60	2227.08
579.95	2222.29
580.30	2217.47
580.66	2212.23
581.01	2207.37
581.36	2202.50
581.71	2198.35
582.06	2193.94
582.42	2189.59
582.77	2184.31
583.12	2179.73
583.47	2175.04
583.82	2170.08
584.17	2164.94
584.53	2159.59
584.88	2153.89
585.23	2148.21
585.58	2142.69
585.93	2137.21
586.28	2132.54
586.63	2127.65
586.98	2122.81
587.34	2118.10
587.69	2113.24
588.04	2108.19
588.39	2102.62
588.74	2096.20
589.09	2090.19
589.44	2083.56
589.79	2077.64
590.14	2072.14
590.49	2065.79
590.84	2059.51
591.19	2053.66
591.54	2047.22
591.89	2039.97
592.25	2033.31
592.60	2026.18
592.95	2018.75
593.30	2011.57
593.65	2003.94
594.00	1996.86
594.35	1989.54
594.70	1981.52
595.05	1974.47
595.40	1967.11
595.75	1959.72
596.10	1953.50
596.45	1946.73
596.80	1940.62
597.15	1933.95
597.50	1926.74
597.85	1920.34
598.19	1913.70
598.54	1906.44
598.89	1899.90
599.24	1894.05
599.59	1887.26
599.94	1881.13
600.29	1874.77
600.64	1868.18
600.99	1860.76
601.34	1853.93
601.69	1847.06
602.04	1840.27
602.39	1832.90
602.74	1826.19
603.08	1819.31
603.43	1812.61
603.78	1805.40
604.13	1798.16
604.48	1790.89
604.83	1784.15
605.18	1777.07
605.53	1769.13
605.87	1761.30
606.22	1754.01
606.57	1746.00
606.92	1738.83
607.27	1731.60
607.62	1724.71
607.96	1717.50
608.31	1710.86
608.66	1703.30
609.01	1695.69
609.36	1688.01
609.70	1679.95
610.05	1671.80
610.40	1664.17
610.75	1655.82
611.10	1648.19
611.44	1639.75
611.79	1631.66
612.14	1623.01
612.49	1613.87
612.83	1605.51
613.18	1597.38
613.53	1589.25
613.88	1580.74
614.22	1572.42
614.57	1563.91
614.92	1555.96
615.27	1548.31
615.61	1540.07
615.96	1532.10
616.31	1524.41
616.65	1517.20
617.00	1509.64
617.35	1501.98
617.70	1493.62
618.04	1485.16
618.39	1476.88
618.74	1469.41
619.08	1461.31
619.43	1453.69
619.78	1446.82
620.12	1439.54
620.47	1431.95
620.82	1423.84
621.16	1416.35
621.51	1408.84
621.85	1401.13
622.20	1392.66
622.55	1384.42
622.89	1376.54
623.24	1368.79
623.59	1361.48
623.93	1353.77
624.28	1346.55
624.62	1339.08
624.97	1331.94
625.32	1325.27
625.66	1318.25
626.01	1310.96
626.35	1303.36
626.70	1295.65
627.04	1288.02
627.39	1280.25
627.73	1272.93
628.08	1265.99
628.43	1258.74
628.77	1251.28
629.12	1243.81
629.46	1236.64
629.81	1229.22
630.15	1221.96
630.50	1214.60
630.84	1206.43
631.19	1198.54
631.53	1191.12
631.88	1183.53
632.22	1175.93
632.57	1168.49
632.91	1160.86
633.26	1153.47
633.60	1146.17
633.95	1138.92
634.29	1131.83
634.64	1125.12
634.98	1117.73
635.32	1110.58
635.67	1103.85
636.01	1097.27
636.36	1090.41
636.70	1083.73
637.05	1077.07
637.39	1070.57
637.73	1064.03
638.08	1058.11
638.42	1052.12
638.77	1045.60
639.11	1039.01
639.45	1032.56
639.80	1026.01
640.14	1019.68
640.49	1013.16
640.83	1006.79
641.17	1000.65
641.52	994.26
641.86	987.77
642.20	981.87
642.55	975.58
642.89	969.20
643.23	962.52
643.58	956.71
643.92	950.54
644.26	944.40
644.61	938.37
644.95	932.36
645.29	925.81
645.64	919.06
645.98	912.79
646.32	906.99
646.66	900.91
647.01	895.03
647.35	889.27
647.69	883.40
648.04	877.83
648.38	872.02
648.72	865.99
649.06	860.01
649.41	854.14
649.75	848.13
650.09	842.22
650.43	836.49
650.78	830.40
651.12	824.52
651.46	818.91
651.80	813.18
652.14	807.80
652.49	802.33
652.83	797.15
653.17	791.40
653.51	785.61
653.85	780.25
654.20	774.64
654.54	768.64
654.88	762.89
655.22	756.99
655.56	751.27
655.90	745.88
656.25	740.66
656.59	735.23
656.93	730.12
657.27	724.97
657.61	719.56
657.95	714.43
658.29	709.34
658.64	704.06
658.98	698.78
659.32	693.25
659.66	688.08
660.00	682.80
660.34	677.89
660.68	672.99
661.02	667.95
661.36	663.20
661.70	658.67
662.05	654.28
662.39	650.01
662.73	645.50
663.07	641.11
663.41	636.61
663.75	632.10
664.09	627.58
664.43	623.18
664.77	619.06
665.11	614.84
665.45	610.70
665.79	606.60
666.13	602.41
666.47	598.34
666.81	594.12
667.15	589.96
667.49	586.05
667.83	582.21
668.17	578.27
668.51	574.22
668.85	570.15
669.19	566.32
669.53	562.43
669.87	558.59
670.21	554.87
670.55	551.24
670.89	547.92
671.23	544.50
671.57	540.92
671.91	537.34
672.25	533.79
672.58	530.25
672.92	526.83
673.26	523.69
673.60	520.54
673.94	517.46
674.28	514.57
674.62	511.59
674.96	508.47
675.30	505.57
675.64	502.62
675.97	499.87
676.31	497.01
676.65	494.07
676.99	491.41
677.33	488.56
677.67	485.72
678.01	482.57
678.34	479.60
678.68	476.75
679.02	473.99
679.36	471.24
679.70	468.48
680.04	465.70
680.37	462.80
680.71	459.98
681.05	457.35
681.39	454.65
681.73	452.00
682.06	449.50
682.40	446.94
682.74	444.41
683.08	441.88
683.42	439.28
683.75	436.79
684.09	434.21
684.43	431.69
684.77	429.17
685.10	426.87
685.44	424.53
685.78	422.23
686.12	419.98
686.45	417.68
686.79	415.41
687.13	413.26
687.46	411.09
687.80	408.97
688.14	406.74
688.48	404.67
688.81	402.44
689.15	400.28
689.49	398.12
689.82	396.05
690.16	393.91
690.50	391.97
690.83	390.07
691.17	388.08
691.51	386.17
691.84	384.39
692.18	382.46
692.52	380.46
692.85	378.55
693.19	376.63
693.52	374.81
693.86	373.00
694.20	371.17
694.53	369.44
694.87	367.55
695.21	365.78
695.54	363.96
695.88	362.21
696.21	360.47
696.55	358.82
696.88	357.10
697.22	355.49
697.56	353.84
697.89	352.14
698.23	350.53
698.56	348.98
698.90	347.42
699.23	345.77
699.57	344.24
699.90	342.67
700.24	341.14
700.58	339.59
700.91	338.08
701.25	336.65
701.58	335.24
701.92	333.89
702.25	332.54
702.59	331.21
702.92	329.85
703.26	328.54
703.59	327.24
703.93	326.07
704.26	324.84
704.60	323.55
704.93	322.29
705.26	321.01
705.60	319.76
705.93	318.58
706.27	317.57
706.60	316.49
706.94	315.42
707.27	314.30
707.61	313.30
707.94	312.29
708.27	311.22
708.61	310.16
708.94	309.13
709.28	308.16
709.61	307.19
709.94	306.26
710.28	305.24
710.61	304.23
710.95	303.15
711.28	302.23
711.61	301.26
711.95	300.37
712.28	299.45
712.61	298.52
712.95	297.60
713.28	296.72
713.61	295.84
713.95	294.96
714.28	294.08
714.61	293.18
714.95	292.35
715.28	291.49
715.61	290.58
715.95	289.78
716.28	288.91
716.61	288.03
716.95	287.25
717.28	286.52
717.61	285.79
717.94	285.07
718.28	284.26
718.61	283.54
718.94	282.79
719.27	282.14
719.61	281.47
719.94	280.79
720.27	280.02
720.60	279.33
720.94	278.72
721.27	278.13
721.60	277.52
721.93	276.86
722.27	276.30
722.60	275.80
722.93	275.21
723.26	274.69
723.59	274.14
723.93	273.60
724.26	273.00
724.59	272.43
724.92	271.89
725.25	271.41
725.59	270.89
725.92	270.41
726.25	269.88
726.58	269.39
726.91	268.89
727.24	268.41
727.57	267.98
727.91	267.43
728.24	266.91
728.57	266.43
728.90	265.97
729.23	265.44
729.56	265.01
729.89	264.49
730.22	263.98
730.55	263.51
730.89	263.04
731.22	262.62
731.55	262.18
731.88	261.77
732.21	261.29
732.54	260.85
732.87	260.40
733.20	260.00
733.53	259.59
733.86	259.21
734.19	258.83
734.52	258.44
734.85	258.13
735.18	257.76
735.51	257.39
735.84	257.05
736.17	256.70
736.50	256.27
736.83	256.08
737.16	255.72
737.49	255.38
737.82	255.00
738.15	254.67
738.48	254.37
738.81	254.01
739.14	253.71
739.47	253.40
739.80	253.10
740.13	252.79
740.46	252.43
740.79	252.11
741.12	251.79
741.45	251.44
741.78	251.09
742.11	250.84
742.44	250.50
742.77	250.20
743.10	249.86
743.43	249.56
743.75	249.15
744.08	249.04
744.41	248.82
744.74	248.56
745.07	248.27
745.40	248.01
745.73	247.79
746.06	247.54
746.39	247.27
746.71	247.00
747.04	246.73
747.37	246.52
747.70	246.27
748.03	245.99
748.36	245.82
748.68	245.61
749.01	245.34
749.34	245.14
749.67	244.90
750.00	244.71
750.33	244.58
750.65	244.37
750.98	244.04
751.31	243.78
751.64	243.57
751.97	243.43
752.29	243.18
752.62	242.96
752.95	242.72
753.28	242.52
753.60	242.31
753.93	242.16
754.26	241.94
754.59	241.70
754.91	241.52
755.24	241.31
755.57	241.08
755.90	240.92
756.22	240.76
756.55	240.56
756.88	240.37
757.20	240.14
757.53	239.93
757.86	239.73
758.19	239.60
758.51	239.44
758.84	239.25
759.17	239.08
759.49	238.93
759.82	238.82
760.15	238.66
760.47	238.54
760.80	238.37
761.13	238.29
761.45	238.20
761.78	238.07
762.11	237.95
762.43	237.84
762.76	237.69
763.08	237.55
763.41	237.44
763.74	237.32
764.06	237.17
764.39	237.04
764.71	236.90
765.04	236.72
765.37	236.56
765.69	236.42
766.02	236.31
766.34	236.16
766.67	236.01
767.00	235.97
767.32	235.87
767.65	235.79
767.97	235.63
768.30	235.50
768.62	235.39
768.95	235.23
769.27	235.11
769.60	235.01
769.92	234.84
770.25	234.71
770.57	234.60
770.90	234.50
771.22	234.37
771.55	234.28
771.87	234.21
772.20	234.11
772.52	234.09
772.85	234.08
773.17	234.00
773.50	233.87
773.82	233.75
774.15	233.65
774.47	233.51
774.80	233.43
775.12	233.33
775.45	233.21
775.77	233.14
776.09	233.04
776.42	232.91
776.74	232.90
777.07	232.81
777.39	232.73
777.72	232.66
778.04	232.62
778.36	232.54
778.69	232.44
779.01	232.42
779.33	232.27
779.66	232.10
779.98	232.01
780.31	231.99
780.63	231.95
780.95	231.87
781.28	231.80
781.60	231.72
781.92	231.65
782.25	231.63
782.57	231.54
782.89	231.51
783.22	231.48
783.54	231.40
783.86	231.37
784.19	231.32
784.51	231.27
784.83	231.17
785.16	231.11
785.48	231.08
785.80	230.98
786.12	230.98
786.45	230.93
786.77	230.92
787.09	230.85
