SpectraSuite Data File
++++++++++++++++++++++++++++++++++++
Date: Fri Feb 01 15:24:02 EST 2013
User: group
Dark Spectrum Present: No
Reference Spectrum Present: No
Number of Sampled Component Spectra: 1
Spectrometers: USB2E7196
Integration Time (usec): 35000 (USB2E7196)
Spectra Averaged: 100 (USB2E7196)
Boxcar Smoothing: 10 (USB2E7196)
Correct for Electrical Dark: No (USB2E7196)
Strobe/Lamp Enabled: No (USB2E7196)
Correct for Detector Non-linearity: No (USB2E7196)
Correct for Stray Light: No (USB2E7196)
Number of Pixels in Processed Spectrum: 2048
>>>>>Begin Processed Spectral Data<<<<<
339.09	0.00
339.48	215.72
339.86	216.77
340.24	217.92
340.63	218.83
341.01	222.15
341.39	222.27
341.78	223.84
342.16	224.23
342.54	225.15
342.93	213.56
343.31	224.35
343.69	224.85
344.07	225.32
344.46	225.76
344.84	226.16
345.22	226.39
345.60	226.62
345.99	226.79
346.37	226.95
346.75	227.06
347.13	227.13
347.52	227.21
347.90	227.26
348.28	227.26
348.66	227.30
349.05	227.28
349.43	227.31
349.81	227.35
350.19	227.39
350.57	227.46
350.96	227.50
351.34	227.59
351.72	227.71
352.10	227.82
352.48	227.88
352.87	227.95
353.25	228.06
353.63	228.13
354.01	228.18
354.39	228.24
354.77	228.33
355.15	228.43
355.54	228.49
355.92	228.53
356.30	228.59
356.68	228.75
357.06	228.82
357.44	228.86
357.82	228.92
358.20	229.00
358.58	229.03
358.97	229.12
359.35	229.18
359.73	229.24
360.11	229.27
360.49	229.33
360.87	229.36
361.25	229.39
361.63	229.45
362.01	229.50
362.39	229.52
362.77	229.55
363.15	229.59
363.53	229.56
363.91	229.62
364.29	229.63
364.67	229.55
365.05	229.55
365.43	229.58
365.81	229.61
366.19	229.62
366.57	229.67
366.95	229.62
367.33	229.57
367.71	229.53
368.09	229.50
368.47	229.52
368.85	229.46
369.23	229.46
369.61	229.38
369.99	229.39
370.37	229.34
370.75	229.34
371.13	229.26
371.51	229.25
371.89	229.18
372.27	229.12
372.65	229.06
373.03	228.99
373.41	228.94
373.78	228.88
374.16	228.78
374.54	228.68
374.92	228.64
375.30	228.60
375.68	228.52
376.06	228.42
376.44	228.30
376.82	228.26
377.19	228.15
377.57	228.07
377.95	227.95
378.33	227.89
378.71	227.75
379.09	227.68
379.47	227.63
379.84	227.54
380.22	227.47
380.60	227.40
380.98	227.31
381.36	227.24
381.73	227.11
382.11	227.05
382.49	227.02
382.87	226.93
383.25	226.85
383.62	226.89
384.00	226.82
384.38	226.80
384.76	226.77
385.13	226.74
385.51	226.74
385.89	226.68
386.27	226.65
386.64	226.62
387.02	226.57
387.40	226.49
387.78	226.47
388.15	226.44
388.53	226.40
388.91	226.40
389.29	226.36
389.66	226.39
390.04	226.37
390.42	226.35
390.79	226.30
391.17	226.31
391.55	226.19
391.92	226.20
392.30	226.19
392.68	226.17
393.05	226.17
393.43	226.16
393.81	226.18
394.18	226.15
394.56	226.17
394.94	226.23
395.31	226.25
395.69	226.29
396.06	226.36
396.44	226.39
396.82	226.42
397.19	226.50
397.57	226.53
397.95	226.61
398.32	226.64
398.70	226.73
399.07	226.81
399.45	226.89
399.82	226.97
400.20	227.02
400.58	227.09
400.95	227.14
401.33	227.22
401.70	227.39
402.08	227.52
402.45	227.62
402.83	227.72
403.20	227.85
403.58	227.92
403.95	228.03
404.33	228.18
404.71	228.32
405.08	228.51
405.46	228.66
405.83	228.81
406.21	228.96
406.58	229.14
406.96	229.28
407.33	229.47
407.70	229.66
408.08	229.94
408.45	230.17
408.83	230.44
409.20	230.66
409.58	230.83
409.95	231.08
410.33	231.37
410.70	231.63
411.08	231.94
411.45	232.28
411.82	232.61
412.20	232.98
412.57	233.41
412.95	233.70
413.32	234.11
413.69	234.50
414.07	234.93
414.44	235.38
414.82	235.88
415.19	236.45
415.56	237.01
415.94	237.54
416.31	238.20
416.68	238.81
417.06	239.55
417.43	240.21
417.81	241.00
418.18	241.76
418.55	242.60
418.93	243.48
419.30	244.37
419.67	245.32
420.04	246.26
420.42	247.26
420.79	248.48
421.16	249.63
421.54	250.83
421.91	252.03
422.28	253.33
422.66	254.64
423.03	255.93
423.40	257.26
423.77	258.68
424.15	260.08
424.52	261.59
424.89	263.18
425.26	264.76
425.64	266.18
426.01	267.77
426.38	269.42
426.75	271.06
427.13	272.81
427.50	274.62
427.87	276.48
428.24	278.32
428.61	280.05
428.99	281.95
429.36	284.07
429.73	286.14
430.10	288.16
430.47	290.28
430.85	292.39
431.22	294.65
431.59	297.04
431.96	299.29
432.33	301.80
432.70	304.17
433.08	307.00
433.45	309.64
433.82	312.29
434.19	315.16
434.56	317.99
434.93	320.63
435.30	323.25
435.68	326.18
436.05	329.01
436.42	331.80
436.79	334.28
437.16	336.96
437.53	339.84
437.90	342.64
438.27	345.34
438.64	348.18
439.01	350.77
439.38	352.99
439.75	355.14
440.13	357.59
440.50	359.94
440.87	361.79
441.24	363.78
441.61	365.94
441.98	367.42
442.35	369.27
442.72	371.15
443.09	372.96
443.46	373.96
443.83	374.56
444.20	375.03
444.57	375.94
444.94	376.19
445.31	376.50
445.68	376.89
446.05	376.98
446.42	376.61
446.79	376.20
447.16	375.79
447.53	375.50
447.90	374.34
448.27	373.21
448.64	371.62
449.01	370.44
449.37	368.44
449.74	366.55
450.11	364.27
450.48	361.81
450.85	359.23
451.22	357.05
451.59	355.03
451.96	353.12
452.33	350.51
452.70	348.17
453.07	345.38
453.43	342.43
453.80	339.67
454.17	336.98
454.54	334.41
454.91	331.64
455.28	328.93
455.65	326.48
456.02	323.99
456.38	321.84
456.75	319.16
457.12	316.93
457.49	314.73
457.86	312.53
458.23	310.65
458.59	308.64
458.96	306.57
459.33	304.75
459.70	302.88
460.07	301.37
460.43	299.68
460.80	298.02
461.17	296.58
461.54	295.07
461.91	293.63
462.27	292.20
462.64	291.02
463.01	289.70
463.38	288.39
463.74	287.04
464.11	285.87
464.48	284.88
464.85	283.76
465.21	282.86
465.58	281.93
465.95	280.77
466.32	279.88
466.68	278.96
467.05	278.06
467.42	277.12
467.78	276.20
468.15	275.29
468.52	274.60
468.88	273.75
469.25	272.97
469.62	272.35
469.98	271.63
470.35	270.97
470.72	270.36
471.08	269.71
471.45	269.16
471.82	268.60
472.18	267.95
472.55	267.51
472.92	267.00
473.28	266.58
473.65	266.17
474.02	265.71
474.38	265.33
474.75	264.98
475.11	264.65
475.48	264.35
475.85	264.12
476.21	263.93
476.58	263.74
476.94	263.59
477.31	263.40
477.67	263.27
478.04	263.13
478.41	263.03
478.77	263.06
479.14	262.98
479.50	263.00
479.87	263.08
480.23	263.13
480.60	263.20
480.96	263.24
481.33	263.44
481.69	263.62
482.06	263.80
482.42	263.99
482.79	264.25
483.15	264.62
483.52	265.01
483.88	265.33
484.25	265.69
484.61	266.10
484.98	266.55
485.34	267.13
485.71	267.71
486.07	268.30
486.44	268.85
486.80	269.54
487.17	270.25
487.53	271.08
487.90	271.90
488.26	272.81
488.62	273.83
488.99	274.79
489.35	275.89
489.72	277.04
490.08	278.24
490.44	279.48
490.81	280.81
491.17	282.13
491.54	283.62
491.90	285.18
492.26	286.87
492.63	288.63
492.99	290.37
493.36	292.26
493.72	294.31
494.08	296.42
494.45	298.68
494.81	301.05
495.17	303.46
495.54	306.07
495.90	308.74
496.26	311.52
496.63	314.47
496.99	317.54
497.35	320.81
497.72	324.19
498.08	327.67
498.44	331.32
498.80	335.25
499.17	339.25
499.53	343.41
499.89	347.80
500.26	352.28
500.62	356.97
500.98	361.96
501.34	367.05
501.71	372.36
502.07	377.80
502.43	383.42
502.79	389.23
503.16	395.32
503.52	401.57
503.88	407.96
504.24	414.67
504.60	421.55
504.97	428.65
505.33	436.03
505.69	443.73
506.05	451.55
506.41	459.44
506.78	467.67
507.14	476.09
507.50	484.81
507.86	493.85
508.22	503.01
508.59	512.25
508.95	521.84
509.31	531.66
509.67	541.80
510.03	552.10
510.39	562.65
510.75	573.45
511.12	584.38
511.48	595.68
511.84	607.07
512.20	618.62
512.56	630.61
512.92	642.82
513.28	655.17
513.64	667.70
514.00	680.42
514.37	693.31
514.73	706.37
515.09	719.41
515.45	732.65
515.81	746.31
516.17	760.30
516.53	774.41
516.89	788.59
517.25	802.74
517.61	817.16
517.97	831.81
518.33	846.21
518.69	861.07
519.05	876.18
519.41	891.42
519.77	906.99
520.13	922.41
520.49	937.73
520.85	953.22
521.21	968.90
521.57	985.22
521.93	1000.99
522.29	1017.44
522.65	1033.69
523.01	1050.05
523.37	1066.11
523.73	1082.31
524.09	1098.53
524.45	1114.99
524.81	1131.72
525.17	1148.74
525.53	1165.51
525.89	1182.40
526.25	1199.17
526.61	1215.57
526.97	1232.28
527.33	1248.80
527.68	1265.45
528.04	1282.09
528.40	1298.72
528.76	1315.93
529.12	1332.56
529.48	1349.59
529.84	1365.73
530.20	1382.45
530.56	1399.55
530.91	1416.97
531.27	1433.71
531.63	1450.09
531.99	1466.67
532.35	1482.66
532.71	1498.42
533.07	1514.72
533.42	1530.71
533.78	1546.95
534.14	1563.36
534.50	1578.81
534.86	1594.71
535.21	1609.88
535.57	1625.83
535.93	1641.50
536.29	1656.25
536.65	1671.37
537.00	1686.11
537.36	1701.54
537.72	1716.15
538.08	1730.52
538.44	1744.48
538.79	1758.62
539.15	1772.40
539.51	1786.23
539.87	1800.71
540.22	1814.49
540.58	1828.29
540.94	1841.79
541.29	1854.71
541.65	1867.38
542.01	1880.72
542.37	1893.13
542.72	1905.75
543.08	1917.54
543.44	1929.86
543.79	1941.08
544.15	1952.12
544.51	1963.89
544.87	1974.72
545.22	1985.48
545.58	1995.79
545.94	2005.46
546.29	2015.25
546.65	2025.03
547.01	2034.16
547.36	2042.86
547.72	2051.53
548.07	2059.49
548.43	2067.62
548.79	2075.70
549.14	2083.23
549.50	2090.59
549.86	2098.34
550.21	2105.70
550.57	2112.93
550.92	2119.48
551.28	2126.71
551.64	2133.82
551.99	2140.18
552.35	2146.43
552.70	2152.48
553.06	2158.33
553.41	2164.78
553.77	2170.83
554.13	2177.13
554.48	2183.33
554.84	2188.79
555.19	2194.01
555.55	2199.03
555.90	2203.36
556.26	2208.27
556.61	2213.01
556.97	2217.07
557.32	2221.17
557.68	2225.17
558.03	2229.49
558.39	2233.32
558.74	2237.82
559.10	2241.66
559.45	2245.37
559.81	2249.73
560.16	2253.66
560.52	2256.97
560.87	2260.41
561.23	2263.11
561.58	2266.05
561.94	2268.73
562.29	2271.24
562.64	2273.93
563.00	2276.64
563.35	2280.37
563.71	2283.39
564.06	2286.63
564.42	2289.58
564.77	2291.97
565.12	2294.17
565.48	2295.94
565.83	2297.71
566.19	2298.99
566.54	2300.05
566.89	2301.22
567.25	2301.63
567.60	2302.92
567.96	2304.53
568.31	2305.30
568.66	2306.21
569.02	2306.59
569.37	2306.87
569.72	2307.57
570.08	2307.64
570.43	2307.62
570.78	2306.85
571.14	2305.26
571.49	2303.83
571.84	2303.47
572.20	2302.15
572.55	2301.08
572.90	2299.67
573.26	2298.28
573.61	2296.56
573.96	2294.46
574.31	2291.27
574.67	2288.16
575.02	2284.57
575.37	2281.21
575.72	2277.16
576.08	2273.94
576.43	2270.64
576.78	2266.95
577.13	2263.61
577.49	2260.48
577.84	2256.89
578.19	2253.08
578.54	2249.40
578.90	2245.15
579.25	2239.52
579.60	2234.61
579.95	2229.58
580.30	2224.25
580.66	2218.95
581.01	2213.95
581.36	2209.09
581.71	2204.95
582.06	2200.58
582.42	2195.97
582.77	2190.50
583.12	2186.00
583.47	2180.98
583.82	2175.75
584.17	2170.28
584.53	2164.81
584.88	2159.02
585.23	2153.16
585.58	2147.61
585.93	2142.02
586.28	2137.12
586.63	2132.05
586.98	2126.86
587.34	2122.16
587.69	2117.37
588.04	2111.90
588.39	2105.99
588.74	2099.31
589.09	2093.04
589.44	2086.01
589.79	2079.89
590.14	2074.31
590.49	2067.66
590.84	2061.34
591.19	2055.42
591.54	2048.81
591.89	2041.21
592.25	2034.24
592.60	2026.91
592.95	2019.31
593.30	2011.86
593.65	2004.13
594.00	1997.02
594.35	1989.82
594.70	1981.66
595.05	1974.25
595.40	1967.11
595.75	1959.79
596.10	1953.44
596.45	1946.66
596.80	1940.49
597.15	1933.77
597.50	1926.50
597.85	1920.06
598.19	1913.41
598.54	1906.17
598.89	1899.58
599.24	1893.79
599.59	1887.20
599.94	1881.02
600.29	1874.62
600.64	1868.12
600.99	1860.61
601.34	1853.64
601.69	1846.57
602.04	1839.66
602.39	1832.35
602.74	1825.37
603.08	1818.56
603.43	1811.88
603.78	1804.61
604.13	1797.33
604.48	1789.95
604.83	1783.11
605.18	1775.91
605.53	1767.81
605.87	1759.72
606.22	1752.40
606.57	1744.45
606.92	1737.07
607.27	1729.79
607.62	1722.86
607.96	1715.47
608.31	1708.89
608.66	1701.26
609.01	1693.69
609.36	1686.11
609.70	1677.96
610.05	1669.92
610.40	1662.15
610.75	1653.79
611.10	1646.04
611.44	1637.86
611.79	1629.99
612.14	1621.33
612.49	1612.25
612.83	1603.81
613.18	1595.80
613.53	1587.71
613.88	1579.09
614.22	1570.86
614.57	1562.37
614.92	1554.32
615.27	1546.59
615.61	1538.21
615.96	1530.30
616.31	1522.64
616.65	1515.29
617.00	1507.75
617.35	1500.12
617.70	1491.70
618.04	1483.26
618.39	1474.98
618.74	1467.25
619.08	1458.97
619.43	1451.34
619.78	1444.46
620.12	1437.29
620.47	1429.67
620.82	1421.58
621.16	1414.19
621.51	1406.46
621.85	1398.81
622.20	1390.22
622.55	1382.08
622.89	1374.35
623.24	1366.66
623.59	1359.35
623.93	1351.76
624.28	1344.55
624.62	1336.98
624.97	1329.86
625.32	1323.09
625.66	1316.13
626.01	1308.85
626.35	1301.38
626.70	1293.72
627.04	1285.98
627.39	1278.23
627.73	1270.81
628.08	1263.87
628.43	1256.56
628.77	1249.16
629.12	1241.59
629.46	1234.41
629.81	1227.00
630.15	1219.64
630.50	1212.21
630.84	1204.04
631.19	1196.22
631.53	1188.76
631.88	1181.23
632.22	1173.64
632.57	1166.37
632.91	1158.82
633.26	1151.46
633.60	1144.09
633.95	1137.09
634.29	1130.14
634.64	1123.53
634.98	1116.25
635.32	1109.08
635.67	1102.46
636.01	1095.91
636.36	1089.12
636.70	1082.74
637.05	1076.17
637.39	1069.86
637.73	1063.41
638.08	1057.55
638.42	1051.53
638.77	1045.09
639.11	1038.42
639.45	1032.09
639.80	1025.43
640.14	1018.87
640.49	1012.37
640.83	1006.04
641.17	999.71
641.52	993.37
641.86	986.92
642.20	981.01
642.55	974.79
642.89	968.29
643.23	961.76
643.58	956.00
643.92	949.67
644.26	943.60
644.61	937.47
644.95	931.38
645.29	924.72
645.64	918.00
645.98	911.64
646.32	905.86
646.66	899.78
647.01	893.99
647.35	888.43
647.69	882.64
648.04	877.15
648.38	871.36
648.72	865.29
649.06	859.15
649.41	853.36
649.75	847.33
650.09	841.34
650.43	835.51
650.78	829.30
651.12	823.42
651.46	817.70
651.80	812.01
652.14	806.65
652.49	801.26
652.83	796.01
653.17	790.26
653.51	784.52
653.85	779.03
654.20	773.31
654.54	767.28
654.88	761.52
655.22	755.69
655.56	750.04
655.90	744.65
656.25	739.48
656.59	734.14
656.93	729.00
657.27	723.92
657.61	718.56
657.95	713.50
658.29	708.45
658.64	703.14
658.98	697.86
659.32	692.38
659.66	687.22
660.00	681.89
660.34	677.07
660.68	672.20
661.02	667.32
661.36	662.65
661.70	658.17
662.05	653.78
662.39	649.39
662.73	644.91
663.07	640.50
663.41	636.04
663.75	631.41
664.09	626.81
664.43	622.47
664.77	618.32
665.11	614.11
665.45	609.94
665.79	605.91
666.13	601.74
666.47	597.70
666.81	593.60
667.15	589.56
667.49	585.65
667.83	581.85
668.17	577.91
668.51	573.86
668.85	569.84
669.19	566.00
669.53	562.19
669.87	558.32
670.21	554.64
670.55	551.06
670.89	547.69
671.23	544.34
671.57	540.80
671.91	537.30
672.25	533.84
672.58	530.40
672.92	527.04
673.26	523.83
673.60	520.66
673.94	517.50
674.28	514.59
674.62	511.63
674.96	508.47
675.30	505.58
675.64	502.68
675.97	499.96
676.31	497.11
676.65	494.18
676.99	491.46
677.33	488.56
677.67	485.71
678.01	482.62
678.34	479.62
678.68	476.73
679.02	473.90
679.36	471.17
679.70	468.38
680.04	465.59
680.37	462.77
680.71	459.97
681.05	457.43
681.39	454.69
681.73	452.04
682.06	449.57
682.40	446.96
682.74	444.40
683.08	441.80
683.42	439.22
683.75	436.69
684.09	434.17
684.43	431.73
684.77	429.21
685.10	426.92
685.44	424.63
685.78	422.41
686.12	420.16
686.45	417.83
686.79	415.51
687.13	413.32
687.46	411.18
687.80	409.06
688.14	406.83
688.48	404.72
688.81	402.47
689.15	400.30
689.49	398.18
689.82	396.09
690.16	394.04
690.50	392.07
690.83	390.13
691.17	388.15
691.51	386.26
691.84	384.50
692.18	382.58
692.52	380.64
692.85	378.67
693.19	376.76
693.52	374.97
693.86	373.18
694.20	371.42
694.53	369.60
694.87	367.77
695.21	365.98
695.54	364.24
695.88	362.54
696.21	360.85
696.55	359.16
696.88	357.53
697.22	355.90
697.56	354.30
697.89	352.63
698.23	351.03
698.56	349.41
698.90	347.78
699.23	346.14
699.57	344.58
699.90	343.07
700.24	341.55
700.58	339.99
700.91	338.52
701.25	337.10
701.58	335.74
701.92	334.39
702.25	333.02
702.59	331.63
702.92	330.29
703.26	328.98
703.59	327.74
703.93	326.53
704.26	325.31
704.60	324.00
704.93	322.75
705.26	321.51
705.60	320.36
705.93	319.23
706.27	318.18
706.60	317.14
706.94	316.08
707.27	314.99
707.61	313.95
707.94	312.95
708.27	311.84
708.61	310.80
708.94	309.78
709.28	308.78
709.61	307.88
709.94	306.92
710.28	305.92
710.61	304.94
710.95	303.85
711.28	302.93
711.61	302.03
711.95	301.12
712.28	300.19
712.61	299.22
712.95	298.29
713.28	297.43
713.61	296.52
713.95	295.61
714.28	294.73
714.61	293.85
714.95	292.99
715.28	292.18
715.61	291.26
715.95	290.43
716.28	289.58
716.61	288.71
716.95	287.93
717.28	287.20
717.61	286.45
717.94	285.75
718.28	284.96
718.61	284.20
718.94	283.50
719.27	282.83
719.61	282.19
719.94	281.50
720.27	280.80
720.60	280.13
720.94	279.50
721.27	278.90
721.60	278.37
721.93	277.77
722.27	277.22
722.60	276.72
722.93	276.14
723.26	275.62
723.59	275.05
723.93	274.48
724.26	273.93
724.59	273.35
724.92	272.81
725.25	272.29
725.59	271.79
725.92	271.28
726.25	270.74
726.58	270.26
726.91	269.79
727.24	269.30
727.57	268.85
727.91	268.33
728.24	267.88
728.57	267.32
728.90	266.90
729.23	266.38
729.56	265.91
729.89	265.46
730.22	264.94
730.55	264.48
730.89	264.06
731.22	263.59
731.55	263.14
731.88	262.74
732.21	262.30
732.54	261.85
732.87	261.43
733.20	261.06
733.53	260.65
733.86	260.28
734.19	259.88
734.52	259.48
734.85	259.22
735.18	258.82
735.51	258.46
735.84	258.10
736.17	257.75
736.50	257.37
736.83	257.18
737.16	256.85
737.49	256.53
737.82	256.13
738.15	255.84
738.48	255.51
738.81	255.15
739.14	254.84
739.47	254.54
739.80	254.26
740.13	253.95
740.46	253.61
740.79	253.27
741.12	252.99
741.45	252.72
741.78	252.36
742.11	252.08
742.44	251.80
742.77	251.50
743.10	251.21
743.43	250.92
743.75	250.47
744.08	250.34
744.41	250.10
744.74	249.87
745.07	249.55
745.40	249.31
745.73	249.10
746.06	248.84
746.39	248.59
746.71	248.32
747.04	248.01
747.37	247.76
747.70	247.50
748.03	247.25
748.36	247.03
748.68	246.79
749.01	246.55
749.34	246.31
749.67	246.07
750.00	245.84
750.33	245.68
750.65	245.50
750.98	245.16
751.31	244.93
751.64	244.71
751.97	244.56
752.29	244.33
752.62	244.08
752.95	243.84
753.28	243.62
753.60	243.42
753.93	243.26
754.26	243.06
754.59	242.86
754.91	242.62
755.24	242.40
755.57	242.19
755.90	242.00
756.22	241.79
756.55	241.60
756.88	241.40
757.20	241.16
757.53	240.96
757.86	240.78
758.19	240.61
758.51	240.43
758.84	240.22
759.17	240.07
759.49	239.93
759.82	239.81
760.15	239.65
760.47	239.49
760.80	239.34
761.13	239.24
761.45	239.09
761.78	238.97
762.11	238.82
762.43	238.67
762.76	238.52
763.08	238.41
763.41	238.27
763.74	238.10
764.06	237.94
764.39	237.82
764.71	237.73
765.04	237.61
765.37	237.51
765.69	237.37
766.02	237.24
766.34	237.11
766.67	236.93
767.00	236.85
767.32	236.81
767.65	236.75
767.97	236.64
768.30	236.53
768.62	236.41
768.95	236.30
769.27	236.20
769.60	236.10
769.92	235.95
770.25	235.85
770.57	235.76
770.90	235.67
771.22	235.53
771.55	235.40
771.87	235.28
772.20	235.15
772.52	235.16
772.85	235.20
773.17	235.11
773.50	235.06
773.82	234.89
774.15	234.72
774.47	234.57
774.80	234.45
775.12	234.35
775.45	234.31
775.77	234.24
776.09	234.15
776.42	234.07
776.74	234.06
777.07	233.97
777.39	233.91
777.72	233.86
778.04	233.84
778.36	233.76
778.69	233.71
779.01	233.65
779.33	233.49
779.66	233.31
779.98	233.21
780.31	233.13
780.63	233.14
780.95	233.07
781.28	232.97
781.60	232.90
781.92	232.84
782.25	232.77
782.57	232.69
782.89	232.63
783.22	232.54
783.54	232.44
783.86	232.40
784.19	232.34
784.51	232.29
784.83	232.21
785.16	232.13
785.48	232.08
785.80	232.02
786.12	231.97
786.45	231.91
786.77	231.88
787.09	231.85
