SpectraSuite Data File
++++++++++++++++++++++++++++++++++++
Date: Fri Feb 01 15:23:07 EST 2013
User: group
Dark Spectrum Present: No
Reference Spectrum Present: No
Number of Sampled Component Spectra: 1
Spectrometers: USB2E7196
Integration Time (usec): 35000 (USB2E7196)
Spectra Averaged: 100 (USB2E7196)
Boxcar Smoothing: 10 (USB2E7196)
Correct for Electrical Dark: No (USB2E7196)
Strobe/Lamp Enabled: No (USB2E7196)
Correct for Detector Non-linearity: No (USB2E7196)
Correct for Stray Light: No (USB2E7196)
Number of Pixels in Processed Spectrum: 2048
>>>>>Begin Processed Spectral Data<<<<<
339.09	0.00
339.48	214.66
339.86	216.43
340.24	217.81
340.63	219.38
341.01	222.15
341.39	221.47
341.78	223.24
342.16	224.73
342.54	225.02
342.93	213.55
343.31	224.38
343.69	224.92
344.07	225.37
344.46	225.81
344.84	226.18
345.22	226.43
345.60	226.74
345.99	226.93
346.37	227.05
346.75	227.16
347.13	227.20
347.52	227.26
347.90	227.35
348.28	227.36
348.66	227.39
349.05	227.39
349.43	227.43
349.81	227.47
350.19	227.48
350.57	227.52
350.96	227.58
351.34	227.64
351.72	227.76
352.10	227.89
352.48	227.95
352.87	228.00
353.25	228.05
353.63	228.07
354.01	228.13
354.39	228.20
354.77	228.25
355.15	228.35
355.54	228.42
355.92	228.45
356.30	228.55
356.68	228.70
357.06	228.80
357.44	228.85
357.82	228.89
358.20	228.97
358.58	228.98
358.97	229.04
359.35	229.11
359.73	229.17
360.11	229.21
360.49	229.28
360.87	229.34
361.25	229.40
361.63	229.48
362.01	229.55
362.39	229.59
362.77	229.64
363.15	229.67
363.53	229.66
363.91	229.67
364.29	229.67
364.67	229.55
365.05	229.53
365.43	229.53
365.81	229.55
366.19	229.59
366.57	229.66
366.95	229.65
367.33	229.59
367.71	229.55
368.09	229.55
368.47	229.50
368.85	229.47
369.23	229.43
369.61	229.34
369.99	229.30
370.37	229.28
370.75	229.30
371.13	229.20
371.51	229.16
371.89	229.13
372.27	229.07
372.65	229.02
373.03	228.96
373.41	228.87
373.78	228.80
374.16	228.66
374.54	228.54
374.92	228.45
375.30	228.40
375.68	228.33
376.06	228.23
376.44	228.18
376.82	228.09
377.19	228.05
377.57	227.97
377.95	227.88
378.33	227.78
378.71	227.67
379.09	227.60
379.47	227.57
379.84	227.48
380.22	227.40
380.60	227.33
380.98	227.28
381.36	227.21
381.73	227.12
382.11	227.07
382.49	226.99
382.87	226.93
383.25	226.87
383.62	226.93
384.00	226.86
384.38	226.78
384.76	226.76
385.13	226.73
385.51	226.72
385.89	226.70
386.27	226.67
386.64	226.62
387.02	226.61
387.40	226.53
387.78	226.46
388.15	226.42
388.53	226.42
388.91	226.37
389.29	226.35
389.66	226.37
390.04	226.37
390.42	226.40
390.79	226.40
391.17	226.39
391.55	226.26
391.92	226.28
392.30	226.31
392.68	226.32
393.05	226.30
393.43	226.32
393.81	226.29
394.18	226.30
394.56	226.30
394.94	226.33
395.31	226.38
395.69	226.47
396.06	226.53
396.44	226.55
396.82	226.60
397.19	226.71
397.57	226.72
397.95	226.80
398.32	226.84
398.70	226.93
399.07	226.99
399.45	227.07
399.82	227.14
400.20	227.19
400.58	227.25
400.95	227.32
401.33	227.43
401.70	227.57
402.08	227.65
402.45	227.75
402.83	227.91
403.20	228.05
403.58	228.16
403.95	228.30
404.33	228.47
404.71	228.60
405.08	228.80
405.46	228.97
405.83	229.10
406.21	229.27
406.58	229.40
406.96	229.59
407.33	229.78
407.70	229.99
408.08	230.27
408.45	230.51
408.83	230.74
409.20	230.95
409.58	231.17
409.95	231.48
410.33	231.77
410.70	232.01
411.08	232.29
411.45	232.60
411.82	232.94
412.20	233.27
412.57	233.69
412.95	233.98
413.32	234.38
413.69	234.81
414.07	235.26
414.44	235.77
414.82	236.26
415.19	236.81
415.56	237.34
415.94	237.89
416.31	238.52
416.68	239.13
417.06	239.84
417.43	240.53
417.81	241.29
418.18	242.07
418.55	242.90
418.93	243.78
419.30	244.69
419.67	245.60
420.04	246.57
420.42	247.55
420.79	248.70
421.16	249.87
421.54	251.07
421.91	252.26
422.28	253.52
422.66	254.86
423.03	256.15
423.40	257.50
423.77	258.91
424.15	260.36
424.52	261.86
424.89	263.48
425.26	265.02
425.64	266.48
426.01	268.06
426.38	269.72
426.75	271.40
427.13	273.11
427.50	274.90
427.87	276.77
428.24	278.66
428.61	280.44
428.99	282.33
429.36	284.39
429.73	286.44
430.10	288.45
430.47	290.52
430.85	292.62
431.22	294.86
431.59	297.25
431.96	299.44
432.33	301.93
432.70	304.30
433.08	307.14
433.45	309.76
433.82	312.38
434.19	315.28
434.56	318.07
434.93	320.74
435.30	323.37
435.68	326.26
436.05	329.06
436.42	331.84
436.79	334.37
437.16	337.08
437.53	339.95
437.90	342.76
438.27	345.46
438.64	348.29
439.01	350.87
439.38	353.10
439.75	355.29
440.13	357.85
440.50	360.20
440.87	362.01
441.24	364.01
441.61	366.25
441.98	367.72
442.35	369.52
442.72	371.36
443.09	373.20
443.46	374.15
443.83	374.76
444.20	375.26
444.57	376.13
444.94	376.46
445.31	376.75
445.68	377.09
446.05	377.21
446.42	376.85
446.79	376.45
447.16	376.00
447.53	375.68
447.90	374.44
448.27	373.29
448.64	371.72
449.01	370.55
449.37	368.51
449.74	366.58
450.11	364.35
450.48	361.92
450.85	359.35
451.22	357.24
451.59	355.24
451.96	353.30
452.33	350.68
452.70	348.28
453.07	345.43
453.43	342.50
453.80	339.72
454.17	337.04
454.54	334.49
454.91	331.76
455.28	329.11
455.65	326.66
456.02	324.21
456.38	322.07
456.75	319.41
457.12	317.15
457.49	314.96
457.86	312.82
458.23	310.96
458.59	308.92
458.96	306.81
459.33	304.95
459.70	303.08
460.07	301.60
460.43	299.88
460.80	298.28
461.17	296.86
461.54	295.38
461.91	293.98
462.27	292.59
462.64	291.35
463.01	289.97
463.38	288.64
463.74	287.24
464.11	286.06
464.48	285.01
464.85	283.91
465.21	283.01
465.58	282.05
465.95	280.93
466.32	280.01
466.68	279.14
467.05	278.23
467.42	277.37
467.78	276.43
468.15	275.53
468.52	274.89
468.88	274.04
469.25	273.27
469.62	272.59
469.98	271.84
470.35	271.20
470.72	270.56
471.08	269.88
471.45	269.33
471.82	268.79
472.18	268.18
472.55	267.75
472.92	267.21
473.28	266.73
473.65	266.27
474.02	265.86
474.38	265.46
474.75	265.10
475.11	264.70
475.48	264.45
475.85	264.24
476.21	263.95
476.58	263.77
476.94	263.59
477.31	263.40
477.67	263.26
478.04	263.14
478.41	263.13
478.77	263.18
479.14	263.09
479.50	263.07
479.87	263.14
480.23	263.19
480.60	263.26
480.96	263.36
481.33	263.58
481.69	263.73
482.06	263.92
482.42	264.11
482.79	264.36
483.15	264.64
483.52	265.04
483.88	265.39
484.25	265.77
484.61	266.20
484.98	266.66
485.34	267.22
485.71	267.82
486.07	268.41
486.44	268.96
486.80	269.71
487.17	270.44
487.53	271.23
487.90	272.07
488.26	273.01
488.62	274.00
488.99	274.94
489.35	275.99
489.72	277.11
490.08	278.35
490.44	279.58
490.81	280.91
491.17	282.22
491.54	283.72
491.90	285.24
492.26	286.88
492.63	288.62
492.99	290.39
493.36	292.27
493.72	294.32
494.08	296.46
494.45	298.68
494.81	301.06
495.17	303.54
495.54	306.13
495.90	308.78
496.26	311.56
496.63	314.51
496.99	317.64
497.35	320.87
497.72	324.23
498.08	327.75
498.44	331.43
498.80	335.34
499.17	339.37
499.53	343.52
499.89	347.92
500.26	352.41
500.62	357.12
500.98	362.07
501.34	367.16
501.71	372.48
502.07	377.93
502.43	383.54
502.79	389.35
503.16	395.45
503.52	401.77
503.88	408.24
504.24	414.94
504.60	421.81
504.97	429.00
505.33	436.36
505.69	444.09
506.05	451.85
506.41	459.77
506.78	467.93
507.14	476.42
507.50	485.15
507.86	494.13
508.22	503.28
508.59	512.49
508.95	522.06
509.31	531.92
509.67	541.98
510.03	552.33
510.39	562.86
510.75	573.65
511.12	584.56
511.48	595.87
511.84	607.32
512.20	618.84
512.56	630.69
512.92	642.85
513.28	655.19
513.64	667.72
514.00	680.44
514.37	693.49
514.73	706.53
515.09	719.55
515.45	732.90
515.81	746.52
516.17	760.52
516.53	774.67
516.89	788.86
517.25	803.08
517.61	817.58
517.97	832.07
518.33	846.51
518.69	861.32
519.05	876.35
519.41	891.50
519.77	907.04
520.13	922.63
520.49	938.02
520.85	953.51
521.21	969.29
521.57	985.52
521.93	1001.32
522.29	1017.82
522.65	1034.07
523.01	1050.40
523.37	1066.49
523.73	1082.80
524.09	1098.86
524.45	1115.13
524.81	1131.89
525.17	1148.71
525.53	1165.64
525.89	1182.49
526.25	1199.40
526.61	1215.76
526.97	1232.64
527.33	1249.16
527.68	1265.89
528.04	1282.43
528.40	1299.13
528.76	1316.17
529.12	1332.83
529.48	1349.69
529.84	1365.78
530.20	1382.55
530.56	1399.66
530.91	1417.13
531.27	1433.92
531.63	1450.47
531.99	1467.23
532.35	1483.32
532.71	1499.21
533.07	1515.53
533.42	1531.55
533.78	1547.62
534.14	1564.10
534.50	1579.44
534.86	1595.40
535.21	1610.56
535.57	1626.61
535.93	1642.14
536.29	1656.88
536.65	1672.08
537.00	1686.93
537.36	1702.26
537.72	1716.82
538.08	1731.11
538.44	1744.91
538.79	1758.80
539.15	1772.66
539.51	1786.34
539.87	1800.60
540.22	1814.51
540.58	1828.52
540.94	1841.99
541.29	1855.07
541.65	1867.64
542.01	1880.99
542.37	1893.34
542.72	1905.82
543.08	1917.66
543.44	1930.18
543.79	1941.55
544.15	1952.50
544.51	1964.13
544.87	1975.09
545.22	1985.89
545.58	1996.17
545.94	2006.07
546.29	2015.99
546.65	2025.78
547.01	2035.03
547.36	2043.89
547.72	2052.33
548.07	2060.06
548.43	2068.22
548.79	2076.14
549.14	2083.74
549.50	2091.16
549.86	2098.98
550.21	2106.30
550.57	2113.53
550.92	2120.10
551.28	2127.23
551.64	2134.37
551.99	2140.90
552.35	2147.09
552.70	2153.28
553.06	2159.23
553.41	2165.59
553.77	2171.56
554.13	2177.65
554.48	2183.80
554.84	2189.10
555.19	2194.32
555.55	2199.42
555.90	2203.89
556.26	2208.69
556.61	2213.50
556.97	2217.53
557.32	2221.59
557.68	2225.78
558.03	2230.09
558.39	2233.78
558.74	2238.52
559.10	2242.31
559.45	2246.01
559.81	2250.35
560.16	2254.06
560.52	2257.37
560.87	2260.70
561.23	2263.38
561.58	2266.43
561.94	2269.00
562.29	2271.43
562.64	2274.10
563.00	2276.79
563.35	2280.34
563.71	2283.47
564.06	2286.51
564.42	2289.46
564.77	2291.94
565.12	2294.04
565.48	2295.67
565.83	2297.53
566.19	2298.67
566.54	2299.67
566.89	2300.62
567.25	2301.17
567.60	2302.58
567.96	2304.20
568.31	2305.03
568.66	2306.08
569.02	2306.68
569.37	2306.87
569.72	2307.70
570.08	2307.81
570.43	2307.71
570.78	2306.91
571.14	2305.41
571.49	2304.24
571.84	2303.85
572.20	2302.64
572.55	2301.58
572.90	2300.22
573.26	2298.54
573.61	2296.84
573.96	2294.86
574.31	2291.88
574.67	2288.70
575.02	2284.92
575.37	2281.51
575.72	2277.68
576.08	2274.35
576.43	2270.88
576.78	2267.11
577.13	2263.80
577.49	2260.71
577.84	2257.15
578.19	2253.38
578.54	2249.63
578.90	2245.20
579.25	2239.66
579.60	2234.54
579.95	2229.47
580.30	2224.22
580.66	2219.21
581.01	2214.17
581.36	2209.18
581.71	2204.98
582.06	2200.53
582.42	2195.99
582.77	2190.67
583.12	2185.97
583.47	2181.05
583.82	2175.88
584.17	2170.58
584.53	2165.04
584.88	2159.18
585.23	2153.30
585.58	2147.80
585.93	2142.44
586.28	2137.60
586.63	2132.31
586.98	2127.17
587.34	2122.46
587.69	2117.59
588.04	2112.17
588.39	2106.29
588.74	2099.81
589.09	2093.70
589.44	2086.82
589.79	2080.77
590.14	2075.11
590.49	2068.45
590.84	2062.07
591.19	2055.93
591.54	2049.49
591.89	2042.02
592.25	2035.17
592.60	2027.92
592.95	2020.15
593.30	2012.65
593.65	2004.99
594.00	1997.98
594.35	1990.90
594.70	1982.70
595.05	1975.19
595.40	1967.80
595.75	1960.35
596.10	1953.93
596.45	1946.94
596.80	1940.66
597.15	1933.90
597.50	1926.72
597.85	1920.43
598.19	1913.73
598.54	1906.61
598.89	1899.98
599.24	1894.10
599.59	1887.31
599.94	1881.13
600.29	1874.97
600.64	1868.29
600.99	1860.74
601.34	1853.78
601.69	1846.67
602.04	1839.73
602.39	1832.54
602.74	1825.72
603.08	1819.01
603.43	1812.40
603.78	1805.06
604.13	1797.92
604.48	1790.60
604.83	1783.61
605.18	1776.45
605.53	1768.47
605.87	1760.39
606.22	1753.10
606.57	1745.07
606.92	1737.83
607.27	1730.55
607.62	1723.54
607.96	1716.18
608.31	1709.45
608.66	1701.83
609.01	1694.08
609.36	1686.50
609.70	1678.53
610.05	1670.28
610.40	1662.46
610.75	1654.05
611.10	1646.40
611.44	1637.95
611.79	1630.07
612.14	1621.48
612.49	1612.37
612.83	1603.94
613.18	1595.96
613.53	1587.77
613.88	1579.24
614.22	1570.88
614.57	1562.27
614.92	1554.16
615.27	1546.53
615.61	1538.27
615.96	1530.26
616.31	1522.85
616.65	1515.44
617.00	1507.78
617.35	1500.20
617.70	1491.78
618.04	1483.34
618.39	1475.03
618.74	1467.41
619.08	1459.04
619.43	1451.47
619.78	1444.42
620.12	1437.11
620.47	1429.44
620.82	1421.31
621.16	1413.91
621.51	1406.43
621.85	1398.88
622.20	1390.40
622.55	1382.15
622.89	1374.34
623.24	1366.78
623.59	1359.26
623.93	1351.80
624.28	1344.56
624.62	1337.10
624.97	1330.00
625.32	1323.29
625.66	1316.40
626.01	1309.07
626.35	1301.55
626.70	1293.73
627.04	1286.05
627.39	1278.43
627.73	1271.02
628.08	1264.16
628.43	1256.81
628.77	1249.31
629.12	1241.64
629.46	1234.41
629.81	1227.00
630.15	1219.84
630.50	1212.38
630.84	1204.22
631.19	1196.39
631.53	1188.93
631.88	1181.36
632.22	1173.78
632.57	1166.44
632.91	1158.89
633.26	1151.61
633.60	1144.38
633.95	1137.35
634.29	1130.26
634.64	1123.48
634.98	1116.18
635.32	1109.00
635.67	1102.46
636.01	1095.91
636.36	1089.16
636.70	1082.78
637.05	1076.26
637.39	1069.64
637.73	1063.19
638.08	1057.45
638.42	1051.44
638.77	1044.89
639.11	1038.28
639.45	1031.94
639.80	1025.26
640.14	1018.74
640.49	1012.21
640.83	1005.88
641.17	999.61
641.52	993.31
641.86	986.87
642.20	981.05
642.55	974.73
642.89	968.20
643.23	961.72
643.58	955.98
643.92	949.66
644.26	943.52
644.61	937.59
644.95	931.48
645.29	924.77
645.64	917.99
645.98	911.70
646.32	905.94
646.66	899.88
647.01	894.04
647.35	888.38
647.69	882.57
648.04	877.06
648.38	871.25
648.72	865.23
649.06	859.25
649.41	853.37
649.75	847.37
650.09	841.43
650.43	835.59
650.78	829.34
651.12	823.37
651.46	817.68
651.80	811.86
652.14	806.51
652.49	801.13
652.83	795.98
653.17	790.34
653.51	784.50
653.85	779.12
654.20	773.46
654.54	767.49
654.88	761.78
655.22	755.94
655.56	750.27
655.90	744.88
656.25	739.64
656.59	734.24
656.93	729.18
657.27	724.06
657.61	718.59
657.95	713.54
658.29	708.54
658.64	703.34
658.98	698.11
659.32	692.68
659.66	687.52
660.00	682.21
660.34	677.25
660.68	672.43
661.02	667.37
661.36	662.73
661.70	658.23
662.05	653.87
662.39	649.50
662.73	645.09
663.07	640.74
663.41	636.29
663.75	631.82
664.09	627.25
664.43	622.87
664.77	618.77
665.11	614.54
665.45	610.31
665.79	606.20
666.13	602.10
666.47	598.00
666.81	593.83
667.15	589.70
667.49	585.88
667.83	582.03
668.17	578.13
668.51	574.04
668.85	570.05
669.19	566.25
669.53	562.35
669.87	558.44
670.21	554.71
670.55	551.06
670.89	547.61
671.23	544.21
671.57	540.68
671.91	537.14
672.25	533.65
672.58	530.23
672.92	526.83
673.26	523.65
673.60	520.53
673.94	517.39
674.28	514.48
674.62	511.52
674.96	508.38
675.30	505.44
675.64	502.55
675.97	499.77
676.31	496.85
676.65	493.96
676.99	491.22
677.33	488.38
677.67	485.54
678.01	482.54
678.34	479.58
678.68	476.77
679.02	473.99
679.36	471.21
679.70	468.48
680.04	465.73
680.37	462.88
680.71	460.11
681.05	457.56
681.39	454.86
681.73	452.20
682.06	449.75
682.40	447.21
682.74	444.66
683.08	442.14
683.42	439.55
683.75	437.04
684.09	434.56
684.43	432.07
684.77	429.63
685.10	427.31
685.44	425.01
685.78	422.72
686.12	420.47
686.45	418.20
686.79	415.93
687.13	413.75
687.46	411.56
687.80	409.41
688.14	407.21
688.48	405.16
688.81	402.86
689.15	400.67
689.49	398.53
689.82	396.46
690.16	394.38
690.50	392.50
690.83	390.55
691.17	388.55
691.51	386.69
691.84	384.88
692.18	382.94
692.52	380.94
692.85	378.98
693.19	377.12
693.52	375.32
693.86	373.52
694.20	371.72
694.53	369.91
694.87	368.07
695.21	366.28
695.54	364.42
695.88	362.73
696.21	361.08
696.55	359.43
696.88	357.79
697.22	356.15
697.56	354.49
697.89	352.86
698.23	351.23
698.56	349.59
698.90	347.98
699.23	346.31
699.57	344.77
699.90	343.27
700.24	341.69
700.58	340.12
700.91	338.62
701.25	337.21
701.58	335.83
701.92	334.48
702.25	333.11
702.59	331.80
702.92	330.49
703.26	329.15
703.59	327.84
703.93	326.63
704.26	325.39
704.60	324.08
704.93	322.81
705.26	321.59
705.60	320.44
705.93	319.27
706.27	318.29
706.60	317.22
706.94	316.18
707.27	315.09
707.61	314.10
707.94	313.09
708.27	311.97
708.61	310.90
708.94	309.88
709.28	308.87
709.61	307.90
709.94	306.95
710.28	305.96
710.61	305.02
710.95	303.95
711.28	303.04
711.61	302.10
711.95	301.20
712.28	300.27
712.61	299.31
712.95	298.38
713.28	297.49
713.61	296.61
713.95	295.66
714.28	294.82
714.61	293.92
714.95	293.07
715.28	292.22
715.61	291.38
715.95	290.48
716.28	289.64
716.61	288.83
716.95	288.02
717.28	287.27
717.61	286.50
717.94	285.77
718.28	284.92
718.61	284.19
718.94	283.46
719.27	282.77
719.61	282.07
719.94	281.43
720.27	280.71
720.60	280.02
720.94	279.40
721.27	278.75
721.60	278.16
721.93	277.55
722.27	277.04
722.60	276.45
722.93	275.94
723.26	275.40
723.59	274.80
723.93	274.27
724.26	273.70
724.59	273.11
724.92	272.54
725.25	272.05
725.59	271.57
725.92	271.06
726.25	270.58
726.58	270.13
726.91	269.60
727.24	269.15
727.57	268.68
727.91	268.18
728.24	267.73
728.57	267.25
728.90	266.81
729.23	266.26
729.56	265.88
729.89	265.40
730.22	264.92
730.55	264.44
730.89	263.94
731.22	263.51
731.55	263.07
731.88	262.69
732.21	262.28
732.54	261.82
732.87	261.39
733.20	260.98
733.53	260.55
733.86	260.19
734.19	259.79
734.52	259.47
734.85	259.19
735.18	258.79
735.51	258.44
735.84	258.09
736.17	257.78
736.50	257.33
736.83	257.11
737.16	256.77
737.49	256.49
737.82	256.16
738.15	255.84
738.48	255.52
738.81	255.21
739.14	254.91
739.47	254.60
739.80	254.33
740.13	254.04
740.46	253.75
740.79	253.41
741.12	253.10
741.45	252.76
741.78	252.39
742.11	252.12
742.44	251.80
742.77	251.49
743.10	251.16
743.43	250.91
743.75	250.50
744.08	250.35
744.41	250.07
744.74	249.83
745.07	249.56
745.40	249.33
745.73	249.09
746.06	248.84
746.39	248.58
746.71	248.30
747.04	248.02
747.37	247.76
747.70	247.53
748.03	247.27
748.36	247.07
748.68	246.85
749.01	246.59
749.34	246.37
749.67	246.13
750.00	245.92
750.33	245.73
750.65	245.57
750.98	245.22
751.31	244.98
751.64	244.79
751.97	244.63
752.29	244.40
752.62	244.15
752.95	243.92
753.28	243.73
753.60	243.50
753.93	243.30
754.26	243.11
754.59	242.90
754.91	242.69
755.24	242.50
755.57	242.29
755.90	242.13
756.22	241.94
756.55	241.73
756.88	241.55
757.20	241.33
757.53	241.09
757.86	240.92
758.19	240.76
758.51	240.57
758.84	240.37
759.17	240.18
759.49	240.00
759.82	239.90
760.15	239.74
760.47	239.63
760.80	239.48
761.13	239.30
761.45	239.15
761.78	239.01
762.11	238.84
762.43	238.70
762.76	238.54
763.08	238.43
763.41	238.33
763.74	238.20
764.06	238.07
764.39	237.95
764.71	237.84
765.04	237.71
765.37	237.58
765.69	237.42
766.02	237.31
766.34	237.17
766.67	236.98
767.00	236.87
767.32	236.80
767.65	236.74
767.97	236.66
768.30	236.56
768.62	236.45
768.95	236.34
769.27	236.24
769.60	236.10
769.92	235.94
770.25	235.81
770.57	235.69
770.90	235.57
771.22	235.44
771.55	235.34
771.87	235.23
772.20	235.13
772.52	235.11
772.85	235.14
773.17	235.07
773.50	235.01
773.82	234.88
774.15	234.70
774.47	234.52
774.80	234.40
775.12	234.31
775.45	234.24
775.77	234.13
776.09	234.04
776.42	233.99
776.74	233.93
777.07	233.86
777.39	233.78
777.72	233.70
778.04	233.69
778.36	233.62
778.69	233.56
779.01	233.51
779.33	233.36
779.66	233.18
779.98	233.10
780.31	233.03
780.63	233.03
780.95	233.02
781.28	232.97
781.60	232.90
781.92	232.84
782.25	232.78
782.57	232.71
782.89	232.65
783.22	232.58
783.54	232.53
783.86	232.45
784.19	232.40
784.51	232.39
784.83	232.30
785.16	232.25
785.48	232.19
785.80	232.15
786.12	232.11
786.45	232.09
786.77	232.05
787.09	232.00
