SpectraSuite Data File
++++++++++++++++++++++++++++++++++++
Date: Fri Feb 01 16:31:17 EST 2013
User: group
Dark Spectrum Present: No
Reference Spectrum Present: No
Number of Sampled Component Spectra: 1
Spectrometers: USB2E7196
Integration Time (usec): 35000 (USB2E7196)
Spectra Averaged: 100 (USB2E7196)
Boxcar Smoothing: 10 (USB2E7196)
Correct for Electrical Dark: No (USB2E7196)
Strobe/Lamp Enabled: No (USB2E7196)
Correct for Detector Non-linearity: No (USB2E7196)
Correct for Stray Light: No (USB2E7196)
Number of Pixels in Processed Spectrum: 2048
>>>>>Begin Processed Spectral Data<<<<<
339.09	0.00
339.48	213.75
339.86	215.74
340.24	216.54
340.63	218.01
341.01	220.97
341.39	220.84
341.78	222.62
342.16	223.10
342.54	224.18
342.93	212.39
343.31	223.11
343.69	223.68
344.07	224.12
344.46	224.56
344.84	224.94
345.22	225.21
345.60	225.48
345.99	225.65
346.37	225.78
346.75	225.87
347.13	225.96
347.52	226.02
347.90	226.08
348.28	226.12
348.66	226.21
349.05	226.15
349.43	226.20
349.81	226.23
350.19	226.29
350.57	226.37
350.96	226.47
351.34	226.58
351.72	226.65
352.10	226.74
352.48	226.83
352.87	226.90
353.25	226.94
353.63	226.97
354.01	227.05
354.39	227.17
354.77	227.25
355.15	227.33
355.54	227.42
355.92	227.43
356.30	227.53
356.68	227.63
357.06	227.74
357.44	227.79
357.82	227.87
358.20	227.95
358.58	227.99
358.97	228.00
359.35	228.07
359.73	228.15
360.11	228.23
360.49	228.28
360.87	228.31
361.25	228.35
361.63	228.45
362.01	228.48
362.39	228.46
362.77	228.50
363.15	228.52
363.53	228.55
363.91	228.59
364.29	228.59
364.67	228.50
365.05	228.49
365.43	228.48
365.81	228.48
366.19	228.51
366.57	228.53
366.95	228.54
367.33	228.51
367.71	228.49
368.09	228.48
368.47	228.44
368.85	228.47
369.23	228.47
369.61	228.41
369.99	228.39
370.37	228.39
370.75	228.39
371.13	228.35
371.51	228.28
371.89	228.23
372.27	228.19
372.65	228.17
373.03	228.14
373.41	228.07
373.78	228.01
374.16	227.91
374.54	227.81
374.92	227.78
375.30	227.70
375.68	227.63
376.06	227.57
376.44	227.50
376.82	227.41
377.19	227.33
377.57	227.27
377.95	227.20
378.33	227.11
378.71	227.00
379.09	226.92
379.47	226.84
379.84	226.80
380.22	226.75
380.60	226.67
380.98	226.60
381.36	226.53
381.73	226.45
382.11	226.39
382.49	226.34
382.87	226.25
383.25	226.20
383.62	226.22
384.00	226.14
384.38	226.12
384.76	226.05
385.13	226.06
385.51	225.99
385.89	225.94
386.27	225.91
386.64	225.87
387.02	225.84
387.40	225.82
387.78	225.76
388.15	225.69
388.53	225.61
388.91	225.56
389.29	225.56
389.66	225.54
390.04	225.53
390.42	225.54
390.79	225.50
391.17	225.48
391.55	225.35
391.92	225.32
392.30	225.32
392.68	225.30
393.05	225.28
393.43	225.28
393.81	225.27
394.18	225.28
394.56	225.29
394.94	225.29
395.31	225.33
395.69	225.40
396.06	225.45
396.44	225.54
396.82	225.57
397.19	225.66
397.57	225.72
397.95	225.73
398.32	225.74
398.70	225.82
399.07	225.91
399.45	226.01
399.82	226.10
400.20	226.14
400.58	226.23
400.95	226.28
401.33	226.38
401.70	226.53
402.08	226.61
402.45	226.71
402.83	226.85
403.20	226.93
403.58	226.99
403.95	227.08
404.33	227.17
404.71	227.34
405.08	227.52
405.46	227.65
405.83	227.82
406.21	227.98
406.58	228.17
406.96	228.34
407.33	228.49
407.70	228.68
408.08	228.96
408.45	229.18
408.83	229.41
409.20	229.62
409.58	229.79
409.95	230.07
410.33	230.32
410.70	230.55
411.08	230.87
411.45	231.21
411.82	231.53
412.20	231.91
412.57	232.30
412.95	232.56
413.32	232.95
413.69	233.38
414.07	233.84
414.44	234.30
414.82	234.77
415.19	235.35
415.56	235.88
415.94	236.44
416.31	237.05
416.68	237.66
417.06	238.39
417.43	239.07
417.81	239.81
418.18	240.62
418.55	241.47
418.93	242.31
419.30	243.20
419.67	244.15
420.04	245.10
420.42	246.04
420.79	247.22
421.16	248.36
421.54	249.50
421.91	250.68
422.28	251.90
422.66	253.23
423.03	254.52
423.40	255.88
423.77	257.25
424.15	258.72
424.52	260.24
424.89	261.83
425.26	263.38
425.64	264.81
426.01	266.38
426.38	268.04
426.75	269.70
427.13	271.46
427.50	273.24
427.87	275.09
428.24	276.98
428.61	278.72
428.99	280.69
429.36	282.80
429.73	284.85
430.10	286.85
430.47	288.86
430.85	290.92
431.22	293.12
431.59	295.50
431.96	297.65
432.33	300.10
432.70	302.45
433.08	305.25
433.45	307.89
433.82	310.48
434.19	313.31
434.56	316.13
434.93	318.67
435.30	321.26
435.68	324.16
436.05	326.95
436.42	329.70
436.79	332.16
437.16	334.82
437.53	337.63
437.90	340.40
438.27	343.16
438.64	345.97
439.01	348.52
439.38	350.71
439.75	352.87
440.13	355.33
440.50	357.65
440.87	359.47
441.24	361.39
441.61	363.54
441.98	365.01
442.35	366.75
442.72	368.60
443.09	370.39
443.46	371.34
443.83	371.91
444.20	372.41
444.57	373.23
444.94	373.53
445.31	373.83
445.68	374.21
446.05	374.23
446.42	373.87
446.79	373.53
447.16	373.12
447.53	372.83
447.90	371.70
448.27	370.56
448.64	368.98
449.01	367.87
449.37	365.91
449.74	364.02
450.11	361.84
450.48	359.41
450.85	356.89
451.22	354.78
451.59	352.77
451.96	350.86
452.33	348.29
452.70	345.96
453.07	343.16
453.43	340.27
453.80	337.57
454.17	334.90
454.54	332.33
454.91	329.61
455.28	326.92
455.65	324.42
456.02	321.98
456.38	319.82
456.75	317.12
457.12	314.86
457.49	312.66
457.86	310.46
458.23	308.60
458.59	306.60
458.96	304.49
459.33	302.68
459.70	300.82
460.07	299.32
460.43	297.62
460.80	296.05
461.17	294.63
461.54	293.15
461.91	291.75
462.27	290.27
462.64	289.05
463.01	287.67
463.38	286.40
463.74	285.02
464.11	283.91
464.48	282.91
464.85	281.81
465.21	280.99
465.58	280.08
465.95	278.99
466.32	278.11
466.68	277.25
467.05	276.34
467.42	275.50
467.78	274.57
468.15	273.69
468.52	273.01
468.88	272.13
469.25	271.38
469.62	270.78
469.98	270.12
470.35	269.49
470.72	268.95
471.08	268.30
471.45	267.78
471.82	267.22
472.18	266.67
472.55	266.26
472.92	265.71
473.28	265.27
473.65	264.83
474.02	264.36
474.38	263.99
474.75	263.66
475.11	263.31
475.48	263.03
475.85	262.83
476.21	262.61
476.58	262.47
476.94	262.34
477.31	262.18
477.67	262.08
478.04	261.99
478.41	261.93
478.77	261.99
479.14	261.95
479.50	261.98
479.87	261.99
480.23	262.09
480.60	262.18
480.96	262.30
481.33	262.54
481.69	262.79
482.06	262.99
482.42	263.23
482.79	263.50
483.15	263.86
483.52	264.22
483.88	264.58
484.25	264.99
484.61	265.42
484.98	265.88
485.34	266.46
485.71	267.03
486.07	267.63
486.44	268.21
486.80	268.92
487.17	269.66
487.53	270.52
487.90	271.40
488.26	272.34
488.62	273.31
488.99	274.29
489.35	275.32
489.72	276.47
490.08	277.68
490.44	278.87
490.81	280.22
491.17	281.58
491.54	283.08
491.90	284.59
492.26	286.21
492.63	287.92
492.99	289.70
493.36	291.61
493.72	293.69
494.08	295.80
494.45	298.02
494.81	300.40
495.17	302.85
495.54	305.38
495.90	308.07
496.26	310.87
496.63	313.81
496.99	316.91
497.35	320.18
497.72	323.63
498.08	327.22
498.44	330.88
498.80	334.82
499.17	338.85
499.53	343.05
499.89	347.46
500.26	351.99
500.62	356.67
500.98	361.63
501.34	366.68
501.71	372.00
502.07	377.50
502.43	383.15
502.79	388.92
503.16	395.03
503.52	401.32
503.88	407.72
504.24	414.45
504.60	421.35
504.97	428.48
505.33	435.72
505.69	443.41
506.05	451.21
506.41	459.05
506.78	467.27
507.14	475.69
507.50	484.41
507.86	493.46
508.22	502.67
508.59	511.88
508.95	521.47
509.31	531.26
509.67	541.33
510.03	551.59
510.39	562.16
510.75	573.01
511.12	583.91
511.48	595.26
511.84	606.67
512.20	618.25
512.56	630.14
512.92	642.31
513.28	654.65
513.64	667.06
514.00	679.80
514.37	692.68
514.73	705.74
515.09	718.75
515.45	731.99
515.81	745.61
516.17	759.57
516.53	773.65
516.89	787.78
517.25	801.94
517.61	816.28
517.97	830.78
518.33	845.07
518.69	859.83
519.05	874.77
519.41	889.89
519.77	905.36
520.13	920.78
520.49	936.08
520.85	951.49
521.21	967.18
521.57	983.31
521.93	998.99
522.29	1015.32
522.65	1031.44
523.01	1047.57
523.37	1063.36
523.73	1079.45
524.09	1095.57
524.45	1111.88
524.81	1128.42
525.17	1145.20
525.53	1161.90
525.89	1178.72
526.25	1195.41
526.61	1211.81
526.97	1228.48
527.33	1244.89
527.68	1261.42
528.04	1277.91
528.40	1294.24
528.76	1311.15
529.12	1327.71
529.48	1344.50
529.84	1360.42
530.20	1377.06
530.56	1394.02
530.91	1411.42
531.27	1428.06
531.63	1444.33
531.99	1460.78
532.35	1476.63
532.71	1492.42
533.07	1508.67
533.42	1524.61
533.78	1540.64
534.14	1556.65
534.50	1571.95
534.86	1587.72
535.21	1602.81
535.57	1618.61
535.93	1634.18
536.29	1648.95
536.65	1663.88
537.00	1678.64
537.36	1693.83
537.72	1708.22
538.08	1722.52
538.44	1736.27
538.79	1750.11
539.15	1763.64
539.51	1777.26
539.87	1791.50
540.22	1805.15
540.58	1818.77
540.94	1831.92
541.29	1844.66
541.65	1857.25
542.01	1870.16
542.37	1882.43
542.72	1894.84
543.08	1906.56
543.44	1918.78
543.79	1929.95
544.15	1940.83
544.51	1952.30
544.87	1963.20
545.22	1973.96
545.58	1984.14
545.94	1993.88
546.29	2003.58
546.65	2013.44
547.01	2022.66
547.36	2031.23
547.72	2039.59
548.07	2047.32
548.43	2055.32
548.79	2063.27
549.14	2070.75
549.50	2078.10
549.86	2085.59
550.21	2092.72
550.57	2099.79
550.92	2106.12
551.28	2113.01
551.64	2119.99
551.99	2126.46
552.35	2132.60
552.70	2138.57
553.06	2144.47
553.41	2150.69
553.77	2156.75
554.13	2162.80
554.48	2168.97
554.84	2174.51
555.19	2179.83
555.55	2185.06
555.90	2189.62
556.26	2194.54
556.61	2199.29
556.97	2203.65
557.32	2207.76
557.68	2211.90
558.03	2216.27
558.39	2220.18
558.74	2224.98
559.10	2228.92
559.45	2232.57
559.81	2236.86
560.16	2240.77
560.52	2244.04
560.87	2247.41
561.23	2250.10
561.58	2253.03
561.94	2255.42
562.29	2257.84
562.64	2260.47
563.00	2263.01
563.35	2266.43
563.71	2269.48
564.06	2272.63
564.42	2275.44
564.77	2278.01
565.12	2280.40
565.48	2282.36
565.83	2284.30
566.19	2285.60
566.54	2286.55
566.89	2287.77
567.25	2288.38
567.60	2289.64
567.96	2291.39
568.31	2292.30
568.66	2293.51
569.02	2293.98
569.37	2294.48
569.72	2295.39
570.08	2295.72
570.43	2295.86
570.78	2295.43
571.14	2294.11
571.49	2292.84
571.84	2292.79
572.20	2291.70
572.55	2290.71
572.90	2289.13
573.26	2287.84
573.61	2286.18
573.96	2284.53
574.31	2281.56
574.67	2278.60
575.02	2275.12
575.37	2271.88
575.72	2268.08
576.08	2264.69
576.43	2261.50
576.78	2257.76
577.13	2254.72
577.49	2251.57
577.84	2248.23
578.19	2244.53
578.54	2240.94
578.90	2236.84
579.25	2231.13
579.60	2226.18
579.95	2221.08
580.30	2216.06
580.66	2210.96
581.01	2206.17
581.36	2201.26
581.71	2197.24
582.06	2192.93
582.42	2188.67
582.77	2183.45
583.12	2179.07
583.47	2174.47
583.82	2169.59
584.17	2164.51
584.53	2159.03
584.88	2153.60
585.23	2147.88
585.58	2142.40
585.93	2137.02
586.28	2132.33
586.63	2127.36
586.98	2122.40
587.34	2117.88
587.69	2113.10
588.04	2107.85
588.39	2102.18
588.74	2095.63
589.09	2089.45
589.44	2082.77
589.79	2076.66
590.14	2071.21
590.49	2064.64
590.84	2058.32
591.19	2052.40
591.54	2045.99
591.89	2038.79
592.25	2031.87
592.60	2024.63
592.95	2017.27
593.30	2009.89
593.65	2002.37
594.00	1995.36
594.35	1988.24
594.70	1980.26
595.05	1973.15
595.40	1965.79
595.75	1958.36
596.10	1952.30
596.45	1945.71
596.80	1939.44
597.15	1932.94
597.50	1925.76
597.85	1919.36
598.19	1912.67
598.54	1905.46
598.89	1898.84
599.24	1892.92
599.59	1886.32
599.94	1880.24
600.29	1873.87
600.64	1867.37
600.99	1860.00
601.34	1853.22
601.69	1846.37
602.04	1839.59
602.39	1832.27
602.74	1825.59
603.08	1818.85
603.43	1812.26
603.78	1804.87
604.13	1797.69
604.48	1790.38
604.83	1783.57
605.18	1776.67
605.53	1768.81
605.87	1760.95
606.22	1753.94
606.57	1746.08
606.92	1738.80
607.27	1731.55
607.62	1724.62
607.96	1717.37
608.31	1710.79
608.66	1703.32
609.01	1695.80
609.36	1688.24
609.70	1680.22
610.05	1672.12
610.40	1664.34
610.75	1655.93
611.10	1648.27
611.44	1640.02
611.79	1631.98
612.14	1623.32
612.49	1614.17
612.83	1605.76
613.18	1597.65
613.53	1589.37
613.88	1580.69
614.22	1572.39
614.57	1563.86
614.92	1555.89
615.27	1548.25
615.61	1539.80
615.96	1531.69
616.31	1524.05
616.65	1516.57
617.00	1509.06
617.35	1501.46
617.70	1493.26
618.04	1484.82
618.39	1476.63
618.74	1468.93
619.08	1460.77
619.43	1453.11
619.78	1446.18
620.12	1439.06
620.47	1431.48
620.82	1423.36
621.16	1415.97
621.51	1408.48
621.85	1400.82
622.20	1392.28
622.55	1383.97
622.89	1376.22
623.24	1368.59
623.59	1361.13
623.93	1353.61
624.28	1346.29
624.62	1338.77
624.97	1331.53
625.32	1324.71
625.66	1317.70
626.01	1310.60
626.35	1303.07
626.70	1295.34
627.04	1287.63
627.39	1279.75
627.73	1272.37
628.08	1265.50
628.43	1258.17
628.77	1250.64
629.12	1243.10
629.46	1235.94
629.81	1228.58
630.15	1221.37
630.50	1213.96
630.84	1205.74
631.19	1197.87
631.53	1190.33
631.88	1182.89
632.22	1175.40
632.57	1168.03
632.91	1160.53
633.26	1153.08
633.60	1145.73
633.95	1138.64
634.29	1131.62
634.64	1125.03
634.98	1117.72
635.32	1110.47
635.67	1103.83
636.01	1097.31
636.36	1090.58
636.70	1084.05
637.05	1077.43
637.39	1070.85
637.73	1064.34
638.08	1058.49
638.42	1052.49
638.77	1046.18
639.11	1039.52
639.45	1033.04
639.80	1026.40
640.14	1019.95
640.49	1013.36
640.83	1007.00
641.17	1000.72
641.52	994.31
641.86	987.76
642.20	981.82
642.55	975.52
642.89	969.06
643.23	962.46
643.58	956.63
643.92	950.43
644.26	944.30
644.61	938.33
644.95	932.33
645.29	925.78
645.64	918.99
645.98	912.63
646.32	906.72
646.66	900.66
647.01	894.92
647.35	889.16
647.69	883.35
648.04	877.88
648.38	872.08
648.72	866.13
649.06	860.15
649.41	854.34
649.75	848.44
650.09	842.56
650.43	836.81
650.78	830.62
651.12	824.58
651.46	818.87
651.80	813.09
652.14	807.64
652.49	802.16
652.83	797.00
653.17	791.27
653.51	785.52
653.85	780.14
654.20	774.49
654.54	768.52
654.88	762.79
655.22	756.87
655.56	751.24
655.90	745.81
656.25	740.50
656.59	735.12
656.93	729.96
657.27	724.78
657.61	719.28
657.95	714.20
658.29	709.18
658.64	703.95
658.98	698.70
659.32	693.25
659.66	688.08
660.00	682.74
660.34	677.82
660.68	672.92
661.02	667.89
661.36	663.17
661.70	658.69
662.05	654.34
662.39	650.06
662.73	645.50
663.07	641.05
663.41	636.64
663.75	632.15
664.09	627.60
664.43	623.20
664.77	619.07
665.11	614.83
665.45	610.68
665.79	606.58
666.13	602.42
666.47	598.32
666.81	594.16
667.15	590.08
667.49	586.16
667.83	582.31
668.17	578.38
668.51	574.28
668.85	570.25
669.19	566.37
669.53	562.47
669.87	558.66
670.21	554.97
670.55	551.34
670.89	547.93
671.23	544.57
671.57	541.05
671.91	537.50
672.25	533.97
672.58	530.44
672.92	527.08
673.26	523.89
673.60	520.74
673.94	517.63
674.28	514.71
674.62	511.77
674.96	508.67
675.30	505.76
675.64	502.90
675.97	500.10
676.31	497.20
676.65	494.28
676.99	491.56
677.33	488.68
677.67	485.83
678.01	482.79
678.34	479.73
678.68	476.82
679.02	474.02
679.36	471.30
679.70	468.58
680.04	465.79
680.37	462.87
680.71	460.05
681.05	457.44
681.39	454.72
681.73	452.03
682.06	449.52
682.40	446.96
682.74	444.35
683.08	441.78
683.42	439.18
683.75	436.63
684.09	434.04
684.43	431.53
684.77	429.10
685.10	426.70
685.44	424.38
685.78	422.10
686.12	419.81
686.45	417.44
686.79	415.18
687.13	412.94
687.46	410.77
687.80	408.60
688.14	406.36
688.48	404.26
688.81	401.98
689.15	399.86
689.49	397.65
689.82	395.56
690.16	393.40
690.50	391.45
690.83	389.54
691.17	387.57
691.51	385.73
691.84	383.85
692.18	381.92
692.52	379.92
692.85	377.95
693.19	376.09
693.52	374.28
693.86	372.42
694.20	370.64
694.53	368.89
694.87	367.07
695.21	365.27
695.54	363.42
695.88	361.72
696.21	359.91
696.55	358.24
696.88	356.56
697.22	354.94
697.56	353.33
697.89	351.64
698.23	350.04
698.56	348.42
698.90	346.83
699.23	345.18
699.57	343.65
699.90	342.17
700.24	340.63
700.58	339.09
700.91	337.59
701.25	336.16
701.58	334.77
701.92	333.43
702.25	332.07
702.59	330.74
702.92	329.41
703.26	328.19
703.59	326.93
703.93	325.78
704.26	324.53
704.60	323.20
704.93	321.97
705.26	320.74
705.60	319.59
705.93	318.42
706.27	317.43
706.60	316.38
706.94	315.31
707.27	314.18
707.61	313.13
707.94	312.14
708.27	311.07
708.61	310.01
708.94	309.02
709.28	308.07
709.61	307.12
709.94	306.19
710.28	305.14
710.61	304.19
710.95	303.08
711.28	302.21
711.61	301.33
711.95	300.43
712.28	299.51
712.61	298.48
712.95	297.57
713.28	296.64
713.61	295.78
713.95	294.87
714.28	294.04
714.61	293.17
714.95	292.32
715.28	291.47
715.61	290.58
715.95	289.70
716.28	288.82
716.61	287.98
716.95	287.14
717.28	286.41
717.61	285.59
717.94	284.86
718.28	284.05
718.61	283.30
718.94	282.60
719.27	281.88
719.61	281.24
719.94	280.58
720.27	279.88
720.60	279.14
720.94	278.51
721.27	277.92
721.60	277.35
721.93	276.75
722.27	276.17
722.60	275.61
722.93	275.03
723.26	274.48
723.59	273.91
723.93	273.35
724.26	272.79
724.59	272.29
724.92	271.80
725.25	271.27
725.59	270.72
725.92	270.18
726.25	269.67
726.58	269.17
726.91	268.65
727.24	268.13
727.57	267.67
727.91	267.15
728.24	266.66
728.57	266.17
728.90	265.73
729.23	265.24
729.56	264.83
729.89	264.33
730.22	263.86
730.55	263.39
730.89	262.95
731.22	262.49
731.55	262.03
731.88	261.58
732.21	261.12
732.54	260.69
732.87	260.28
733.20	259.91
733.53	259.52
733.86	259.18
734.19	258.83
734.52	258.45
734.85	258.12
735.18	257.76
735.51	257.38
735.84	256.96
736.17	256.63
736.50	256.21
736.83	256.03
737.16	255.67
737.49	255.34
737.82	255.02
738.15	254.70
738.48	254.37
738.81	254.05
739.14	253.82
739.47	253.52
739.80	253.22
740.13	252.89
740.46	252.57
740.79	252.22
741.12	251.91
741.45	251.64
741.78	251.31
742.11	251.02
742.44	250.73
742.77	250.48
743.10	250.16
743.43	249.88
743.75	249.48
744.08	249.35
744.41	249.12
744.74	248.85
745.07	248.58
745.40	248.32
745.73	248.04
746.06	247.74
746.39	247.49
746.71	247.24
747.04	246.99
747.37	246.73
747.70	246.52
748.03	246.30
748.36	246.03
748.68	245.83
749.01	245.56
749.34	245.31
749.67	245.07
750.00	244.87
750.33	244.69
750.65	244.47
750.98	244.12
751.31	243.86
751.64	243.66
751.97	243.51
752.29	243.30
752.62	243.09
752.95	242.83
753.28	242.61
753.60	242.36
753.93	242.19
754.26	242.00
754.59	241.72
754.91	241.51
755.24	241.35
755.57	241.13
755.90	240.96
756.22	240.78
756.55	240.56
756.88	240.38
757.20	240.15
757.53	239.95
757.86	239.78
758.19	239.65
758.51	239.48
758.84	239.22
759.17	239.03
759.49	238.87
759.82	238.82
760.15	238.68
760.47	238.55
760.80	238.35
761.13	238.20
761.45	238.09
761.78	237.92
762.11	237.72
762.43	237.58
762.76	237.41
763.08	237.24
763.41	237.11
763.74	236.95
764.06	236.77
764.39	236.62
764.71	236.47
765.04	236.29
765.37	236.15
765.69	236.05
766.02	235.93
766.34	235.81
766.67	235.63
767.00	235.52
767.32	235.44
767.65	235.42
767.97	235.31
768.30	235.16
768.62	235.02
768.95	234.95
769.27	234.79
769.60	234.68
769.92	234.59
770.25	234.47
770.57	234.33
770.90	234.28
771.22	234.15
771.55	234.04
771.87	233.95
772.20	233.82
772.52	233.80
772.85	233.81
773.17	233.71
773.50	233.59
773.82	233.47
774.15	233.32
774.47	233.14
774.80	233.07
775.12	233.01
775.45	232.95
775.77	232.85
776.09	232.81
776.42	232.73
776.74	232.68
777.07	232.62
777.39	232.56
777.72	232.48
778.04	232.47
778.36	232.42
778.69	232.35
779.01	232.29
779.33	232.12
779.66	231.96
779.98	231.89
780.31	231.84
780.63	231.83
780.95	231.78
781.28	231.70
781.60	231.63
781.92	231.55
782.25	231.48
782.57	231.42
782.89	231.34
783.22	231.28
783.54	231.20
783.86	231.13
784.19	231.04
784.51	230.99
784.83	230.91
785.16	230.82
785.48	230.78
785.80	230.72
786.12	230.69
786.45	230.64
786.77	230.61
787.09	230.56
