SpectraSuite Data File
++++++++++++++++++++++++++++++++++++
Date: Fri Feb 01 15:54:38 EST 2013
User: group
Dark Spectrum Present: No
Reference Spectrum Present: No
Number of Sampled Component Spectra: 1
Spectrometers: USB2E7196
Integration Time (usec): 35000 (USB2E7196)
Spectra Averaged: 100 (USB2E7196)
Boxcar Smoothing: 10 (USB2E7196)
Correct for Electrical Dark: No (USB2E7196)
Strobe/Lamp Enabled: No (USB2E7196)
Correct for Detector Non-linearity: No (USB2E7196)
Correct for Stray Light: No (USB2E7196)
Number of Pixels in Processed Spectrum: 2048
>>>>>Begin Processed Spectral Data<<<<<
339.09	0.00
339.48	214.70
339.86	215.84
340.24	218.04
340.63	219.76
341.01	222.36
341.39	221.77
341.78	223.57
342.16	224.91
342.54	225.64
342.93	213.39
343.31	224.17
343.69	224.71
344.07	225.22
344.46	225.63
344.84	225.99
345.22	226.21
345.60	226.47
345.99	226.65
346.37	226.75
346.75	226.83
347.13	226.91
347.52	226.95
347.90	227.04
348.28	227.05
348.66	227.07
349.05	227.06
349.43	227.09
349.81	227.13
350.19	227.19
350.57	227.25
350.96	227.30
351.34	227.38
351.72	227.47
352.10	227.53
352.48	227.59
352.87	227.65
353.25	227.70
353.63	227.78
354.01	227.85
354.39	227.92
354.77	227.98
355.15	228.05
355.54	228.13
355.92	228.17
356.30	228.25
356.68	228.41
357.06	228.49
357.44	228.51
357.82	228.56
358.20	228.62
358.58	228.67
358.97	228.74
359.35	228.80
359.73	228.89
360.11	228.95
360.49	229.00
360.87	229.02
361.25	229.09
361.63	229.13
362.01	229.14
362.39	229.19
362.77	229.22
363.15	229.27
363.53	229.29
363.91	229.31
364.29	229.32
364.67	229.21
365.05	229.23
365.43	229.29
365.81	229.27
366.19	229.32
366.57	229.37
366.95	229.36
367.33	229.35
367.71	229.33
368.09	229.35
368.47	229.36
368.85	229.33
369.23	229.32
369.61	229.27
369.99	229.28
370.37	229.26
370.75	229.28
371.13	229.19
371.51	229.16
371.89	229.09
372.27	229.05
372.65	229.01
373.03	228.98
373.41	228.92
373.78	228.85
374.16	228.78
374.54	228.68
374.92	228.62
375.30	228.53
375.68	228.45
376.06	228.37
376.44	228.25
376.82	228.16
377.19	228.08
377.57	227.98
377.95	227.88
378.33	227.81
378.71	227.67
379.09	227.62
379.47	227.56
379.84	227.49
380.22	227.41
380.60	227.33
380.98	227.25
381.36	227.18
381.73	227.11
382.11	227.05
382.49	226.97
382.87	226.90
383.25	226.84
383.62	226.92
384.00	226.83
384.38	226.81
384.76	226.78
385.13	226.79
385.51	226.74
385.89	226.69
386.27	226.63
386.64	226.61
387.02	226.56
387.40	226.52
387.78	226.50
388.15	226.47
388.53	226.42
388.91	226.40
389.29	226.34
389.66	226.32
390.04	226.27
390.42	226.28
390.79	226.24
391.17	226.25
391.55	226.11
391.92	226.11
392.30	226.15
392.68	226.17
393.05	226.15
393.43	226.18
393.81	226.18
394.18	226.16
394.56	226.17
394.94	226.23
395.31	226.23
395.69	226.29
396.06	226.32
396.44	226.39
396.82	226.41
397.19	226.51
397.57	226.55
397.95	226.62
398.32	226.64
398.70	226.73
399.07	226.80
399.45	226.83
399.82	226.88
400.20	226.93
400.58	227.02
400.95	227.07
401.33	227.18
401.70	227.33
402.08	227.46
402.45	227.58
402.83	227.70
403.20	227.82
403.58	227.91
403.95	228.04
404.33	228.18
404.71	228.36
405.08	228.50
405.46	228.67
405.83	228.82
406.21	228.98
406.58	229.11
406.96	229.26
407.33	229.47
407.70	229.67
408.08	229.89
408.45	230.08
408.83	230.33
409.20	230.55
409.58	230.74
409.95	230.99
410.33	231.23
410.70	231.45
411.08	231.72
411.45	232.02
411.82	232.30
412.20	232.61
412.57	232.98
412.95	233.28
413.32	233.67
413.69	234.09
414.07	234.54
414.44	235.03
414.82	235.52
415.19	236.06
415.56	236.65
415.94	237.19
416.31	237.81
416.68	238.41
417.06	239.09
417.43	239.79
417.81	240.55
418.18	241.34
418.55	242.17
418.93	243.07
419.30	243.99
419.67	244.96
420.04	245.92
420.42	246.91
420.79	248.13
421.16	249.29
421.54	250.44
421.91	251.67
422.28	252.93
422.66	254.24
423.03	255.54
423.40	256.85
423.77	258.24
424.15	259.66
424.52	261.13
424.89	262.75
425.26	264.27
425.64	265.71
426.01	267.27
426.38	268.92
426.75	270.56
427.13	272.30
427.50	274.09
427.87	275.97
428.24	277.82
428.61	279.52
428.99	281.44
429.36	283.56
429.73	285.60
430.10	287.59
430.47	289.67
430.85	291.82
431.22	294.08
431.59	296.50
431.96	298.75
432.33	301.26
432.70	303.68
433.08	306.48
433.45	309.12
433.82	311.75
434.19	314.63
434.56	317.45
434.93	320.08
435.30	322.69
435.68	325.58
436.05	328.45
436.42	331.30
436.79	333.84
437.16	336.50
437.53	339.36
437.90	342.18
438.27	344.86
438.64	347.63
439.01	350.20
439.38	352.43
439.75	354.63
440.13	357.09
440.50	359.39
440.87	361.23
441.24	363.15
441.61	365.28
441.98	366.76
442.35	368.55
442.72	370.43
443.09	372.25
443.46	373.23
443.83	373.81
444.20	374.31
444.57	375.13
444.94	375.44
445.31	375.76
445.68	376.11
446.05	376.22
446.42	375.82
446.79	375.38
447.16	374.92
447.53	374.61
447.90	373.46
448.27	372.34
448.64	370.74
449.01	369.65
449.37	367.74
449.74	365.90
450.11	363.67
450.48	361.19
450.85	358.66
451.22	356.53
451.59	354.46
451.96	352.46
452.33	349.87
452.70	347.51
453.07	344.67
453.43	341.76
453.80	338.97
454.17	336.35
454.54	333.83
454.91	331.13
455.28	328.41
455.65	325.92
456.02	323.42
456.38	321.29
456.75	318.58
457.12	316.27
457.49	314.02
457.86	311.84
458.23	309.96
458.59	307.90
458.96	305.83
459.33	303.98
459.70	302.15
460.07	300.62
460.43	298.89
460.80	297.28
461.17	295.87
461.54	294.39
461.91	292.95
462.27	291.50
462.64	290.23
463.01	288.89
463.38	287.60
463.74	286.27
464.11	285.10
464.48	284.09
464.85	283.02
465.21	282.14
465.58	281.21
465.95	280.11
466.32	279.23
466.68	278.35
467.05	277.45
467.42	276.56
467.78	275.65
468.15	274.78
468.52	274.13
468.88	273.27
469.25	272.47
469.62	271.86
469.98	271.24
470.35	270.61
470.72	270.00
471.08	269.36
471.45	268.82
471.82	268.31
472.18	267.71
472.55	267.27
472.92	266.73
473.28	266.29
473.65	265.84
474.02	265.42
474.38	265.06
474.75	264.74
475.11	264.40
475.48	264.17
475.85	263.98
476.21	263.74
476.58	263.61
476.94	263.50
477.31	263.31
477.67	263.14
478.04	263.04
478.41	263.00
478.77	263.05
479.14	262.98
479.50	262.98
479.87	263.10
480.23	263.17
480.60	263.27
480.96	263.38
481.33	263.60
481.69	263.78
482.06	263.96
482.42	264.21
482.79	264.48
483.15	264.78
483.52	265.15
483.88	265.52
484.25	265.88
484.61	266.27
484.98	266.77
485.34	267.32
485.71	267.92
486.07	268.52
486.44	269.07
486.80	269.79
487.17	270.53
487.53	271.30
487.90	272.17
488.26	273.08
488.62	274.05
488.99	275.02
489.35	276.08
489.72	277.19
490.08	278.35
490.44	279.62
490.81	280.96
491.17	282.29
491.54	283.76
491.90	285.26
492.26	286.95
492.63	288.67
492.99	290.44
493.36	292.36
493.72	294.42
494.08	296.53
494.45	298.78
494.81	301.12
495.17	303.57
495.54	306.11
495.90	308.77
496.26	311.59
496.63	314.58
496.99	317.68
497.35	320.91
497.72	324.34
498.08	327.82
498.44	331.45
498.80	335.36
499.17	339.40
499.53	343.64
499.89	348.00
500.26	352.49
500.62	357.18
500.98	362.13
501.34	367.18
501.71	372.50
502.07	377.92
502.43	383.56
502.79	389.40
503.16	395.50
503.52	401.82
503.88	408.26
504.24	414.92
504.60	421.80
504.97	428.95
505.33	436.22
505.69	443.92
506.05	451.72
506.41	459.64
506.78	467.79
507.14	476.27
507.50	484.95
507.86	494.00
508.22	503.24
508.59	512.44
508.95	521.99
509.31	531.80
509.67	541.97
510.03	552.26
510.39	562.82
510.75	573.55
511.12	584.46
511.48	595.72
511.84	607.14
512.20	618.64
512.56	630.64
512.92	642.86
513.28	655.16
513.64	667.68
514.00	680.34
514.37	693.32
514.73	706.38
515.09	719.44
515.45	732.74
515.81	746.22
516.17	760.17
516.53	774.32
516.89	788.53
517.25	802.68
517.61	817.06
517.97	831.54
518.33	845.97
518.69	860.79
519.05	875.71
519.41	890.85
519.77	906.35
520.13	921.68
520.49	937.02
520.85	952.56
521.21	968.25
521.57	984.51
521.93	1000.23
522.29	1016.55
522.65	1032.76
523.01	1048.92
523.37	1064.87
523.73	1081.02
524.09	1097.18
524.45	1113.48
524.81	1130.02
525.17	1146.89
525.53	1163.72
525.89	1180.63
526.25	1197.47
526.61	1213.83
526.97	1230.51
527.33	1247.04
527.68	1263.68
528.04	1280.14
528.40	1296.68
528.76	1313.71
529.12	1330.28
529.48	1347.07
529.84	1363.03
530.20	1379.82
530.56	1396.83
530.91	1414.34
531.27	1431.12
531.63	1447.52
531.99	1464.04
532.35	1479.90
532.71	1495.77
533.07	1512.08
533.42	1527.93
533.78	1543.93
534.14	1560.29
534.50	1575.71
534.86	1591.58
535.21	1606.69
535.57	1622.66
535.93	1638.05
536.29	1652.75
536.65	1667.73
537.00	1682.63
537.36	1697.97
537.72	1712.36
538.08	1726.73
538.44	1740.36
538.79	1754.20
539.15	1767.84
539.51	1781.54
539.87	1796.13
540.22	1809.75
540.58	1823.46
540.94	1836.76
541.29	1849.59
541.65	1862.16
542.01	1875.30
542.37	1887.46
542.72	1899.89
543.08	1911.63
543.44	1924.08
543.79	1935.28
544.15	1946.32
544.51	1957.84
544.87	1968.78
545.22	1979.59
545.58	1989.81
545.94	1999.55
546.29	2009.42
546.65	2019.40
547.01	2028.66
547.36	2037.19
547.72	2045.71
548.07	2053.58
548.43	2061.73
548.79	2069.79
549.14	2077.36
549.50	2084.73
549.86	2092.49
550.21	2099.77
550.57	2106.94
550.92	2113.37
551.28	2120.38
551.64	2127.36
551.99	2133.85
552.35	2139.93
552.70	2145.97
553.06	2151.93
553.41	2158.43
553.77	2164.48
554.13	2170.47
554.48	2176.58
554.84	2182.00
555.19	2187.21
555.55	2192.32
555.90	2196.83
556.26	2201.74
556.61	2206.46
556.97	2210.66
557.32	2214.69
557.68	2218.74
558.03	2223.07
558.39	2227.01
558.74	2231.89
559.10	2235.87
559.45	2239.38
559.81	2243.75
560.16	2247.65
560.52	2250.77
560.87	2254.12
561.23	2256.78
561.58	2259.62
561.94	2262.25
562.29	2264.71
562.64	2267.39
563.00	2269.98
563.35	2273.60
563.71	2276.69
564.06	2279.92
564.42	2282.80
564.77	2285.31
565.12	2287.73
565.48	2289.53
565.83	2291.28
566.19	2292.33
566.54	2293.29
566.89	2294.48
567.25	2295.07
567.60	2296.44
567.96	2298.32
568.31	2299.19
568.66	2300.35
569.02	2300.94
569.37	2301.20
569.72	2302.10
570.08	2302.33
570.43	2302.33
570.78	2301.56
571.14	2299.96
571.49	2298.64
571.84	2298.42
572.20	2297.35
572.55	2296.19
572.90	2294.70
573.26	2293.23
573.61	2291.65
573.96	2289.71
574.31	2286.88
574.67	2283.85
575.02	2280.13
575.37	2276.73
575.72	2272.93
576.08	2269.66
576.43	2266.39
576.78	2262.65
577.13	2259.49
577.49	2256.42
577.84	2252.93
578.19	2249.29
578.54	2245.64
578.90	2241.45
579.25	2235.79
579.60	2230.90
579.95	2225.98
580.30	2220.97
580.66	2215.84
581.01	2210.96
581.36	2206.15
581.71	2201.91
582.06	2197.41
582.42	2192.95
582.77	2187.60
583.12	2183.03
583.47	2178.00
583.82	2172.99
584.17	2167.80
584.53	2162.27
584.88	2156.66
585.23	2150.81
585.58	2145.32
585.93	2139.92
586.28	2135.07
586.63	2129.88
586.98	2124.79
587.34	2120.01
587.69	2115.03
588.04	2109.73
588.39	2103.99
588.74	2097.61
589.09	2091.45
589.44	2084.63
589.79	2078.69
590.14	2073.27
590.49	2066.83
590.84	2060.65
591.19	2054.58
591.54	2048.07
591.89	2040.76
592.25	2033.79
592.60	2026.63
592.95	2019.03
593.30	2011.74
593.65	2004.32
594.00	1997.45
594.35	1990.25
594.70	1982.39
595.05	1975.14
595.40	1967.97
595.75	1960.41
596.10	1954.09
596.45	1947.37
596.80	1941.21
597.15	1934.57
597.50	1927.30
597.85	1920.69
598.19	1913.97
598.54	1906.80
598.89	1900.26
599.24	1894.24
599.59	1887.61
599.94	1881.53
600.29	1875.16
600.64	1868.45
600.99	1860.91
601.34	1854.13
601.69	1847.18
602.04	1840.21
602.39	1832.99
602.74	1826.01
603.08	1819.32
603.43	1812.61
603.78	1805.36
604.13	1798.17
604.48	1790.73
604.83	1783.90
605.18	1776.89
605.53	1768.93
605.87	1760.91
606.22	1753.66
606.57	1745.72
606.92	1738.42
607.27	1731.07
607.62	1724.20
607.96	1716.96
608.31	1710.25
608.66	1702.59
609.01	1694.92
609.36	1687.27
609.70	1679.11
610.05	1671.06
610.40	1663.43
610.75	1655.05
611.10	1647.30
611.44	1638.98
611.79	1631.13
612.14	1622.45
612.49	1613.36
612.83	1605.01
613.18	1596.95
613.53	1588.82
613.88	1580.16
614.22	1571.87
614.57	1563.29
614.92	1555.29
615.27	1547.70
615.61	1539.36
615.96	1531.42
616.31	1523.87
616.65	1516.59
617.00	1509.13
617.35	1501.55
617.70	1493.15
618.04	1484.60
618.39	1476.48
618.74	1468.80
619.08	1460.46
619.43	1452.87
619.78	1445.95
620.12	1438.66
620.47	1431.18
620.82	1423.00
621.16	1415.86
621.51	1408.25
621.85	1400.72
622.20	1392.15
622.55	1383.87
622.89	1376.02
623.24	1368.35
623.59	1361.00
623.93	1353.47
624.28	1346.25
624.62	1338.65
624.97	1331.54
625.32	1324.91
625.66	1317.81
626.01	1310.58
626.35	1303.03
626.70	1295.30
627.04	1287.59
627.39	1279.90
627.73	1272.42
628.08	1265.53
628.43	1258.05
628.77	1250.68
629.12	1243.19
629.46	1236.03
629.81	1228.52
630.15	1221.27
630.50	1213.91
630.84	1205.64
631.19	1197.69
631.53	1190.22
631.88	1182.73
632.22	1175.06
632.57	1167.69
632.91	1160.11
633.26	1152.69
633.60	1145.47
633.95	1138.39
634.29	1131.30
634.64	1124.67
634.98	1117.33
635.32	1110.09
635.67	1103.53
636.01	1096.96
636.36	1090.00
636.70	1083.46
637.05	1076.89
637.39	1070.42
637.73	1063.78
638.08	1057.88
638.42	1051.85
638.77	1045.35
639.11	1038.72
639.45	1032.29
639.80	1025.62
640.14	1019.25
640.49	1012.68
640.83	1006.36
641.17	1000.10
641.52	993.84
641.86	987.27
642.20	981.38
642.55	975.23
642.89	968.68
643.23	962.12
643.58	956.41
643.92	950.21
644.26	944.14
644.61	938.22
644.95	932.16
645.29	925.60
645.64	918.98
645.98	912.67
646.32	906.88
646.66	900.86
647.01	895.00
647.35	889.18
647.69	883.42
648.04	877.86
648.38	872.07
648.72	866.06
649.06	859.99
649.41	854.18
649.75	848.15
650.09	842.31
650.43	836.51
650.78	830.31
651.12	824.38
651.46	818.70
651.80	812.86
652.14	807.52
652.49	802.16
652.83	796.90
653.17	791.22
653.51	785.45
653.85	780.11
654.20	774.53
654.54	768.63
654.88	762.88
655.22	757.04
655.56	751.34
655.90	745.87
656.25	740.69
656.59	735.26
656.93	730.19
657.27	725.03
657.61	719.65
657.95	714.64
658.29	709.53
658.64	704.32
658.98	699.08
659.32	693.59
659.66	688.41
660.00	683.11
660.34	678.22
660.68	673.35
661.02	668.31
661.36	663.63
661.70	659.05
662.05	654.73
662.39	650.34
662.73	645.89
663.07	641.55
663.41	637.14
663.75	632.69
664.09	628.11
664.43	623.68
664.77	619.50
665.11	615.17
665.45	611.04
665.79	606.90
666.13	602.73
666.47	598.69
666.81	594.48
667.15	590.37
667.49	586.44
667.83	582.62
668.17	578.71
668.51	574.57
668.85	570.62
669.19	566.75
669.53	562.89
669.87	559.03
670.21	555.32
670.55	551.66
670.89	548.28
671.23	544.85
671.57	541.38
671.91	537.85
672.25	534.38
672.58	530.90
672.92	527.55
673.26	524.38
673.60	521.21
673.94	518.09
674.28	515.14
674.62	512.12
674.96	509.01
675.30	506.05
675.64	503.10
675.97	500.37
676.31	497.50
676.65	494.61
676.99	491.89
677.33	489.01
677.67	486.17
678.01	483.09
678.34	480.05
678.68	477.15
679.02	474.31
679.36	471.61
679.70	468.89
680.04	466.08
680.37	463.21
680.71	460.40
681.05	457.83
681.39	455.19
681.73	452.59
682.06	450.00
682.40	447.46
682.74	444.97
683.08	442.34
683.42	439.79
683.75	437.29
684.09	434.70
684.43	432.25
684.77	429.82
685.10	427.47
685.44	425.21
685.78	422.93
686.12	420.65
686.45	418.34
686.79	416.03
687.13	413.82
687.46	411.64
687.80	409.50
688.14	407.25
688.48	405.16
688.81	402.93
689.15	400.84
689.49	398.75
689.82	396.69
690.16	394.60
690.50	392.63
690.83	390.69
691.17	388.73
691.51	386.77
691.84	384.91
692.18	383.02
692.52	381.03
692.85	379.11
693.19	377.28
693.52	375.41
693.86	373.61
694.20	371.85
694.53	370.08
694.87	368.25
695.21	366.49
695.54	364.68
695.88	362.96
696.21	361.26
696.55	359.55
696.88	357.85
697.22	356.25
697.56	354.65
697.89	353.02
698.23	351.44
698.56	349.87
698.90	348.27
699.23	346.59
699.57	345.02
699.90	343.49
700.24	341.97
700.58	340.45
700.91	338.94
701.25	337.47
701.58	336.09
701.92	334.75
702.25	333.39
702.59	331.99
702.92	330.62
703.26	329.27
703.59	327.98
703.93	326.78
704.26	325.52
704.60	324.18
704.93	322.87
705.26	321.63
705.60	320.45
705.93	319.27
706.27	318.22
706.60	317.20
706.94	316.12
707.27	314.95
707.61	313.92
707.94	312.89
708.27	311.82
708.61	310.70
708.94	309.69
709.28	308.68
709.61	307.74
709.94	306.80
710.28	305.81
710.61	304.80
710.95	303.74
711.28	302.83
711.61	301.89
711.95	300.99
712.28	300.04
712.61	299.04
712.95	298.12
713.28	297.25
713.61	296.37
713.95	295.50
714.28	294.65
714.61	293.73
714.95	292.91
715.28	292.04
715.61	291.19
715.95	290.30
716.28	289.44
716.61	288.63
716.95	287.81
717.28	287.05
717.61	286.30
717.94	285.57
718.28	284.71
718.61	284.00
718.94	283.27
719.27	282.58
719.61	281.94
719.94	281.28
720.27	280.55
720.60	279.87
720.94	279.20
721.27	278.59
721.60	278.03
721.93	277.41
722.27	276.87
722.60	276.32
722.93	275.76
723.26	275.24
723.59	274.63
723.93	274.09
724.26	273.52
724.59	272.95
724.92	272.41
725.25	271.94
725.59	271.42
725.92	270.94
726.25	270.42
726.58	269.94
726.91	269.44
727.24	268.93
727.57	268.47
727.91	267.94
728.24	267.49
728.57	266.96
728.90	266.51
729.23	266.03
729.56	265.62
729.89	265.12
730.22	264.61
730.55	264.13
730.89	263.67
731.22	263.24
731.55	262.82
731.88	262.40
732.21	261.97
732.54	261.51
732.87	261.06
733.20	260.66
733.53	260.27
733.86	259.85
734.19	259.47
734.52	259.07
734.85	258.76
735.18	258.36
735.51	258.02
735.84	257.67
736.17	257.30
736.50	256.87
736.83	256.66
737.16	256.32
737.49	256.03
737.82	255.69
738.15	255.34
738.48	255.01
738.81	254.70
739.14	254.37
739.47	254.07
739.80	253.76
740.13	253.47
740.46	253.13
740.79	252.82
741.12	252.51
741.45	252.21
741.78	251.87
742.11	251.58
742.44	251.24
742.77	250.93
743.10	250.63
743.43	250.34
743.75	249.96
744.08	249.83
744.41	249.52
744.74	249.27
745.07	249.02
745.40	248.80
745.73	248.54
746.06	248.31
746.39	248.05
746.71	247.79
747.04	247.54
747.37	247.30
747.70	247.08
748.03	246.85
748.36	246.61
748.68	246.37
749.01	246.10
749.34	245.90
749.67	245.68
750.00	245.49
750.33	245.35
750.65	245.14
750.98	244.81
751.31	244.60
751.64	244.35
751.97	244.19
752.29	243.93
752.62	243.70
752.95	243.49
753.28	243.27
753.60	243.09
753.93	242.91
754.26	242.73
754.59	242.49
754.91	242.26
755.24	242.03
755.57	241.89
755.90	241.71
756.22	241.53
756.55	241.33
756.88	241.11
757.20	240.89
757.53	240.72
757.86	240.55
758.19	240.40
758.51	240.26
758.84	240.03
759.17	239.88
759.49	239.74
759.82	239.58
760.15	239.47
760.47	239.32
760.80	239.15
761.13	238.99
761.45	238.85
761.78	238.71
762.11	238.57
762.43	238.41
762.76	238.27
763.08	238.16
763.41	238.02
763.74	237.90
764.06	237.74
764.39	237.58
764.71	237.45
765.04	237.31
765.37	237.18
765.69	237.07
766.02	236.90
766.34	236.74
766.67	236.59
767.00	236.44
767.32	236.37
767.65	236.32
767.97	236.22
768.30	236.11
768.62	236.02
768.95	235.91
769.27	235.80
769.60	235.71
769.92	235.57
770.25	235.42
770.57	235.31
770.90	235.21
771.22	235.11
771.55	235.00
771.87	234.91
772.20	234.79
772.52	234.79
772.85	234.83
773.17	234.75
773.50	234.66
773.82	234.57
774.15	234.40
774.47	234.22
774.80	234.11
775.12	234.03
775.45	233.94
775.77	233.87
776.09	233.76
776.42	233.70
776.74	233.65
777.07	233.57
777.39	233.51
777.72	233.44
778.04	233.37
778.36	233.28
778.69	233.20
779.01	233.16
779.33	232.98
779.66	232.80
779.98	232.74
780.31	232.68
780.63	232.64
780.95	232.62
781.28	232.55
781.60	232.50
781.92	232.42
782.25	232.36
782.57	232.32
782.89	232.25
783.22	232.19
783.54	232.10
783.86	232.06
784.19	231.97
784.51	231.93
784.83	231.91
785.16	231.88
785.48	231.83
785.80	231.80
786.12	231.78
786.45	231.75
786.77	231.72
787.09	231.66
