SpectraSuite Data File
++++++++++++++++++++++++++++++++++++
Date: Fri Feb 01 15:35:23 EST 2013
User: group
Dark Spectrum Present: No
Reference Spectrum Present: No
Number of Sampled Component Spectra: 1
Spectrometers: USB2E7196
Integration Time (usec): 35000 (USB2E7196)
Spectra Averaged: 100 (USB2E7196)
Boxcar Smoothing: 10 (USB2E7196)
Correct for Electrical Dark: No (USB2E7196)
Strobe/Lamp Enabled: No (USB2E7196)
Correct for Detector Non-linearity: No (USB2E7196)
Correct for Stray Light: No (USB2E7196)
Number of Pixels in Processed Spectrum: 2048
>>>>>Begin Processed Spectral Data<<<<<
339.09	0.00
339.48	214.90
339.86	216.31
340.24	217.84
340.63	219.02
341.01	222.00
341.39	221.72
341.78	223.51
342.16	224.93
342.54	224.45
342.93	213.38
343.31	224.17
343.69	224.73
344.07	225.24
344.46	225.67
344.84	226.07
345.22	226.30
345.60	226.57
345.99	226.77
346.37	226.88
346.75	227.02
347.13	227.08
347.52	227.14
347.90	227.25
348.28	227.24
348.66	227.28
349.05	227.28
349.43	227.34
349.81	227.35
350.19	227.37
350.57	227.43
350.96	227.51
351.34	227.58
351.72	227.67
352.10	227.72
352.48	227.82
352.87	227.86
353.25	227.97
353.63	228.02
354.01	228.07
354.39	228.13
354.77	228.20
355.15	228.30
355.54	228.37
355.92	228.43
356.30	228.50
356.68	228.62
357.06	228.67
357.44	228.70
357.82	228.75
358.20	228.82
358.58	228.87
358.97	228.94
359.35	229.03
359.73	229.10
360.11	229.17
360.49	229.17
360.87	229.26
361.25	229.28
361.63	229.34
362.01	229.35
362.39	229.37
362.77	229.41
363.15	229.40
363.53	229.42
363.91	229.42
364.29	229.46
364.67	229.38
365.05	229.41
365.43	229.42
365.81	229.41
366.19	229.41
366.57	229.47
366.95	229.47
367.33	229.39
367.71	229.39
368.09	229.36
368.47	229.34
368.85	229.29
369.23	229.28
369.61	229.21
369.99	229.18
370.37	229.16
370.75	229.16
371.13	229.13
371.51	229.04
371.89	228.99
372.27	228.93
372.65	228.88
373.03	228.80
373.41	228.76
373.78	228.72
374.16	228.62
374.54	228.48
374.92	228.37
375.30	228.32
375.68	228.20
376.06	228.15
376.44	228.07
376.82	228.01
377.19	227.93
377.57	227.85
377.95	227.80
378.33	227.72
378.71	227.58
379.09	227.49
379.47	227.44
379.84	227.33
380.22	227.26
380.60	227.17
380.98	227.11
381.36	227.03
381.73	226.94
382.11	226.90
382.49	226.84
382.87	226.78
383.25	226.74
383.62	226.81
384.00	226.71
384.38	226.64
384.76	226.60
385.13	226.56
385.51	226.53
385.89	226.46
386.27	226.42
386.64	226.38
387.02	226.33
387.40	226.28
387.78	226.26
388.15	226.22
388.53	226.18
388.91	226.18
389.29	226.15
389.66	226.13
390.04	226.10
390.42	226.12
390.79	226.13
391.17	226.11
391.55	225.99
391.92	225.99
392.30	226.00
392.68	225.99
393.05	225.98
393.43	225.99
393.81	226.03
394.18	226.02
394.56	226.03
394.94	226.12
395.31	226.13
395.69	226.19
396.06	226.23
396.44	226.28
396.82	226.32
397.19	226.44
397.57	226.49
397.95	226.54
398.32	226.55
398.70	226.62
399.07	226.67
399.45	226.75
399.82	226.82
400.20	226.89
400.58	226.99
400.95	227.04
401.33	227.14
401.70	227.24
402.08	227.36
402.45	227.46
402.83	227.58
403.20	227.69
403.58	227.78
403.95	227.94
404.33	228.07
404.71	228.18
405.08	228.32
405.46	228.45
405.83	228.62
406.21	228.78
406.58	228.92
406.96	229.10
407.33	229.24
407.70	229.47
408.08	229.75
408.45	229.95
408.83	230.21
409.20	230.46
409.58	230.66
409.95	230.93
410.33	231.21
410.70	231.43
411.08	231.77
411.45	232.11
411.82	232.38
412.20	232.75
412.57	233.14
412.95	233.47
413.32	233.90
413.69	234.34
414.07	234.82
414.44	235.29
414.82	235.82
415.19	236.40
415.56	236.90
415.94	237.44
416.31	238.12
416.68	238.73
417.06	239.44
417.43	240.14
417.81	240.88
418.18	241.66
418.55	242.53
418.93	243.40
419.30	244.26
419.67	245.21
420.04	246.16
420.42	247.16
420.79	248.34
421.16	249.47
421.54	250.60
421.91	251.75
422.28	253.03
422.66	254.33
423.03	255.62
423.40	256.96
423.77	258.36
424.15	259.78
424.52	261.24
424.89	262.88
425.26	264.41
425.64	265.89
426.01	267.48
426.38	269.11
426.75	270.80
427.13	272.53
427.50	274.37
427.87	276.24
428.24	278.11
428.61	279.84
428.99	281.78
429.36	283.91
429.73	286.02
430.10	288.03
430.47	290.08
430.85	292.18
431.22	294.42
431.59	296.78
431.96	298.99
432.33	301.48
432.70	303.83
433.08	306.64
433.45	309.28
433.82	311.85
434.19	314.78
434.56	317.57
434.93	320.21
435.30	322.80
435.68	325.67
436.05	328.51
436.42	331.36
436.79	333.90
437.16	336.61
437.53	339.47
437.90	342.30
438.27	345.07
438.64	347.94
439.01	350.54
439.38	352.81
439.75	354.99
440.13	357.50
440.50	359.86
440.87	361.72
441.24	363.68
441.61	365.88
441.98	367.37
442.35	369.19
442.72	371.09
443.09	372.89
443.46	373.90
443.83	374.51
444.20	374.99
444.57	375.83
444.94	376.12
445.31	376.43
445.68	376.76
446.05	376.82
446.42	376.46
446.79	376.08
447.16	375.65
447.53	375.36
447.90	374.18
448.27	372.99
448.64	371.43
449.01	370.33
449.37	368.36
449.74	366.40
450.11	364.15
450.48	361.69
450.85	359.15
451.22	357.06
451.59	355.02
451.96	353.06
452.33	350.44
452.70	348.12
453.07	345.29
453.43	342.40
453.80	339.63
454.17	336.94
454.54	334.35
454.91	331.56
455.28	328.87
455.65	326.38
456.02	323.97
456.38	321.80
456.75	319.05
457.12	316.78
457.49	314.54
457.86	312.37
458.23	310.51
458.59	308.48
458.96	306.35
459.33	304.46
459.70	302.58
460.07	301.07
460.43	299.28
460.80	297.64
461.17	296.20
461.54	294.70
461.91	293.26
462.27	291.84
462.64	290.62
463.01	289.29
463.38	287.99
463.74	286.59
464.11	285.42
464.48	284.42
464.85	283.31
465.21	282.48
465.58	281.59
465.95	280.46
466.32	279.57
466.68	278.67
467.05	277.78
467.42	276.90
467.78	275.99
468.15	275.11
468.52	274.46
468.88	273.60
469.25	272.82
469.62	272.21
469.98	271.53
470.35	270.89
470.72	270.25
471.08	269.58
471.45	269.07
471.82	268.57
472.18	267.96
472.55	267.52
472.92	266.98
473.28	266.48
473.65	266.02
474.02	265.56
474.38	265.17
474.75	264.84
475.11	264.54
475.48	264.26
475.85	264.05
476.21	263.82
476.58	263.62
476.94	263.47
477.31	263.26
477.67	263.07
478.04	262.99
478.41	262.93
478.77	262.99
479.14	262.89
479.50	262.86
479.87	262.92
480.23	262.99
480.60	263.06
480.96	263.17
481.33	263.38
481.69	263.60
482.06	263.85
482.42	264.06
482.79	264.25
483.15	264.57
483.52	264.94
483.88	265.29
484.25	265.69
484.61	266.11
484.98	266.51
485.34	267.09
485.71	267.67
486.07	268.24
486.44	268.80
486.80	269.50
487.17	270.27
487.53	271.09
487.90	271.95
488.26	272.90
488.62	273.87
488.99	274.85
489.35	275.84
489.72	276.92
490.08	278.13
490.44	279.39
490.81	280.68
491.17	282.06
491.54	283.57
491.90	285.11
492.26	286.77
492.63	288.56
492.99	290.37
493.36	292.28
493.72	294.39
494.08	296.49
494.45	298.74
494.81	301.04
495.17	303.52
495.54	306.10
495.90	308.79
496.26	311.61
496.63	314.58
496.99	317.76
497.35	321.03
497.72	324.44
498.08	327.93
498.44	331.63
498.80	335.50
499.17	339.51
499.53	343.62
499.89	348.02
500.26	352.51
500.62	357.18
500.98	362.09
501.34	367.12
501.71	372.43
502.07	377.90
502.43	383.57
502.79	389.32
503.16	395.35
503.52	401.61
503.88	407.99
504.24	414.60
504.60	421.44
504.97	428.60
505.33	435.94
505.69	443.67
506.05	451.44
506.41	459.30
506.78	467.45
507.14	475.98
507.50	484.73
507.86	493.73
508.22	502.92
508.59	512.15
508.95	521.76
509.31	531.60
509.67	541.66
510.03	551.95
510.39	562.55
510.75	573.38
511.12	584.31
511.48	595.68
511.84	607.14
512.20	618.64
512.56	630.60
512.92	642.82
513.28	655.15
513.64	667.61
514.00	680.33
514.37	693.22
514.73	706.20
515.09	719.19
515.45	732.56
515.81	746.13
516.17	760.21
516.53	774.25
516.89	788.43
517.25	802.65
517.61	817.02
517.97	831.44
518.33	845.96
518.69	860.77
519.05	875.75
519.41	890.93
519.77	906.50
520.13	921.92
520.49	937.24
520.85	952.67
521.21	968.44
521.57	984.75
521.93	1000.59
522.29	1017.02
522.65	1033.32
523.01	1049.56
523.37	1065.66
523.73	1081.77
524.09	1097.96
524.45	1114.27
524.81	1130.99
525.17	1147.92
525.53	1164.87
525.89	1181.70
526.25	1198.54
526.61	1214.87
526.97	1231.76
527.33	1248.20
527.68	1264.89
528.04	1281.42
528.40	1298.08
528.76	1315.18
529.12	1331.80
529.48	1348.79
529.84	1364.91
530.20	1381.55
530.56	1398.54
530.91	1416.14
531.27	1432.96
531.63	1449.54
531.99	1466.21
532.35	1482.19
532.71	1498.05
533.07	1514.44
533.42	1530.33
533.78	1546.42
534.14	1562.80
534.50	1578.04
534.86	1594.15
535.21	1609.28
535.57	1625.37
535.93	1640.81
536.29	1655.59
536.65	1670.70
537.00	1685.47
537.36	1700.71
537.72	1715.31
538.08	1729.74
538.44	1743.40
538.79	1757.27
539.15	1770.97
539.51	1784.82
539.87	1799.08
540.22	1812.85
540.58	1826.69
540.94	1840.04
541.29	1853.00
541.65	1865.67
542.01	1879.08
542.37	1891.31
542.72	1903.86
543.08	1915.62
543.44	1928.17
543.79	1939.40
544.15	1950.40
544.51	1961.96
544.87	1973.05
545.22	1983.85
545.58	1994.16
545.94	2003.94
546.29	2013.83
546.65	2023.66
547.01	2032.74
547.36	2041.64
547.72	2050.07
548.07	2057.78
548.43	2066.02
548.79	2074.11
549.14	2081.75
549.50	2088.97
549.86	2096.62
550.21	2103.92
550.57	2110.96
550.92	2117.44
551.28	2124.63
551.64	2131.76
551.99	2138.30
552.35	2144.42
552.70	2150.58
553.06	2156.53
553.41	2163.01
553.77	2169.06
554.13	2175.00
554.48	2181.20
554.84	2186.48
555.19	2191.86
555.55	2197.02
555.90	2201.60
556.26	2206.38
556.61	2211.10
556.97	2215.40
557.32	2219.62
557.68	2223.72
558.03	2228.09
558.39	2231.93
558.74	2236.43
559.10	2240.21
559.45	2243.86
559.81	2248.13
560.16	2251.91
560.52	2255.15
560.87	2258.46
561.23	2261.04
561.58	2264.28
561.94	2266.81
562.29	2269.34
562.64	2272.01
563.00	2274.62
563.35	2277.98
563.71	2281.02
564.06	2284.17
564.42	2287.02
564.77	2289.49
565.12	2291.60
565.48	2293.39
565.83	2295.12
566.19	2296.45
566.54	2297.41
566.89	2298.60
567.25	2299.22
567.60	2300.54
567.96	2302.21
568.31	2303.02
568.66	2304.11
569.02	2304.49
569.37	2304.83
569.72	2305.67
570.08	2305.67
570.43	2305.75
570.78	2305.17
571.14	2303.68
571.49	2302.40
571.84	2302.09
572.20	2300.81
572.55	2299.95
572.90	2298.44
573.26	2297.06
573.61	2295.33
573.96	2293.52
574.31	2290.44
574.67	2287.39
575.02	2283.86
575.37	2280.29
575.72	2276.45
576.08	2273.22
576.43	2269.96
576.78	2266.24
577.13	2263.05
577.49	2260.01
577.84	2256.33
578.19	2252.57
578.54	2248.92
578.90	2244.58
579.25	2239.03
579.60	2233.98
579.95	2228.84
580.30	2223.77
580.66	2218.53
581.01	2213.52
581.36	2208.51
581.71	2204.28
582.06	2199.89
582.42	2195.18
582.77	2189.96
583.12	2185.23
583.47	2180.42
583.82	2175.22
584.17	2169.91
584.53	2164.25
584.88	2158.62
585.23	2152.78
585.58	2147.17
585.93	2141.69
586.28	2136.90
586.63	2131.75
586.98	2126.74
587.34	2122.05
587.69	2117.10
588.04	2111.79
588.39	2106.20
588.74	2099.84
589.09	2093.75
589.44	2086.70
589.79	2080.68
590.14	2075.10
590.49	2068.55
590.84	2062.12
591.19	2056.16
591.54	2049.71
591.89	2042.22
592.25	2035.32
592.60	2028.21
592.95	2020.62
593.30	2013.11
593.65	2005.45
594.00	1998.20
594.35	1990.84
594.70	1982.74
595.05	1975.44
595.40	1968.12
595.75	1960.49
596.10	1953.98
596.45	1947.07
596.80	1941.01
597.15	1934.30
597.50	1927.09
597.85	1920.66
598.19	1913.78
598.54	1906.55
598.89	1899.82
599.24	1894.03
599.59	1887.14
599.94	1880.82
600.29	1874.54
600.64	1868.03
600.99	1860.50
601.34	1853.64
601.69	1846.70
602.04	1839.68
602.39	1832.28
602.74	1825.42
603.08	1818.61
603.43	1811.91
603.78	1804.64
604.13	1797.36
604.48	1790.06
604.83	1783.23
605.18	1776.19
605.53	1768.25
605.87	1760.11
606.22	1752.92
606.57	1744.88
606.92	1737.70
607.27	1730.49
607.62	1723.56
607.96	1716.20
608.31	1709.61
608.66	1701.98
609.01	1694.45
609.36	1686.98
609.70	1678.98
610.05	1670.93
610.40	1663.21
610.75	1654.98
611.10	1647.26
611.44	1638.83
611.79	1630.88
612.14	1622.11
612.49	1612.95
612.83	1604.65
613.18	1596.60
613.53	1588.37
613.88	1579.73
614.22	1571.38
614.57	1562.93
614.92	1554.77
615.27	1547.18
615.61	1538.75
615.96	1530.84
616.31	1523.24
616.65	1515.82
617.00	1508.37
617.35	1500.77
617.70	1492.31
618.04	1483.64
618.39	1475.41
618.74	1467.82
619.08	1459.47
619.43	1451.94
619.78	1444.99
620.12	1437.70
620.47	1430.17
620.82	1422.04
621.16	1414.76
621.51	1407.11
621.85	1399.40
622.20	1390.87
622.55	1382.47
622.89	1374.68
623.24	1367.02
623.59	1359.62
623.93	1352.07
624.28	1344.71
624.62	1337.01
624.97	1329.98
625.32	1323.29
625.66	1316.21
626.01	1308.95
626.35	1301.49
626.70	1293.74
627.04	1286.00
627.39	1278.25
627.73	1270.86
628.08	1263.96
628.43	1256.54
628.77	1249.28
629.12	1241.67
629.46	1234.52
629.81	1227.09
630.15	1219.88
630.50	1212.41
630.84	1204.19
631.19	1196.42
631.53	1188.84
631.88	1181.39
632.22	1173.79
632.57	1166.54
632.91	1159.09
633.26	1151.73
633.60	1144.44
633.95	1137.37
634.29	1130.41
634.64	1123.79
634.98	1116.42
635.32	1109.26
635.67	1102.84
636.01	1096.12
636.36	1089.38
636.70	1082.87
637.05	1076.44
637.39	1069.95
637.73	1063.53
638.08	1057.70
638.42	1051.66
638.77	1045.36
639.11	1038.80
639.45	1032.45
639.80	1025.72
640.14	1019.25
640.49	1012.70
640.83	1006.31
641.17	999.99
641.52	993.71
641.86	987.34
642.20	981.51
642.55	975.29
642.89	968.70
643.23	962.22
643.58	956.46
643.92	950.30
644.26	944.12
644.61	938.06
644.95	932.03
645.29	925.38
645.64	918.57
645.98	912.19
646.32	906.36
646.66	900.29
647.01	894.54
647.35	888.83
647.69	882.96
648.04	877.50
648.38	871.78
648.72	865.70
649.06	859.52
649.41	853.66
649.75	847.54
650.09	841.65
650.43	835.82
650.78	829.63
651.12	823.65
651.46	817.94
651.80	812.22
652.14	806.82
652.49	801.49
652.83	796.35
653.17	790.66
653.51	784.79
653.85	779.43
654.20	773.78
654.54	767.77
654.88	762.07
655.22	756.15
655.56	750.51
655.90	745.08
656.25	739.88
656.59	734.58
656.93	729.58
657.27	724.36
657.61	718.97
657.95	713.86
658.29	708.82
658.64	703.58
658.98	698.32
659.32	692.87
659.66	687.67
660.00	682.33
660.34	677.37
660.68	672.63
661.02	667.59
661.36	662.82
661.70	658.33
662.05	653.97
662.39	649.66
662.73	645.20
663.07	640.82
663.41	636.38
663.75	631.84
664.09	627.26
664.43	622.95
664.77	618.83
665.11	614.55
665.45	610.39
665.79	606.41
666.13	602.27
666.47	598.19
666.81	593.97
667.15	589.87
667.49	586.07
667.83	582.18
668.17	578.23
668.51	574.23
668.85	570.25
669.19	566.44
669.53	562.57
669.87	558.66
670.21	555.00
670.55	551.41
670.89	548.03
671.23	544.65
671.57	541.13
671.91	537.61
672.25	534.17
672.58	530.65
672.92	527.22
673.26	524.02
673.60	520.86
673.94	517.74
674.28	514.87
674.62	511.88
674.96	508.83
675.30	505.94
675.64	503.01
675.97	500.25
676.31	497.39
676.65	494.50
676.99	491.83
677.33	489.00
677.67	486.14
678.01	483.08
678.34	480.07
678.68	477.18
679.02	474.34
679.36	471.61
679.70	468.92
680.04	466.15
680.37	463.31
680.71	460.51
681.05	457.89
681.39	455.13
681.73	452.49
682.06	449.95
682.40	447.43
682.74	444.89
683.08	442.34
683.42	439.78
683.75	437.27
684.09	434.68
684.43	432.18
684.77	429.75
685.10	427.37
685.44	425.11
685.78	422.82
686.12	420.56
686.45	418.21
686.79	415.88
687.13	413.75
687.46	411.59
687.80	409.48
688.14	407.31
688.48	405.30
688.81	403.02
689.15	400.89
689.49	398.70
689.82	396.64
690.16	394.56
690.50	392.54
690.83	390.59
691.17	388.58
691.51	386.61
691.84	384.74
692.18	382.82
692.52	380.83
692.85	378.95
693.19	377.07
693.52	375.26
693.86	373.45
694.20	371.65
694.53	369.81
694.87	367.97
695.21	366.19
695.54	364.36
695.88	362.67
696.21	360.90
696.55	359.23
696.88	357.57
697.22	355.92
697.56	354.33
697.89	352.69
698.23	351.13
698.56	349.58
698.90	348.03
699.23	346.37
699.57	344.77
699.90	343.21
700.24	341.70
700.58	340.22
700.91	338.73
701.25	337.29
701.58	335.94
701.92	334.54
702.25	333.13
702.59	331.73
702.92	330.38
703.26	329.09
703.59	327.77
703.93	326.57
704.26	325.27
704.60	323.95
704.93	322.69
705.26	321.45
705.60	320.25
705.93	319.06
706.27	318.04
706.60	317.01
706.94	315.91
707.27	314.79
707.61	313.69
707.94	312.69
708.27	311.56
708.61	310.52
708.94	309.53
709.28	308.56
709.61	307.63
709.94	306.69
710.28	305.68
710.61	304.75
710.95	303.69
711.28	302.77
711.61	301.83
711.95	300.91
712.28	299.98
712.61	299.00
712.95	298.06
713.28	297.18
713.61	296.30
713.95	295.41
714.28	294.55
714.61	293.69
714.95	292.80
715.28	291.97
715.61	291.07
715.95	290.26
716.28	289.44
716.61	288.60
716.95	287.76
717.28	287.03
717.61	286.24
717.94	285.49
718.28	284.75
718.61	284.00
718.94	283.30
719.27	282.64
719.61	282.00
719.94	281.35
720.27	280.63
720.60	279.98
720.94	279.36
721.27	278.77
721.60	278.20
721.93	277.61
722.27	277.09
722.60	276.51
722.93	275.94
723.26	275.39
723.59	274.83
723.93	274.33
724.26	273.75
724.59	273.22
724.92	272.72
725.25	272.23
725.59	271.78
725.92	271.32
726.25	270.80
726.58	270.33
726.91	269.90
727.24	269.43
727.57	268.94
727.91	268.42
728.24	267.96
728.57	267.47
728.90	266.99
729.23	266.49
729.56	266.08
729.89	265.59
730.22	265.10
730.55	264.65
730.89	264.20
731.22	263.78
731.55	263.36
731.88	262.91
732.21	262.45
732.54	262.00
732.87	261.54
733.20	261.12
733.53	260.72
733.86	260.28
734.19	259.88
734.52	259.50
734.85	259.21
735.18	258.81
735.51	258.46
735.84	258.13
736.17	257.79
736.50	257.40
736.83	257.20
737.16	256.87
737.49	256.52
737.82	256.18
738.15	255.85
738.48	255.52
738.81	255.22
739.14	254.89
739.47	254.55
739.80	254.21
740.13	253.88
740.46	253.54
740.79	253.20
741.12	252.90
741.45	252.62
741.78	252.22
742.11	251.93
742.44	251.61
742.77	251.28
743.10	250.97
743.43	250.71
743.75	250.25
744.08	250.10
744.41	249.82
744.74	249.52
745.07	249.21
745.40	248.93
745.73	248.68
746.06	248.41
746.39	248.16
746.71	247.92
747.04	247.66
747.37	247.40
747.70	247.16
748.03	246.90
748.36	246.66
748.68	246.46
749.01	246.15
749.34	245.90
749.67	245.67
750.00	245.43
750.33	245.25
750.65	245.08
750.98	244.70
751.31	244.49
751.64	244.31
751.97	244.15
752.29	243.94
752.62	243.70
752.95	243.51
753.28	243.30
753.60	243.10
753.93	242.94
754.26	242.72
754.59	242.51
754.91	242.29
755.24	242.06
755.57	241.85
755.90	241.69
756.22	241.52
756.55	241.34
756.88	241.17
757.20	240.93
757.53	240.71
757.86	240.56
758.19	240.39
758.51	240.21
758.84	240.00
759.17	239.81
759.49	239.64
759.82	239.54
760.15	239.39
760.47	239.27
760.80	239.10
761.13	239.00
761.45	238.85
761.78	238.72
762.11	238.58
762.43	238.42
762.76	238.31
763.08	238.18
763.41	238.07
763.74	237.93
764.06	237.76
764.39	237.67
764.71	237.58
765.04	237.44
765.37	237.32
765.69	237.23
766.02	237.12
766.34	237.00
766.67	236.80
767.00	236.69
767.32	236.57
767.65	236.49
767.97	236.37
768.30	236.27
768.62	236.17
768.95	236.05
769.27	235.99
769.60	235.89
769.92	235.76
770.25	235.60
770.57	235.48
770.90	235.43
771.22	235.31
771.55	235.18
771.87	235.08
772.20	234.95
772.52	234.88
772.85	234.93
773.17	234.83
773.50	234.74
773.82	234.65
774.15	234.51
774.47	234.41
774.80	234.31
775.12	234.22
775.45	234.10
775.77	234.02
776.09	233.92
776.42	233.85
776.74	233.80
777.07	233.72
777.39	233.62
777.72	233.51
778.04	233.43
778.36	233.36
778.69	233.29
779.01	233.23
779.33	233.10
779.66	232.91
779.98	232.82
780.31	232.76
780.63	232.75
780.95	232.68
781.28	232.60
781.60	232.50
781.92	232.45
782.25	232.42
782.57	232.38
782.89	232.27
783.22	232.18
783.54	232.08
783.86	232.08
784.19	232.04
784.51	232.02
784.83	231.97
785.16	231.95
785.48	231.90
785.80	231.88
786.12	231.85
786.45	231.80
786.77	231.76
787.09	231.70
