SpectraSuite Data File
++++++++++++++++++++++++++++++++++++
Date: Fri Feb 01 16:54:27 EST 2013
User: group
Dark Spectrum Present: No
Reference Spectrum Present: No
Number of Sampled Component Spectra: 1
Spectrometers: USB2E7196
Integration Time (usec): 35000 (USB2E7196)
Spectra Averaged: 100 (USB2E7196)
Boxcar Smoothing: 10 (USB2E7196)
Correct for Electrical Dark: No (USB2E7196)
Strobe/Lamp Enabled: No (USB2E7196)
Correct for Detector Non-linearity: No (USB2E7196)
Correct for Stray Light: No (USB2E7196)
Number of Pixels in Processed Spectrum: 2048
>>>>>Begin Processed Spectral Data<<<<<
339.09	0.00
339.48	213.15
339.86	214.50
340.24	216.07
340.63	217.88
341.01	220.01
341.39	220.26
341.78	221.82
342.16	222.55
342.54	223.13
342.93	211.73
343.31	222.42
343.69	222.99
344.07	223.48
344.46	223.92
344.84	224.28
345.22	224.53
345.60	224.79
345.99	224.98
346.37	225.12
346.75	225.20
347.13	225.27
347.52	225.32
347.90	225.38
348.28	225.36
348.66	225.40
349.05	225.40
349.43	225.41
349.81	225.46
350.19	225.49
350.57	225.52
350.96	225.58
351.34	225.63
351.72	225.68
352.10	225.74
352.48	225.79
352.87	225.84
353.25	225.91
353.63	225.95
354.01	226.01
354.39	226.08
354.77	226.17
355.15	226.27
355.54	226.30
355.92	226.33
356.30	226.41
356.68	226.55
357.06	226.62
357.44	226.66
357.82	226.75
358.20	226.81
358.58	226.87
358.97	226.97
359.35	227.06
359.73	227.13
360.11	227.21
360.49	227.28
360.87	227.32
361.25	227.39
361.63	227.47
362.01	227.53
362.39	227.54
362.77	227.59
363.15	227.62
363.53	227.67
363.91	227.69
364.29	227.70
364.67	227.64
365.05	227.69
365.43	227.72
365.81	227.74
366.19	227.81
366.57	227.87
366.95	227.84
367.33	227.84
367.71	227.83
368.09	227.85
368.47	227.84
368.85	227.84
369.23	227.81
369.61	227.74
369.99	227.72
370.37	227.72
370.75	227.73
371.13	227.70
371.51	227.65
371.89	227.65
372.27	227.64
372.65	227.61
373.03	227.56
373.41	227.50
373.78	227.47
374.16	227.35
374.54	227.22
374.92	227.14
375.30	227.10
375.68	227.09
376.06	227.02
376.44	226.93
376.82	226.88
377.19	226.83
377.57	226.75
377.95	226.65
378.33	226.61
378.71	226.51
379.09	226.44
379.47	226.39
379.84	226.32
380.22	226.24
380.60	226.15
380.98	226.10
381.36	226.06
381.73	225.99
382.11	225.93
382.49	225.91
382.87	225.84
383.25	225.78
383.62	225.79
384.00	225.71
384.38	225.69
384.76	225.67
385.13	225.66
385.51	225.65
385.89	225.59
386.27	225.54
386.64	225.47
387.02	225.44
387.40	225.39
387.78	225.34
388.15	225.32
388.53	225.30
388.91	225.23
389.29	225.21
389.66	225.18
390.04	225.18
390.42	225.18
390.79	225.19
391.17	225.16
391.55	225.04
391.92	225.02
392.30	225.03
392.68	224.99
393.05	224.96
393.43	224.92
393.81	224.94
394.18	224.90
394.56	224.93
394.94	224.92
395.31	224.94
395.69	225.00
396.06	225.01
396.44	225.01
396.82	225.04
397.19	225.12
397.57	225.14
397.95	225.18
398.32	225.16
398.70	225.19
399.07	225.27
399.45	225.31
399.82	225.36
400.20	225.38
400.58	225.44
400.95	225.47
401.33	225.57
401.70	225.72
402.08	225.84
402.45	225.91
402.83	226.11
403.20	226.20
403.58	226.24
403.95	226.38
404.33	226.52
404.71	226.65
405.08	226.81
405.46	226.93
405.83	227.05
406.21	227.23
406.58	227.40
406.96	227.55
407.33	227.74
407.70	227.94
408.08	228.24
408.45	228.47
408.83	228.69
409.20	228.91
409.58	229.09
409.95	229.32
410.33	229.59
410.70	229.77
411.08	230.05
411.45	230.36
411.82	230.66
412.20	231.04
412.57	231.46
412.95	231.76
413.32	232.17
413.69	232.57
414.07	232.99
414.44	233.47
414.82	233.93
415.19	234.46
415.56	235.02
415.94	235.57
416.31	236.21
416.68	236.86
417.06	237.55
417.43	238.25
417.81	239.03
418.18	239.83
418.55	240.66
418.93	241.58
419.30	242.50
419.67	243.43
420.04	244.37
420.42	245.35
420.79	246.51
421.16	247.65
421.54	248.85
421.91	250.06
422.28	251.30
422.66	252.64
423.03	253.94
423.40	255.27
423.77	256.63
424.15	258.02
424.52	259.51
424.89	261.10
425.26	262.59
425.64	264.00
426.01	265.56
426.38	267.23
426.75	268.88
427.13	270.57
427.50	272.36
427.87	274.21
428.24	276.08
428.61	277.82
428.99	279.76
429.36	281.84
429.73	283.88
430.10	285.88
430.47	287.92
430.85	290.02
431.22	292.22
431.59	294.62
431.96	296.87
432.33	299.35
432.70	301.71
433.08	304.52
433.45	307.15
433.82	309.77
434.19	312.64
434.56	315.38
434.93	318.01
435.30	320.58
435.68	323.41
436.05	326.21
436.42	328.96
436.79	331.44
437.16	334.10
437.53	336.91
437.90	339.65
438.27	342.38
438.64	345.15
439.01	347.70
439.38	349.86
439.75	351.98
440.13	354.46
440.50	356.76
440.87	358.56
441.24	360.45
441.61	362.60
441.98	364.05
442.35	365.86
442.72	367.68
443.09	369.53
443.46	370.56
443.83	371.13
444.20	371.65
444.57	372.47
444.94	372.78
445.31	373.15
445.68	373.56
446.05	373.62
446.42	373.33
446.79	372.94
447.16	372.55
447.53	372.25
447.90	371.06
448.27	369.94
448.64	368.44
449.01	367.37
449.37	365.41
449.74	363.52
450.11	361.36
450.48	358.96
450.85	356.45
451.22	354.32
451.59	352.32
451.96	350.43
452.33	347.85
452.70	345.51
453.07	342.68
453.43	339.81
453.80	337.09
454.17	334.40
454.54	331.88
454.91	329.17
455.28	326.55
455.65	324.12
456.02	321.66
456.38	319.48
456.75	316.84
457.12	314.59
457.49	312.42
457.86	310.23
458.23	308.37
458.59	306.34
458.96	304.24
459.33	302.40
459.70	300.53
460.07	299.06
460.43	297.36
460.80	295.78
461.17	294.37
461.54	292.86
461.91	291.47
462.27	290.03
462.64	288.77
463.01	287.41
463.38	286.12
463.74	284.78
464.11	283.65
464.48	282.62
464.85	281.53
465.21	280.65
465.58	279.76
465.95	278.68
466.32	277.77
466.68	276.90
467.05	276.04
467.42	275.20
467.78	274.28
468.15	273.42
468.52	272.75
468.88	271.87
469.25	271.11
469.62	270.48
469.98	269.80
470.35	269.20
470.72	268.62
471.08	267.95
471.45	267.43
471.82	266.87
472.18	266.29
472.55	265.87
472.92	265.37
473.28	264.85
473.65	264.43
474.02	263.98
474.38	263.63
474.75	263.32
475.11	262.95
475.48	262.70
475.85	262.47
476.21	262.25
476.58	262.07
476.94	261.93
477.31	261.80
477.67	261.69
478.04	261.58
478.41	261.50
478.77	261.58
479.14	261.54
479.50	261.59
479.87	261.68
480.23	261.75
480.60	261.80
480.96	261.90
481.33	262.10
481.69	262.32
482.06	262.50
482.42	262.69
482.79	262.95
483.15	263.28
483.52	263.66
483.88	264.01
484.25	264.41
484.61	264.85
484.98	265.30
485.34	265.83
485.71	266.45
486.07	267.09
486.44	267.68
486.80	268.35
487.17	269.10
487.53	269.89
487.90	270.76
488.26	271.74
488.62	272.75
488.99	273.76
489.35	274.79
489.72	275.92
490.08	277.12
490.44	278.40
490.81	279.68
491.17	281.07
491.54	282.56
491.90	284.06
492.26	285.67
492.63	287.41
492.99	289.19
493.36	291.06
493.72	293.07
494.08	295.12
494.45	297.35
494.81	299.69
495.17	302.12
495.54	304.68
495.90	307.37
496.26	310.15
496.63	313.07
496.99	316.21
497.35	319.49
497.72	322.87
498.08	326.32
498.44	330.02
498.80	333.87
499.17	337.84
499.53	342.04
499.89	346.43
500.26	350.85
500.62	355.55
500.98	360.50
501.34	365.53
501.71	370.85
502.07	376.26
502.43	381.88
502.79	387.68
503.16	393.70
503.52	399.87
503.88	406.18
504.24	412.78
504.60	419.60
504.97	426.68
505.33	433.98
505.69	441.67
506.05	449.37
506.41	457.23
506.78	465.34
507.14	473.71
507.50	482.40
507.86	491.42
508.22	500.55
508.59	509.70
508.95	519.24
509.31	528.97
509.67	539.08
510.03	549.26
510.39	559.72
510.75	570.38
511.12	581.24
511.48	592.50
511.84	603.86
512.20	615.23
512.56	626.97
512.92	638.97
513.28	651.18
513.64	663.57
514.00	676.12
514.37	688.95
514.73	701.92
515.09	714.78
515.45	727.87
515.81	741.25
516.17	755.04
516.53	769.01
516.89	783.02
517.25	797.01
517.61	811.34
517.97	825.59
518.33	839.91
518.69	854.56
519.05	869.37
519.41	884.31
519.77	899.64
520.13	915.01
520.49	930.22
520.85	945.45
521.21	960.85
521.57	976.94
521.93	992.50
522.29	1008.48
522.65	1024.52
523.01	1040.51
523.37	1056.33
523.73	1072.24
524.09	1088.00
524.45	1104.05
524.81	1120.44
525.17	1136.87
525.53	1153.54
525.89	1170.15
526.25	1186.68
526.61	1202.72
526.97	1219.22
527.33	1235.47
527.68	1251.75
528.04	1267.92
528.40	1284.18
528.76	1300.98
529.12	1317.22
529.48	1333.74
529.84	1349.58
530.20	1365.81
530.56	1382.49
530.91	1399.50
531.27	1416.00
531.63	1432.25
531.99	1448.58
532.35	1464.27
532.71	1479.85
533.07	1495.68
533.42	1511.32
533.78	1527.17
534.14	1543.26
534.50	1558.40
534.86	1573.92
535.21	1588.93
535.57	1604.67
535.93	1619.87
536.29	1634.48
536.65	1649.28
537.00	1663.87
537.36	1678.95
537.72	1693.28
538.08	1707.44
538.44	1721.00
538.79	1734.64
539.15	1748.02
539.51	1761.44
539.87	1775.56
540.22	1789.07
540.58	1802.55
540.94	1815.66
541.29	1828.14
541.65	1840.44
542.01	1853.29
542.37	1865.52
542.72	1877.46
543.08	1888.95
543.44	1901.14
543.79	1912.17
544.15	1922.87
544.51	1934.23
544.87	1944.99
545.22	1955.73
545.58	1965.84
545.94	1975.67
546.29	1985.31
546.65	1995.12
547.01	2004.27
547.36	2012.75
547.72	2021.08
548.07	2029.07
548.43	2036.99
548.79	2044.85
549.14	2052.55
549.50	2059.77
549.86	2067.31
550.21	2074.61
550.57	2081.76
550.92	2088.24
551.28	2095.11
551.64	2102.20
551.99	2108.68
552.35	2114.72
552.70	2120.79
553.06	2126.86
553.41	2132.85
553.77	2138.90
554.13	2144.83
554.48	2151.03
554.84	2156.80
555.19	2162.00
555.55	2167.04
555.90	2171.61
556.26	2176.68
556.61	2181.19
556.97	2185.71
557.32	2189.88
557.68	2194.07
558.03	2198.28
558.39	2201.95
558.74	2206.89
559.10	2210.79
559.45	2214.47
559.81	2218.90
560.16	2222.90
560.52	2226.09
560.87	2229.82
561.23	2232.49
561.58	2235.57
561.94	2238.12
562.29	2240.15
562.64	2243.17
563.00	2245.89
563.35	2249.47
563.71	2252.47
564.06	2255.85
564.42	2258.84
564.77	2261.46
565.12	2264.01
565.48	2266.25
565.83	2268.38
566.19	2269.70
566.54	2270.72
566.89	2272.03
567.25	2272.79
567.60	2274.06
567.96	2275.94
568.31	2276.82
568.66	2278.15
569.02	2278.82
569.37	2279.29
569.72	2280.48
570.08	2280.77
570.43	2280.89
570.78	2280.65
571.14	2279.44
571.49	2278.31
571.84	2277.97
572.20	2277.02
572.55	2276.04
572.90	2274.32
573.26	2273.17
573.61	2271.42
573.96	2269.94
574.31	2267.16
574.67	2264.28
575.02	2260.76
575.37	2257.44
575.72	2253.88
576.08	2250.54
576.43	2247.30
576.78	2243.82
577.13	2240.66
577.49	2237.59
577.84	2234.42
578.19	2230.63
578.54	2227.12
578.90	2223.01
579.25	2217.62
579.60	2212.93
579.95	2208.09
580.30	2203.31
580.66	2198.26
581.01	2193.50
581.36	2188.64
581.71	2184.66
582.06	2180.41
582.42	2176.20
582.77	2171.20
583.12	2166.73
583.47	2162.40
583.82	2157.74
584.17	2152.54
584.53	2147.26
584.88	2141.84
585.23	2136.26
585.58	2130.90
585.93	2125.57
586.28	2120.82
586.63	2116.13
586.98	2111.07
587.34	2106.56
587.69	2101.89
588.04	2096.91
588.39	2091.52
588.74	2085.26
589.09	2079.16
589.44	2072.54
589.79	2066.42
590.14	2060.85
590.49	2054.44
590.84	2048.05
591.19	2042.00
591.54	2035.78
591.89	2028.73
592.25	2022.14
592.60	2015.11
592.95	2007.79
593.30	2000.66
593.65	1993.20
594.00	1986.19
594.35	1979.14
594.70	1971.15
595.05	1964.20
595.40	1957.05
595.75	1949.69
596.10	1943.74
596.45	1937.23
596.80	1931.20
597.15	1924.97
597.50	1918.24
597.85	1911.94
598.19	1905.57
598.54	1898.79
598.89	1892.27
599.24	1886.33
599.59	1879.79
599.94	1873.55
600.29	1867.25
600.64	1860.72
600.99	1853.54
601.34	1846.66
601.69	1839.64
602.04	1833.01
602.39	1825.73
602.74	1818.97
603.08	1812.34
603.43	1805.59
603.78	1798.37
604.13	1791.31
604.48	1784.18
604.83	1777.25
605.18	1770.52
605.53	1762.71
605.87	1754.84
606.22	1747.69
606.57	1739.91
606.92	1732.59
607.27	1725.65
607.62	1718.95
607.96	1711.94
608.31	1705.51
608.66	1698.25
609.01	1690.90
609.36	1683.46
609.70	1675.63
610.05	1667.67
610.40	1660.10
610.75	1651.92
611.10	1644.34
611.44	1635.91
611.79	1627.92
612.14	1619.35
612.49	1610.09
612.83	1601.62
613.18	1593.41
613.53	1585.29
613.88	1576.76
614.22	1568.58
614.57	1559.93
614.92	1551.98
615.27	1544.52
615.61	1536.28
615.96	1528.08
616.31	1520.43
616.65	1513.12
617.00	1505.56
617.35	1497.89
617.70	1489.65
618.04	1481.12
618.39	1472.89
618.74	1465.36
619.08	1457.08
619.43	1449.52
619.78	1442.56
620.12	1435.50
620.47	1428.06
620.82	1419.97
621.16	1412.55
621.51	1404.93
621.85	1397.27
622.20	1388.73
622.55	1380.23
622.89	1372.28
623.24	1364.60
623.59	1357.26
623.93	1349.62
624.28	1342.39
624.62	1334.93
624.97	1327.71
625.32	1320.97
625.66	1313.90
626.01	1306.80
626.35	1299.46
626.70	1291.79
627.04	1284.22
627.39	1276.37
627.73	1269.04
628.08	1262.17
628.43	1255.03
628.77	1247.68
629.12	1240.19
629.46	1233.03
629.81	1225.51
630.15	1218.35
630.50	1211.12
630.84	1202.92
631.19	1195.02
631.53	1187.40
631.88	1179.75
632.22	1172.10
632.57	1164.79
632.91	1157.28
633.26	1149.83
633.60	1142.27
633.95	1135.02
634.29	1127.94
634.64	1121.25
634.98	1113.79
635.32	1106.52
635.67	1099.77
636.01	1093.09
636.36	1086.31
636.70	1079.75
637.05	1073.33
637.39	1066.87
637.73	1060.42
638.08	1054.54
638.42	1048.50
638.77	1042.04
639.11	1035.55
639.45	1029.18
639.80	1022.48
640.14	1016.08
640.49	1009.55
640.83	1003.35
641.17	997.21
641.52	990.91
641.86	984.40
642.20	978.69
642.55	972.43
642.89	966.06
643.23	959.53
643.58	953.85
643.92	947.77
644.26	941.86
644.61	935.74
644.95	929.73
645.29	923.18
645.64	916.54
645.98	910.35
646.32	904.33
646.66	898.28
647.01	892.55
647.35	886.89
647.69	881.06
648.04	875.47
648.38	869.63
648.72	863.72
649.06	857.83
649.41	851.89
649.75	846.04
650.09	840.13
650.43	834.38
650.78	828.16
651.12	822.18
651.46	816.34
651.80	810.73
652.14	805.27
652.49	800.08
652.83	794.93
653.17	789.28
653.51	783.80
653.85	778.44
654.20	772.92
654.54	767.02
654.88	761.27
655.22	755.48
655.56	749.80
655.90	744.29
656.25	739.04
656.59	733.66
656.93	728.57
657.27	723.45
657.61	718.06
657.95	713.06
658.29	708.01
658.64	702.72
658.98	697.39
659.32	691.99
659.66	686.74
660.00	681.46
660.34	676.53
660.68	671.52
661.02	666.51
661.36	661.75
661.70	657.22
662.05	652.95
662.39	648.70
662.73	644.28
663.07	639.92
663.41	635.45
663.75	631.03
664.09	626.46
664.43	622.03
664.77	617.92
665.11	613.60
665.45	609.41
665.79	605.48
666.13	601.35
666.47	597.20
666.81	593.07
667.15	588.92
667.49	585.00
667.83	581.16
668.17	577.19
668.51	573.15
668.85	569.11
669.19	565.18
669.53	561.33
669.87	557.50
670.21	553.80
670.55	550.19
670.89	546.73
671.23	543.33
671.57	539.83
671.91	536.27
672.25	532.76
672.58	529.23
672.92	525.71
673.26	522.57
673.60	519.45
673.94	516.34
674.28	513.41
674.62	510.43
674.96	507.37
675.30	504.48
675.64	501.54
675.97	498.78
676.31	495.95
676.65	493.05
676.99	490.33
677.33	487.48
677.67	484.69
678.01	481.65
678.34	478.72
678.68	475.85
679.02	473.08
679.36	470.33
679.70	467.62
680.04	464.89
680.37	462.05
680.71	459.24
681.05	456.57
681.39	453.89
681.73	451.22
682.06	448.71
682.40	446.20
682.74	443.72
683.08	441.06
683.42	438.48
683.75	435.92
684.09	433.33
684.43	430.87
684.77	428.40
685.10	426.04
685.44	423.65
685.78	421.40
686.12	419.11
686.45	416.85
686.79	414.62
687.13	412.41
687.46	410.19
687.80	408.07
688.14	405.87
688.48	403.81
688.81	401.65
689.15	399.48
689.49	397.32
689.82	395.24
690.16	393.23
690.50	391.27
690.83	389.37
691.17	387.38
691.51	385.50
691.84	383.66
692.18	381.82
692.52	379.89
692.85	377.91
693.19	376.06
693.52	374.19
693.86	372.32
694.20	370.56
694.53	368.80
694.87	366.93
695.21	365.13
695.54	363.31
695.88	361.57
696.21	359.88
696.55	358.23
696.88	356.53
697.22	354.82
697.56	353.19
697.89	351.55
698.23	349.97
698.56	348.35
698.90	346.82
699.23	345.16
699.57	343.63
699.90	342.13
700.24	340.56
700.58	339.09
700.91	337.64
701.25	336.17
701.58	334.79
701.92	333.45
702.25	332.13
702.59	330.78
702.92	329.49
703.26	328.19
703.59	326.86
703.93	325.65
704.26	324.43
704.60	323.13
704.93	321.85
705.26	320.61
705.60	319.39
705.93	318.16
706.27	317.09
706.60	316.03
706.94	314.97
707.27	313.85
707.61	312.77
707.94	311.72
708.27	310.66
708.61	309.56
708.94	308.56
709.28	307.50
709.61	306.49
709.94	305.48
710.28	304.47
710.61	303.52
710.95	302.45
711.28	301.55
711.61	300.63
711.95	299.73
712.28	298.82
712.61	297.85
712.95	296.93
713.28	296.04
713.61	295.09
713.95	294.16
714.28	293.34
714.61	292.45
714.95	291.60
715.28	290.73
715.61	289.83
715.95	288.95
716.28	288.11
716.61	287.23
716.95	286.41
717.28	285.64
717.61	284.82
717.94	284.09
718.28	283.25
718.61	282.47
718.94	281.76
719.27	281.05
719.61	280.40
719.94	279.72
720.27	278.99
720.60	278.36
720.94	277.72
721.27	277.10
721.60	276.54
721.93	275.92
722.27	275.33
722.60	274.80
722.93	274.25
723.26	273.71
723.59	273.19
723.93	272.62
724.26	272.03
724.59	271.47
724.92	270.86
725.25	270.39
725.59	269.86
725.92	269.36
726.25	268.88
726.58	268.35
726.91	267.84
727.24	267.39
727.57	266.92
727.91	266.41
728.24	265.96
728.57	265.47
728.90	265.02
729.23	264.55
729.56	264.12
729.89	263.64
730.22	263.14
730.55	262.65
730.89	262.20
731.22	261.76
731.55	261.36
731.88	260.96
732.21	260.51
732.54	260.09
732.87	259.64
733.20	259.20
733.53	258.82
733.86	258.47
734.19	258.05
734.52	257.63
734.85	257.34
735.18	256.93
735.51	256.54
735.84	256.18
736.17	255.82
736.50	255.45
736.83	255.23
737.16	254.90
737.49	254.58
737.82	254.24
738.15	253.92
738.48	253.54
738.81	253.23
739.14	252.91
739.47	252.58
739.80	252.29
740.13	252.00
740.46	251.65
740.79	251.32
741.12	250.99
741.45	250.71
741.78	250.34
742.11	250.06
742.44	249.74
742.77	249.43
743.10	249.15
743.43	248.84
743.75	248.42
744.08	248.26
744.41	247.98
744.74	247.74
745.07	247.47
745.40	247.29
745.73	247.06
746.06	246.76
746.39	246.50
746.71	246.24
747.04	245.98
747.37	245.75
747.70	245.51
748.03	245.30
748.36	245.11
748.68	244.88
749.01	244.61
749.34	244.38
749.67	244.16
750.00	243.96
750.33	243.77
750.65	243.60
750.98	243.29
751.31	243.04
751.64	242.84
751.97	242.68
752.29	242.40
752.62	242.15
752.95	241.98
753.28	241.76
753.60	241.59
753.93	241.40
754.26	241.21
754.59	241.00
754.91	240.82
755.24	240.60
755.57	240.39
755.90	240.20
756.22	240.00
756.55	239.76
756.88	239.56
757.20	239.33
757.53	239.15
757.86	238.99
758.19	238.85
758.51	238.65
758.84	238.42
759.17	238.29
759.49	238.17
759.82	238.04
760.15	237.90
760.47	237.72
760.80	237.54
761.13	237.40
761.45	237.26
761.78	237.09
762.11	236.95
762.43	236.81
762.76	236.68
763.08	236.57
763.41	236.48
763.74	236.35
764.06	236.21
764.39	236.06
764.71	235.90
765.04	235.76
765.37	235.64
765.69	235.49
766.02	235.38
766.34	235.24
766.67	235.07
767.00	235.01
767.32	234.93
767.65	234.92
767.97	234.79
768.30	234.67
768.62	234.53
768.95	234.40
769.27	234.28
769.60	234.19
769.92	234.06
770.25	233.93
770.57	233.81
770.90	233.73
771.22	233.62
771.55	233.50
771.87	233.40
772.20	233.30
772.52	233.29
772.85	233.31
773.17	233.21
773.50	233.12
773.82	233.01
774.15	232.88
774.47	232.68
774.80	232.58
775.12	232.52
775.45	232.48
775.77	232.44
776.09	232.36
776.42	232.26
776.74	232.22
777.07	232.16
777.39	232.10
777.72	231.99
778.04	231.94
778.36	231.89
778.69	231.87
779.01	231.82
779.33	231.70
779.66	231.51
779.98	231.42
780.31	231.38
780.63	231.37
780.95	231.31
781.28	231.27
781.60	231.21
781.92	231.13
782.25	231.04
782.57	230.97
782.89	230.91
783.22	230.86
783.54	230.79
783.86	230.75
784.19	230.68
784.51	230.65
784.83	230.61
785.16	230.57
785.48	230.51
785.80	230.45
786.12	230.40
786.45	230.35
786.77	230.33
787.09	230.28
