SpectraSuite Data File
++++++++++++++++++++++++++++++++++++
Date: Fri Feb 01 12:38:25 GMT-05:00 2013
User: glue
Dark Spectrum Present: No
Reference Spectrum Present: No
Number of Sampled Component Spectra: 1
Spectrometers: USB2G46053
Integration Time (usec): 100000 (USB2G46053)
Spectra Averaged: 50 (USB2G46053)
Boxcar Smoothing: 10 (USB2G46053)
Correct for Electrical Dark: No (USB2G46053)
Strobe/Lamp Enabled: No (USB2G46053)
Correct for Detector Non-linearity: No (USB2G46053)
Correct for Stray Light: No (USB2G46053)
Number of Pixels in Processed Spectrum: 651
>>>>>Begin Processed Spectral Data<<<<<
200.00	232.16
201.00	232.32
202.00	232.37
203.00	232.08
204.00	233.06
205.00	233.00
206.00	233.77
207.00	232.09
208.00	233.22
209.00	232.71
210.00	233.11
211.00	233.29
212.00	233.44
213.00	233.54
214.00	233.63
215.00	233.72
216.00	233.81
217.00	233.81
218.00	233.89
219.00	233.98
220.00	234.03
221.00	234.17
222.00	234.24
223.00	234.31
224.00	234.39
225.00	234.44
226.00	234.52
227.00	234.56
228.00	234.63
229.00	234.68
230.00	234.74
231.00	234.79
232.00	234.77
233.00	235.00
234.00	235.18
235.00	235.25
236.00	235.24
237.00	235.24
238.00	235.33
239.00	235.42
240.00	235.44
241.00	235.52
242.00	235.46
243.00	235.50
244.00	235.50
245.00	235.62
246.00	235.68
247.00	235.70
248.00	235.87
249.00	235.94
250.00	235.98
251.00	236.03
252.00	236.10
253.00	236.10
254.00	235.91
255.00	235.79
256.00	235.81
257.00	235.89
258.00	235.95
259.00	235.98
260.00	235.98
261.00	236.00
262.00	236.16
263.00	236.20
264.00	236.27
265.00	236.32
266.00	236.25
267.00	236.26
268.00	236.31
269.00	236.20
270.00	236.24
271.00	236.24
272.00	236.24
273.00	236.20
274.00	236.21
275.00	236.18
276.00	236.16
277.00	236.16
278.00	236.14
279.00	236.14
280.00	236.12
281.00	236.11
282.00	236.11
283.00	235.97
284.00	236.00
285.00	235.95
286.00	235.97
287.00	235.96
288.00	235.89
289.00	235.84
290.00	235.89
291.00	235.85
292.00	235.85
293.00	235.83
294.00	235.84
295.00	235.86
296.00	235.87
297.00	235.90
298.00	235.92
299.00	235.90
300.00	235.89
301.00	235.96
302.00	235.99
303.00	236.00
304.00	236.00
305.00	236.00
306.00	236.02
307.00	235.95
308.00	235.95
309.00	235.95
310.00	235.96
311.00	235.90
312.00	235.97
313.00	235.96
314.00	235.97
315.00	235.93
316.00	235.93
317.00	235.94
318.00	235.90
319.00	235.90
320.00	235.92
321.00	235.85
322.00	235.78
323.00	235.70
324.00	235.67
325.00	235.74
326.00	235.88
327.00	235.85
328.00	235.87
329.00	235.84
330.00	235.95
331.00	235.95
332.00	235.94
333.00	235.87
334.00	235.90
335.00	235.94
336.00	235.91
337.00	235.94
338.00	235.90
339.00	235.90
340.00	235.93
341.00	235.88
342.00	235.92
343.00	235.93
344.00	235.93
345.00	235.94
346.00	235.83
347.00	235.60
348.00	235.59
349.00	235.56
350.00	235.65
351.00	235.55
352.00	235.55
353.00	235.58
354.00	235.57
355.00	235.53
356.00	235.50
357.00	235.50
358.00	235.45
359.00	235.51
360.00	235.49
361.00	235.40
362.00	235.42
363.00	235.38
364.00	235.32
365.00	235.31
366.00	235.31
367.00	235.35
368.00	235.32
369.00	235.37
370.00	235.40
371.00	235.35
372.00	235.37
373.00	235.36
374.00	235.30
375.00	235.24
376.00	235.24
377.00	235.19
378.00	235.20
379.00	235.17
380.00	235.09
381.00	235.10
382.00	235.07
383.00	235.02
384.00	235.05
385.00	235.08
386.00	235.07
387.00	235.06
388.00	235.00
389.00	235.02
390.00	234.92
391.00	234.90
392.00	234.81
393.00	234.76
394.00	234.75
395.00	234.74
396.00	234.69
397.00	234.61
398.00	234.61
399.00	234.58
400.00	234.54
401.00	234.54
402.00	234.49
403.00	234.59
404.00	234.61
405.00	234.62
406.00	234.58
407.00	234.63
408.00	234.59
409.00	234.57
410.00	234.58
411.00	234.60
412.00	234.65
413.00	234.69
414.00	234.69
415.00	234.68
416.00	234.68
417.00	234.75
418.00	234.81
419.00	234.77
420.00	234.74
421.00	234.77
422.00	234.71
423.00	234.73
424.00	234.62
425.00	234.61
426.00	234.56
427.00	234.56
428.00	234.48
429.00	234.50
430.00	234.49
431.00	234.48
432.00	234.45
433.00	234.34
434.00	234.32
435.00	234.29
436.00	234.31
437.00	234.31
438.00	234.33
439.00	234.30
440.00	234.30
441.00	234.31
442.00	234.26
443.00	234.29
444.00	234.24
445.00	234.25
446.00	234.21
447.00	234.21
448.00	234.33
449.00	234.34
450.00	234.34
451.00	234.37
452.00	234.36
453.00	234.33
454.00	234.35
455.00	234.35
456.00	234.46
457.00	234.55
458.00	234.56
459.00	234.45
460.00	234.46
461.00	234.45
462.00	234.43
463.00	234.46
464.00	234.45
465.00	234.48
466.00	234.43
467.00	234.44
468.00	234.42
469.00	234.40
470.00	234.41
471.00	234.38
472.00	234.36
473.00	234.35
474.00	234.33
475.00	234.32
476.00	234.31
477.00	234.22
478.00	234.10
479.00	234.06
480.00	234.06
481.00	234.07
482.00	234.06
483.00	234.07
484.00	234.05
485.00	234.03
486.00	234.00
487.00	234.03
488.00	234.03
489.00	234.13
490.00	234.04
491.00	234.03
492.00	234.07
493.00	234.02
494.00	234.01
495.00	234.02
496.00	234.02
497.00	234.01
498.00	234.00
499.00	233.99
500.00	233.97
501.00	233.99
502.00	234.00
503.00	234.02
504.00	234.05
505.00	234.11
506.00	234.13
507.00	234.16
508.00	234.14
509.00	234.14
510.00	234.04
511.00	233.99
512.00	233.97
513.00	233.96
514.00	233.95
515.00	233.91
516.00	233.92
517.00	233.91
518.00	233.88
519.00	233.86
520.00	233.87
521.00	233.89
522.00	233.85
523.00	233.82
524.00	233.80
525.00	233.78
526.00	233.68
527.00	233.69
528.00	233.67
529.00	233.68
530.00	233.67
531.00	233.68
532.00	233.68
533.00	233.66
534.00	233.65
535.00	233.74
536.00	233.80
537.00	233.82
538.00	233.82
539.00	233.88
540.00	234.05
541.00	233.99
542.00	233.99
543.00	234.02
544.00	234.02
545.00	234.02
546.00	234.00
547.00	234.03
548.00	234.02
549.00	234.06
550.00	234.05
551.00	234.07
552.00	234.05
553.00	234.09
554.00	234.10
555.00	234.07
556.00	234.00
557.00	234.03
558.00	234.00
559.00	233.96
560.00	233.98
561.00	233.81
562.00	233.84
563.00	233.85
564.00	233.84
565.00	233.85
566.00	233.85
567.00	233.78
568.00	233.75
569.00	233.74
570.00	233.70
571.00	233.75
572.00	233.73
573.00	233.76
574.00	233.71
575.00	233.74
576.00	233.78
577.00	233.79
578.00	233.73
579.00	233.75
580.00	233.78
581.00	233.70
582.00	233.69
583.00	233.69
584.00	233.70
585.00	233.74
586.00	233.74
587.00	233.82
588.00	233.89
589.00	233.94
590.00	233.96
591.00	233.96
592.00	233.95
593.00	233.99
594.00	233.95
595.00	233.98
596.00	233.97
597.00	233.93
598.00	233.93
599.00	233.98
600.00	233.98
601.00	233.99
602.00	234.04
603.00	234.01
604.00	233.99
605.00	233.99
606.00	233.95
607.00	233.95
608.00	233.86
609.00	233.89
610.00	233.89
611.00	233.91
612.00	233.87
613.00	233.81
614.00	233.76
615.00	233.94
616.00	233.94
617.00	233.90
618.00	233.92
619.00	233.92
620.00	233.84
621.00	233.80
622.00	233.79
623.00	233.80
624.00	233.85
625.00	233.88
626.00	233.87
627.00	233.82
628.00	233.82
629.00	233.80
630.00	233.74
631.00	233.71
632.00	233.64
633.00	233.66
634.00	233.70
635.00	233.72
636.00	233.52
637.00	233.47
638.00	233.49
639.00	233.43
640.00	233.44
641.00	233.44
642.00	233.46
643.00	233.44
644.00	233.43
645.00	233.36
646.00	233.35
647.00	233.42
648.00	233.55
649.00	233.54
650.00	233.60
651.00	233.61
652.00	233.67
653.00	233.67
654.00	233.82
655.00	233.83
656.00	233.96
657.00	234.00
658.00	233.99
659.00	234.00
660.00	234.04
661.00	234.03
662.00	234.02
663.00	234.06
664.00	234.10
665.00	234.11
666.00	234.13
667.00	234.15
668.00	234.06
669.00	233.95
670.00	233.91
671.00	233.88
672.00	233.88
673.00	233.81
674.00	233.83
675.00	233.69
676.00	233.65
677.00	233.52
678.00	233.52
679.00	233.54
680.00	233.52
681.00	233.52
682.00	233.57
683.00	233.60
684.00	233.56
685.00	233.50
686.00	233.46
687.00	233.45
688.00	233.46
689.00	233.43
690.00	233.42
691.00	233.46
692.00	233.47
693.00	233.45
694.00	233.47
695.00	233.46
696.00	233.47
697.00	233.47
698.00	233.50
699.00	233.46
700.00	233.49
701.00	233.52
702.00	233.49
703.00	233.44
704.00	233.46
705.00	233.47
706.00	233.55
707.00	233.59
708.00	233.64
709.00	233.66
710.00	233.68
711.00	233.69
712.00	233.66
713.00	233.64
714.00	233.66
715.00	233.65
716.00	233.64
717.00	233.66
718.00	233.65
719.00	233.62
720.00	233.65
721.00	233.62
722.00	233.59
723.00	233.61
724.00	233.61
725.00	233.57
726.00	233.56
727.00	233.50
728.00	233.46
729.00	233.37
730.00	233.37
731.00	233.41
732.00	233.42
733.00	233.41
734.00	233.42
735.00	233.44
736.00	233.65
737.00	233.66
738.00	233.62
739.00	233.56
740.00	233.48
741.00	233.49
742.00	233.48
743.00	233.53
744.00	233.56
745.00	233.55
746.00	233.57
747.00	233.54
748.00	233.55
749.00	233.60
750.00	233.66
751.00	233.62
752.00	233.60
753.00	233.61
754.00	233.65
755.00	233.68
756.00	233.65
757.00	233.46
758.00	233.48
759.00	233.45
760.00	233.50
761.00	233.63
762.00	233.61
763.00	233.63
764.00	233.61
765.00	233.56
766.00	233.55
767.00	233.54
768.00	233.58
769.00	233.63
770.00	233.64
771.00	233.63
772.00	233.66
773.00	233.71
774.00	233.71
775.00	233.68
776.00	233.64
777.00	233.67
778.00	233.65
779.00	233.63
780.00	233.67
781.00	233.68
782.00	233.64
783.00	233.68
784.00	233.74
785.00	233.75
786.00	233.79
787.00	233.80
788.00	233.86
789.00	233.90
790.00	233.86
791.00	233.83
792.00	233.85
793.00	233.83
794.00	233.78
795.00	233.80
796.00	233.83
797.00	233.85
798.00	233.83
799.00	233.86
800.00	233.77
801.00	233.71
802.00	233.71
803.00	233.73
804.00	233.73
805.00	233.67
806.00	233.66
807.00	233.65
808.00	233.69
809.00	233.62
810.00	233.59
811.00	233.60
812.00	233.55
813.00	233.55
814.00	233.57
815.00	233.58
816.00	233.53
817.00	233.52
818.00	233.54
819.00	233.53
820.00	233.52
821.00	233.64
822.00	233.71
823.00	233.74
824.00	233.69
825.00	233.68
826.00	233.68
827.00	233.73
828.00	233.69
829.00	233.67
830.00	233.68
831.00	233.65
832.00	233.66
833.00	233.68
834.00	233.70
835.00	233.68
836.00	233.65
837.00	233.67
838.00	233.65
839.00	233.61
840.00	233.64
841.00	233.05
842.00	233.96
843.00	233.50
844.00	234.10
845.00	233.54
846.00	233.52
847.00	233.56
848.00	232.92
849.00	233.23
850.00	234.27
>>>>>End Processed Spectral Data<<<<<
