SpectraSuite Data File
++++++++++++++++++++++++++++++++++++
Date: Mon Feb 25 17:04:49 EST 2013
User: group
Dark Spectrum Present: No
Reference Spectrum Present: No
Number of Sampled Component Spectra: 1
Spectrometers: USB2E7196
Integration Time (usec): 104000 (USB2E7196)
Spectra Averaged: 20 (USB2E7196)
Boxcar Smoothing: 10 (USB2E7196)
Correct for Electrical Dark: No (USB2E7196)
Strobe/Lamp Enabled: No (USB2E7196)
Correct for Detector Non-linearity: No (USB2E7196)
Correct for Stray Light: No (USB2E7196)
Number of Pixels in Processed Spectrum: 2048
>>>>>Begin Processed Spectral Data<<<<<
339.09	0.00
339.48	197.45
339.86	200.30
340.24	200.80
340.63	203.10
341.01	208.90
341.39	204.25
341.78	207.85
342.16	209.20
342.54	208.10
342.93	197.96
343.31	207.92
343.69	208.49
344.07	208.94
344.46	209.35
344.84	209.60
345.22	209.65
345.60	209.96
345.99	210.08
346.37	210.10
346.75	210.15
347.13	210.17
347.52	210.19
347.90	210.33
348.28	210.37
348.66	210.45
349.05	210.34
349.43	210.34
349.81	210.41
350.19	210.33
350.57	210.36
350.96	210.41
351.34	210.47
351.72	210.54
352.10	210.56
352.48	210.61
352.87	210.72
353.25	210.74
353.63	210.77
354.01	210.79
354.39	210.92
354.77	211.03
355.15	211.19
355.54	211.23
355.92	211.18
356.30	211.16
356.68	211.47
357.06	211.64
357.44	211.69
357.82	211.70
358.20	211.79
358.58	211.90
358.97	211.95
359.35	212.09
359.73	212.18
360.11	212.27
360.49	212.38
360.87	212.50
361.25	212.64
361.63	212.82
362.01	212.92
362.39	212.95
362.77	213.07
363.15	213.12
363.53	213.17
363.91	213.30
364.29	213.37
364.67	213.04
365.05	213.03
365.43	213.16
365.81	213.27
366.19	213.46
366.57	213.61
366.95	213.65
367.33	213.60
367.71	213.65
368.09	213.78
368.47	213.78
368.85	213.69
369.23	213.74
369.61	213.55
369.99	213.68
370.37	213.75
370.75	213.89
371.13	213.76
371.51	213.70
371.89	213.62
372.27	213.68
372.65	213.77
373.03	213.73
373.41	213.67
373.78	213.60
374.16	213.37
374.54	213.27
374.92	213.23
375.30	213.24
375.68	213.07
376.06	212.97
376.44	212.86
376.82	212.88
377.19	212.84
377.57	212.82
377.95	212.62
378.33	212.50
378.71	212.17
379.09	212.19
379.47	212.22
379.84	212.09
380.22	211.91
380.60	211.76
380.98	211.70
381.36	211.62
381.73	211.48
382.11	211.57
382.49	211.44
382.87	211.35
383.25	211.28
383.62	211.70
384.00	211.60
384.38	211.66
384.76	211.65
385.13	211.70
385.51	211.70
385.89	211.68
386.27	211.62
386.64	211.70
387.02	211.62
387.40	211.56
387.78	211.54
388.15	211.65
388.53	211.60
388.91	211.57
389.29	211.52
389.66	211.52
390.04	211.35
390.42	211.41
390.79	211.35
391.17	211.27
391.55	210.85
391.92	210.85
392.30	210.81
392.68	210.71
393.05	210.64
393.43	210.59
393.81	210.54
394.18	210.45
394.56	210.41
394.94	210.40
395.31	210.30
395.69	210.41
396.06	210.33
396.44	210.33
396.82	210.34
397.19	210.48
397.57	210.48
397.95	210.53
398.32	210.43
398.70	210.54
399.07	210.62
399.45	210.62
399.82	210.61
400.20	210.60
400.58	210.68
400.95	210.51
401.33	210.65
401.70	210.97
402.08	211.09
402.45	211.13
402.83	211.28
403.20	211.39
403.58	211.44
403.95	211.58
404.33	211.73
404.71	211.74
405.08	211.97
405.46	212.00
405.83	212.10
406.21	212.21
406.58	212.21
406.96	212.32
407.33	212.45
407.70	212.64
408.08	213.09
408.45	213.32
408.83	213.67
409.20	213.80
409.58	213.81
409.95	214.09
410.33	214.35
410.70	214.58
411.08	214.96
411.45	215.28
411.82	215.56
412.20	215.94
412.57	216.59
412.95	216.80
413.32	217.39
413.69	217.94
414.07	218.52
414.44	219.15
414.82	219.82
415.19	220.56
415.56	221.28
415.94	221.80
416.31	222.61
416.68	223.44
417.06	224.46
417.43	225.38
417.81	226.46
418.18	227.57
418.55	228.68
418.93	229.89
419.30	231.24
419.67	232.70
420.04	234.10
420.42	235.48
420.79	237.36
421.16	239.07
421.54	240.98
421.91	242.86
422.28	244.81
422.66	246.83
423.03	249.02
423.40	251.10
423.77	253.34
424.15	255.58
424.52	257.85
424.89	260.37
425.26	262.94
425.64	265.29
426.01	267.86
426.38	270.67
426.75	273.45
427.13	276.17
427.50	279.06
427.87	282.20
428.24	285.32
428.61	288.16
428.99	291.62
429.36	295.05
429.73	298.59
430.10	302.21
430.47	305.88
430.85	309.49
431.22	313.54
431.59	317.99
431.96	322.12
432.33	326.65
432.70	331.06
433.08	336.16
433.45	341.00
433.82	346.00
434.19	351.47
434.56	356.80
434.93	361.93
435.30	367.03
435.68	372.71
436.05	378.33
436.42	383.89
436.79	388.94
437.16	394.49
437.53	400.17
437.90	406.00
438.27	411.75
438.64	417.70
439.01	423.26
439.38	428.03
439.75	432.84
440.13	438.49
440.50	443.68
440.87	447.98
441.24	452.50
441.61	457.21
441.98	460.91
442.35	465.12
442.72	469.60
443.09	473.97
443.46	476.57
443.83	478.44
444.20	480.13
444.57	482.41
444.94	483.74
445.31	485.20
445.68	486.66
446.05	487.32
446.42	487.15
446.79	486.85
447.16	486.50
447.53	486.34
447.90	484.41
448.27	482.60
448.64	479.88
449.01	478.01
449.37	474.68
449.74	471.22
450.11	467.46
450.48	462.79
450.85	458.00
451.22	453.97
451.59	450.25
451.96	446.67
452.33	441.66
452.70	437.15
453.07	431.78
453.43	425.95
453.80	420.80
454.17	415.64
454.54	410.81
454.91	405.62
455.28	400.53
455.65	395.87
456.02	391.50
456.38	387.61
456.75	382.70
457.12	378.53
457.49	374.33
457.86	370.03
458.23	366.75
458.59	362.91
458.96	359.25
459.33	355.84
459.70	352.46
460.07	349.81
460.43	346.69
460.80	343.79
461.17	341.34
461.54	338.50
461.91	335.99
462.27	333.32
462.64	331.03
463.01	328.67
463.38	326.32
463.74	323.50
464.11	321.28
464.48	319.38
464.85	317.34
465.21	315.87
465.58	314.26
465.95	312.21
466.32	310.64
466.68	308.88
467.05	307.08
467.42	305.34
467.78	303.66
468.15	302.09
468.52	300.89
468.88	299.20
469.25	297.86
469.62	296.78
469.98	295.56
470.35	294.43
470.72	293.15
471.08	291.86
471.45	290.98
471.82	290.13
472.18	288.99
472.55	288.17
472.92	287.14
473.28	286.10
473.65	285.27
474.02	284.37
474.38	283.72
474.75	283.27
475.11	282.74
475.48	282.19
475.85	281.64
476.21	281.06
476.58	280.69
476.94	280.35
477.31	279.96
477.67	279.55
478.04	279.21
478.41	279.08
478.77	279.17
479.14	278.92
479.50	278.55
479.87	278.42
480.23	278.29
480.60	278.14
480.96	278.10
481.33	278.10
481.69	278.14
482.06	278.12
482.42	278.08
482.79	278.05
483.15	278.18
483.52	278.40
483.88	278.49
484.25	278.61
484.61	278.76
484.98	278.89
485.34	279.30
485.71	279.69
486.07	279.94
486.44	279.99
486.80	280.34
487.17	280.77
487.53	281.37
487.90	281.87
488.26	282.65
488.62	283.38
488.99	283.98
489.35	284.68
489.72	285.45
490.08	286.16
490.44	286.82
490.81	287.63
491.17	288.40
491.54	289.36
491.90	290.25
492.26	291.09
492.63	291.92
492.99	292.69
493.36	293.69
493.72	294.82
494.08	295.93
494.45	297.09
494.81	298.32
495.17	299.29
495.54	300.47
495.90	301.50
496.26	302.63
496.63	303.88
496.99	305.04
497.35	306.24
497.72	307.47
498.08	308.86
498.44	310.05
498.80	311.44
499.17	312.81
499.53	314.14
499.89	315.58
500.26	317.01
500.62	318.40
500.98	319.72
501.34	320.98
501.71	322.29
502.07	323.52
502.43	324.66
502.79	325.97
503.16	327.12
503.52	328.32
503.88	329.53
504.24	330.71
504.60	331.92
504.97	333.09
505.33	334.25
505.69	335.55
506.05	336.75
506.41	337.76
506.78	338.66
507.14	339.69
507.50	340.75
507.86	341.93
508.22	342.97
508.59	343.84
508.95	344.81
509.31	345.87
509.67	346.90
510.03	347.92
510.39	348.80
510.75	349.80
511.12	350.55
511.48	351.27
511.84	352.07
512.20	352.90
512.56	353.67
512.92	354.51
513.28	355.13
513.64	355.85
514.00	356.50
514.37	357.20
514.73	357.97
515.09	358.58
515.45	359.04
515.81	359.55
516.17	360.14
516.53	360.65
516.89	361.00
517.25	361.39
517.61	361.95
517.97	362.49
518.33	362.98
518.69	363.69
519.05	364.43
519.41	364.96
519.77	365.72
520.13	366.22
520.49	366.71
520.85	367.23
521.21	367.84
521.57	368.50
521.93	369.08
522.29	369.71
522.65	370.33
523.01	371.09
523.37	371.88
523.73	372.73
524.09	373.59
524.45	374.46
524.81	375.44
525.17	376.33
525.53	377.41
525.89	378.41
526.25	379.44
526.61	380.32
526.97	381.46
527.33	382.53
527.68	384.05
528.04	385.50
528.40	386.78
528.76	388.10
529.12	389.61
529.48	391.32
529.84	392.73
530.20	394.30
530.56	395.90
530.91	397.67
531.27	399.45
531.63	401.13
531.99	402.92
532.35	404.67
532.71	406.51
533.07	408.34
533.42	410.72
533.78	412.70
534.14	414.94
534.50	416.86
534.86	419.04
535.21	420.86
535.57	422.99
535.93	425.23
536.29	427.62
536.65	429.85
537.00	431.86
537.36	434.28
537.72	436.64
538.08	439.11
538.44	441.35
538.79	443.68
539.15	446.14
539.51	448.62
539.87	451.24
540.22	453.74
540.58	456.39
540.94	458.67
541.29	461.22
541.65	463.48
542.01	466.25
542.37	468.85
542.72	471.65
543.08	474.24
543.44	476.94
543.79	479.42
544.15	482.22
544.51	485.23
544.87	487.90
545.22	490.65
545.58	493.32
545.94	496.15
546.29	498.91
546.65	501.64
547.01	504.31
547.36	507.07
547.72	509.87
548.07	512.54
548.43	515.04
548.79	517.57
549.14	520.40
549.50	523.00
549.86	525.52
550.21	528.03
550.57	530.60
550.92	533.10
551.28	535.79
551.64	538.26
551.99	540.69
552.35	543.17
552.70	545.46
553.06	547.87
553.41	550.18
553.77	552.81
554.13	555.36
554.48	558.01
554.84	560.54
555.19	562.99
555.55	565.50
555.90	567.87
556.26	570.23
556.61	572.28
556.97	574.41
557.32	576.52
557.68	578.61
558.03	580.77
558.39	582.85
558.74	584.88
559.10	586.84
559.45	588.84
559.81	590.97
560.16	593.00
560.52	595.03
560.87	597.06
561.23	598.75
561.58	600.72
561.94	602.40
562.29	603.94
562.64	605.72
563.00	607.35
563.35	609.33
563.71	611.26
564.06	613.30
564.42	615.10
564.77	617.09
565.12	619.11
565.48	621.13
565.83	622.99
566.19	624.72
566.54	626.33
566.89	627.85
567.25	629.52
567.60	631.23
567.96	632.97
568.31	634.66
568.66	636.17
569.02	637.18
569.37	638.25
569.72	639.57
570.08	640.70
570.43	641.75
570.78	642.69
571.14	643.40
571.49	644.11
571.84	644.96
572.20	645.51
572.55	646.20
572.90	646.38
573.26	646.71
573.61	646.94
573.96	647.40
574.31	647.60
574.67	647.65
575.02	647.68
575.37	647.57
575.72	647.33
576.08	647.40
576.43	647.55
576.78	647.79
577.13	647.86
577.49	648.00
577.84	647.95
578.19	648.06
578.54	648.17
578.90	648.45
579.25	648.50
579.60	648.35
579.95	647.90
580.30	648.03
580.66	648.13
581.01	648.15
581.36	647.94
581.71	647.92
582.06	648.01
582.42	648.03
582.77	647.70
583.12	647.69
583.47	647.46
583.82	647.36
584.17	647.03
584.53	646.97
584.88	646.57
585.23	646.48
585.58	645.96
585.93	645.65
586.28	645.23
586.63	645.04
586.98	644.77
587.34	644.69
587.69	644.26
588.04	643.85
588.39	643.53
588.74	642.97
589.09	642.60
589.44	641.80
589.79	641.27
590.14	640.69
590.49	640.12
590.84	639.60
591.19	639.31
591.54	638.87
591.89	637.83
592.25	637.35
592.60	636.33
592.95	635.48
593.30	634.65
593.65	633.81
594.00	632.67
594.35	632.82
594.70	631.80
595.05	630.94
595.40	630.05
595.75	628.94
596.10	628.35
596.45	627.49
596.80	626.79
597.15	626.04
597.50	625.35
597.85	624.53
598.19	623.52
598.54	622.42
598.89	621.51
599.24	620.90
599.59	619.97
599.94	619.30
600.29	618.61
600.64	617.74
600.99	616.76
601.34	616.07
601.69	614.20
602.04	613.29
602.39	612.27
602.74	611.35
603.08	610.91
603.43	610.31
603.78	609.40
604.13	608.68
604.48	607.64
604.83	606.86
605.18	606.18
605.53	605.33
605.87	604.48
606.22	603.79
606.57	602.80
606.92	601.73
607.27	600.76
607.62	599.71
607.96	598.78
608.31	597.95
608.66	596.98
609.01	596.02
609.36	595.00
609.70	594.01
610.05	592.69
610.40	591.39
610.75	589.99
611.10	588.93
611.44	587.29
611.79	585.87
612.14	584.41
612.49	582.61
612.83	581.18
613.18	579.54
613.53	577.84
613.88	576.26
614.22	574.76
614.57	573.26
614.92	571.78
615.27	570.44
615.61	568.81
615.96	567.20
616.31	565.57
616.65	564.28
617.00	562.58
617.35	561.18
617.70	559.27
618.04	557.54
618.39	555.68
618.74	554.26
619.08	552.71
619.43	551.09
619.78	549.62
620.12	548.07
620.47	546.45
620.82	544.65
621.16	542.71
621.51	541.08
621.85	539.37
622.20	537.63
622.55	535.70
622.89	533.99
623.24	532.28
623.59	530.62
623.93	528.72
624.28	527.24
624.62	525.89
624.97	524.55
625.32	522.91
625.66	521.40
626.01	519.68
626.35	518.00
626.70	516.43
627.04	515.08
627.39	513.40
627.73	511.95
628.08	510.53
628.43	509.15
628.77	507.41
629.12	505.70
629.46	504.24
629.81	502.79
630.15	501.12
630.50	499.54
630.84	497.81
631.19	496.25
631.53	494.65
631.88	492.66
632.22	490.77
632.57	489.21
632.91	487.47
633.26	485.95
633.60	484.45
633.95	482.82
634.29	481.05
634.64	479.66
634.98	477.83
635.32	476.35
635.67	474.96
636.01	473.55
636.36	472.12
636.70	470.60
637.05	469.06
637.39	467.65
637.73	466.20
638.08	464.97
638.42	463.50
638.77	462.08
639.11	460.71
639.45	459.25
639.80	457.56
640.14	456.01
640.49	454.43
640.83	452.91
641.17	451.43
641.52	449.77
641.86	447.94
642.20	446.45
642.55	444.76
642.89	443.03
643.23	441.42
643.58	439.93
643.92	438.22
644.26	436.48
644.61	434.82
644.95	433.24
645.29	431.48
645.64	429.88
645.98	428.15
646.32	426.53
646.66	424.84
647.01	423.32
647.35	421.93
647.69	420.45
648.04	418.98
648.38	417.43
648.72	415.87
649.06	414.45
649.41	412.95
649.75	411.40
650.09	409.93
650.43	408.35
650.78	406.68
651.12	405.09
651.46	403.62
651.80	402.22
652.14	400.64
652.49	399.25
652.83	397.78
653.17	396.21
653.51	394.70
653.85	393.42
654.20	391.92
654.54	390.31
654.88	388.74
655.22	387.22
655.56	385.56
655.90	384.24
656.25	382.68
656.59	381.08
656.93	379.69
657.27	378.35
657.61	376.84
657.95	375.48
658.29	374.13
658.64	372.93
658.98	371.42
659.32	369.91
659.66	368.44
660.00	367.05
660.34	365.67
660.68	364.22
661.02	362.85
661.36	361.50
661.70	360.22
662.05	358.99
662.39	357.68
662.73	356.62
663.07	355.34
663.41	354.15
663.75	352.89
664.09	351.56
664.43	350.17
664.77	349.00
665.11	347.61
665.45	346.35
665.79	345.02
666.13	343.79
666.47	342.65
666.81	341.42
667.15	340.17
667.49	339.08
667.83	338.08
668.17	336.88
668.51	335.83
668.85	334.70
669.19	333.72
669.53	332.54
669.87	331.38
670.21	330.26
670.55	329.13
670.89	328.32
671.23	327.38
671.57	326.48
671.91	325.52
672.25	324.67
672.58	323.85
672.92	322.80
673.26	321.95
673.60	320.91
673.94	319.95
674.28	319.00
674.62	318.09
674.96	317.10
675.30	316.20
675.64	315.23
675.97	314.35
676.31	313.32
676.65	312.44
676.99	311.66
677.33	310.71
677.67	309.85
678.01	308.91
678.34	308.02
678.68	307.18
679.02	306.25
679.36	305.38
679.70	304.40
680.04	303.57
680.37	302.61
680.71	301.77
681.05	301.03
681.39	300.19
681.73	299.32
682.06	298.52
682.40	297.64
682.74	296.91
683.08	296.22
683.42	295.45
683.75	294.69
684.09	293.83
684.43	293.09
684.77	292.32
685.10	291.52
685.44	290.71
685.78	289.89
686.12	289.09
686.45	288.33
686.79	287.62
687.13	287.03
687.46	286.38
687.80	285.83
688.14	285.05
688.48	284.35
688.81	283.72
689.15	283.13
689.49	282.53
689.82	281.83
690.16	280.93
690.50	280.19
690.83	279.53
691.17	278.76
691.51	278.00
691.84	277.41
692.18	276.70
692.52	275.99
692.85	275.37
693.19	274.87
693.52	274.23
693.86	273.47
694.20	272.73
694.53	272.06
694.87	271.41
695.21	270.75
695.54	270.15
695.88	269.40
696.21	268.65
696.55	268.02
696.88	267.39
697.22	266.86
697.56	266.36
697.89	265.77
698.23	265.21
698.56	264.70
698.90	264.12
699.23	263.49
699.57	262.99
699.90	262.34
700.24	261.73
700.58	261.24
700.91	260.81
701.25	260.55
701.58	260.11
701.92	259.55
702.25	259.12
702.59	258.60
702.92	258.13
703.26	257.63
703.59	257.17
703.93	257.06
704.26	256.65
704.60	256.17
704.93	255.69
705.26	255.23
705.60	254.81
705.93	254.28
706.27	254.04
706.60	253.71
706.94	253.48
707.27	253.02
707.61	252.52
707.94	252.11
708.27	251.45
708.61	250.90
708.94	250.48
709.28	249.97
709.61	249.54
709.94	249.24
710.28	248.84
710.61	248.38
710.95	247.60
711.28	247.35
711.61	246.97
711.95	246.69
712.28	246.29
712.61	245.87
712.95	245.65
713.28	245.31
713.61	244.84
713.95	244.33
714.28	244.02
714.61	243.67
714.95	243.30
715.28	242.86
715.61	242.50
715.95	242.20
716.28	241.92
716.61	241.64
716.95	241.24
717.28	240.95
717.61	240.71
717.94	240.39
718.28	239.91
718.61	239.49
718.94	239.05
719.27	238.80
719.61	238.55
719.94	238.18
720.27	237.73
720.60	237.45
720.94	237.22
721.27	236.90
721.60	236.72
721.93	236.40
722.27	236.35
722.60	236.24
722.93	235.94
723.26	235.67
723.59	235.39
723.93	235.17
724.26	234.93
724.59	234.63
724.92	234.42
725.25	234.21
725.59	234.02
725.92	233.82
726.25	233.58
726.58	233.38
726.91	233.20
727.24	233.01
727.57	232.78
727.91	232.44
728.24	232.28
728.57	231.98
728.90	231.80
729.23	231.46
729.56	231.42
729.89	231.22
730.22	231.02
730.55	230.77
730.89	230.52
731.22	230.31
731.55	230.13
731.88	229.95
732.21	229.72
732.54	229.48
732.87	229.29
733.20	229.09
733.53	228.81
733.86	228.58
734.19	228.43
734.52	228.33
734.85	228.46
735.18	228.23
735.51	228.21
735.84	228.08
736.17	227.88
736.50	227.49
736.83	227.80
737.16	227.72
737.49	227.52
737.82	227.45
738.15	227.37
738.48	227.20
738.81	226.97
739.14	226.77
739.47	226.66
739.80	226.54
740.13	226.45
740.46	226.29
740.79	226.21
741.12	225.96
741.45	225.77
741.78	225.48
742.11	225.39
742.44	225.10
742.77	224.98
743.10	224.91
743.43	224.77
743.75	224.19
744.08	224.49
744.41	224.39
744.74	224.18
745.07	223.97
745.40	223.93
745.73	224.00
746.06	223.95
746.39	223.83
746.71	223.63
747.04	223.43
747.37	223.33
747.70	223.19
748.03	223.17
748.36	223.11
748.68	222.96
749.01	222.80
749.34	222.72
749.67	222.61
750.00	222.50
750.33	222.60
750.65	222.50
750.98	221.95
751.31	221.87
751.64	221.77
751.97	221.94
752.29	221.80
752.62	221.47
752.95	221.28
753.28	221.13
753.60	221.11
753.93	221.12
754.26	221.01
754.59	220.86
754.91	220.65
755.24	220.51
755.57	220.42
755.90	220.26
756.22	220.15
756.55	219.98
756.88	219.83
757.20	219.48
757.53	219.30
757.86	219.15
758.19	219.10
758.51	218.99
758.84	218.60
759.17	218.47
759.49	218.41
759.82	218.57
760.15	218.48
760.47	218.38
760.80	218.16
761.13	218.11
761.45	218.01
761.78	218.03
762.11	217.93
762.43	217.78
762.76	217.78
763.08	217.69
763.41	217.64
763.74	217.56
764.06	217.55
764.39	217.54
764.71	217.51
765.04	217.36
765.37	217.33
765.69	217.27
766.02	217.25
766.34	217.25
766.67	216.99
767.00	217.04
767.32	217.14
767.65	217.40
767.97	217.33
768.30	217.22
768.62	217.15
768.95	217.09
769.27	217.02
769.60	216.98
769.92	216.95
770.25	216.86
770.57	216.77
770.90	216.70
771.22	216.59
771.55	216.49
771.87	216.51
772.20	216.44
772.52	216.68
772.85	216.99
773.17	216.94
773.50	216.86
773.82	216.71
774.15	216.39
774.47	215.99
774.80	215.90
775.12	215.88
775.45	215.81
775.77	215.74
776.09	215.73
776.42	215.68
776.74	215.68
777.07	215.63
777.39	215.58
777.72	215.49
778.04	215.54
778.36	215.54
778.69	215.48
779.01	215.49
779.33	215.17
779.66	214.78
779.98	214.73
780.31	214.75
780.63	214.85
780.95	215.00
781.28	214.99
781.60	214.97
781.92	214.96
782.25	214.89
782.57	214.90
782.89	214.82
783.22	214.71
783.54	214.63
783.86	214.60
784.19	214.62
784.51	214.70
784.83	214.60
785.16	214.55
785.48	214.51
785.80	214.45
786.12	214.44
786.45	214.34
786.77	214.35
787.09	214.26
787.42	214.13
787.74	214.10
788.06	214.10
788.38	214.10
788.71	214.00
789.03	214.03
789.35	214.00
789.67	213.96
789.99	214.03
790.32	213.90
790.64	213.95
790.96	214.24
791.28	214.11
791.61	214.01
791.93	213.98
792.25	213.96
792.57	214.17
792.89	214.16
793.21	214.19
793.54	214.09
793.86	214.11
794.18	214.10
