SpectraSuite Data File
++++++++++++++++++++++++++++++++++++
Date: Mon Feb 25 17:11:20 EST 2013
User: group
Dark Spectrum Present: No
Reference Spectrum Present: No
Number of Sampled Component Spectra: 1
Spectrometers: USB2E7196
Integration Time (usec): 104000 (USB2E7196)
Spectra Averaged: 20 (USB2E7196)
Boxcar Smoothing: 10 (USB2E7196)
Correct for Electrical Dark: No (USB2E7196)
Strobe/Lamp Enabled: No (USB2E7196)
Correct for Detector Non-linearity: No (USB2E7196)
Correct for Stray Light: No (USB2E7196)
Number of Pixels in Processed Spectrum: 2048
>>>>>Begin Processed Spectral Data<<<<<
339.09	0.00
339.48	199.00
339.86	199.85
340.24	201.90
340.63	202.85
341.01	210.20
341.39	206.05
341.78	207.70
342.16	209.95
342.54	208.80
342.93	198.36
343.31	208.35
343.69	208.91
344.07	209.40
344.46	209.80
344.84	210.12
345.22	210.10
345.60	210.33
345.99	210.48
346.37	210.55
346.75	210.61
347.13	210.69
347.52	210.75
347.90	210.92
348.28	210.90
348.66	210.95
349.05	210.83
349.43	210.90
349.81	210.92
350.19	210.92
350.57	210.99
350.96	211.04
351.34	211.07
351.72	211.15
352.10	211.19
352.48	211.23
352.87	211.32
353.25	211.43
353.63	211.44
354.01	211.48
354.39	211.53
354.77	211.69
355.15	211.82
355.54	211.94
355.92	211.88
356.30	211.92
356.68	212.14
357.06	212.20
357.44	212.22
357.82	212.30
358.20	212.47
358.58	212.58
358.97	212.72
359.35	212.89
359.73	212.97
360.11	213.02
360.49	213.11
360.87	213.17
361.25	213.27
361.63	213.45
362.01	213.47
362.39	213.49
362.77	213.52
363.15	213.56
363.53	213.51
363.91	213.56
364.29	213.63
364.67	213.33
365.05	213.40
365.43	213.49
365.81	213.53
366.19	213.65
366.57	213.82
366.95	213.79
367.33	213.73
367.71	213.80
368.09	213.90
368.47	213.89
368.85	213.86
369.23	213.92
369.61	213.81
369.99	214.01
370.37	214.05
370.75	214.15
371.13	214.03
371.51	214.00
371.89	213.99
372.27	213.97
372.65	214.01
373.03	213.93
373.41	213.88
373.78	213.89
374.16	213.65
374.54	213.51
374.92	213.39
375.30	213.38
375.68	213.26
376.06	213.22
376.44	213.16
376.82	213.12
377.19	213.03
377.57	213.01
377.95	212.83
378.33	212.77
378.71	212.50
379.09	212.52
379.47	212.51
379.84	212.40
380.22	212.36
380.60	212.22
380.98	212.22
381.36	212.14
381.73	211.97
382.11	211.95
382.49	211.87
382.87	211.75
383.25	211.70
383.62	211.96
384.00	211.84
384.38	211.89
384.76	211.91
385.13	212.05
385.51	212.00
385.89	211.90
386.27	211.87
386.64	211.95
387.02	211.83
387.40	211.82
387.78	211.87
388.15	211.85
388.53	211.85
388.91	211.77
389.29	211.73
389.66	211.79
390.04	211.67
390.42	211.71
390.79	211.71
391.17	211.68
391.55	211.33
391.92	211.32
392.30	211.25
392.68	211.15
393.05	211.03
393.43	211.01
393.81	211.06
394.18	210.98
394.56	210.97
394.94	211.07
395.31	211.07
395.69	211.13
396.06	211.14
396.44	211.15
396.82	211.14
397.19	211.30
397.57	211.24
397.95	211.32
398.32	211.17
398.70	211.26
399.07	211.37
399.45	211.37
399.82	211.36
400.20	211.36
400.58	211.36
400.95	211.27
401.33	211.34
401.70	211.55
402.08	211.65
402.45	211.59
402.83	211.60
403.20	211.61
403.58	211.56
403.95	211.64
404.33	211.71
404.71	211.77
405.08	212.02
405.46	212.05
405.83	212.19
406.21	212.30
406.58	212.34
406.96	212.32
407.33	212.38
407.70	212.53
408.08	212.86
408.45	213.07
408.83	213.26
409.20	213.42
409.58	213.37
409.95	213.62
410.33	213.88
410.70	214.01
411.08	214.33
411.45	214.66
411.82	214.81
412.20	215.18
412.57	215.70
412.95	215.79
413.32	216.26
413.69	216.58
414.07	216.98
414.44	217.44
414.82	217.96
415.19	218.58
415.56	219.03
415.94	219.37
416.31	220.01
416.68	220.62
417.06	221.25
417.43	222.06
417.81	222.70
418.18	223.47
418.55	224.31
418.93	225.09
419.30	225.91
419.67	226.98
420.04	227.93
420.42	228.88
420.79	230.34
421.16	231.49
421.54	233.05
421.91	234.33
422.28	235.77
422.66	237.22
423.03	238.81
423.40	240.32
423.77	242.00
424.15	243.53
424.52	245.20
424.89	247.01
425.26	248.60
425.64	250.33
426.01	252.08
426.38	254.08
426.75	256.13
427.13	258.13
427.50	260.18
427.87	262.39
428.24	264.53
428.61	266.35
428.99	268.75
429.36	270.97
429.73	273.44
430.10	275.87
430.47	278.33
430.85	280.70
431.22	283.48
431.59	286.50
431.96	289.26
432.33	292.25
432.70	295.19
433.08	298.70
433.45	301.95
433.82	305.31
434.19	308.85
434.56	312.43
434.93	315.75
435.30	319.13
435.68	322.85
436.05	326.52
436.42	330.13
436.79	333.52
437.16	337.15
437.53	340.98
437.90	344.63
438.27	348.36
438.64	352.09
439.01	355.71
439.38	358.70
439.75	361.84
440.13	365.37
440.50	368.64
440.87	371.45
441.24	374.32
441.61	377.47
441.98	379.74
442.35	382.20
442.72	384.93
443.09	387.71
443.46	389.30
443.83	390.45
444.20	391.57
444.57	392.74
444.94	393.39
445.31	394.04
445.68	395.08
446.05	395.31
446.42	394.95
446.79	394.57
447.16	394.13
447.53	393.85
447.90	392.54
448.27	391.23
448.64	389.13
449.01	387.66
449.37	385.20
449.74	382.79
450.11	380.31
450.48	377.20
450.85	373.86
451.22	371.04
451.59	368.42
451.96	365.82
452.33	362.55
452.70	359.46
453.07	355.83
453.43	351.77
453.80	348.32
454.17	345.05
454.54	341.85
454.91	338.38
455.28	334.92
455.65	331.72
456.02	329.00
456.38	326.33
456.75	323.10
457.12	320.18
457.49	317.50
457.86	314.55
458.23	312.35
458.59	309.78
458.96	307.24
459.33	304.96
459.70	302.72
460.07	301.01
460.43	298.99
460.80	297.13
461.17	295.58
461.54	293.76
461.91	292.10
462.27	290.34
462.64	288.87
463.01	287.27
463.38	285.84
463.74	283.85
464.11	282.54
464.48	281.28
464.85	280.00
465.21	279.14
465.58	278.15
465.95	276.85
466.32	275.90
466.68	274.84
467.05	273.76
467.42	272.69
467.78	271.49
468.15	270.46
468.52	269.80
468.88	268.70
469.25	267.89
469.62	267.14
469.98	266.44
470.35	265.76
470.72	265.10
471.08	264.23
471.45	263.64
471.82	263.03
472.18	262.43
472.55	262.03
472.92	261.29
473.28	260.76
473.65	260.16
474.02	259.60
474.38	259.33
474.75	259.03
475.11	258.59
475.48	258.36
475.85	258.15
476.21	257.86
476.58	257.70
476.94	257.52
477.31	257.47
477.67	257.22
478.04	257.10
478.41	257.10
478.77	257.43
479.14	257.33
479.50	257.32
479.87	257.32
480.23	257.37
480.60	257.49
480.96	257.58
481.33	257.90
481.69	258.11
482.06	258.23
482.42	258.50
482.79	258.80
483.15	259.08
483.52	259.46
483.88	259.64
484.25	259.95
484.61	260.32
484.98	260.53
485.34	261.06
485.71	261.64
486.07	262.12
486.44	262.34
486.80	263.00
487.17	263.65
487.53	264.52
487.90	265.28
488.26	266.23
488.62	267.24
488.99	268.11
489.35	269.10
489.72	270.20
490.08	271.25
490.44	272.39
490.81	273.60
491.17	274.75
491.54	276.13
491.90	277.53
492.26	278.98
492.63	280.67
492.99	282.20
493.36	283.81
493.72	285.66
494.08	287.56
494.45	289.55
494.81	291.63
495.17	293.54
495.54	295.78
495.90	297.96
496.26	300.16
496.63	302.63
496.99	305.10
497.35	307.74
497.72	310.43
498.08	313.25
498.44	316.20
498.80	319.36
499.17	322.42
499.53	325.60
499.89	328.98
500.26	332.36
500.62	335.83
500.98	339.51
501.34	343.24
501.71	347.16
502.07	351.07
502.43	354.99
502.79	359.14
503.16	363.31
503.52	367.56
503.88	371.94
504.24	376.55
504.60	381.28
504.97	386.12
505.33	390.85
505.69	396.10
506.05	401.23
506.41	406.46
506.78	411.86
507.14	417.46
507.50	422.89
507.86	428.77
508.22	434.71
508.59	440.61
508.95	446.62
509.31	453.02
509.67	459.29
510.03	465.85
510.39	472.53
510.75	479.31
511.12	486.12
511.48	493.13
511.84	499.94
512.20	506.98
512.56	514.22
512.92	521.71
513.28	529.11
513.64	536.70
514.00	544.10
514.37	551.85
514.73	559.59
515.09	567.65
515.45	575.33
515.81	583.27
516.17	591.33
516.53	599.43
516.89	607.20
517.25	615.48
517.61	623.84
517.97	631.91
518.33	640.03
518.69	648.26
519.05	656.74
519.41	665.46
519.77	674.37
520.13	682.88
520.49	691.38
520.85	699.85
521.21	708.56
521.57	717.38
521.93	725.93
522.29	734.87
522.65	743.59
523.01	752.48
523.37	760.96
523.73	769.72
524.09	778.60
524.45	787.62
524.81	796.47
525.17	805.33
525.53	814.23
525.89	823.20
526.25	832.42
526.61	840.93
526.97	849.76
527.33	858.20
527.68	867.41
528.04	876.10
528.40	884.32
528.76	892.85
529.12	901.60
529.48	910.67
529.84	919.13
530.20	927.84
530.56	936.38
530.91	945.45
531.27	954.28
531.63	962.65
531.99	970.90
532.35	978.96
532.71	987.10
533.07	995.85
533.42	1004.22
533.78	1012.31
534.14	1020.47
534.50	1027.84
534.86	1035.78
535.21	1042.83
535.57	1050.68
535.93	1058.39
536.29	1065.93
536.65	1073.25
537.00	1080.11
537.36	1086.97
537.72	1093.60
538.08	1100.33
538.44	1106.94
538.79	1113.35
539.15	1120.02
539.51	1126.55
539.87	1133.34
540.22	1139.70
540.58	1145.68
540.94	1151.80
541.29	1157.50
541.65	1163.01
542.01	1169.02
542.37	1174.53
542.72	1180.13
543.08	1185.33
543.44	1191.05
543.79	1195.83
544.15	1200.68
544.51	1205.63
544.87	1210.92
545.22	1215.36
545.58	1219.84
545.94	1224.08
546.29	1227.98
546.65	1231.82
547.01	1235.58
547.36	1239.26
547.72	1242.55
548.07	1245.73
548.43	1248.63
548.79	1251.36
549.14	1254.20
549.50	1256.91
549.86	1259.24
550.21	1261.58
550.57	1264.13
550.92	1265.92
551.28	1268.12
551.64	1269.97
551.99	1272.10
552.35	1273.53
552.70	1275.48
553.06	1277.07
553.41	1278.40
553.77	1280.14
554.13	1281.44
554.48	1282.74
554.84	1284.18
555.19	1285.33
555.55	1286.15
555.90	1286.54
556.26	1287.31
556.61	1287.85
556.97	1288.17
557.32	1288.69
557.68	1288.97
558.03	1288.95
558.39	1289.30
558.74	1289.56
559.10	1289.89
559.45	1289.64
559.81	1289.92
560.16	1289.71
560.52	1289.82
560.87	1289.79
561.23	1288.98
561.58	1288.87
561.94	1288.22
562.29	1286.96
562.64	1286.33
563.00	1286.00
563.35	1285.95
563.71	1285.89
564.06	1285.83
564.42	1285.34
564.77	1284.94
565.12	1284.56
565.48	1284.21
565.83	1283.66
566.19	1283.38
566.54	1282.35
566.89	1281.41
567.25	1280.42
567.60	1279.68
567.96	1278.50
568.31	1277.64
568.66	1276.77
569.02	1275.08
569.37	1273.43
569.72	1272.20
570.08	1270.75
570.43	1268.84
570.78	1266.85
571.14	1264.65
571.49	1262.41
571.84	1260.64
572.20	1258.37
572.55	1256.35
572.90	1253.62
573.26	1250.94
573.61	1247.86
573.96	1245.22
574.31	1242.26
574.67	1239.09
575.02	1235.91
575.37	1232.79
575.72	1229.17
576.08	1226.34
576.43	1223.34
576.78	1220.53
577.13	1217.77
577.49	1214.75
577.84	1211.77
578.19	1209.17
578.54	1206.50
578.90	1203.73
579.25	1200.49
579.60	1197.29
579.95	1193.71
580.30	1190.99
580.66	1188.26
581.01	1185.00
581.36	1181.74
581.71	1178.76
582.06	1175.79
582.42	1172.75
582.77	1169.50
583.12	1166.48
583.47	1163.34
583.82	1160.45
584.17	1157.53
584.53	1154.52
584.88	1151.35
585.23	1148.35
585.58	1144.92
585.93	1141.67
586.28	1138.73
586.63	1135.73
586.98	1132.70
587.34	1130.02
587.69	1126.78
588.04	1123.63
588.39	1121.19
588.74	1118.03
589.09	1115.42
589.44	1112.32
589.79	1109.47
590.14	1106.71
590.49	1103.66
590.84	1100.60
591.19	1097.75
591.54	1094.69
591.89	1090.85
592.25	1087.75
592.60	1084.26
592.95	1080.62
593.30	1077.04
593.65	1073.33
594.00	1070.02
594.35	1067.69
594.70	1064.32
595.05	1061.19
595.40	1057.76
595.75	1053.86
596.10	1050.85
596.45	1047.60
596.80	1044.70
597.15	1041.55
597.50	1038.33
597.85	1035.33
598.19	1031.88
598.54	1028.55
598.89	1025.35
599.24	1022.77
599.59	1019.88
599.94	1017.18
600.29	1014.63
600.64	1011.73
600.99	1008.84
601.34	1006.03
601.69	1002.18
602.04	998.90
602.39	995.72
602.74	992.96
603.08	990.57
603.43	988.14
603.78	985.01
604.13	981.78
604.48	978.81
604.83	976.46
605.18	973.84
605.53	970.94
605.87	967.95
606.22	965.33
606.57	962.42
606.92	959.32
607.27	956.05
607.62	952.99
607.96	950.30
608.31	947.72
608.66	944.31
609.01	941.20
609.36	938.08
609.70	934.78
610.05	931.24
610.40	927.53
610.75	923.60
611.10	920.63
611.44	916.80
611.79	913.02
612.14	909.01
612.49	904.98
612.83	901.35
613.18	897.46
613.53	893.48
613.88	889.40
614.22	885.74
614.57	882.06
614.92	878.23
615.27	874.27
615.61	870.10
615.96	866.66
616.31	863.11
616.65	859.86
617.00	856.58
617.35	852.99
617.70	849.16
618.04	845.45
618.39	840.99
618.74	837.56
619.08	833.87
619.43	829.85
619.78	826.16
620.12	822.53
620.47	819.04
620.82	815.15
621.16	811.29
621.51	807.57
621.85	803.79
622.20	800.07
622.55	796.14
622.89	792.45
623.24	788.57
623.59	784.71
623.93	780.70
624.28	776.78
624.62	773.31
624.97	770.01
625.32	766.51
625.66	763.11
626.01	759.54
626.35	756.09
626.70	752.74
627.04	749.50
627.39	746.03
627.73	742.64
628.08	739.44
628.43	736.03
628.77	732.36
629.12	728.95
629.46	725.69
629.81	722.44
630.15	719.06
630.50	715.65
630.84	712.07
631.19	708.79
631.53	705.40
631.88	701.86
632.22	698.23
632.57	695.10
632.91	691.80
633.26	688.48
633.60	685.24
633.95	682.04
634.29	678.69
634.64	675.69
634.98	672.30
635.32	669.17
635.67	666.16
636.01	663.21
636.36	660.08
636.70	657.12
637.05	653.95
637.39	650.92
637.73	648.09
638.08	645.51
638.42	642.82
638.77	639.85
639.11	636.83
639.45	633.93
639.80	630.50
640.14	627.36
640.49	624.34
640.83	621.16
641.17	618.24
641.52	615.13
641.86	611.86
642.20	608.94
642.55	605.59
642.89	602.55
643.23	599.26
643.58	596.40
643.92	593.13
644.26	590.12
644.61	587.06
644.95	583.89
645.29	580.77
645.64	577.50
645.98	574.48
646.32	571.62
646.66	568.68
647.01	565.92
647.35	563.24
647.69	560.22
648.04	557.41
648.38	554.30
648.72	551.34
649.06	548.43
649.41	545.57
649.75	542.87
650.09	540.08
650.43	537.39
650.78	534.31
651.12	531.35
651.46	528.57
651.80	525.85
652.14	523.11
652.49	520.29
652.83	517.51
653.17	514.67
653.51	511.62
653.85	508.85
654.20	506.10
654.54	503.16
654.88	500.41
655.22	497.74
655.56	494.90
655.90	492.25
656.25	489.57
656.59	486.66
656.93	483.92
657.27	481.35
657.61	478.65
657.95	476.15
658.29	473.63
658.64	471.25
658.98	468.56
659.32	465.90
659.66	463.33
660.00	460.69
660.34	458.04
660.68	455.65
661.02	453.11
661.36	450.67
661.70	448.28
662.05	445.93
662.39	443.66
662.73	441.57
663.07	439.51
663.41	437.17
663.75	435.02
664.09	432.67
664.43	430.27
664.77	428.14
665.11	425.96
665.45	423.84
665.79	421.59
666.13	419.50
666.47	417.35
666.81	415.29
667.15	413.25
667.49	411.54
667.83	409.68
668.17	407.86
668.51	405.98
668.85	404.29
669.19	402.58
669.53	400.64
669.87	398.74
670.21	396.64
670.55	394.86
670.89	393.42
671.23	391.91
671.57	390.27
671.91	388.45
672.25	386.71
672.58	385.14
672.92	383.41
673.26	381.87
673.60	380.32
673.94	378.73
674.28	377.20
674.62	375.55
674.96	373.90
675.30	372.23
675.64	370.72
675.97	369.08
676.31	367.59
676.65	366.05
676.99	364.66
677.33	363.19
677.67	361.76
678.01	360.02
678.34	358.50
678.68	356.95
679.02	355.39
679.36	353.94
679.70	352.47
680.04	351.10
680.37	349.61
680.71	348.20
681.05	346.81
681.39	345.41
681.73	344.09
682.06	342.76
682.40	341.45
682.74	340.09
683.08	338.85
683.42	337.49
683.75	336.13
684.09	334.77
684.43	333.60
684.77	332.22
685.10	330.88
685.44	329.56
685.78	328.34
686.12	327.25
686.45	326.07
686.79	324.85
687.13	323.68
687.46	322.55
687.80	321.41
688.14	320.25
688.48	319.15
688.81	317.94
689.15	316.82
689.49	315.71
689.82	314.57
690.16	313.33
690.50	312.04
690.83	310.92
691.17	309.69
691.51	308.58
691.84	307.62
692.18	306.63
692.52	305.58
692.85	304.67
693.19	303.75
693.52	302.77
693.86	301.73
694.20	300.78
694.53	299.72
694.87	298.82
695.21	297.69
695.54	296.64
695.88	295.58
696.21	294.54
696.55	293.61
696.88	292.66
697.22	291.70
697.56	290.92
697.89	290.04
698.23	289.31
698.56	288.35
698.90	287.50
699.23	286.56
699.57	285.75
699.90	284.79
700.24	283.83
700.58	283.00
700.91	282.22
701.25	281.58
701.58	280.89
701.92	280.10
702.25	279.35
702.59	278.56
702.92	277.87
703.26	277.10
703.59	276.32
703.93	275.96
704.26	275.35
704.60	274.59
704.93	273.87
705.26	273.13
705.60	272.52
705.93	271.80
706.27	271.20
706.60	270.65
706.94	270.31
707.27	269.67
707.61	269.04
707.94	268.36
708.27	267.39
708.61	266.65
708.94	266.01
709.28	265.50
709.61	264.95
709.94	264.33
710.28	263.91
710.61	263.36
710.95	262.40
711.28	262.00
711.61	261.48
711.95	261.05
712.28	260.46
712.61	259.86
712.95	259.44
713.28	259.04
713.61	258.44
713.95	257.65
714.28	257.10
714.61	256.53
714.95	256.00
715.28	255.55
715.61	255.10
715.95	254.55
716.28	254.04
716.61	253.52
716.95	253.09
717.28	252.47
717.61	251.96
717.94	251.49
718.28	250.83
718.61	250.47
718.94	249.93
719.27	249.50
719.61	249.07
719.94	248.59
720.27	248.01
720.60	247.56
720.94	247.17
721.27	246.87
721.60	246.55
721.93	246.18
722.27	245.92
722.60	245.57
722.93	245.14
723.26	244.81
723.59	244.43
723.93	244.02
724.26	243.73
724.59	243.43
724.92	243.13
725.25	242.95
725.59	242.55
725.92	242.32
726.25	242.09
726.58	241.86
726.91	241.53
727.24	241.28
727.57	241.01
727.91	240.66
728.24	240.37
728.57	239.96
728.90	239.70
729.23	239.32
729.56	239.12
729.89	238.86
730.22	238.54
730.55	238.25
730.89	238.06
731.22	237.72
731.55	237.44
731.88	237.25
732.21	236.82
732.54	236.47
732.87	236.19
733.20	235.86
733.53	235.54
733.86	235.34
734.19	235.05
734.52	234.78
734.85	234.76
735.18	234.38
735.51	234.27
735.84	234.09
736.17	233.92
736.50	233.53
736.83	233.74
737.16	233.50
737.49	233.32
737.82	233.01
738.15	232.90
738.48	232.62
738.81	232.38
739.14	232.07
739.47	231.82
739.80	231.55
740.13	231.41
740.46	231.18
740.79	230.85
741.12	230.68
741.45	230.43
741.78	230.06
742.11	230.02
742.44	229.70
742.77	229.55
743.10	229.37
743.43	229.20
743.75	228.63
744.08	228.93
744.41	228.63
744.74	228.47
745.07	228.17
745.40	228.08
745.73	228.03
746.06	227.91
746.39	227.80
746.71	227.54
747.04	227.23
747.37	227.00
747.70	226.91
748.03	226.70
748.36	226.67
748.68	226.48
749.01	226.20
749.34	226.13
749.67	225.95
750.00	225.78
750.33	225.87
750.65	225.68
750.98	225.01
751.31	224.90
751.64	224.71
751.97	224.73
752.29	224.52
752.62	224.26
752.95	224.11
753.28	223.95
753.60	223.90
753.93	223.91
754.26	223.88
754.59	223.67
754.91	223.51
755.24	223.27
755.57	223.12
755.90	223.00
756.22	222.83
756.55	222.67
756.88	222.52
757.20	222.25
757.53	222.01
757.86	221.92
758.19	221.83
758.51	221.79
758.84	221.54
759.17	221.45
759.49	221.33
759.82	221.42
760.15	221.32
760.47	221.17
760.80	220.89
761.13	220.79
761.45	220.68
761.78	220.59
762.11	220.53
762.43	220.39
762.76	220.30
763.08	220.28
763.41	220.17
763.74	220.01
764.06	219.88
764.39	219.80
764.71	219.69
765.04	219.59
765.37	219.42
765.69	219.32
766.02	219.20
766.34	219.06
766.67	218.86
767.00	218.82
767.32	218.99
767.65	219.16
767.97	219.11
768.30	219.09
768.62	218.97
768.95	218.86
769.27	218.79
769.60	218.79
769.92	218.60
770.25	218.43
770.57	218.32
770.90	218.25
771.22	218.22
771.55	218.20
771.87	218.16
772.20	218.11
772.52	218.34
772.85	218.70
773.17	218.71
773.50	218.59
773.82	218.49
774.15	218.21
774.47	217.95
774.80	217.76
775.12	217.63
775.45	217.61
775.77	217.53
776.09	217.54
776.42	217.38
776.74	217.46
777.07	217.44
777.39	217.39
777.72	217.20
778.04	217.21
778.36	217.13
778.69	217.05
779.01	217.02
779.33	216.74
779.66	216.27
779.98	216.10
780.31	216.14
780.63	216.23
780.95	216.23
781.28	216.15
781.60	216.10
781.92	216.04
782.25	216.03
782.57	216.05
782.89	215.91
783.22	215.91
783.54	215.80
783.86	215.71
784.19	215.70
784.51	215.87
784.83	215.73
785.16	215.70
785.48	215.72
785.80	215.67
786.12	215.62
786.45	215.57
786.77	215.52
787.09	215.37
787.42	215.28
787.74	215.29
788.06	215.29
788.38	215.25
788.71	215.19
789.03	215.18
789.35	215.19
789.67	215.11
789.99	215.09
