SpectraSuite Data File
++++++++++++++++++++++++++++++++++++
Date: Mon Feb 25 17:14:44 EST 2013
User: group
Dark Spectrum Present: No
Reference Spectrum Present: No
Number of Sampled Component Spectra: 1
Spectrometers: USB2E7196
Integration Time (usec): 104000 (USB2E7196)
Spectra Averaged: 20 (USB2E7196)
Boxcar Smoothing: 10 (USB2E7196)
Correct for Electrical Dark: No (USB2E7196)
Strobe/Lamp Enabled: No (USB2E7196)
Correct for Detector Non-linearity: No (USB2E7196)
Correct for Stray Light: No (USB2E7196)
Number of Pixels in Processed Spectrum: 2048
>>>>>Begin Processed Spectral Data<<<<<
339.09	0.00
339.48	199.50
339.86	200.30
340.24	201.55
340.63	202.90
341.01	209.00
341.39	204.15
341.78	207.05
342.16	209.10
342.54	209.75
342.93	198.42
343.31	208.36
343.69	208.86
344.07	209.30
344.46	209.71
344.84	210.05
345.22	210.09
345.60	210.45
345.99	210.67
346.37	210.75
346.75	210.75
347.13	210.72
347.52	210.76
347.90	211.00
348.28	210.95
348.66	211.05
349.05	210.95
349.43	210.94
349.81	210.99
350.19	211.03
350.57	211.13
350.96	211.18
351.34	211.34
351.72	211.42
352.10	211.51
352.48	211.58
352.87	211.66
353.25	211.72
353.63	211.70
354.01	211.67
354.39	211.79
354.77	211.93
355.15	212.11
355.54	212.06
355.92	212.03
356.30	212.18
356.68	212.43
357.06	212.55
357.44	212.63
357.82	212.65
358.20	212.69
358.58	212.73
358.97	212.84
359.35	213.00
359.73	213.19
360.11	213.26
360.49	213.34
360.87	213.42
361.25	213.55
361.63	213.75
362.01	213.88
362.39	213.90
362.77	213.91
363.15	213.97
363.53	214.03
363.91	214.05
364.29	214.00
364.67	213.78
365.05	213.73
365.43	213.87
365.81	214.02
366.19	214.28
366.57	214.40
366.95	214.37
367.33	214.25
367.71	214.21
368.09	214.32
368.47	214.29
368.85	214.31
369.23	214.38
369.61	214.26
369.99	214.38
370.37	214.35
370.75	214.60
371.13	214.53
371.51	214.45
371.89	214.52
372.27	214.54
372.65	214.54
373.03	214.55
373.41	214.45
373.78	214.33
374.16	214.09
374.54	213.97
374.92	213.94
375.30	213.89
375.68	213.74
376.06	213.72
376.44	213.64
376.82	213.65
377.19	213.52
377.57	213.46
377.95	213.27
378.33	213.22
378.71	212.93
379.09	212.90
379.47	212.96
379.84	212.80
380.22	212.69
380.60	212.50
380.98	212.42
381.36	212.36
381.73	212.24
382.11	212.20
382.49	212.20
382.87	212.12
383.25	212.07
383.62	212.46
384.00	212.32
384.38	212.33
384.76	212.29
385.13	212.46
385.51	212.38
385.89	212.36
386.27	212.41
386.64	212.39
387.02	212.35
387.40	212.25
387.78	212.28
388.15	212.33
388.53	212.35
388.91	212.32
389.29	212.25
389.66	212.31
390.04	212.26
390.42	212.22
390.79	212.17
391.17	212.14
391.55	211.69
391.92	211.68
392.30	211.70
392.68	211.63
393.05	211.61
393.43	211.65
393.81	211.57
394.18	211.37
394.56	211.36
394.94	211.33
395.31	211.38
395.69	211.46
396.06	211.53
396.44	211.56
396.82	211.56
397.19	211.76
397.57	211.74
397.95	211.79
398.32	211.75
398.70	211.78
399.07	211.82
399.45	211.89
399.82	211.90
400.20	211.93
400.58	211.90
400.95	211.73
401.33	211.80
401.70	212.10
402.08	212.29
402.45	212.38
402.83	212.53
403.20	212.55
403.58	212.53
403.95	212.59
404.33	212.69
404.71	212.77
405.08	212.98
405.46	213.07
405.83	213.18
406.21	213.29
406.58	213.45
406.96	213.62
407.33	213.77
407.70	213.94
408.08	214.37
408.45	214.58
408.83	214.89
409.20	215.03
409.58	215.05
409.95	215.27
410.33	215.47
410.70	215.61
411.08	215.89
411.45	216.22
411.82	216.53
412.20	216.94
412.57	217.47
412.95	217.57
413.32	217.98
413.69	218.48
414.07	218.94
414.44	219.53
414.82	220.07
415.19	220.72
415.56	221.34
415.94	221.80
416.31	222.62
416.68	223.40
417.06	224.28
417.43	225.22
417.81	226.17
418.18	227.21
418.55	228.35
418.93	229.44
419.30	230.54
419.67	231.76
420.04	233.02
420.42	234.25
420.79	236.00
421.16	237.50
421.54	239.09
421.91	240.70
422.28	242.29
422.66	244.03
423.03	245.88
423.40	247.65
423.77	249.50
424.15	251.34
424.52	253.26
424.89	255.45
425.26	257.46
425.64	259.43
426.01	261.51
426.38	263.75
426.75	266.03
427.13	268.40
427.50	270.86
427.87	273.43
428.24	276.04
428.61	278.29
428.99	281.14
429.36	283.91
429.73	286.82
430.10	289.75
430.47	292.74
430.85	295.62
431.22	298.88
431.59	302.54
431.96	305.79
432.33	309.35
432.70	312.73
433.08	316.85
433.45	320.75
433.82	324.65
434.19	328.86
434.56	333.17
434.93	337.16
435.30	341.05
435.68	345.43
436.05	349.77
436.42	353.99
436.79	357.93
437.16	362.26
437.53	366.71
437.90	371.17
438.27	375.47
438.64	379.96
439.01	384.12
439.38	387.55
439.75	391.18
440.13	395.39
440.50	399.30
440.87	402.27
441.24	405.54
441.61	408.97
441.98	411.57
442.35	414.55
442.72	417.55
443.09	420.70
443.46	422.55
443.83	423.68
444.20	424.85
444.57	426.29
444.94	426.94
445.31	427.75
445.68	428.61
446.05	428.83
446.42	428.32
446.79	427.77
447.16	427.06
447.53	426.51
447.90	424.64
448.27	422.94
448.64	420.68
449.01	418.81
449.37	415.95
449.74	413.00
450.11	409.83
450.48	406.16
450.85	402.02
451.22	398.59
451.59	395.49
451.96	392.37
452.33	388.41
452.70	384.76
453.07	380.30
453.43	375.65
453.80	371.49
454.17	367.45
454.54	363.60
454.91	359.71
455.28	355.74
455.65	352.10
456.02	348.89
456.38	345.65
456.75	341.86
457.12	338.55
457.49	335.39
457.86	332.01
458.23	329.35
458.59	326.56
458.96	323.58
459.33	320.89
459.70	318.29
460.07	316.15
460.43	313.67
460.80	311.55
461.17	309.57
461.54	307.50
461.91	305.60
462.27	303.65
462.64	301.83
463.01	300.06
463.38	298.38
463.74	296.12
464.11	294.67
464.48	293.30
464.85	291.79
465.21	290.77
465.58	289.55
465.95	288.08
466.32	286.94
466.68	285.78
467.05	284.60
467.42	283.40
467.78	282.12
468.15	281.17
468.52	280.37
468.88	279.31
469.25	278.32
469.62	277.58
469.98	276.79
470.35	276.12
470.72	275.34
471.08	274.37
471.45	273.76
471.82	273.17
472.18	272.49
472.55	272.06
472.92	271.37
473.28	270.86
473.65	270.32
474.02	269.88
474.38	269.57
474.75	269.33
475.11	269.06
475.48	268.90
475.85	268.69
476.21	268.37
476.58	268.27
476.94	268.24
477.31	268.16
477.67	268.09
478.04	267.96
478.41	268.11
478.77	268.58
479.14	268.53
479.50	268.62
479.87	268.85
480.23	269.17
480.60	269.39
480.96	269.65
481.33	270.26
481.69	270.62
482.06	271.10
482.42	271.51
482.79	271.99
483.15	272.51
483.52	273.16
483.88	273.82
484.25	274.41
484.61	275.10
484.98	275.82
485.34	276.83
485.71	277.92
486.07	278.87
486.44	279.59
486.80	280.78
487.17	281.95
487.53	283.34
487.90	284.64
488.26	286.25
488.62	287.93
488.99	289.48
489.35	291.17
489.72	292.91
490.08	294.86
490.44	296.85
490.81	299.01
491.17	301.16
491.54	303.53
491.90	306.09
492.26	308.80
492.63	311.55
492.99	314.24
493.36	317.20
493.72	320.36
494.08	323.75
494.45	327.13
494.81	330.85
495.17	334.41
495.54	338.33
495.90	342.33
496.26	346.40
496.63	350.79
496.99	355.35
497.35	360.12
497.72	365.09
498.08	370.19
498.44	375.57
498.80	381.21
499.17	386.98
499.53	392.96
499.89	399.15
500.26	405.52
500.62	411.97
500.98	418.95
501.34	426.04
501.71	433.40
502.07	441.02
502.43	448.71
502.79	456.68
503.16	464.92
503.52	473.33
503.88	482.01
504.24	491.04
504.60	500.34
504.97	509.88
505.33	519.55
505.69	529.84
506.05	540.16
506.41	550.64
506.78	561.37
507.14	572.40
507.50	583.66
507.86	595.25
508.22	607.18
508.59	619.04
508.95	631.28
509.31	643.83
509.67	656.52
510.03	669.37
510.39	682.79
510.75	696.33
511.12	710.15
511.48	724.30
511.84	738.36
512.20	752.46
512.56	767.17
512.92	781.98
513.28	796.86
513.64	811.87
514.00	827.12
514.37	842.48
514.73	858.20
515.09	874.07
515.45	889.84
515.81	905.89
516.17	921.84
516.53	938.27
516.89	954.56
517.25	971.05
517.61	987.68
517.97	1004.19
518.33	1020.82
518.69	1037.59
519.05	1054.43
519.41	1071.49
519.77	1088.97
520.13	1105.74
520.49	1122.51
520.85	1139.42
521.21	1156.50
521.57	1173.72
521.93	1190.39
522.29	1207.63
522.65	1224.67
523.01	1241.57
523.37	1258.23
523.73	1275.46
524.09	1292.19
524.45	1308.90
524.81	1325.89
525.17	1343.22
525.53	1360.33
525.89	1377.35
526.25	1393.95
526.61	1410.03
526.97	1426.37
527.33	1442.63
527.68	1459.10
528.04	1475.11
528.40	1490.70
528.76	1506.60
529.12	1522.51
529.48	1539.32
529.84	1554.96
530.20	1570.56
530.56	1586.54
530.91	1602.56
531.27	1618.04
531.63	1633.30
531.99	1648.73
532.35	1663.22
532.71	1677.39
533.07	1691.97
533.42	1706.04
533.78	1720.25
534.14	1734.11
534.50	1747.25
534.86	1761.02
535.21	1773.73
535.57	1787.23
535.93	1800.29
536.29	1812.95
536.65	1825.69
537.00	1837.09
537.36	1848.46
537.72	1859.60
538.08	1870.55
538.44	1881.48
538.79	1892.40
539.15	1903.20
539.51	1913.49
539.87	1924.76
540.22	1935.00
540.58	1945.60
540.94	1955.75
541.29	1965.11
541.65	1973.96
542.01	1983.00
542.37	1991.27
542.72	2000.29
543.08	2008.38
543.44	2017.24
543.79	2024.55
544.15	2031.30
544.51	2038.98
544.87	2046.99
545.22	2053.84
545.58	2060.11
545.94	2065.97
546.29	2071.52
546.65	2076.57
547.01	2081.61
547.36	2085.96
547.72	2090.46
548.07	2093.87
548.43	2097.09
548.79	2100.19
549.14	2104.02
549.50	2107.59
549.86	2109.88
550.21	2111.93
550.57	2114.49
550.92	2115.70
551.28	2117.33
551.64	2119.21
551.99	2120.88
552.35	2121.68
552.70	2123.11
553.06	2124.65
553.41	2125.83
553.77	2126.80
554.13	2127.66
554.48	2128.40
554.84	2129.06
555.19	2129.31
555.55	2128.95
555.90	2128.63
556.26	2128.08
556.61	2127.54
556.97	2126.50
557.32	2126.18
557.68	2124.77
558.03	2123.50
558.39	2122.12
558.74	2121.80
559.10	2120.85
559.45	2119.17
559.81	2118.06
560.16	2116.19
560.52	2114.39
560.87	2112.27
561.23	2109.38
561.58	2107.45
561.94	2104.80
562.29	2101.63
562.64	2099.17
563.00	2097.11
563.35	2095.30
563.71	2093.96
564.06	2091.69
564.42	2089.64
564.77	2087.76
565.12	2086.39
565.48	2084.19
565.83	2082.39
566.19	2079.95
566.54	2076.51
566.89	2073.20
567.25	2069.91
567.60	2066.83
567.96	2063.72
568.31	2060.81
568.66	2057.90
569.02	2053.88
569.37	2049.71
569.72	2046.26
570.08	2042.11
570.43	2037.74
570.78	2032.86
571.14	2027.63
571.49	2022.78
571.84	2018.24
572.20	2012.49
572.55	2007.32
572.90	2001.41
573.26	1995.58
573.61	1989.62
573.96	1984.39
574.31	1978.42
574.67	1971.99
575.02	1965.52
575.37	1959.07
575.72	1952.05
576.08	1946.23
576.43	1939.77
576.78	1934.05
577.13	1928.13
577.49	1922.06
577.84	1915.86
578.19	1910.25
578.54	1904.90
578.90	1899.52
579.25	1893.41
579.60	1887.14
579.95	1880.39
580.30	1874.90
580.66	1869.15
581.01	1862.84
581.36	1855.96
581.71	1849.83
582.06	1844.01
582.42	1838.22
582.77	1831.66
583.12	1825.60
583.47	1819.33
583.82	1813.73
584.17	1807.42
584.53	1801.44
584.88	1795.30
585.23	1789.23
585.58	1783.00
585.93	1776.52
586.28	1770.58
586.63	1764.14
586.98	1758.42
587.34	1752.87
587.69	1746.45
588.04	1740.28
588.39	1734.57
588.74	1728.34
589.09	1722.67
589.44	1716.21
589.79	1710.09
590.14	1704.50
590.49	1698.50
590.84	1692.27
591.19	1686.89
591.54	1681.26
591.89	1674.10
592.25	1667.69
592.60	1660.99
592.95	1654.20
593.30	1646.80
593.65	1639.36
594.00	1632.73
594.35	1627.53
594.70	1621.00
595.05	1614.66
595.40	1608.39
595.75	1601.50
596.10	1595.82
596.45	1589.70
596.80	1584.31
597.15	1578.72
597.50	1572.42
597.85	1566.72
598.19	1560.46
598.54	1554.03
598.89	1548.04
599.24	1543.15
599.59	1537.57
599.94	1532.91
600.29	1527.58
600.64	1522.81
600.99	1517.23
601.34	1512.03
601.69	1505.27
602.04	1499.57
602.39	1493.88
602.74	1488.35
603.08	1483.44
603.43	1478.45
603.78	1473.17
604.13	1467.46
604.48	1462.01
604.83	1457.49
605.18	1452.87
605.53	1447.73
605.87	1442.13
606.22	1437.08
606.57	1431.40
606.92	1425.89
607.27	1419.80
607.62	1414.03
607.96	1408.65
608.31	1403.82
608.66	1397.81
609.01	1391.77
609.36	1385.86
609.70	1379.91
610.05	1373.72
610.40	1367.67
610.75	1361.39
611.10	1355.55
611.44	1348.66
611.79	1342.02
612.14	1334.82
612.49	1327.26
612.83	1320.80
613.18	1313.99
613.53	1306.91
613.88	1299.85
614.22	1293.47
614.57	1286.73
614.92	1280.27
615.27	1273.49
615.61	1266.54
615.96	1260.25
616.31	1254.53
616.65	1248.68
617.00	1242.83
617.35	1236.51
617.70	1229.86
618.04	1222.91
618.39	1215.82
618.74	1209.82
619.08	1203.16
619.43	1197.18
619.78	1191.08
620.12	1184.84
620.47	1178.85
620.82	1172.40
621.16	1165.97
621.51	1159.61
621.85	1153.51
622.20	1146.99
622.55	1140.63
622.89	1134.17
623.24	1127.82
623.59	1120.85
623.93	1114.39
624.28	1108.12
624.62	1102.33
624.97	1096.39
625.32	1090.66
625.66	1084.81
626.01	1078.89
626.35	1073.28
626.70	1067.15
627.04	1061.55
627.39	1055.75
627.73	1049.97
628.08	1044.44
628.43	1038.59
628.77	1032.61
629.12	1026.59
629.46	1021.50
629.81	1015.87
630.15	1010.47
630.50	1004.97
630.84	999.29
631.19	993.60
631.53	987.96
631.88	981.80
632.22	975.83
632.57	970.26
632.91	964.72
633.26	959.26
633.60	953.71
633.95	948.49
634.29	943.04
634.64	937.80
634.98	932.14
635.32	926.99
635.67	922.27
636.01	917.20
636.36	911.86
636.70	906.60
637.05	901.53
637.39	896.39
637.73	891.37
638.08	886.85
638.42	882.15
638.77	877.17
639.11	872.26
639.45	867.55
639.80	862.53
640.14	857.14
640.49	852.10
640.83	847.16
641.17	842.01
641.52	836.84
641.86	831.54
642.20	826.74
642.55	821.44
642.89	816.25
643.23	811.18
643.58	806.59
643.92	801.29
644.26	796.27
644.61	791.31
644.95	786.46
645.29	781.50
645.64	776.43
645.98	771.55
646.32	766.99
646.66	762.10
647.01	757.22
647.35	753.04
647.69	747.97
648.04	743.23
648.38	738.69
648.72	734.05
649.06	729.45
649.41	724.73
649.75	719.95
650.09	715.32
650.43	710.70
650.78	705.79
651.12	701.09
651.46	696.56
651.80	692.21
652.14	687.57
652.49	683.00
652.83	678.51
653.17	673.66
653.51	669.04
653.85	664.62
654.20	660.34
654.54	655.79
654.88	651.52
655.22	647.05
655.56	642.39
655.90	638.06
656.25	633.68
656.59	629.13
656.93	625.01
657.27	621.04
657.61	616.64
657.95	612.74
658.29	608.82
658.64	604.82
658.98	600.55
659.32	596.33
659.66	592.35
660.00	588.20
660.34	584.22
660.68	580.06
661.02	576.08
661.36	572.16
661.70	568.38
662.05	564.82
662.39	561.38
662.73	557.93
663.07	554.63
663.41	551.05
663.75	547.65
664.09	544.12
664.43	540.37
664.77	537.07
665.11	533.55
665.45	530.06
665.79	526.78
666.13	523.38
666.47	520.14
666.81	516.78
667.15	513.54
667.49	510.78
667.83	507.89
668.17	504.89
668.51	501.97
668.85	498.97
669.19	496.05
669.53	492.94
669.87	489.89
670.21	486.75
670.55	483.89
670.89	481.36
671.23	478.70
671.57	476.00
671.91	473.25
672.25	470.44
672.58	467.81
672.92	465.06
673.26	462.64
673.60	460.06
673.94	457.55
674.28	455.03
674.62	452.48
674.96	449.96
675.30	447.49
675.64	445.02
675.97	442.61
676.31	440.09
676.65	437.85
676.99	435.77
677.33	433.43
677.67	431.12
678.01	428.72
678.34	426.41
678.68	424.18
679.02	421.94
679.36	419.85
679.70	417.66
680.04	415.49
680.37	413.25
680.71	411.09
681.05	409.05
681.39	407.11
681.73	405.00
682.06	403.10
682.40	401.13
682.74	399.10
683.08	397.24
683.42	395.29
683.75	393.29
684.09	391.19
684.43	389.23
684.77	387.26
685.10	385.24
685.44	383.22
685.78	381.33
686.12	379.49
686.45	377.61
686.79	375.78
687.13	374.06
687.46	372.34
687.80	370.57
688.14	368.81
688.48	367.01
688.81	365.29
689.15	363.47
689.49	361.63
689.82	360.01
690.16	357.95
690.50	356.17
690.83	354.38
691.17	352.60
691.51	350.94
691.84	349.42
692.18	347.84
692.52	346.38
692.85	344.93
693.19	343.49
693.52	341.94
693.86	340.32
694.20	338.76
694.53	337.23
694.87	335.72
695.21	334.14
695.54	332.63
695.88	331.05
696.21	329.50
696.55	328.19
696.88	326.69
697.22	325.37
697.56	324.11
697.89	322.81
698.23	321.50
698.56	320.19
698.90	318.96
699.23	317.59
699.57	316.24
699.90	314.87
700.24	313.51
700.58	312.31
700.91	311.17
701.25	310.15
701.58	309.00
701.92	307.90
702.25	306.75
702.59	305.55
702.92	304.46
703.26	303.39
703.59	302.39
703.93	301.63
704.26	300.74
704.60	299.65
704.93	298.51
705.26	297.36
705.60	296.40
705.93	295.28
706.27	294.42
706.60	293.52
706.94	292.72
707.27	291.70
707.61	290.67
707.94	289.72
708.27	288.55
708.61	287.48
708.94	286.56
709.28	285.72
709.61	284.83
709.94	284.04
710.28	283.18
710.61	282.26
710.95	281.13
711.28	280.43
711.61	279.59
711.95	278.95
712.28	278.25
712.61	277.45
712.95	276.88
713.28	276.28
713.61	275.52
713.95	274.69
714.28	274.09
714.61	273.39
714.95	272.70
715.28	271.93
715.61	271.25
715.95	270.55
716.28	269.79
716.61	269.22
716.95	268.46
717.28	267.87
717.61	267.26
717.94	266.54
718.28	265.65
718.61	265.04
718.94	264.30
719.27	263.76
719.61	263.13
719.94	262.43
720.27	261.59
720.60	260.98
720.94	260.33
721.27	259.70
721.60	259.27
721.93	258.66
722.27	258.28
722.60	257.82
722.93	257.25
723.26	256.76
723.59	256.19
723.93	255.70
724.26	255.15
724.59	254.61
724.92	254.23
725.25	253.90
725.59	253.43
725.92	253.05
726.25	252.55
726.58	252.20
726.91	251.78
727.24	251.46
727.57	250.99
727.91	250.47
728.24	250.07
728.57	249.51
728.90	249.21
729.23	248.74
729.56	248.46
729.89	248.16
730.22	247.76
730.55	247.41
730.89	247.01
731.22	246.59
731.55	246.27
731.88	245.89
732.21	245.40
732.54	244.99
732.87	244.62
733.20	244.31
733.53	243.84
733.86	243.46
734.19	243.06
734.52	242.88
734.85	242.93
735.18	242.60
735.51	242.49
735.84	242.19
736.17	241.99
736.50	241.57
736.83	241.63
737.16	241.32
737.49	240.96
737.82	240.66
738.15	240.40
738.48	240.08
738.81	239.79
739.14	239.50
739.47	239.20
739.80	238.87
740.13	238.67
740.46	238.34
740.79	237.95
741.12	237.74
741.45	237.28
741.78	236.79
742.11	236.57
742.44	236.20
742.77	235.97
743.10	235.61
743.43	235.30
743.75	234.64
744.08	234.86
744.41	234.50
744.74	234.23
745.07	233.93
745.40	233.69
745.73	233.58
746.06	233.38
746.39	233.23
746.71	232.94
747.04	232.67
747.37	232.50
747.70	232.34
748.03	232.12
748.36	231.92
748.68	231.65
749.01	231.36
749.34	231.12
749.67	230.88
750.00	230.73
750.33	230.78
750.65	230.68
750.98	230.02
751.31	229.88
751.64	229.67
751.97	229.62
752.29	229.40
752.62	229.01
752.95	228.73
753.28	228.43
753.60	228.24
753.93	228.04
754.26	227.84
754.59	227.58
754.91	227.26
755.24	227.17
755.57	227.01
755.90	226.86
756.22	226.66
756.55	226.43
756.88	226.18
757.20	225.76
757.53	225.44
757.86	225.28
758.19	225.14
758.51	225.00
758.84	224.70
759.17	224.49
759.49	224.37
759.82	224.36
760.15	224.26
760.47	224.10
760.80	223.90
761.13	223.83
761.45	223.67
761.78	223.58
762.11	223.43
762.43	223.23
762.76	223.04
763.08	222.98
763.41	222.92
763.74	222.76
764.06	222.68
764.39	222.60
764.71	222.47
765.04	222.40
765.37	222.28
765.69	222.17
766.02	222.13
766.34	221.95
766.67	221.79
767.00	221.76
767.32	221.88
767.65	221.99
767.97	221.79
768.30	221.73
768.62	221.64
768.95	221.50
769.27	221.41
769.60	221.43
769.92	221.30
770.25	221.14
770.57	221.03
770.90	220.90
771.22	220.75
771.55	220.64
771.87	220.51
772.20	220.40
772.52	220.56
772.85	220.78
773.17	220.78
773.50	220.67
773.82	220.47
774.15	220.24
774.47	219.92
774.80	219.83
775.12	219.70
775.45	219.58
775.77	219.49
776.09	219.43
776.42	219.30
776.74	219.26
777.07	219.18
777.39	219.15
777.72	219.03
778.04	219.05
778.36	218.91
778.69	218.89
779.01	218.86
779.33	218.56
779.66	218.17
779.98	218.05
780.31	218.01
780.63	218.10
780.95	218.09
781.28	218.08
781.60	217.98
781.92	217.95
782.25	217.94
782.57	217.83
782.89	217.76
783.22	217.67
783.54	217.52
783.86	217.52
784.19	217.46
784.51	217.54
784.83	217.39
785.16	217.41
785.48	217.31
785.80	217.19
786.12	217.12
786.45	217.06
786.77	217.03
787.09	216.93
787.42	216.75
