SpectraSuite Data File
++++++++++++++++++++++++++++++++++++
Date: Mon Feb 25 17:00:39 EST 2013
User: group
Dark Spectrum Present: No
Reference Spectrum Present: No
Number of Sampled Component Spectra: 1
Spectrometers: USB2E7196
Integration Time (usec): 104000 (USB2E7196)
Spectra Averaged: 20 (USB2E7196)
Boxcar Smoothing: 10 (USB2E7196)
Correct for Electrical Dark: No (USB2E7196)
Strobe/Lamp Enabled: No (USB2E7196)
Correct for Detector Non-linearity: No (USB2E7196)
Correct for Stray Light: No (USB2E7196)
Number of Pixels in Processed Spectrum: 2048
>>>>>Begin Processed Spectral Data<<<<<
339.09	0.00
339.48	198.65
339.86	200.00
340.24	201.00
340.63	202.20
341.01	209.55
341.39	205.50
341.78	207.80
342.16	210.45
342.54	208.20
342.93	198.29
343.31	208.30
343.69	208.90
344.07	209.38
344.46	209.85
344.84	210.25
345.22	210.31
345.60	210.57
345.99	210.76
346.37	210.80
346.75	210.88
347.13	210.93
347.52	211.05
347.90	211.25
348.28	211.23
348.66	211.29
349.05	211.20
349.43	211.25
349.81	211.32
350.19	211.39
350.57	211.48
350.96	211.60
351.34	211.68
351.72	211.71
352.10	211.75
352.48	211.83
352.87	211.94
353.25	211.98
353.63	212.07
354.01	212.06
354.39	212.18
354.77	212.28
355.15	212.45
355.54	212.40
355.92	212.25
356.30	212.32
356.68	212.70
357.06	212.79
357.44	212.76
357.82	212.74
358.20	212.85
358.58	212.93
358.97	213.02
359.35	213.13
359.73	213.22
360.11	213.27
360.49	213.32
360.87	213.31
361.25	213.44
361.63	213.55
362.01	213.62
362.39	213.56
362.77	213.53
363.15	213.54
363.53	213.58
363.91	213.62
364.29	213.61
364.67	213.22
365.05	213.22
365.43	213.26
365.81	213.30
366.19	213.42
366.57	213.49
366.95	213.44
367.33	213.39
367.71	213.42
368.09	213.55
368.47	213.50
368.85	213.44
369.23	213.40
369.61	213.23
369.99	213.33
370.37	213.41
370.75	213.61
371.13	213.47
371.51	213.42
371.89	213.41
372.27	213.48
372.65	213.38
373.03	213.43
373.41	213.34
373.78	213.30
374.16	213.09
374.54	212.95
374.92	212.83
375.30	212.70
375.68	212.55
376.06	212.42
376.44	212.41
376.82	212.36
377.19	212.35
377.57	212.31
377.95	212.15
378.33	211.97
378.71	211.76
379.09	211.76
379.47	211.73
379.84	211.65
380.22	211.53
380.60	211.48
380.98	211.28
381.36	211.24
381.73	211.20
382.11	211.26
382.49	211.25
382.87	211.15
383.25	211.06
383.62	211.40
384.00	211.28
384.38	211.20
384.76	211.35
385.13	211.38
385.51	211.38
385.89	211.29
386.27	211.25
386.64	211.22
387.02	211.20
387.40	211.14
387.78	211.09
388.15	211.05
388.53	211.02
388.91	211.10
389.29	211.11
389.66	211.11
390.04	210.97
390.42	210.91
390.79	210.94
391.17	211.00
391.55	210.64
391.92	210.65
392.30	210.69
392.68	210.51
393.05	210.49
393.43	210.49
393.81	210.53
394.18	210.55
394.56	210.69
394.94	210.84
395.31	210.85
395.69	211.01
396.06	211.07
396.44	211.10
396.82	211.07
397.19	211.23
397.57	211.17
397.95	211.29
398.32	211.25
398.70	211.34
399.07	211.49
399.45	211.56
399.82	211.61
400.20	211.65
400.58	211.75
400.95	211.68
401.33	211.81
401.70	212.10
402.08	212.21
402.45	212.14
402.83	212.25
403.20	212.42
403.58	212.48
403.95	212.65
404.33	212.86
404.71	212.97
405.08	213.28
405.46	213.51
405.83	213.68
406.21	213.96
406.58	214.21
406.96	214.40
407.33	214.61
407.70	215.01
408.08	215.56
408.45	215.89
408.83	216.35
409.20	216.64
409.58	216.81
409.95	217.25
410.33	217.75
410.70	218.10
411.08	218.56
411.45	219.08
411.82	219.61
412.20	220.34
412.57	221.28
412.95	221.71
413.32	222.51
413.69	223.29
414.07	224.07
414.44	225.07
414.82	226.05
415.19	227.17
415.56	228.27
415.94	229.26
416.31	230.65
416.68	232.01
417.06	233.58
417.43	235.18
417.81	236.97
418.18	238.76
418.55	240.66
418.93	242.75
419.30	244.87
419.67	247.12
420.04	249.28
420.42	251.54
420.79	254.45
421.16	257.25
421.54	260.28
421.91	263.35
422.28	266.38
422.66	269.74
423.03	273.18
423.40	276.59
423.77	280.26
424.15	283.93
424.52	287.82
424.89	292.06
425.26	296.21
425.64	300.18
426.01	304.61
426.38	309.04
426.75	313.64
427.13	318.40
427.50	323.31
427.87	328.64
428.24	333.90
428.61	338.92
428.99	344.54
429.36	350.53
429.73	356.48
430.10	362.56
430.47	368.75
430.85	374.95
431.22	381.49
431.59	388.76
431.96	395.66
432.33	403.31
432.70	410.74
433.08	419.35
433.45	427.44
433.82	435.49
434.19	444.57
434.56	453.55
434.93	462.23
435.30	470.91
435.68	480.57
436.05	490.14
436.42	499.61
436.79	508.30
437.16	517.70
437.53	527.70
437.90	537.41
438.27	547.22
438.64	557.55
439.01	567.24
439.38	575.64
439.75	583.86
440.13	593.10
440.50	602.02
440.87	609.25
441.24	617.06
441.61	625.51
441.98	631.96
442.35	639.30
442.72	646.84
443.09	654.33
443.46	659.04
443.83	662.34
444.20	665.30
444.57	669.35
444.94	671.50
445.31	673.95
445.68	676.55
446.05	677.84
446.42	677.43
446.79	677.05
447.16	676.64
447.53	676.55
447.90	673.79
448.27	671.04
448.64	666.87
449.01	663.85
449.37	658.00
449.74	652.53
450.11	645.65
450.48	637.91
450.85	629.99
451.22	623.18
451.59	616.99
451.96	611.05
452.33	602.83
452.70	595.48
453.07	586.33
453.43	576.96
453.80	568.04
454.17	559.56
454.54	551.45
454.91	542.62
455.28	534.16
455.65	526.25
456.02	518.31
456.38	511.52
456.75	503.03
457.12	496.08
457.49	489.04
457.86	482.29
458.23	476.62
458.59	470.18
458.96	463.76
459.33	458.06
459.70	452.21
460.07	447.75
460.43	442.51
460.80	437.65
461.17	433.30
461.54	428.86
461.91	424.57
462.27	420.25
462.64	416.64
463.01	412.42
463.38	408.43
463.74	404.21
464.11	400.62
464.48	397.58
464.85	394.28
465.21	391.67
465.58	388.88
465.95	385.44
466.32	382.72
466.68	379.96
467.05	377.15
467.42	374.38
467.78	371.42
468.15	368.69
468.52	366.77
468.88	364.08
469.25	361.63
469.62	359.78
469.98	357.59
470.35	355.50
470.72	353.69
471.08	351.56
471.45	349.82
471.82	348.20
472.18	346.27
472.55	344.88
472.92	343.22
473.28	341.78
473.65	340.37
474.02	339.05
474.38	337.89
474.75	336.90
475.11	335.82
475.48	334.93
475.85	334.11
476.21	333.10
476.58	332.42
476.94	331.95
477.31	331.25
477.67	330.73
478.04	330.33
478.41	329.83
478.77	329.82
479.14	329.45
479.50	329.14
479.87	329.12
480.23	328.95
480.60	328.78
480.96	328.75
481.33	329.07
481.69	329.12
482.06	329.22
482.42	329.20
482.79	329.30
483.15	329.54
483.52	330.05
483.88	330.38
484.25	330.76
484.61	331.12
484.98	331.53
485.34	332.24
485.71	332.91
486.07	333.71
486.44	334.16
486.80	334.97
487.17	335.78
487.53	336.74
487.90	337.80
488.26	339.07
488.62	340.24
488.99	341.36
489.35	342.68
489.72	343.96
490.08	345.45
490.44	346.95
490.81	348.55
491.17	349.99
491.54	351.76
491.90	353.41
492.26	355.25
492.63	357.18
492.99	358.96
493.36	360.80
493.72	362.86
494.08	365.01
494.45	367.27
494.81	369.65
495.17	371.79
495.54	374.11
495.90	376.38
496.26	378.75
496.63	381.18
496.99	383.60
497.35	386.09
497.72	388.70
498.08	391.25
498.44	393.94
498.80	396.75
499.17	399.40
499.53	402.26
499.89	405.04
500.26	407.64
500.62	410.28
500.98	413.20
501.34	415.90
501.71	418.66
502.07	421.26
502.43	423.86
502.79	426.50
503.16	429.11
503.52	431.76
503.88	434.33
504.24	436.94
504.60	439.55
504.97	442.07
505.33	444.36
505.69	447.06
506.05	449.49
506.41	451.83
506.78	453.97
507.14	456.03
507.50	458.09
507.86	460.26
508.22	462.32
508.59	464.11
508.95	465.97
509.31	468.00
509.67	469.87
510.03	471.63
510.39	473.47
510.75	475.28
511.12	476.85
511.48	478.48
511.84	479.83
512.20	481.08
512.56	482.50
512.92	483.98
513.28	485.26
513.64	486.27
514.00	487.25
514.37	488.18
514.73	489.37
515.09	490.56
515.45	491.47
515.81	492.35
516.17	493.04
516.53	493.67
516.89	494.08
517.25	494.63
517.61	495.24
517.97	495.56
518.33	495.75
518.69	496.15
519.05	496.49
519.41	496.90
519.77	497.39
520.13	497.60
520.49	497.62
520.85	497.61
521.21	497.88
521.57	498.12
521.93	498.34
522.29	498.36
522.65	498.29
523.01	498.45
523.37	498.52
523.73	498.85
524.09	499.10
524.45	499.33
524.81	499.52
525.17	499.80
525.53	500.10
525.89	500.49
526.25	500.85
526.61	500.90
526.97	501.11
527.33	501.50
527.68	502.26
528.04	502.71
528.40	503.04
528.76	503.54
529.12	504.25
529.48	505.17
529.84	505.92
530.20	506.71
530.56	507.40
530.91	508.46
531.27	509.36
531.63	510.38
531.99	511.36
532.35	512.36
532.71	513.37
533.07	514.61
533.42	516.11
533.78	517.30
534.14	518.78
534.50	520.08
534.86	521.52
535.21	522.67
535.57	524.17
535.93	525.69
536.29	527.49
536.65	529.07
537.00	530.47
537.36	532.05
537.72	533.69
538.08	535.38
538.44	536.87
538.79	538.80
539.15	540.53
539.51	542.43
539.87	544.34
540.22	546.39
540.58	548.49
540.94	550.28
541.29	552.31
541.65	554.28
542.01	556.51
542.37	558.68
542.72	560.96
543.08	563.33
543.44	565.99
543.79	567.95
544.15	570.32
544.51	573.14
544.87	575.62
545.22	578.13
545.58	580.73
545.94	583.33
546.29	585.69
546.65	588.15
547.01	590.67
547.36	593.47
547.72	596.12
548.07	598.48
548.43	601.01
548.79	603.49
549.14	606.10
549.50	608.89
549.86	611.29
550.21	613.88
550.57	616.62
550.92	618.83
551.28	621.58
551.64	623.89
551.99	626.22
552.35	628.98
552.70	631.39
553.06	634.00
553.41	636.61
553.77	639.46
554.13	642.17
554.48	644.77
554.84	647.36
555.19	649.83
555.55	652.76
555.90	655.30
556.26	657.87
556.61	660.32
556.97	662.53
557.32	665.06
557.68	667.36
558.03	669.50
558.39	671.93
558.74	674.13
559.10	676.60
559.45	678.80
559.81	681.08
560.16	683.33
560.52	685.73
560.87	688.10
561.23	689.94
561.58	692.42
561.94	694.53
562.29	696.54
562.64	698.67
563.00	700.55
563.35	702.71
563.71	705.16
564.06	707.33
564.42	709.58
564.77	711.72
565.12	714.09
565.48	716.49
565.83	718.62
566.19	720.81
566.54	722.64
566.89	724.58
567.25	726.60
567.60	728.84
567.96	730.69
568.31	732.56
568.66	734.50
569.02	735.75
569.37	737.15
569.72	738.59
570.08	740.11
570.43	741.53
570.78	742.73
571.14	743.63
571.49	744.56
571.84	745.61
572.20	746.49
572.55	747.21
572.90	747.60
573.26	748.22
573.61	748.64
573.96	749.26
574.31	749.59
574.67	749.61
575.02	749.51
575.37	749.53
575.72	749.37
576.08	749.42
576.43	749.38
576.78	749.51
577.13	749.65
577.49	749.54
577.84	749.45
578.19	749.54
578.54	749.70
578.90	749.99
579.25	749.79
579.60	749.59
579.95	749.13
580.30	749.24
580.66	749.14
581.01	748.85
581.36	748.51
581.71	748.18
582.06	748.05
582.42	747.77
582.77	747.16
583.12	746.67
583.47	746.31
583.82	745.91
584.17	745.59
584.53	745.12
584.88	744.35
585.23	743.87
585.58	743.18
585.93	742.45
586.28	741.86
586.63	741.36
586.98	740.98
587.34	740.66
587.69	739.73
588.04	738.89
588.39	738.33
588.74	737.53
589.09	737.18
589.44	736.11
589.79	735.30
590.14	734.64
590.49	733.90
590.84	732.87
591.19	732.35
591.54	731.30
591.89	730.12
592.25	729.37
592.60	728.02
592.95	726.74
593.30	725.24
593.65	723.59
594.00	722.10
594.35	721.54
594.70	719.95
595.05	718.69
595.40	717.35
595.75	715.74
596.10	714.54
596.45	712.99
596.80	711.90
597.15	710.64
597.50	709.21
597.85	707.99
598.19	706.55
598.54	705.04
598.89	703.67
599.24	702.59
599.59	701.06
599.94	699.83
600.29	698.60
600.64	697.26
600.99	695.95
601.34	694.65
601.69	692.19
602.04	690.65
602.39	689.21
602.74	687.90
603.08	686.69
603.43	685.54
603.78	683.95
604.13	682.39
604.48	680.85
604.83	679.78
605.18	678.42
605.53	676.99
605.87	675.37
606.22	674.02
606.57	672.24
606.92	670.55
607.27	668.87
607.62	667.23
607.96	665.87
608.31	664.52
608.66	662.85
609.01	661.12
609.36	659.64
609.70	657.87
610.05	655.88
610.40	654.21
610.75	651.92
611.10	650.38
611.44	648.41
611.79	646.49
612.14	644.35
612.49	642.05
612.83	640.03
613.18	637.91
613.53	635.67
613.88	633.56
614.22	631.67
614.57	629.68
614.92	627.52
615.27	625.40
615.61	623.12
615.96	621.10
616.31	619.32
616.65	617.33
617.00	615.16
617.35	613.19
617.70	610.88
618.04	608.74
618.39	606.18
618.74	604.21
619.08	602.05
619.43	599.95
619.78	597.95
620.12	596.00
620.47	594.05
620.82	591.78
621.16	589.52
621.51	587.32
621.85	585.17
622.20	583.07
622.55	580.86
622.89	578.56
623.24	576.46
623.59	574.14
623.93	572.11
624.28	570.22
624.62	568.56
624.97	566.56
625.32	564.61
625.66	562.78
626.01	560.52
626.35	558.51
626.70	556.27
627.04	554.47
627.39	552.48
627.73	550.50
628.08	548.77
628.43	546.86
628.77	544.85
629.12	542.79
629.46	540.92
629.81	539.03
630.15	537.20
630.50	534.99
630.84	532.93
631.19	530.80
631.53	528.77
631.88	526.41
632.22	524.23
632.57	522.50
632.91	520.49
633.26	518.71
633.60	516.70
633.95	514.81
634.29	512.65
634.64	510.61
634.98	508.45
635.32	506.52
635.67	504.67
636.01	502.80
636.36	500.80
636.70	498.97
637.05	497.08
637.39	495.39
637.73	493.86
638.08	492.38
638.42	490.74
638.77	488.99
639.11	487.20
639.45	485.52
639.80	483.58
640.14	481.68
640.49	479.89
640.83	478.12
641.17	476.36
641.52	474.50
641.86	472.58
642.20	470.91
642.55	468.84
642.89	466.94
643.23	465.01
643.58	463.55
643.92	461.52
644.26	459.72
644.61	457.80
644.95	455.90
645.29	453.85
645.64	451.89
645.98	450.07
646.32	448.36
646.66	446.46
647.01	444.63
647.35	442.88
647.69	440.85
648.04	439.23
648.38	437.38
648.72	435.68
649.06	433.92
649.41	432.04
649.75	430.37
650.09	428.74
650.43	427.22
650.78	425.36
651.12	423.68
651.46	421.90
651.80	420.21
652.14	418.47
652.49	416.82
652.83	415.11
653.17	413.20
653.51	411.49
653.85	409.98
654.20	408.28
654.54	406.50
654.88	404.89
655.22	403.13
655.56	401.50
655.90	399.80
656.25	398.18
656.59	396.64
656.93	395.14
657.27	393.62
657.61	391.80
657.95	390.26
658.29	388.64
658.64	387.11
658.98	385.42
659.32	383.77
659.66	382.26
660.00	380.63
660.34	379.13
660.68	377.42
661.02	375.77
661.36	374.28
661.70	372.86
662.05	371.39
662.39	369.93
662.73	368.57
663.07	367.24
663.41	365.87
663.75	364.42
664.09	363.00
664.43	361.48
664.77	360.21
665.11	358.73
665.45	357.43
665.79	356.17
666.13	354.96
666.47	353.61
666.81	352.26
667.15	350.97
667.49	349.91
667.83	348.85
668.17	347.52
668.51	346.22
668.85	345.11
669.19	344.17
669.53	342.98
669.87	341.66
670.21	340.37
670.55	339.11
670.89	338.15
671.23	337.01
671.57	336.04
671.91	334.89
672.25	333.73
672.58	332.68
672.92	331.47
673.26	330.38
673.60	329.39
673.94	328.30
674.28	327.28
674.62	326.11
674.96	325.01
675.30	324.11
675.64	323.17
675.97	322.13
676.31	320.93
676.65	319.98
676.99	319.24
677.33	318.28
677.67	317.35
678.01	316.29
678.34	315.37
678.68	314.36
679.02	313.41
679.36	312.43
679.70	311.49
680.04	310.55
680.37	309.60
680.71	308.72
681.05	307.95
681.39	307.08
681.73	306.17
682.06	305.35
682.40	304.59
682.74	303.82
683.08	303.07
683.42	302.19
683.75	301.40
684.09	300.37
684.43	299.48
684.77	298.64
685.10	297.72
685.44	296.77
685.78	295.86
686.12	295.04
686.45	294.35
686.79	293.60
687.13	292.88
687.46	292.13
687.80	291.38
688.14	290.50
688.48	289.82
688.81	289.09
689.15	288.29
689.49	287.41
689.82	286.56
690.16	285.57
690.50	284.78
690.83	283.87
691.17	283.08
691.51	282.30
691.84	281.61
692.18	280.95
692.52	280.28
692.85	279.69
693.19	279.10
693.52	278.43
693.86	277.68
694.20	276.97
694.53	276.30
694.87	275.61
695.21	274.89
695.54	274.10
695.88	273.36
696.21	272.59
696.55	271.93
696.88	271.27
697.22	270.65
697.56	270.12
697.89	269.50
698.23	268.96
698.56	268.38
698.90	267.84
699.23	267.20
699.57	266.63
699.90	265.98
700.24	265.34
700.58	264.75
700.91	264.19
701.25	263.92
701.58	263.41
701.92	262.90
702.25	262.34
702.59	261.85
702.92	261.41
703.26	261.01
703.59	260.47
703.93	260.24
704.26	259.83
704.60	259.25
704.93	258.69
705.26	258.10
705.60	257.72
705.93	257.19
706.27	256.81
706.60	256.43
706.94	256.12
707.27	255.60
707.61	255.12
707.94	254.57
708.27	253.77
708.61	253.18
708.94	252.67
709.28	252.35
709.61	251.94
709.94	251.45
710.28	250.97
710.61	250.62
710.95	249.92
711.28	249.73
711.61	249.43
711.95	249.18
712.28	248.81
712.61	248.37
712.95	248.12
713.28	247.89
713.61	247.50
713.95	247.00
714.28	246.67
714.61	246.31
714.95	246.02
715.28	245.67
715.61	245.37
715.95	245.03
716.28	244.59
716.61	244.23
716.95	243.89
717.28	243.59
717.61	243.33
717.94	243.03
718.28	242.47
718.61	242.21
718.94	241.82
719.27	241.46
719.61	241.22
719.94	240.82
720.27	240.32
720.60	239.90
720.94	239.61
721.27	239.30
721.60	239.10
721.93	238.80
722.27	238.67
722.60	238.42
722.93	238.16
723.26	237.92
723.59	237.56
723.93	237.41
724.26	237.23
724.59	236.86
724.92	236.62
725.25	236.46
725.59	236.19
725.92	236.10
726.25	235.90
726.58	235.67
726.91	235.43
727.24	235.32
727.57	235.18
727.91	234.88
728.24	234.79
728.57	234.47
728.90	234.33
729.23	233.94
729.56	233.88
729.89	233.63
730.22	233.44
730.55	233.31
730.89	233.06
731.22	232.78
731.55	232.61
731.88	232.46
732.21	232.26
732.54	231.94
732.87	231.59
733.20	231.46
733.53	231.30
733.86	231.12
734.19	230.82
734.52	230.76
734.85	230.80
735.18	230.59
735.51	230.53
735.84	230.31
736.17	230.26
736.50	229.93
736.83	230.21
737.16	230.05
737.49	229.88
737.82	229.73
738.15	229.60
738.48	229.40
738.81	229.15
739.14	228.86
739.47	228.75
739.80	228.56
740.13	228.33
740.46	228.12
740.79	227.91
741.12	227.85
741.45	227.51
741.78	227.19
742.11	227.03
742.44	226.78
742.77	226.75
743.10	226.56
743.43	226.40
743.75	225.81
744.08	226.07
744.41	225.86
744.74	225.67
745.07	225.34
745.40	225.29
745.73	225.23
746.06	225.04
746.39	224.92
746.71	224.72
747.04	224.60
747.37	224.34
747.70	224.23
748.03	224.03
748.36	223.99
748.68	223.84
749.01	223.60
749.34	223.52
749.67	223.29
750.00	223.21
750.33	223.35
750.65	223.28
750.98	222.70
751.31	222.65
751.64	222.56
751.97	222.76
752.29	222.59
752.62	222.32
752.95	222.29
753.28	222.14
753.60	222.11
753.93	222.12
754.26	222.07
754.59	221.85
754.91	221.67
755.24	221.46
755.57	221.34
755.90	221.22
756.22	221.01
756.55	220.95
756.88	220.77
757.20	220.35
757.53	220.17
757.86	220.09
758.19	219.97
758.51	219.85
758.84	219.54
759.17	219.39
759.49	219.42
759.82	219.44
760.15	219.38
760.47	219.29
760.80	219.09
761.13	219.06
761.45	219.01
761.78	219.01
762.11	218.95
762.43	218.87
762.76	218.85
763.08	218.82
763.41	218.73
763.74	218.62
764.06	218.59
764.39	218.54
764.71	218.45
765.04	218.36
765.37	218.22
765.69	218.12
766.02	218.12
766.34	217.98
766.67	217.93
767.00	217.97
767.32	218.03
767.65	218.23
767.97	218.12
768.30	218.09
768.62	217.99
768.95	217.89
769.27	217.79
769.60	217.74
769.92	217.64
770.25	217.50
770.57	217.42
770.90	217.35
771.22	217.23
771.55	217.17
771.87	217.14
772.20	217.05
772.52	217.29
772.85	217.57
773.17	217.47
773.50	217.30
773.82	217.19
774.15	217.02
774.47	216.72
774.80	216.69
775.12	216.59
775.45	216.55
775.77	216.52
776.09	216.53
776.42	216.50
776.74	216.66
777.07	216.62
777.39	216.55
777.72	216.53
778.04	216.53
778.36	216.51
778.69	216.48
779.01	216.52
779.33	216.20
779.66	215.80
779.98	215.77
780.31	215.73
780.63	215.81
780.95	215.84
781.28	215.75
781.60	215.68
781.92	215.67
782.25	215.55
782.57	215.52
782.89	215.52
783.22	215.45
783.54	215.25
783.86	215.24
784.19	215.26
784.51	215.29
784.83	215.26
785.16	215.19
785.48	215.11
785.80	215.11
786.12	215.08
786.45	215.00
786.77	215.00
787.09	214.91
787.42	214.78
787.74	214.74
788.06	214.70
788.38	214.66
788.71	214.64
789.03	214.72
789.35	214.75
789.67	214.62
789.99	214.63
790.32	214.52
790.64	214.50
790.96	214.76
791.28	214.65
791.61	214.51
791.93	214.55
792.25	214.54
792.57	214.73
792.89	214.73
793.21	214.75
793.54	214.74
793.86	214.70
794.18	214.69
