SpectraSuite Data File
++++++++++++++++++++++++++++++++++++
Date: Mon Feb 25 17:06:29 EST 2013
User: group
Dark Spectrum Present: No
Reference Spectrum Present: No
Number of Sampled Component Spectra: 1
Spectrometers: USB2E7196
Integration Time (usec): 104000 (USB2E7196)
Spectra Averaged: 20 (USB2E7196)
Boxcar Smoothing: 10 (USB2E7196)
Correct for Electrical Dark: No (USB2E7196)
Strobe/Lamp Enabled: No (USB2E7196)
Correct for Detector Non-linearity: No (USB2E7196)
Correct for Stray Light: No (USB2E7196)
Number of Pixels in Processed Spectrum: 2048
>>>>>Begin Processed Spectral Data<<<<<
339.09	0.00
339.48	197.60
339.86	200.85
340.24	200.60
340.63	202.65
341.01	208.30
341.39	204.50
341.78	207.35
342.16	209.15
342.54	208.35
342.93	197.87
343.31	207.85
343.69	208.44
344.07	208.81
344.46	209.36
344.84	209.71
345.22	209.81
345.60	210.09
345.99	210.29
346.37	210.39
346.75	210.49
347.13	210.60
347.52	210.62
347.90	210.83
348.28	210.80
348.66	210.91
349.05	210.81
349.43	210.88
349.81	210.88
350.19	211.00
350.57	211.03
350.96	211.06
351.34	211.11
351.72	211.20
352.10	211.33
352.48	211.36
352.87	211.43
353.25	211.53
353.63	211.61
354.01	211.59
354.39	211.65
354.77	211.74
355.15	211.93
355.54	211.99
355.92	211.93
356.30	212.13
356.68	212.36
357.06	212.47
357.44	212.49
357.82	212.51
358.20	212.59
358.58	212.61
358.97	212.73
359.35	212.90
359.73	212.98
360.11	213.01
360.49	213.01
360.87	213.10
361.25	213.17
361.63	213.32
362.01	213.41
362.39	213.41
362.77	213.46
363.15	213.44
363.53	213.47
363.91	213.51
364.29	213.42
364.67	213.12
365.05	213.16
365.43	213.15
365.81	213.23
366.19	213.40
366.57	213.55
366.95	213.51
367.33	213.40
367.71	213.39
368.09	213.51
368.47	213.51
368.85	213.47
369.23	213.47
369.61	213.37
369.99	213.50
370.37	213.50
370.75	213.62
371.13	213.48
371.51	213.45
371.89	213.53
372.27	213.55
372.65	213.50
373.03	213.43
373.41	213.38
373.78	213.35
374.16	213.10
374.54	212.98
374.92	212.84
375.30	212.75
375.68	212.71
376.06	212.58
376.44	212.48
376.82	212.40
377.19	212.27
377.57	212.20
377.95	212.00
378.33	211.94
378.71	211.69
379.09	211.71
379.47	211.67
379.84	211.54
380.22	211.44
380.60	211.40
380.98	211.32
381.36	211.25
381.73	211.11
382.11	211.12
382.49	211.07
382.87	211.01
383.25	211.07
383.62	211.38
384.00	211.30
384.38	211.31
384.76	211.38
385.13	211.54
385.51	211.47
385.89	211.39
386.27	211.38
386.64	211.36
387.02	211.27
387.40	211.21
387.78	211.21
388.15	211.18
388.53	211.08
388.91	211.05
389.29	211.00
389.66	211.04
390.04	210.93
390.42	210.96
390.79	210.99
391.17	210.93
391.55	210.51
391.92	210.47
392.30	210.50
392.68	210.45
393.05	210.37
393.43	210.33
393.81	210.36
394.18	210.27
394.56	210.26
394.94	210.37
395.31	210.34
395.69	210.39
396.06	210.43
396.44	210.47
396.82	210.48
397.19	210.64
397.57	210.56
397.95	210.63
398.32	210.49
398.70	210.53
399.07	210.64
399.45	210.60
399.82	210.61
400.20	210.55
400.58	210.45
400.95	210.34
401.33	210.39
401.70	210.58
402.08	210.60
402.45	210.66
402.83	210.72
403.20	210.83
403.58	210.80
403.95	210.89
404.33	211.02
404.71	211.10
405.08	211.45
405.46	211.54
405.83	211.56
406.21	211.68
406.58	211.74
406.96	211.85
407.33	211.99
407.70	212.15
408.08	212.57
408.45	212.80
408.83	213.11
409.20	213.24
409.58	213.30
409.95	213.55
410.33	213.81
410.70	214.00
411.08	214.24
411.45	214.49
411.82	214.70
412.20	215.06
412.57	215.51
412.95	215.49
413.32	216.02
413.69	216.38
414.07	216.85
414.44	217.40
414.82	217.85
415.19	218.42
415.56	219.03
415.94	219.51
416.31	220.30
416.68	220.88
417.06	221.78
417.43	222.70
417.81	223.60
418.18	224.60
418.55	225.57
418.93	226.65
419.30	227.84
419.67	229.10
420.04	230.28
420.42	231.46
420.79	233.19
421.16	234.55
421.54	236.33
421.91	237.93
422.28	239.60
422.66	241.37
423.03	243.36
423.40	245.19
423.77	247.06
424.15	248.92
424.52	251.01
424.89	253.19
425.26	255.21
425.64	257.30
426.01	259.45
426.38	261.81
426.75	264.27
427.13	266.66
427.50	269.26
427.87	271.94
428.24	274.75
428.61	277.09
428.99	280.14
429.36	282.97
429.73	286.00
430.10	289.05
430.47	292.09
430.85	295.09
431.22	298.45
431.59	302.29
431.96	305.80
432.33	309.59
432.70	313.39
433.08	317.78
433.45	321.99
433.82	326.15
434.19	330.65
434.56	335.17
434.93	339.61
435.30	343.92
435.68	348.69
436.05	353.30
436.42	358.02
436.79	362.27
437.16	367.05
437.53	371.93
437.90	376.70
438.27	381.54
438.64	386.60
439.01	391.26
439.38	395.30
439.75	399.35
440.13	404.06
440.50	408.45
440.87	412.03
441.24	415.71
441.61	419.76
441.98	422.89
442.35	426.25
442.72	429.77
443.09	433.32
443.46	435.60
443.83	437.25
444.20	438.70
444.57	440.64
444.94	441.67
445.31	442.86
445.68	444.34
446.05	445.02
446.42	444.63
446.79	444.41
447.16	443.92
447.53	443.75
447.90	442.17
448.27	440.41
448.64	438.03
449.01	436.45
449.37	433.50
449.74	430.69
450.11	427.55
450.48	423.66
450.85	419.50
451.22	416.04
451.59	412.84
451.96	409.65
452.33	405.37
452.70	401.58
453.07	396.85
453.43	391.84
453.80	387.31
454.17	383.13
454.54	378.96
454.91	374.60
455.28	370.22
455.65	366.16
456.02	362.70
456.38	359.31
456.75	355.07
457.12	351.46
457.49	347.94
457.86	344.25
458.23	341.38
458.59	338.30
458.96	335.14
459.33	332.13
459.70	329.37
460.07	327.09
460.43	324.47
460.80	322.13
461.17	320.09
461.54	317.80
461.91	315.63
462.27	313.46
462.64	311.55
463.01	309.61
463.38	307.73
463.74	305.26
464.11	303.43
464.48	301.86
464.85	300.18
465.21	298.85
465.58	297.55
465.95	295.80
466.32	294.43
466.68	293.01
467.05	291.67
467.42	290.22
467.78	288.79
468.15	287.33
468.52	286.36
468.88	284.90
469.25	283.70
469.62	282.75
469.98	281.60
470.35	280.61
470.72	279.70
471.08	278.56
471.45	277.75
471.82	277.03
472.18	276.06
472.55	275.37
472.92	274.54
473.28	273.71
473.65	273.01
474.02	272.28
474.38	271.69
474.75	271.21
475.11	270.69
475.48	270.30
475.85	269.98
476.21	269.46
476.58	269.15
476.94	268.98
477.31	268.65
477.67	268.40
478.04	268.17
478.41	267.93
478.77	268.13
479.14	267.93
479.50	267.85
479.87	267.80
480.23	267.79
480.60	267.65
480.96	267.67
481.33	267.83
481.69	267.85
482.06	267.86
482.42	267.86
482.79	267.82
483.15	267.84
483.52	268.02
483.88	268.17
484.25	268.29
484.61	268.41
484.98	268.66
485.34	269.09
485.71	269.46
486.07	269.71
486.44	269.68
486.80	270.01
487.17	270.29
487.53	270.78
487.90	271.26
488.26	271.96
488.62	272.54
488.99	273.00
489.35	273.63
489.72	274.27
490.08	275.01
490.44	275.76
490.81	276.57
491.17	277.25
491.54	278.13
491.90	279.03
492.26	279.94
492.63	280.80
492.99	281.62
493.36	282.56
493.72	283.66
494.08	284.75
494.45	285.89
494.81	287.09
495.17	288.22
495.54	289.44
495.90	290.43
496.26	291.64
496.63	292.91
496.99	294.19
497.35	295.57
497.72	296.94
498.08	298.20
498.44	299.60
498.80	301.02
499.17	302.41
499.53	303.79
499.89	305.24
500.26	306.69
500.62	308.13
500.98	309.66
501.34	311.01
501.71	312.57
502.07	314.10
502.43	315.56
502.79	316.98
503.16	318.38
503.52	319.94
503.88	321.35
504.24	322.90
504.60	324.49
504.97	326.05
505.33	327.54
505.69	329.34
506.05	330.90
506.41	332.47
506.78	333.93
507.14	335.51
507.50	337.01
507.86	338.72
508.22	340.37
508.59	341.88
508.95	343.55
509.31	345.25
509.67	346.86
510.03	348.45
510.39	350.08
510.75	351.75
511.12	353.52
511.48	355.26
511.84	356.87
512.20	358.46
512.56	360.08
512.92	361.68
513.28	363.24
513.64	364.82
514.00	366.51
514.37	368.22
514.73	369.85
515.09	371.65
515.45	373.20
515.81	374.77
516.17	376.50
516.53	378.10
516.89	379.65
517.25	381.27
517.61	383.10
517.97	384.76
518.33	386.45
518.69	388.09
519.05	389.88
519.41	391.74
519.77	393.78
520.13	395.53
520.49	397.36
520.85	399.22
521.21	401.30
521.57	403.24
521.93	405.03
522.29	407.09
522.65	408.87
523.01	410.84
523.37	413.01
523.73	415.10
524.09	417.25
524.45	419.42
524.81	421.74
525.17	423.85
525.53	426.32
525.89	428.65
526.25	431.07
526.61	433.24
526.97	435.64
527.33	437.87
527.68	440.64
528.04	443.04
528.40	445.45
528.76	447.88
529.12	450.48
529.48	453.41
529.84	456.04
530.20	458.91
530.56	461.78
530.91	464.57
531.27	467.38
531.63	470.33
531.99	473.14
532.35	475.90
532.71	478.80
533.07	481.68
533.42	484.89
533.78	487.88
534.14	491.03
534.50	493.86
534.86	497.10
535.21	499.72
535.57	503.02
535.93	505.95
536.29	509.14
536.65	512.18
537.00	515.01
537.36	518.01
537.72	520.87
538.08	523.85
538.44	526.86
538.79	529.94
539.15	532.86
539.51	535.97
539.87	539.15
540.22	542.25
540.58	545.41
540.94	548.24
541.29	551.27
541.65	554.23
542.01	557.27
542.37	560.14
542.72	563.24
543.08	566.08
543.44	569.47
543.79	572.19
544.15	575.44
544.51	578.60
544.87	581.70
545.22	584.86
545.58	587.79
545.94	590.57
546.29	593.28
546.65	596.15
547.01	598.95
547.36	601.73
547.72	604.57
548.07	607.05
548.43	609.79
548.79	612.33
549.14	614.89
549.50	617.62
549.86	620.05
550.21	622.79
550.57	625.60
550.92	627.96
551.28	630.53
551.64	632.79
551.99	635.22
552.35	637.60
552.70	639.75
553.06	642.17
553.41	644.33
553.77	646.84
554.13	649.03
554.48	651.36
554.84	653.68
555.19	655.75
555.55	658.30
555.90	660.27
556.26	662.21
556.61	664.14
556.97	665.85
557.32	667.75
557.68	669.38
558.03	670.79
558.39	672.39
558.74	674.28
559.10	675.79
559.45	677.52
559.81	679.29
560.16	680.91
560.52	682.31
560.87	684.00
561.23	685.36
561.58	687.17
561.94	688.54
562.29	689.84
562.64	691.35
563.00	692.29
563.35	693.73
563.71	695.34
564.06	696.85
564.42	698.48
564.77	699.94
565.12	701.33
565.48	703.01
565.83	704.36
566.19	705.51
566.54	706.70
566.89	707.61
567.25	708.68
567.60	710.07
567.96	711.61
568.31	712.86
568.66	713.94
569.02	714.42
569.37	715.00
569.72	715.64
570.08	716.28
570.43	717.03
570.78	717.45
571.14	717.68
571.49	718.06
571.84	718.28
572.20	718.37
572.55	718.68
572.90	718.45
573.26	718.48
573.61	718.32
573.96	718.24
574.31	718.00
574.67	717.36
575.02	716.83
575.37	716.00
575.72	715.32
576.08	714.95
576.43	714.55
576.78	714.14
577.13	713.82
577.49	713.39
577.84	712.97
578.19	712.39
578.54	712.03
578.90	711.66
579.25	711.18
579.60	710.71
579.95	709.86
580.30	709.57
580.66	709.12
581.01	708.63
581.36	708.06
581.71	707.50
582.06	707.38
582.42	706.81
582.77	706.36
583.12	705.82
583.47	705.10
583.82	704.54
584.17	703.95
584.53	703.52
584.88	702.77
585.23	702.22
585.58	701.78
585.93	701.02
586.28	700.41
586.63	699.77
586.98	699.03
587.34	698.60
587.69	697.77
588.04	697.01
588.39	696.26
588.74	695.31
589.09	694.83
589.44	693.70
589.79	693.01
590.14	692.15
590.49	691.29
590.84	690.41
591.19	689.83
591.54	689.04
591.89	687.63
592.25	686.87
592.60	685.65
592.95	684.21
593.30	683.11
593.65	681.53
594.00	680.21
594.35	680.32
594.70	679.09
595.05	677.96
595.40	676.83
595.75	675.50
596.10	674.64
596.45	673.37
596.80	672.55
597.15	671.51
597.50	670.21
597.85	669.15
598.19	667.94
598.54	666.74
598.89	665.50
599.24	664.65
599.59	663.42
599.94	662.40
600.29	661.59
600.64	660.42
600.99	659.59
601.34	658.56
601.69	656.22
602.04	654.90
602.39	653.64
602.74	652.55
603.08	651.74
603.43	650.92
603.78	649.87
604.13	648.60
604.48	647.38
604.83	646.63
605.18	645.72
605.53	644.67
605.87	643.52
606.22	642.57
606.57	641.33
606.92	640.06
607.27	638.86
607.62	637.89
607.96	636.85
608.31	635.86
608.66	634.72
609.01	633.52
609.36	632.43
609.70	631.19
610.05	629.59
610.40	628.12
610.75	626.42
611.10	625.00
611.44	623.26
611.79	621.67
612.14	619.83
612.49	617.90
612.83	616.31
613.18	614.45
613.53	612.76
613.88	610.96
614.22	609.41
614.57	607.72
614.92	605.68
615.27	604.03
615.61	602.11
615.96	600.23
616.31	598.65
616.65	597.06
617.00	595.31
617.35	593.70
617.70	591.82
618.04	589.88
618.39	587.81
618.74	586.17
619.08	584.18
619.43	582.32
619.78	580.55
620.12	578.73
620.47	577.00
620.82	574.96
621.16	573.08
621.51	571.13
621.85	569.13
622.20	567.27
622.55	565.22
622.89	563.19
623.24	561.35
623.59	559.21
623.93	557.19
624.28	555.29
624.62	553.79
624.97	552.02
625.32	550.20
625.66	548.57
626.01	546.76
626.35	545.05
626.70	543.15
627.04	541.71
627.39	539.74
627.73	537.94
628.08	536.41
628.43	534.55
628.77	532.61
629.12	530.74
629.46	529.14
629.81	527.34
630.15	525.51
630.50	523.55
630.84	521.62
631.19	519.74
631.53	517.99
631.88	515.76
632.22	513.78
632.57	512.13
632.91	510.17
633.26	508.37
633.60	506.61
633.95	504.90
634.29	502.82
634.64	501.22
634.98	499.21
635.32	497.40
635.67	495.75
636.01	494.07
636.36	492.35
636.70	490.73
637.05	488.99
637.39	487.45
637.73	486.07
638.08	484.76
638.42	483.18
638.77	481.46
639.11	479.80
639.45	478.26
639.80	476.40
640.14	474.70
640.49	472.94
640.83	471.04
641.17	469.43
641.52	467.64
641.86	465.91
642.20	464.42
642.55	462.50
642.89	460.64
643.23	458.93
643.58	457.39
643.92	455.34
644.26	453.70
644.61	451.95
644.95	449.98
645.29	448.05
645.64	446.28
645.98	444.47
646.32	442.71
646.66	440.77
647.01	439.15
647.35	437.54
647.69	435.72
648.04	434.22
648.38	432.43
648.72	430.73
649.06	428.85
649.41	427.03
649.75	425.33
650.09	423.85
650.43	422.17
650.78	420.34
651.12	418.70
651.46	417.00
651.80	415.34
652.14	413.74
652.49	412.19
652.83	410.41
653.17	408.75
653.51	407.12
653.85	405.56
654.20	403.88
654.54	402.17
654.88	400.61
655.22	399.07
655.56	397.44
655.90	395.98
656.25	394.40
656.59	392.80
656.93	391.20
657.27	389.65
657.61	387.93
657.95	386.40
658.29	384.97
658.64	383.48
658.98	381.83
659.32	380.20
659.66	378.63
660.00	377.11
660.34	375.48
660.68	373.92
661.02	372.37
661.36	370.85
661.70	369.40
662.05	367.96
662.39	366.60
662.73	365.30
663.07	363.94
663.41	362.56
663.75	361.20
664.09	359.86
664.43	358.33
664.77	356.91
665.11	355.50
665.45	354.09
665.79	352.76
666.13	351.45
666.47	350.26
666.81	348.94
667.15	347.73
667.49	346.73
667.83	345.68
668.17	344.51
668.51	343.42
668.85	342.35
669.19	341.39
669.53	340.04
669.87	338.70
670.21	337.48
670.55	336.34
670.89	335.36
671.23	334.37
671.57	333.33
671.91	332.38
672.25	331.34
672.58	330.39
672.92	329.25
673.26	328.35
673.60	327.35
673.94	326.36
674.28	325.33
674.62	324.32
674.96	323.18
675.30	322.18
675.64	321.17
675.97	320.09
676.31	318.97
676.65	318.00
676.99	317.34
677.33	316.29
677.67	315.27
678.01	314.14
678.34	313.14
678.68	312.28
679.02	311.34
679.36	310.47
679.70	309.50
680.04	308.62
680.37	307.56
680.71	306.55
681.05	305.68
681.39	304.80
681.73	303.88
682.06	303.06
682.40	302.20
682.74	301.34
683.08	300.55
683.42	299.70
683.75	298.87
684.09	297.89
684.43	297.12
684.77	296.40
685.10	295.65
685.44	294.78
685.78	293.91
686.12	293.15
686.45	292.30
686.79	291.50
687.13	290.76
687.46	290.03
687.80	289.37
688.14	288.52
688.48	287.78
688.81	287.01
689.15	286.30
689.49	285.47
689.82	284.73
690.16	283.85
690.50	283.06
690.83	282.25
691.17	281.43
691.51	280.64
691.84	279.88
692.18	279.14
692.52	278.43
692.85	277.77
693.19	277.17
693.52	276.46
693.86	275.67
694.20	275.03
694.53	274.26
694.87	273.52
695.21	272.84
695.54	272.15
695.88	271.35
696.21	270.60
696.55	270.03
696.88	269.45
697.22	268.80
697.56	268.25
697.89	267.62
698.23	267.10
698.56	266.53
698.90	266.01
699.23	265.38
699.57	264.87
699.90	264.17
700.24	263.42
700.58	262.90
700.91	262.38
701.25	262.09
701.58	261.73
701.92	261.23
702.25	260.72
702.59	260.12
702.92	259.71
703.26	259.21
703.59	258.68
703.93	258.40
704.26	258.05
704.60	257.50
704.93	257.07
705.26	256.49
705.60	256.00
705.93	255.43
706.27	255.17
706.60	254.73
706.94	254.40
707.27	253.93
707.61	253.55
707.94	253.15
708.27	252.27
708.61	251.80
708.94	251.41
709.28	251.00
709.61	250.65
709.94	250.27
710.28	249.86
710.61	249.56
710.95	248.75
711.28	248.49
711.61	248.11
711.95	247.81
712.28	247.44
712.61	247.02
712.95	246.83
713.28	246.46
713.61	245.98
713.95	245.65
714.28	245.43
714.61	245.04
714.95	244.67
715.28	244.42
715.61	243.97
715.95	243.60
716.28	243.23
716.61	242.90
716.95	242.48
717.28	242.18
717.61	241.80
717.94	241.60
718.28	241.02
718.61	240.68
718.94	240.30
719.27	240.03
719.61	239.75
719.94	239.32
720.27	238.92
720.60	238.73
720.94	238.37
721.27	238.06
721.60	237.83
721.93	237.47
722.27	237.31
722.60	237.08
722.93	236.80
723.26	236.58
723.59	236.29
723.93	236.09
724.26	235.81
724.59	235.56
724.92	235.32
725.25	235.20
725.59	235.02
725.92	234.81
726.25	234.62
726.58	234.48
726.91	234.28
727.24	234.09
727.57	233.81
727.91	233.53
728.24	233.35
728.57	233.01
728.90	232.97
729.23	232.67
729.56	232.64
729.89	232.46
730.22	232.20
730.55	231.97
730.89	231.79
731.22	231.66
731.55	231.44
731.88	231.20
732.21	230.90
732.54	230.67
732.87	230.44
733.20	230.21
733.53	230.06
733.86	229.84
734.19	229.59
734.52	229.45
734.85	229.52
735.18	229.22
735.51	229.21
735.84	228.97
736.17	228.93
736.50	228.60
736.83	228.74
737.16	228.60
737.49	228.49
737.82	228.33
738.15	228.14
738.48	228.02
738.81	227.78
739.14	227.60
739.47	227.34
739.80	227.27
740.13	227.04
740.46	226.75
740.79	226.59
741.12	226.41
741.45	226.22
741.78	225.86
742.11	225.82
742.44	225.57
742.77	225.51
743.10	225.20
743.43	224.96
743.75	224.54
744.08	224.85
744.41	224.69
744.74	224.62
745.07	224.39
745.40	224.32
745.73	224.39
746.06	224.24
746.39	224.23
746.71	223.93
747.04	223.81
747.37	223.70
747.70	223.70
748.03	223.59
748.36	223.50
748.68	223.45
749.01	223.27
749.34	223.16
749.67	223.02
750.00	222.99
750.33	223.22
750.65	223.06
750.98	222.46
751.31	222.32
751.64	222.11
751.97	222.25
752.29	222.05
752.62	221.75
752.95	221.65
753.28	221.44
753.60	221.39
753.93	221.36
754.26	221.30
754.59	221.03
754.91	220.93
755.24	220.80
755.57	220.74
755.90	220.63
756.22	220.50
756.55	220.34
756.88	220.20
757.20	219.84
757.53	219.67
757.86	219.65
758.19	219.58
758.51	219.51
758.84	219.25
759.17	219.18
759.49	219.08
759.82	219.19
760.15	219.20
760.47	219.16
760.80	219.02
761.13	219.01
761.45	218.93
761.78	218.83
762.11	218.72
762.43	218.55
762.76	218.40
763.08	218.32
763.41	218.25
763.74	218.22
764.06	218.18
764.39	218.11
764.71	218.00
765.04	217.91
765.37	217.82
765.69	217.69
766.02	217.57
766.34	217.50
766.67	217.35
767.00	217.28
767.32	217.35
767.65	217.50
767.97	217.39
768.30	217.41
768.62	217.32
768.95	217.29
769.27	217.25
769.60	217.30
769.92	217.19
770.25	217.08
770.57	217.04
770.90	216.97
771.22	216.83
771.55	216.76
771.87	216.77
772.20	216.68
772.52	217.00
772.85	217.41
773.17	217.52
773.50	217.34
773.82	217.30
774.15	217.09
774.47	216.77
774.80	216.66
775.12	216.61
775.45	216.59
775.77	216.50
776.09	216.45
776.42	216.41
776.74	216.49
777.07	216.42
777.39	216.34
777.72	216.27
778.04	216.37
778.36	216.30
778.69	216.18
779.01	216.18
779.33	215.77
779.66	215.32
779.98	215.12
780.31	215.20
780.63	215.23
780.95	215.24
781.28	215.23
781.60	215.19
781.92	215.12
782.25	215.06
782.57	215.12
782.89	215.09
783.22	215.00
783.54	214.88
783.86	214.88
784.19	214.81
784.51	214.88
784.83	214.76
785.16	214.75
785.48	214.75
785.80	214.74
786.12	214.73
786.45	214.76
786.77	214.74
787.09	214.70
787.42	214.56
787.74	214.55
788.06	214.56
788.38	214.52
788.71	214.43
789.03	214.50
789.35	214.45
789.67	214.31
789.99	214.31
790.32	214.27
790.64	214.31
790.96	214.61
791.28	214.45
791.61	214.49
791.93	214.46
792.25	214.41
792.57	214.65
792.89	214.60
793.21	214.57
793.54	214.53
793.86	214.42
794.18	214.51
