SpectraSuite Data File
++++++++++++++++++++++++++++++++++++
Date: Mon Feb 25 17:02:16 EST 2013
User: group
Dark Spectrum Present: No
Reference Spectrum Present: No
Number of Sampled Component Spectra: 1
Spectrometers: USB2E7196
Integration Time (usec): 104000 (USB2E7196)
Spectra Averaged: 20 (USB2E7196)
Boxcar Smoothing: 10 (USB2E7196)
Correct for Electrical Dark: No (USB2E7196)
Strobe/Lamp Enabled: No (USB2E7196)
Correct for Detector Non-linearity: No (USB2E7196)
Correct for Stray Light: No (USB2E7196)
Number of Pixels in Processed Spectrum: 2048
>>>>>Begin Processed Spectral Data<<<<<
339.09	0.00
339.48	198.45
339.86	200.10
340.24	201.45
340.63	204.55
341.01	209.05
341.39	205.75
341.78	206.65
342.16	209.35
342.54	209.90
342.93	198.49
343.31	208.48
343.69	209.00
344.07	209.45
344.46	209.88
344.84	210.15
345.22	210.15
345.60	210.44
345.99	210.65
346.37	210.70
346.75	210.74
347.13	210.77
347.52	210.80
347.90	210.99
348.28	211.03
348.66	211.19
349.05	211.09
349.43	211.11
349.81	211.10
350.19	211.09
350.57	211.11
350.96	211.16
351.34	211.26
351.72	211.36
352.10	211.44
352.48	211.45
352.87	211.56
353.25	211.68
353.63	211.67
354.01	211.68
354.39	211.82
354.77	211.88
355.15	212.02
355.54	212.06
355.92	211.95
356.30	211.99
356.68	212.26
357.06	212.30
357.44	212.33
357.82	212.43
358.20	212.59
358.58	212.65
358.97	212.67
359.35	212.77
359.73	212.87
360.11	212.94
360.49	213.00
360.87	213.06
361.25	213.23
361.63	213.44
362.01	213.57
362.39	213.56
362.77	213.65
363.15	213.67
363.53	213.59
363.91	213.61
364.29	213.60
364.67	213.37
365.05	213.40
365.43	213.40
365.81	213.51
366.19	213.59
366.57	213.72
366.95	213.68
367.33	213.64
367.71	213.67
368.09	213.70
368.47	213.67
368.85	213.62
369.23	213.63
369.61	213.45
369.99	213.51
370.37	213.51
370.75	213.65
371.13	213.52
371.51	213.56
371.89	213.54
372.27	213.55
372.65	213.44
373.03	213.44
373.41	213.40
373.78	213.29
374.16	213.07
374.54	212.87
374.92	212.85
375.30	212.74
375.68	212.60
376.06	212.65
376.44	212.68
376.82	212.68
377.19	212.54
377.57	212.52
377.95	212.35
378.33	212.16
378.71	211.95
379.09	212.00
379.47	211.95
379.84	211.87
380.22	211.75
380.60	211.65
380.98	211.63
381.36	211.54
381.73	211.45
382.11	211.51
382.49	211.46
382.87	211.35
383.25	211.27
383.62	211.66
384.00	211.50
384.38	211.39
384.76	211.37
385.13	211.44
385.51	211.36
385.89	211.27
386.27	211.36
386.64	211.31
387.02	211.21
387.40	211.06
387.78	211.10
388.15	211.11
388.53	211.08
388.91	211.00
389.29	210.90
389.66	210.92
390.04	210.88
390.42	211.04
390.79	211.07
391.17	211.12
391.55	210.71
391.92	210.65
392.30	210.74
392.68	210.65
393.05	210.65
393.43	210.71
393.81	210.76
394.18	210.71
394.56	210.72
394.94	210.78
395.31	210.90
395.69	210.94
396.06	210.95
396.44	211.07
396.82	211.10
397.19	211.34
397.57	211.31
397.95	211.27
398.32	211.10
398.70	211.13
399.07	211.25
399.45	211.20
399.82	211.19
400.20	211.16
400.58	211.19
400.95	211.06
401.33	211.04
401.70	211.30
402.08	211.32
402.45	211.39
402.83	211.54
403.20	211.59
403.58	211.70
403.95	211.86
404.33	211.91
404.71	212.00
405.08	212.24
405.46	212.38
405.83	212.62
406.21	212.80
406.58	212.98
406.96	213.09
407.33	213.35
407.70	213.73
408.08	214.30
408.45	214.62
408.83	214.95
409.20	215.35
409.58	215.46
409.95	215.89
410.33	216.23
410.70	216.44
411.08	216.97
411.45	217.45
411.82	217.85
412.20	218.50
412.57	219.30
412.95	219.64
413.32	220.34
413.69	220.95
414.07	221.70
414.44	222.47
414.82	223.34
415.19	224.33
415.56	225.16
415.94	225.95
416.31	227.07
416.68	228.21
417.06	229.46
417.43	230.85
417.81	232.29
418.18	233.75
418.55	235.38
418.93	236.97
419.30	238.58
419.67	240.40
420.04	242.16
420.42	244.00
420.79	246.52
421.16	248.78
421.54	251.24
421.91	253.73
422.28	256.35
422.66	259.08
423.03	261.97
423.40	264.82
423.77	267.82
424.15	270.89
424.52	274.11
424.89	277.55
425.26	280.82
425.64	284.10
426.01	287.75
426.38	291.54
426.75	295.42
427.13	299.42
427.50	303.65
427.87	308.10
428.24	312.38
428.61	316.42
428.99	321.08
429.36	326.04
429.73	330.95
430.10	335.83
430.47	340.75
430.85	345.80
431.22	351.34
431.59	357.32
431.96	362.92
432.33	369.21
432.70	375.32
433.08	382.42
433.45	389.00
433.82	395.69
434.19	403.19
434.56	410.56
434.93	417.62
435.30	424.66
435.68	432.46
436.05	440.28
436.42	448.06
436.79	455.13
437.16	462.75
437.53	470.73
437.90	478.80
438.27	486.89
438.64	495.11
439.01	502.93
439.38	509.73
439.75	516.61
440.13	524.15
440.50	531.38
440.87	537.41
441.24	543.76
441.61	550.70
441.98	555.83
442.35	561.77
442.72	567.85
443.09	573.82
443.46	577.62
443.83	580.29
444.20	582.60
444.57	586.05
444.94	587.90
445.31	590.02
445.68	592.00
446.05	593.11
446.42	592.90
446.79	592.55
447.16	592.13
447.53	591.95
447.90	589.59
448.27	587.17
448.64	583.49
449.01	581.01
449.37	576.18
449.74	571.58
450.11	566.16
450.48	559.91
450.85	553.44
451.22	547.89
451.59	542.75
451.96	537.84
452.33	531.03
452.70	524.94
453.07	517.39
453.43	509.68
453.80	502.45
454.17	495.55
454.54	488.85
454.91	481.67
455.28	474.62
455.65	468.12
456.02	461.90
456.38	456.51
456.75	449.60
457.12	443.90
457.49	438.14
457.86	432.34
458.23	427.69
458.59	422.44
458.96	417.27
459.33	412.59
459.70	407.85
460.07	403.96
460.43	399.62
460.80	395.68
461.17	392.20
461.54	388.35
461.91	384.74
462.27	381.14
462.64	378.05
463.01	374.70
463.38	371.54
463.74	367.92
464.11	364.93
464.48	362.40
464.85	359.51
465.21	357.51
465.58	355.34
465.95	352.45
466.32	350.21
466.68	347.79
467.05	345.54
467.42	343.28
467.78	340.83
468.15	338.61
468.52	336.95
468.88	334.73
469.25	332.82
469.62	331.26
469.98	329.62
470.35	328.03
470.72	326.43
471.08	324.70
471.45	323.36
471.82	321.97
472.18	320.36
472.55	319.24
472.92	317.78
473.28	316.54
473.65	315.45
474.02	314.22
474.38	313.31
474.75	312.42
475.11	311.50
475.48	310.95
475.85	310.30
476.21	309.60
476.58	309.07
476.94	308.62
477.31	308.07
477.67	307.50
478.04	307.16
478.41	306.83
478.77	306.86
479.14	306.42
479.50	306.22
479.87	306.22
480.23	306.06
480.60	305.87
480.96	305.71
481.33	305.97
481.69	306.10
482.06	306.14
482.42	306.18
482.79	306.24
483.15	306.35
483.52	306.66
483.88	306.84
484.25	306.96
484.61	307.25
484.98	307.58
485.34	308.14
485.71	308.55
486.07	309.05
486.44	309.21
486.80	309.90
487.17	310.45
487.53	311.13
487.90	311.95
488.26	312.95
488.62	313.92
488.99	314.62
489.35	315.53
489.72	316.56
490.08	317.56
490.44	318.65
490.81	319.76
491.17	320.83
491.54	321.99
491.90	323.28
492.26	324.58
492.63	325.84
492.99	327.06
493.36	328.46
493.72	329.97
494.08	331.57
494.45	333.20
494.81	334.95
495.17	336.57
495.54	338.29
495.90	339.93
496.26	341.68
496.63	343.45
496.99	345.24
497.35	346.98
497.72	348.94
498.08	350.84
498.44	352.83
498.80	354.78
499.17	356.75
499.53	358.73
499.89	360.80
500.26	362.72
500.62	364.64
500.98	366.73
501.34	368.63
501.71	370.46
502.07	372.25
502.43	374.09
502.79	375.85
503.16	377.56
503.52	379.27
503.88	380.74
504.24	382.30
504.60	383.84
504.97	385.56
505.33	386.99
505.69	388.75
506.05	390.10
506.41	391.41
506.78	392.73
507.14	393.89
507.50	394.97
507.86	396.24
508.22	397.34
508.59	398.22
508.95	399.28
509.31	400.45
509.67	401.41
510.03	402.20
510.39	403.00
510.75	403.85
511.12	404.56
511.48	405.35
511.84	406.09
512.20	406.80
512.56	407.30
512.92	407.94
513.28	408.27
513.64	408.70
514.00	409.11
514.37	409.40
514.73	409.75
515.09	410.03
515.45	410.13
515.81	410.38
516.17	410.47
516.53	410.40
516.89	410.19
517.25	410.15
517.61	410.21
517.97	410.11
518.33	409.91
518.69	409.84
519.05	409.64
519.41	409.53
519.77	409.54
520.13	409.27
520.49	408.95
520.85	408.58
521.21	408.40
521.57	408.19
521.93	407.89
522.29	407.78
522.65	407.60
523.01	407.52
523.37	407.22
523.73	407.16
524.09	407.15
524.45	407.07
524.81	406.96
525.17	406.88
525.53	407.09
525.89	407.08
526.25	407.13
526.61	407.23
526.97	407.30
527.33	407.40
527.68	408.02
528.04	408.48
528.40	408.92
528.76	409.38
529.12	409.82
529.48	410.49
529.84	411.00
530.20	411.64
530.56	412.36
530.91	413.33
531.27	414.13
531.63	414.95
531.99	415.91
532.35	417.04
532.71	418.02
533.07	418.97
533.42	420.65
533.78	421.77
534.14	423.15
534.50	424.37
534.86	425.86
535.21	426.98
535.57	428.26
535.93	429.73
536.29	431.34
536.65	433.05
537.00	434.55
537.36	436.16
537.72	437.92
538.08	439.71
538.44	441.38
538.79	443.27
539.15	445.18
539.51	447.18
539.87	449.14
540.22	451.34
540.58	453.66
540.94	455.49
541.29	457.70
541.65	459.74
542.01	462.11
542.37	464.31
542.72	466.59
543.08	469.00
543.44	471.52
543.79	473.84
544.15	476.31
544.51	479.28
544.87	482.08
545.22	484.78
545.58	487.41
545.94	490.04
546.29	492.72
546.65	495.32
547.01	497.99
547.36	500.79
547.72	503.35
548.07	505.85
548.43	508.35
548.79	511.08
549.14	513.75
549.50	516.54
549.86	519.15
550.21	521.87
550.57	524.67
550.92	527.30
551.28	530.05
551.64	532.57
551.99	535.02
552.35	537.45
552.70	539.90
553.06	542.44
553.41	545.20
553.77	547.98
554.13	550.74
554.48	553.47
554.84	556.14
555.19	558.79
555.55	561.73
555.90	564.33
556.26	566.77
556.61	569.38
556.97	571.68
557.32	574.15
557.68	576.53
558.03	578.92
558.39	581.24
558.74	583.62
559.10	586.13
559.45	588.47
559.81	591.05
560.16	593.47
560.52	595.80
560.87	598.11
561.23	600.22
561.58	602.64
561.94	604.73
562.29	606.60
562.64	608.94
563.00	610.66
563.35	612.99
563.71	615.38
564.06	617.59
564.42	619.94
564.77	622.16
565.12	624.46
565.48	626.91
565.83	629.22
566.19	631.30
566.54	633.28
566.89	635.26
567.25	637.41
567.60	639.55
567.96	641.86
568.31	643.86
568.66	645.57
569.02	647.05
569.37	648.53
569.72	650.30
570.08	651.72
570.43	653.39
570.78	654.67
571.14	655.84
571.49	656.99
571.84	658.13
572.20	659.18
572.55	660.33
572.90	660.85
573.26	661.43
573.61	662.22
573.96	662.90
574.31	663.57
574.67	663.80
575.02	663.81
575.37	663.83
575.72	663.77
576.08	664.25
576.43	664.37
576.78	664.75
577.13	664.93
577.49	665.24
577.84	665.38
578.19	665.65
578.54	666.05
578.90	666.46
579.25	666.60
579.60	666.62
579.95	666.50
580.30	666.67
580.66	666.90
581.01	666.81
581.36	666.57
581.71	666.48
582.06	666.63
582.42	666.74
582.77	666.57
583.12	666.66
583.47	666.57
583.82	666.69
584.17	666.53
584.53	666.56
584.88	666.31
585.23	666.24
585.58	666.07
585.93	665.57
586.28	665.37
586.63	665.07
586.98	664.96
587.34	664.77
587.69	664.35
588.04	663.93
588.39	663.57
588.74	663.24
589.09	663.02
589.44	662.37
589.79	662.08
590.14	661.69
590.49	661.18
590.84	660.43
591.19	659.92
591.54	659.41
591.89	658.46
592.25	658.01
592.60	656.96
592.95	656.00
593.30	655.16
593.65	653.96
594.00	652.75
594.35	652.55
594.70	651.57
595.05	650.64
595.40	649.80
595.75	648.74
596.10	647.88
596.45	646.69
596.80	645.92
597.15	644.96
597.50	643.82
597.85	642.87
598.19	641.89
598.54	640.78
598.89	639.85
599.24	639.11
599.59	637.83
599.94	637.09
600.29	635.99
600.64	634.95
600.99	634.07
601.34	633.32
601.69	631.51
602.04	630.18
602.39	629.20
602.74	628.06
603.08	627.28
603.43	626.54
603.78	625.43
604.13	624.20
604.48	623.01
604.83	622.35
605.18	621.53
605.53	620.62
605.87	619.55
606.22	618.58
606.57	617.31
606.92	616.05
607.27	614.77
607.62	613.68
607.96	612.71
608.31	611.57
608.66	610.36
609.01	609.04
609.36	607.95
609.70	606.65
610.05	605.21
610.40	603.75
610.75	602.08
611.10	601.01
611.44	599.49
611.79	598.07
612.14	596.39
612.49	594.34
612.83	592.71
613.18	591.03
613.53	589.28
613.88	587.57
614.22	586.03
614.57	584.35
614.92	582.83
615.27	581.16
615.61	579.36
615.96	577.71
616.31	576.06
616.65	574.61
617.00	572.77
617.35	571.06
617.70	569.45
618.04	567.76
618.39	565.84
618.74	564.23
619.08	562.52
619.43	560.82
619.78	559.38
620.12	557.60
620.47	556.01
620.82	554.05
621.16	552.25
621.51	550.50
621.85	548.68
622.20	546.85
622.55	545.01
622.89	543.18
623.24	541.44
623.59	539.62
623.93	537.77
624.28	536.19
624.62	534.93
624.97	533.30
625.32	531.61
625.66	529.84
626.01	528.08
626.35	526.40
626.70	524.53
627.04	522.97
627.39	521.33
627.73	519.76
628.08	518.21
628.43	516.55
628.77	514.92
629.12	513.26
629.46	511.51
629.81	509.88
630.15	508.15
630.50	506.35
630.84	504.60
631.19	502.81
631.53	501.02
631.88	498.82
632.22	496.75
632.57	495.19
632.91	493.62
633.26	491.94
633.60	490.19
633.95	488.62
634.29	486.74
634.64	485.20
634.98	483.28
635.32	481.83
635.67	480.38
636.01	478.61
636.36	476.99
636.70	475.70
637.05	474.10
637.39	472.78
637.73	471.28
638.08	469.98
638.42	468.62
638.77	467.24
639.11	465.79
639.45	464.28
639.80	462.57
640.14	460.73
640.49	459.12
640.83	457.34
641.17	455.75
641.52	454.13
641.86	452.34
642.20	450.97
642.55	449.02
642.89	447.15
643.23	445.71
643.58	444.26
643.92	442.34
644.26	440.63
644.61	438.94
644.95	437.33
645.29	435.61
645.64	433.93
645.98	432.18
646.32	430.55
646.66	428.98
647.01	427.36
647.35	425.90
647.69	424.31
648.04	422.86
648.38	421.27
648.72	419.76
649.06	418.18
649.41	416.33
649.75	414.76
650.09	413.33
650.43	411.61
650.78	409.81
651.12	408.20
651.46	406.64
651.80	405.04
652.14	403.56
652.49	402.14
652.83	400.46
653.17	398.75
653.51	397.21
653.85	395.79
654.20	394.26
654.54	392.69
654.88	391.06
655.22	389.67
655.56	388.04
655.90	386.43
656.25	384.84
656.59	383.45
656.93	382.16
657.27	380.81
657.61	379.28
657.95	377.95
658.29	376.47
658.64	375.16
658.98	373.76
659.32	372.19
659.66	370.60
660.00	369.28
660.34	367.86
660.68	366.42
661.02	364.88
661.36	363.54
661.70	362.26
662.05	360.96
662.39	359.63
662.73	358.60
663.07	357.48
663.41	356.30
663.75	354.93
664.09	353.44
664.43	352.01
664.77	350.82
665.11	349.49
665.45	348.35
665.79	347.07
666.13	345.71
666.47	344.51
666.81	343.31
667.15	341.98
667.49	340.95
667.83	339.99
668.17	338.85
668.51	337.75
668.85	336.65
669.19	335.67
669.53	334.37
669.87	333.03
670.21	331.79
670.55	330.66
670.89	329.92
671.23	329.01
671.57	328.04
671.91	327.02
672.25	326.02
672.58	325.07
672.92	323.95
673.26	323.05
673.60	322.10
673.94	321.14
674.28	320.16
674.62	319.22
674.96	318.17
675.30	317.27
675.64	316.30
675.97	315.28
676.31	314.30
676.65	313.43
676.99	312.76
677.33	311.87
677.67	311.04
678.01	309.95
678.34	309.10
678.68	308.27
679.02	307.38
679.36	306.56
679.70	305.60
680.04	304.78
680.37	303.91
680.71	303.13
681.05	302.27
681.39	301.49
681.73	300.69
682.06	299.89
682.40	299.11
682.74	298.28
683.08	297.60
683.42	296.73
683.75	295.92
684.09	294.98
684.43	294.20
684.77	293.31
685.10	292.51
685.44	291.60
685.78	290.71
686.12	289.96
686.45	289.13
686.79	288.27
687.13	287.66
687.46	286.91
687.80	286.11
688.14	285.31
688.48	284.75
688.81	283.96
689.15	283.17
689.49	282.42
689.82	281.77
690.16	280.91
690.50	280.12
690.83	279.41
691.17	278.64
691.51	277.87
691.84	277.26
692.18	276.57
692.52	276.04
692.85	275.49
693.19	274.94
693.52	274.34
693.86	273.75
694.20	273.03
694.53	272.32
694.87	271.60
695.21	271.02
695.54	270.30
695.88	269.59
696.21	269.01
696.55	268.40
696.88	267.72
697.22	267.12
697.56	266.71
697.89	266.18
698.23	265.62
698.56	265.01
698.90	264.49
699.23	263.91
699.57	263.34
699.90	262.71
700.24	262.08
700.58	261.50
700.91	261.09
701.25	260.85
701.58	260.43
701.92	260.07
702.25	259.59
702.59	259.07
702.92	258.70
703.26	258.19
703.59	257.67
703.93	257.50
704.26	257.06
704.60	256.60
704.93	256.06
705.26	255.58
705.60	255.23
705.93	254.67
706.27	254.22
706.60	253.84
706.94	253.54
707.27	253.05
707.61	252.65
707.94	252.15
708.27	251.50
708.61	251.04
708.94	250.57
709.28	250.12
709.61	249.59
709.94	249.14
710.28	248.84
710.61	248.60
710.95	247.89
711.28	247.78
711.61	247.32
711.95	247.07
712.28	246.64
712.61	246.24
712.95	246.15
713.28	245.96
713.61	245.57
713.95	245.04
714.28	244.81
714.61	244.44
714.95	244.05
715.28	243.62
715.61	243.27
715.95	242.91
716.28	242.61
716.61	242.43
716.95	242.11
717.28	241.73
717.61	241.35
717.94	241.01
718.28	240.38
718.61	240.05
718.94	239.68
719.27	239.43
719.61	239.26
719.94	238.79
720.27	238.37
720.60	238.08
720.94	237.88
721.27	237.58
721.60	237.44
721.93	237.27
722.27	237.20
722.60	236.99
722.93	236.73
723.26	236.46
723.59	236.17
723.93	235.99
724.26	235.80
724.59	235.54
724.92	235.46
725.25	235.38
725.59	235.18
725.92	235.02
726.25	234.90
726.58	234.62
726.91	234.38
727.24	234.18
727.57	233.95
727.91	233.68
728.24	233.43
728.57	233.13
728.90	232.91
729.23	232.62
729.56	232.60
729.89	232.39
730.22	232.19
730.55	232.00
730.89	231.76
731.22	231.48
731.55	231.20
731.88	230.92
732.21	230.61
732.54	230.37
732.87	230.14
733.20	229.86
733.53	229.69
733.86	229.59
734.19	229.39
734.52	229.29
734.85	229.40
735.18	229.20
735.51	229.09
735.84	229.01
736.17	228.79
736.50	228.41
736.83	228.66
737.16	228.47
737.49	228.24
737.82	228.13
738.15	228.01
738.48	227.89
738.81	227.74
739.14	227.58
739.47	227.47
739.80	227.26
740.13	227.12
740.46	226.78
740.79	226.51
741.12	226.30
741.45	226.02
741.78	225.65
742.11	225.65
742.44	225.44
742.77	225.26
743.10	225.10
743.43	224.98
743.75	224.44
744.08	224.71
744.41	224.62
744.74	224.36
745.07	224.22
745.40	224.20
745.73	224.16
746.06	224.04
746.39	223.96
746.71	223.81
747.04	223.60
747.37	223.60
747.70	223.49
748.03	223.41
748.36	223.35
748.68	223.28
749.01	222.99
749.34	222.87
749.67	222.68
750.00	222.64
750.33	222.79
750.65	222.74
750.98	222.26
751.31	222.23
751.64	222.13
751.97	222.20
752.29	221.98
752.62	221.76
752.95	221.66
753.28	221.53
753.60	221.46
753.93	221.53
754.26	221.40
754.59	221.29
754.91	221.12
755.24	221.04
755.57	220.93
755.90	220.86
756.22	220.72
756.55	220.65
756.88	220.49
757.20	220.15
757.53	219.98
757.86	219.85
758.19	219.68
758.51	219.63
758.84	219.36
759.17	219.27
759.49	219.25
759.82	219.27
760.15	219.16
760.47	219.04
760.80	218.82
761.13	218.77
761.45	218.62
761.78	218.58
762.11	218.52
762.43	218.35
762.76	218.30
763.08	218.27
763.41	218.24
763.74	218.17
764.06	218.10
764.39	217.92
764.71	217.85
765.04	217.81
765.37	217.70
765.69	217.61
766.02	217.58
766.34	217.47
766.67	217.36
767.00	217.32
767.32	217.44
767.65	217.56
767.97	217.55
768.30	217.52
768.62	217.51
768.95	217.36
769.27	217.27
769.60	217.19
769.92	217.10
770.25	216.92
770.57	216.83
770.90	216.73
771.22	216.77
771.55	216.77
771.87	216.75
772.20	216.71
772.52	216.94
772.85	217.28
773.17	217.22
773.50	217.10
773.82	217.10
774.15	216.89
774.47	216.64
774.80	216.52
775.12	216.46
775.45	216.40
775.77	216.40
776.09	216.43
776.42	216.39
776.74	216.47
777.07	216.41
777.39	216.33
777.72	216.30
778.04	216.29
778.36	216.20
778.69	216.14
779.01	216.18
779.33	215.84
779.66	215.44
779.98	215.36
780.31	215.31
780.63	215.38
780.95	215.45
781.28	215.46
781.60	215.41
781.92	215.44
782.25	215.44
782.57	215.36
782.89	215.31
783.22	215.27
783.54	215.13
783.86	215.12
784.19	215.11
784.51	215.17
784.83	215.12
785.16	215.05
785.48	214.98
785.80	214.87
786.12	214.81
786.45	214.81
786.77	214.78
787.09	214.74
787.42	214.52
787.74	214.43
788.06	214.34
788.38	214.33
788.71	214.21
789.03	214.17
789.35	214.25
789.67	214.16
789.99	214.15
790.32	214.05
790.64	214.06
790.96	214.33
791.28	214.16
791.61	214.05
791.93	214.06
792.25	214.00
792.57	214.22
792.89	214.18
793.21	214.14
793.54	214.11
793.86	214.05
794.18	214.05
