SpectraSuite Data File
++++++++++++++++++++++++++++++++++++
Date: Mon Feb 25 17:03:14 EST 2013
User: group
Dark Spectrum Present: No
Reference Spectrum Present: No
Number of Sampled Component Spectra: 1
Spectrometers: USB2E7196
Integration Time (usec): 104000 (USB2E7196)
Spectra Averaged: 20 (USB2E7196)
Boxcar Smoothing: 10 (USB2E7196)
Correct for Electrical Dark: No (USB2E7196)
Strobe/Lamp Enabled: No (USB2E7196)
Correct for Detector Non-linearity: No (USB2E7196)
Correct for Stray Light: No (USB2E7196)
Number of Pixels in Processed Spectrum: 2048
>>>>>Begin Processed Spectral Data<<<<<
339.09	0.00
339.48	199.55
339.86	200.35
340.24	202.00
340.63	202.55
341.01	210.00
341.39	205.60
341.78	207.60
342.16	208.00
342.54	208.85
342.93	198.45
343.31	208.44
343.69	208.96
344.07	209.40
344.46	209.82
344.84	210.15
345.22	210.15
345.60	210.40
345.99	210.58
346.37	210.72
346.75	210.73
347.13	210.72
347.52	210.78
347.90	210.95
348.28	210.87
348.66	210.98
349.05	210.81
349.43	210.87
349.81	210.87
350.19	210.89
350.57	210.95
350.96	211.00
351.34	211.05
351.72	211.06
352.10	211.11
352.48	211.15
352.87	211.25
353.25	211.28
353.63	211.30
354.01	211.33
354.39	211.34
354.77	211.41
355.15	211.52
355.54	211.42
355.92	211.31
356.30	211.44
356.68	211.68
357.06	211.79
357.44	211.74
357.82	211.81
358.20	211.92
358.58	211.93
358.97	212.03
359.35	212.16
359.73	212.33
360.11	212.44
360.49	212.45
360.87	212.50
361.25	212.62
361.63	212.78
362.01	212.83
362.39	212.94
362.77	213.08
363.15	213.10
363.53	213.19
363.91	213.27
364.29	213.27
364.67	212.95
365.05	212.92
365.43	213.03
365.81	213.07
366.19	213.29
366.57	213.37
366.95	213.36
367.33	213.31
367.71	213.22
368.09	213.21
368.47	213.31
368.85	213.32
369.23	213.38
369.61	213.29
369.99	213.41
370.37	213.33
370.75	213.45
371.13	213.35
371.51	213.43
371.89	213.42
372.27	213.41
372.65	213.38
373.03	213.38
373.41	213.20
373.78	213.15
374.16	212.95
374.54	212.83
374.92	212.80
375.30	212.88
375.68	212.82
376.06	212.88
376.44	212.79
376.82	212.72
377.19	212.65
377.57	212.56
377.95	212.37
378.33	212.30
378.71	212.01
379.09	212.05
379.47	211.98
379.84	211.87
380.22	211.80
380.60	211.72
380.98	211.73
381.36	211.77
381.73	211.72
382.11	211.70
382.49	211.72
382.87	211.56
383.25	211.40
383.62	211.67
384.00	211.47
384.38	211.40
384.76	211.44
385.13	211.50
385.51	211.46
385.89	211.38
386.27	211.43
386.64	211.48
387.02	211.41
387.40	211.33
387.78	211.29
388.15	211.25
388.53	211.24
388.91	211.16
389.29	211.08
389.66	211.14
390.04	211.03
390.42	211.02
390.79	211.00
391.17	211.05
391.55	210.78
391.92	210.80
392.30	210.83
392.68	210.69
393.05	210.57
393.43	210.55
393.81	210.54
394.18	210.41
394.56	210.41
394.94	210.43
395.31	210.35
395.69	210.48
396.06	210.51
396.44	210.51
396.82	210.43
397.19	210.68
397.57	210.51
397.95	210.61
398.32	210.55
398.70	210.64
399.07	210.66
399.45	210.60
399.82	210.65
400.20	210.62
400.58	210.66
400.95	210.60
401.33	210.68
401.70	211.04
402.08	211.10
402.45	211.18
402.83	211.30
403.20	211.43
403.58	211.42
403.95	211.55
404.33	211.68
404.71	211.80
405.08	212.01
405.46	212.23
405.83	212.31
406.21	212.46
406.58	212.61
406.96	212.81
407.33	213.08
407.70	213.26
408.08	213.74
408.45	214.00
408.83	214.36
409.20	214.60
409.58	214.65
409.95	215.00
410.33	215.30
410.70	215.58
411.08	216.02
411.45	216.53
411.82	216.90
412.20	217.37
412.57	218.09
412.95	218.30
413.32	218.92
413.69	219.47
414.07	220.08
414.44	220.79
414.82	221.44
415.19	222.25
415.56	223.14
415.94	223.85
416.31	224.88
416.68	225.82
417.06	227.00
417.43	228.21
417.81	229.48
418.18	230.85
418.55	232.28
418.93	233.67
419.30	235.14
419.67	236.80
420.04	238.59
420.42	240.30
420.79	242.53
421.16	244.59
421.54	246.85
421.91	249.10
422.28	251.40
422.66	253.82
423.03	256.38
423.40	258.89
423.77	261.56
424.15	264.15
424.52	267.07
424.89	270.24
425.26	273.11
425.64	276.04
426.01	279.08
426.38	282.35
426.75	285.85
427.13	289.38
427.50	293.07
427.87	296.81
428.24	300.59
428.61	304.16
428.99	308.31
429.36	312.63
429.73	316.91
430.10	321.21
430.47	325.69
430.85	330.08
431.22	334.91
431.59	340.21
431.96	345.31
432.33	350.75
432.70	356.11
433.08	362.44
433.45	368.23
433.82	374.19
434.19	380.82
434.56	387.29
434.93	393.45
435.30	399.72
435.68	406.62
436.05	413.54
436.42	420.40
436.79	426.54
437.16	433.34
437.53	440.59
437.90	447.77
438.27	454.87
438.64	462.22
439.01	469.07
439.38	475.02
439.75	480.99
440.13	487.85
440.50	494.19
440.87	499.53
441.24	505.27
441.61	511.23
441.98	515.83
442.35	521.04
442.72	526.49
443.09	531.68
443.46	535.11
443.83	537.33
444.20	539.39
444.57	542.24
444.94	543.84
445.31	545.64
445.68	547.47
446.05	548.38
446.42	548.20
446.79	547.94
447.16	547.52
447.53	547.30
447.90	545.07
448.27	542.79
448.64	539.54
449.01	537.31
449.37	533.26
449.74	529.08
450.11	524.44
450.48	518.81
450.85	513.07
451.22	508.21
451.59	503.88
451.96	499.52
452.33	493.54
452.70	488.05
453.07	481.31
453.43	474.33
453.80	468.01
454.17	461.80
454.54	455.88
454.91	449.65
455.28	443.54
455.65	437.70
456.02	432.36
456.38	427.45
456.75	421.21
457.12	415.97
457.49	410.95
457.86	405.72
458.23	401.72
458.59	397.09
458.96	392.35
459.33	388.07
459.70	383.96
460.07	380.70
460.43	376.93
460.80	373.37
461.17	370.37
461.54	367.01
461.91	363.95
462.27	360.82
462.64	358.07
463.01	355.14
463.38	352.54
463.74	349.26
464.11	346.65
464.48	344.56
464.85	342.21
465.21	340.38
465.58	338.45
465.95	335.96
466.32	334.05
466.68	332.01
467.05	330.09
467.42	328.02
467.78	326.00
468.15	324.05
468.52	322.59
468.88	320.57
469.25	318.73
469.62	317.30
469.98	315.70
470.35	314.27
470.72	312.83
471.08	311.15
471.45	309.94
471.82	308.70
472.18	307.23
472.55	306.21
472.92	304.90
473.28	303.72
473.65	302.65
474.02	301.58
474.38	300.85
474.75	300.05
475.11	299.25
475.48	298.53
475.85	297.88
476.21	297.30
476.58	296.76
476.94	296.39
477.31	295.87
477.67	295.45
478.04	295.16
478.41	294.87
478.77	294.96
479.14	294.67
479.50	294.53
479.87	294.40
480.23	294.14
480.60	294.02
480.96	293.86
481.33	294.01
481.69	293.99
482.06	293.88
482.42	293.88
482.79	293.94
483.15	294.09
483.52	294.36
483.88	294.42
484.25	294.66
484.61	294.95
484.98	295.15
485.34	295.63
485.71	295.91
486.07	296.31
486.44	296.38
486.80	296.87
487.17	297.34
487.53	298.00
487.90	298.69
488.26	299.50
488.62	300.40
488.99	301.00
489.35	301.86
489.72	302.66
490.08	303.54
490.44	304.38
490.81	305.35
491.17	306.24
491.54	307.39
491.90	308.44
492.26	309.43
492.63	310.58
492.99	311.60
493.36	312.83
493.72	314.03
494.08	315.40
494.45	316.80
494.81	318.22
495.17	319.62
495.54	321.18
495.90	322.55
496.26	323.85
496.63	325.50
496.99	326.98
497.35	328.57
497.72	330.15
498.08	331.77
498.44	333.26
498.80	334.96
499.17	336.56
499.53	338.13
499.89	339.86
500.26	341.54
500.62	343.18
500.98	344.86
501.34	346.46
501.71	348.06
502.07	349.52
502.43	350.97
502.79	352.27
503.16	353.58
503.52	355.04
503.88	356.38
504.24	357.61
504.60	358.83
504.97	360.10
505.33	361.25
505.69	362.67
506.05	363.82
506.41	364.93
506.78	365.89
507.14	366.84
507.50	367.75
507.86	368.69
508.22	369.58
508.59	370.26
508.95	371.13
509.31	372.10
509.67	372.84
510.03	373.59
510.39	374.33
510.75	374.97
511.12	375.43
511.48	375.99
511.84	376.45
512.20	376.94
512.56	377.46
512.92	377.85
513.28	378.05
513.64	378.43
514.00	378.70
514.37	378.95
514.73	379.22
515.09	379.35
515.45	379.45
515.81	379.43
516.17	379.48
516.53	379.35
516.89	379.08
517.25	378.99
517.61	378.96
517.97	378.82
518.33	378.70
518.69	378.62
519.05	378.57
519.41	378.43
519.77	378.57
520.13	378.37
520.49	378.17
520.85	377.98
521.21	377.92
521.57	377.78
521.93	377.59
522.29	377.44
522.65	377.44
523.01	377.31
523.37	377.25
523.73	377.34
524.09	377.39
524.45	377.40
524.81	377.50
525.17	377.71
525.53	378.13
525.89	378.35
526.25	378.69
526.61	378.87
526.97	379.28
527.33	379.63
527.68	380.38
528.04	381.00
528.40	381.61
528.76	382.20
529.12	382.95
529.48	383.88
529.84	384.64
530.20	385.43
530.56	386.40
530.91	387.55
531.27	388.55
531.63	389.69
531.99	390.84
532.35	391.98
532.71	393.11
533.07	394.28
533.42	395.89
533.78	397.17
534.14	398.74
534.50	399.96
534.86	401.53
535.21	402.75
535.57	404.35
535.93	405.88
536.29	407.61
536.65	409.30
537.00	410.92
537.36	412.83
537.72	414.66
538.08	416.58
538.44	418.34
538.79	420.50
539.15	422.53
539.51	424.65
539.87	426.77
540.22	428.97
540.58	431.20
540.94	433.35
541.29	435.73
541.65	437.92
542.01	440.55
542.37	442.76
542.72	445.13
543.08	447.56
543.44	450.20
543.79	452.61
544.15	455.23
544.51	458.02
544.87	460.77
545.22	463.52
545.58	466.10
545.94	468.86
546.29	471.37
546.65	473.95
547.01	476.62
547.36	479.42
547.72	482.05
548.07	484.64
548.43	487.21
548.79	489.83
549.14	492.69
549.50	495.24
549.86	497.84
550.21	500.61
550.57	503.54
550.92	506.14
551.28	508.90
551.64	511.51
551.99	514.05
552.35	516.44
552.70	518.91
553.06	521.60
553.41	524.21
553.77	527.01
554.13	529.71
554.48	532.45
554.84	534.96
555.19	537.54
555.55	540.33
555.90	542.86
556.26	545.28
556.61	547.59
556.97	550.00
557.32	552.48
557.68	554.79
558.03	556.89
558.39	559.06
558.74	561.49
559.10	563.83
559.45	566.26
559.81	568.77
560.16	571.14
560.52	573.29
560.87	575.53
561.23	577.40
561.58	579.83
561.94	581.87
562.29	583.82
562.64	586.05
563.00	587.95
563.35	590.08
563.71	592.45
564.06	594.66
564.42	596.88
564.77	599.15
565.12	601.28
565.48	603.69
565.83	605.78
566.19	607.60
566.54	609.46
566.89	611.20
567.25	613.15
567.60	615.15
567.96	617.30
568.31	619.28
568.66	621.06
569.02	622.32
569.37	623.68
569.72	625.45
570.08	626.77
570.43	628.27
570.78	629.51
571.14	630.46
571.49	631.48
571.84	632.44
572.20	633.31
572.55	634.24
572.90	634.86
573.26	635.61
573.61	636.29
573.96	637.14
574.31	637.67
574.67	637.89
575.02	638.16
575.37	638.32
575.72	638.37
576.08	638.78
576.43	639.09
576.78	639.47
577.13	639.88
577.49	640.20
577.84	640.30
578.19	640.54
578.54	640.82
578.90	641.24
579.25	641.49
579.60	641.46
579.95	641.42
580.30	641.51
580.66	641.80
581.01	641.81
581.36	641.67
581.71	641.74
582.06	641.90
582.42	642.04
582.77	641.82
583.12	641.69
583.47	641.71
583.82	641.66
584.17	641.73
584.53	641.70
584.88	641.49
585.23	641.51
585.58	641.43
585.93	641.25
586.28	641.03
586.63	640.95
586.98	640.94
587.34	641.03
587.69	640.55
588.04	640.16
588.39	640.04
588.74	639.55
589.09	639.24
589.44	638.65
589.79	638.17
590.14	637.93
590.49	637.51
590.84	636.86
591.19	636.60
591.54	635.97
591.89	635.07
592.25	634.73
592.60	633.88
592.95	632.95
593.30	632.05
593.65	631.09
594.00	630.13
594.35	630.20
594.70	629.16
595.05	628.46
595.40	627.62
595.75	626.43
596.10	625.83
596.45	624.97
596.80	624.37
597.15	623.66
597.50	622.69
597.85	621.98
598.19	621.15
598.54	620.15
598.89	619.27
599.24	618.67
599.59	617.62
599.94	616.91
600.29	616.23
600.64	615.54
600.99	614.61
601.34	613.81
601.69	612.07
602.04	611.06
602.39	610.12
602.74	609.37
603.08	608.92
603.43	608.06
603.78	607.22
604.13	606.26
604.48	605.32
604.83	604.70
605.18	604.00
605.53	603.25
605.87	602.26
606.22	601.46
606.57	600.37
606.92	599.33
607.27	598.14
607.62	597.02
607.96	596.23
608.31	595.58
608.66	594.47
609.01	593.16
609.36	592.18
609.70	591.08
610.05	589.78
610.40	588.24
610.75	586.90
611.10	585.90
611.44	584.48
611.79	582.94
612.14	581.45
612.49	579.82
612.83	578.38
613.18	577.07
613.53	575.65
613.88	574.10
614.22	572.68
614.57	571.22
614.92	569.65
615.27	567.90
615.61	566.10
615.96	564.63
616.31	563.30
616.65	561.91
617.00	560.34
617.35	558.86
617.70	557.40
618.04	555.68
618.39	553.66
618.74	552.24
619.08	550.66
619.43	549.08
619.78	547.46
620.12	545.73
620.47	543.96
620.82	542.08
621.16	540.14
621.51	538.50
621.85	536.91
622.20	535.39
622.55	533.58
622.89	531.71
623.24	529.99
623.59	528.16
623.93	526.39
624.28	524.77
624.62	523.56
624.97	522.07
625.32	520.51
625.66	519.04
626.01	517.37
626.35	515.85
626.70	514.01
627.04	512.59
627.39	511.06
627.73	509.77
628.08	508.27
628.43	506.80
628.77	505.11
629.12	503.44
629.46	501.95
629.81	500.43
630.15	498.92
630.50	497.32
630.84	495.65
631.19	494.20
631.53	492.49
631.88	490.28
632.22	488.42
632.57	487.05
632.91	485.45
633.26	483.82
633.60	482.09
633.95	480.61
634.29	478.72
634.64	477.23
634.98	475.36
635.32	473.87
635.67	472.57
636.01	471.18
636.36	469.56
636.70	468.08
637.05	466.59
637.39	465.24
637.73	463.89
638.08	462.73
638.42	461.26
638.77	459.99
639.11	458.66
639.45	457.15
639.80	455.29
640.14	453.66
640.49	452.02
640.83	450.62
641.17	449.15
641.52	447.66
641.86	446.03
642.20	444.61
642.55	442.84
642.89	441.08
643.23	439.39
643.58	438.09
643.92	436.29
644.26	434.72
644.61	433.20
644.95	431.50
645.29	429.72
645.64	428.03
645.98	426.39
646.32	424.95
646.66	423.39
647.01	422.02
647.35	420.72
647.69	419.22
648.04	417.62
648.38	416.11
648.72	414.64
649.06	413.00
649.41	411.35
649.75	409.90
650.09	408.45
650.43	406.94
650.78	405.25
651.12	403.71
651.46	402.21
651.80	400.65
652.14	399.17
652.49	397.81
652.83	396.35
653.17	394.79
653.51	393.15
653.85	391.81
654.20	390.36
654.54	388.58
654.88	387.07
655.22	385.73
655.56	384.22
655.90	382.81
656.25	381.45
656.59	380.02
656.93	378.66
657.27	377.31
657.61	375.82
657.95	374.48
658.29	373.13
658.64	371.84
658.98	370.37
659.32	368.86
659.66	367.41
660.00	365.90
660.34	364.49
660.68	363.00
661.02	361.55
661.36	360.16
661.70	358.94
662.05	357.80
662.39	356.59
662.73	355.40
663.07	354.30
663.41	352.99
663.75	351.70
664.09	350.44
664.43	349.04
664.77	347.93
665.11	346.68
665.45	345.54
665.79	344.31
666.13	343.18
666.47	342.02
666.81	340.82
667.15	339.60
667.49	338.56
667.83	337.60
668.17	336.58
668.51	335.48
668.85	334.45
669.19	333.40
669.53	332.19
669.87	331.00
670.21	329.81
670.55	328.81
670.89	327.91
671.23	326.94
671.57	326.03
671.91	324.99
672.25	324.07
672.58	323.10
672.92	322.09
673.26	321.19
673.60	320.33
673.94	319.37
674.28	318.50
674.62	317.71
674.96	316.77
675.30	315.89
675.64	314.97
675.97	314.12
676.31	313.19
676.65	312.15
676.99	311.44
677.33	310.49
677.67	309.54
678.01	308.45
678.34	307.58
678.68	306.66
679.02	305.70
679.36	304.75
679.70	303.80
680.04	302.97
680.37	302.04
680.71	301.14
681.05	300.40
681.39	299.61
681.73	298.59
682.06	297.84
682.40	296.99
682.74	296.29
683.08	295.53
683.42	294.58
683.75	293.97
684.09	293.06
684.43	292.21
684.77	291.38
685.10	290.79
685.44	290.04
685.78	289.35
686.12	288.66
686.45	287.86
686.79	287.16
687.13	286.54
687.46	285.89
687.80	285.25
688.14	284.42
688.48	283.74
688.81	283.02
689.15	282.36
689.49	281.58
689.82	280.82
690.16	279.95
690.50	279.28
690.83	278.52
691.17	277.75
691.51	277.00
691.84	276.43
692.18	275.69
692.52	275.02
692.85	274.40
693.19	273.92
693.52	273.34
693.86	272.69
694.20	272.01
694.53	271.43
694.87	270.79
695.21	270.11
695.54	269.43
695.88	268.76
696.21	267.98
696.55	267.43
696.88	266.81
697.22	266.17
697.56	265.61
697.89	264.97
698.23	264.46
698.56	264.02
698.90	263.48
699.23	262.96
699.57	262.42
699.90	261.82
700.24	261.12
700.58	260.59
700.91	260.10
701.25	259.77
701.58	259.22
701.92	258.79
702.25	258.36
702.59	257.96
702.92	257.64
703.26	257.26
703.59	256.77
703.93	256.64
704.26	256.31
704.60	255.92
704.93	255.52
705.26	255.01
705.60	254.66
705.93	254.22
706.27	253.78
706.60	253.45
706.94	253.21
707.27	252.71
707.61	252.35
707.94	251.88
708.27	251.22
708.61	250.77
708.94	250.26
709.28	249.89
709.61	249.37
709.94	248.97
710.28	248.51
710.61	248.16
710.95	247.46
711.28	247.39
711.61	247.02
711.95	246.81
712.28	246.49
712.61	246.12
712.95	245.92
713.28	245.74
713.61	245.27
713.95	244.82
714.28	244.61
714.61	244.21
714.95	243.90
715.28	243.51
715.61	243.13
715.95	242.83
716.28	242.43
716.61	242.21
716.95	241.78
717.28	241.45
717.61	241.14
717.94	240.83
718.28	240.23
718.61	239.94
718.94	239.50
719.27	239.26
719.61	238.98
719.94	238.61
720.27	238.20
720.60	237.95
720.94	237.74
721.27	237.47
721.60	237.29
721.93	237.00
722.27	236.87
722.60	236.75
722.93	236.51
723.26	236.34
723.59	236.09
723.93	236.00
724.26	235.78
724.59	235.59
724.92	235.41
725.25	235.26
725.59	235.04
725.92	234.90
726.25	234.67
726.58	234.45
726.91	234.20
727.24	233.97
727.57	233.77
727.91	233.38
728.24	233.14
728.57	232.86
728.90	232.78
729.23	232.40
729.56	232.31
729.89	232.05
730.22	231.73
730.55	231.40
730.89	231.11
731.22	230.98
731.55	230.82
731.88	230.58
732.21	230.39
732.54	230.13
732.87	229.90
733.20	229.61
733.53	229.35
733.86	229.23
734.19	229.05
734.52	228.90
734.85	229.06
735.18	228.82
735.51	228.73
735.84	228.53
736.17	228.58
736.50	228.20
736.83	228.54
737.16	228.45
737.49	228.36
737.82	228.22
738.15	228.10
738.48	227.84
738.81	227.66
739.14	227.41
739.47	227.18
739.80	226.92
740.13	226.90
740.46	226.70
740.79	226.50
741.12	226.26
741.45	226.04
741.78	225.61
742.11	225.62
742.44	225.46
742.77	225.37
743.10	225.14
743.43	225.00
743.75	224.44
744.08	224.77
744.41	224.63
744.74	224.46
745.07	224.17
745.40	224.12
745.73	224.11
746.06	224.00
746.39	223.98
746.71	223.85
747.04	223.61
747.37	223.53
747.70	223.36
748.03	223.28
748.36	223.12
748.68	223.01
749.01	222.77
749.34	222.61
749.67	222.44
750.00	222.37
750.33	222.49
750.65	222.32
750.98	221.76
751.31	221.64
751.64	221.53
751.97	221.59
752.29	221.43
752.62	221.16
752.95	221.01
753.28	220.89
753.60	220.84
753.93	220.80
754.26	220.68
754.59	220.56
754.91	220.51
755.24	220.44
755.57	220.24
755.90	220.16
756.22	220.02
756.55	219.93
756.88	219.70
757.20	219.39
757.53	219.19
757.86	219.10
758.19	219.09
758.51	218.99
758.84	218.75
759.17	218.63
759.49	218.56
759.82	218.65
760.15	218.58
760.47	218.46
760.80	218.28
761.13	218.20
761.45	218.07
761.78	217.94
762.11	217.85
762.43	217.82
762.76	217.73
763.08	217.69
763.41	217.55
763.74	217.55
764.06	217.49
764.39	217.47
764.71	217.36
765.04	217.18
765.37	217.17
765.69	217.15
766.02	217.03
766.34	216.93
766.67	216.71
767.00	216.66
767.32	216.76
767.65	216.93
767.97	216.85
768.30	216.85
768.62	216.81
768.95	216.71
769.27	216.66
769.60	216.63
769.92	216.56
770.25	216.47
770.57	216.30
770.90	216.19
771.22	216.11
771.55	216.11
771.87	216.06
772.20	215.95
772.52	216.14
772.85	216.54
773.17	216.52
773.50	216.50
773.82	216.41
774.15	216.20
774.47	215.94
774.80	216.00
775.12	215.97
775.45	215.92
775.77	215.94
776.09	215.92
776.42	215.87
776.74	215.87
777.07	215.85
777.39	215.78
777.72	215.73
778.04	215.71
778.36	215.65
778.69	215.66
779.01	215.57
779.33	215.28
779.66	214.80
779.98	214.71
780.31	214.71
780.63	214.79
780.95	214.80
781.28	214.78
781.60	214.61
781.92	214.56
782.25	214.50
782.57	214.40
782.89	214.34
783.22	214.34
783.54	214.27
783.86	214.24
784.19	214.30
784.51	214.33
784.83	214.26
785.16	214.19
785.48	214.14
785.80	214.18
786.12	214.11
786.45	214.05
786.77	214.10
787.09	213.97
787.42	213.86
787.74	213.87
788.06	213.81
788.38	213.76
788.71	213.73
789.03	213.71
789.35	213.78
789.67	213.77
789.99	213.71
790.32	213.63
790.64	213.70
790.96	213.92
791.28	213.83
791.61	213.74
791.93	213.81
792.25	213.77
792.57	213.95
792.89	213.92
793.21	213.98
793.54	213.90
793.86	213.87
794.18	213.90
