SpectraSuite Data File
++++++++++++++++++++++++++++++++++++
Date: Mon Feb 25 16:56:53 EST 2013
User: group
Dark Spectrum Present: No
Reference Spectrum Present: No
Number of Sampled Component Spectra: 1
Spectrometers: USB2E7196
Integration Time (usec): 104000 (USB2E7196)
Spectra Averaged: 20 (USB2E7196)
Boxcar Smoothing: 10 (USB2E7196)
Correct for Electrical Dark: No (USB2E7196)
Strobe/Lamp Enabled: No (USB2E7196)
Correct for Detector Non-linearity: No (USB2E7196)
Correct for Stray Light: No (USB2E7196)
Number of Pixels in Processed Spectrum: 2048
>>>>>Begin Processed Spectral Data<<<<<
339.09	0.00
339.48	197.85
339.86	200.85
340.24	200.45
340.63	203.35
341.01	209.20
341.39	205.60
341.78	206.85
342.16	209.20
342.54	210.15
342.93	198.31
343.31	208.36
343.69	208.96
344.07	209.37
344.46	209.89
344.84	210.33
345.22	210.43
345.60	210.71
345.99	210.89
346.37	210.98
346.75	211.02
347.13	211.05
347.52	211.07
347.90	211.20
348.28	211.25
348.66	211.32
349.05	211.34
349.43	211.36
349.81	211.51
350.19	211.58
350.57	211.63
350.96	211.78
351.34	211.83
351.72	211.95
352.10	212.09
352.48	212.13
352.87	212.12
353.25	212.13
353.63	212.21
354.01	212.28
354.39	212.43
354.77	212.40
355.15	212.62
355.54	212.67
355.92	212.60
356.30	212.69
356.68	212.97
357.06	213.02
357.44	213.04
357.82	213.08
358.20	213.21
358.58	213.27
358.97	213.30
359.35	213.50
359.73	213.56
360.11	213.57
360.49	213.61
360.87	213.64
361.25	213.81
361.63	213.94
362.01	214.01
362.39	213.93
362.77	214.05
363.15	213.99
363.53	213.95
363.91	214.04
364.29	214.03
364.67	213.68
365.05	213.65
365.43	213.72
365.81	213.73
366.19	213.83
366.57	213.95
366.95	213.90
367.33	213.74
367.71	213.69
368.09	213.78
368.47	213.80
368.85	213.74
369.23	213.69
369.61	213.51
369.99	213.64
370.37	213.67
370.75	213.89
371.13	213.81
371.51	213.78
371.89	213.81
372.27	213.80
372.65	213.78
373.03	213.72
373.41	213.65
373.78	213.63
374.16	213.37
374.54	213.18
374.92	213.15
375.30	213.12
375.68	213.08
376.06	212.99
376.44	212.90
376.82	212.95
377.19	212.96
377.57	212.93
377.95	212.72
378.33	212.67
378.71	212.40
379.09	212.47
379.47	212.47
379.84	212.38
380.22	212.35
380.60	212.23
380.98	212.25
381.36	212.19
381.73	212.13
382.11	212.29
382.49	212.38
382.87	212.29
383.25	212.25
383.62	212.58
384.00	212.54
384.38	212.51
384.76	212.51
385.13	212.60
385.51	212.56
385.89	212.46
386.27	212.45
386.64	212.49
387.02	212.39
387.40	212.29
387.78	212.30
388.15	212.28
388.53	212.33
388.91	212.29
389.29	212.28
389.66	212.29
390.04	212.13
390.42	212.04
390.79	212.06
391.17	212.02
391.55	211.62
391.92	211.64
392.30	211.71
392.68	211.63
393.05	211.51
393.43	211.55
393.81	211.65
394.18	211.60
394.56	211.62
394.94	211.74
395.31	211.73
395.69	211.85
396.06	211.87
396.44	211.90
396.82	211.94
397.19	212.15
397.57	212.09
397.95	212.18
398.32	212.20
398.70	212.32
399.07	212.43
399.45	212.57
399.82	212.57
400.20	212.55
400.58	212.63
400.95	212.60
401.33	212.81
401.70	213.18
402.08	213.31
402.45	213.48
402.83	213.69
403.20	213.94
403.58	214.01
403.95	214.27
404.33	214.49
404.71	214.62
405.08	215.02
405.46	215.38
405.83	215.67
406.21	215.96
406.58	216.27
406.96	216.63
407.33	217.02
407.70	217.51
408.08	218.28
408.45	218.87
408.83	219.55
409.20	220.05
409.58	220.40
409.95	221.09
410.33	221.77
410.70	222.43
411.08	223.25
411.45	224.16
411.82	225.06
412.20	226.20
412.57	227.54
412.95	228.39
413.32	229.66
413.69	230.99
414.07	232.40
414.44	233.97
414.82	235.53
415.19	237.37
415.56	239.25
415.94	241.14
416.31	243.30
416.68	245.52
417.06	248.18
417.43	250.70
417.81	253.57
418.18	256.43
418.55	259.53
418.93	262.81
419.30	266.26
419.67	269.93
420.04	273.65
420.42	277.64
420.79	282.36
421.16	286.89
421.54	291.70
421.91	296.84
422.28	301.95
422.66	307.53
423.03	313.01
423.40	318.69
423.77	324.69
424.15	330.95
424.52	337.40
424.89	344.43
425.26	351.23
425.64	357.76
426.01	365.12
426.38	372.60
426.75	380.25
427.13	388.13
427.50	396.47
427.87	405.22
428.24	413.84
428.61	422.29
428.99	431.53
429.36	441.48
429.73	451.20
430.10	461.13
430.47	471.32
430.85	481.85
431.22	493.00
431.59	504.82
431.96	516.06
432.33	528.69
432.70	540.98
433.08	555.37
433.45	568.75
433.82	582.20
434.19	597.39
434.56	612.14
434.93	626.52
435.30	640.73
435.68	656.69
436.05	672.60
436.42	688.28
436.79	702.84
437.16	718.60
437.53	735.28
437.90	751.70
438.27	767.92
438.64	785.00
439.01	800.86
439.38	815.38
439.75	829.35
440.13	845.02
440.50	859.91
440.87	872.55
441.24	885.53
441.61	899.85
441.98	910.73
442.35	923.53
442.72	936.15
443.09	948.29
443.46	956.05
443.83	961.94
444.20	967.00
444.57	974.01
444.94	977.82
445.31	981.97
445.68	985.82
446.05	988.29
446.42	987.80
446.79	987.16
447.16	986.12
447.53	986.01
447.90	981.20
448.27	976.47
448.64	968.98
449.01	964.21
449.37	954.39
449.74	944.92
450.11	933.25
450.48	920.84
450.85	908.18
451.22	897.25
451.59	886.60
451.96	876.65
452.33	862.92
452.70	850.71
453.07	835.55
453.43	820.49
453.80	805.75
454.17	791.60
454.54	778.26
454.91	763.80
455.28	749.67
455.65	736.67
456.02	723.29
456.38	712.18
456.75	697.95
457.12	686.42
457.49	675.02
457.86	663.82
458.23	654.00
458.59	643.33
458.96	632.59
459.33	623.02
459.70	613.46
460.07	605.77
460.43	597.03
460.80	588.80
461.17	581.51
461.54	574.00
461.91	566.98
462.27	559.73
462.64	553.57
463.01	546.55
463.38	539.94
463.74	533.34
464.11	527.57
464.48	522.55
464.85	516.91
465.21	512.44
465.58	507.93
465.95	502.53
466.32	498.09
466.68	493.56
467.05	489.14
467.42	484.67
467.78	480.02
468.15	475.52
468.52	472.33
468.88	468.03
469.25	464.19
469.62	460.98
469.98	457.43
470.35	454.36
470.72	451.36
471.08	448.04
471.45	445.30
471.82	442.44
472.18	439.52
472.55	437.41
472.92	434.89
473.28	432.61
473.65	430.41
474.02	428.14
474.38	426.46
474.75	424.89
475.11	423.18
475.48	421.87
475.85	420.84
476.21	419.64
476.58	418.66
476.94	417.97
477.31	417.17
477.67	416.47
478.04	415.85
478.41	415.47
478.77	415.45
479.14	415.10
479.50	414.99
479.87	415.07
480.23	415.10
480.60	415.14
480.96	415.16
481.33	415.75
481.69	416.26
482.06	416.55
482.42	416.77
482.79	417.25
483.15	418.07
483.52	419.10
483.88	420.02
484.25	421.02
484.61	422.11
484.98	423.17
485.34	424.74
485.71	426.37
486.07	428.04
486.44	429.48
486.80	431.45
487.17	433.41
487.53	435.75
487.90	437.99
488.26	440.61
488.62	443.47
488.99	446.00
489.35	448.85
489.72	452.00
490.08	455.37
490.44	458.68
490.81	462.06
491.17	465.39
491.54	469.11
491.90	472.93
492.26	476.89
492.63	481.16
492.99	485.44
493.36	489.90
493.72	494.61
494.08	499.50
494.45	504.39
494.81	509.64
495.17	514.77
495.54	520.33
495.90	525.76
496.26	531.32
496.63	537.20
496.99	543.21
497.35	549.45
497.72	555.85
498.08	562.42
498.44	569.09
498.80	576.15
499.17	583.05
499.53	590.22
499.89	597.58
500.26	604.67
500.62	611.84
500.98	619.20
501.34	626.76
501.71	634.48
502.07	642.17
502.43	649.83
502.79	657.60
503.16	665.29
503.52	673.20
503.88	681.17
504.24	689.15
504.60	697.13
504.97	705.21
505.33	713.17
505.69	721.60
506.05	729.85
506.41	737.86
506.78	745.75
507.14	753.55
507.50	761.60
507.86	769.74
508.22	777.84
508.59	785.70
508.95	793.70
509.31	801.63
509.67	809.57
510.03	817.54
510.39	825.57
510.75	833.66
511.12	841.52
511.48	849.26
511.84	857.19
512.20	864.83
512.56	872.34
512.92	880.27
513.28	887.85
513.64	895.23
514.00	902.45
514.37	909.88
514.73	917.52
515.09	924.70
515.45	931.66
515.81	938.62
516.17	945.63
516.53	952.33
516.89	958.74
517.25	965.22
517.61	971.61
517.97	977.63
518.33	983.30
518.69	989.21
519.05	995.15
519.41	1000.80
519.77	1006.85
520.13	1012.51
520.49	1017.64
520.85	1022.97
521.21	1028.25
521.57	1033.57
521.93	1038.15
522.29	1043.16
522.65	1048.00
523.01	1052.75
523.37	1057.09
523.73	1061.61
524.09	1065.87
524.45	1070.29
524.81	1074.63
525.17	1079.02
525.53	1083.34
525.89	1087.78
526.25	1091.81
526.61	1095.39
526.97	1098.98
527.33	1102.64
527.68	1106.49
528.04	1109.83
528.40	1112.65
528.76	1115.71
529.12	1119.16
529.48	1123.12
529.84	1126.43
530.20	1129.52
530.56	1132.91
530.91	1136.65
531.27	1139.86
531.63	1143.28
531.99	1146.44
532.35	1149.46
532.71	1152.16
533.07	1155.39
533.42	1158.33
533.78	1161.58
534.14	1164.83
534.50	1167.43
534.86	1170.05
535.21	1172.34
535.57	1175.55
535.93	1178.60
536.29	1181.50
536.65	1184.14
537.00	1186.25
537.36	1188.19
537.72	1190.46
538.08	1192.45
538.44	1194.40
538.79	1196.77
539.15	1199.01
539.51	1201.16
539.87	1203.66
540.22	1206.04
540.58	1208.53
540.94	1210.74
541.29	1212.33
541.65	1213.76
542.01	1215.93
542.37	1217.85
542.72	1219.75
543.08	1221.27
543.44	1223.19
543.79	1224.23
544.15	1225.46
544.51	1227.49
544.87	1229.47
545.22	1230.90
545.58	1232.51
545.94	1233.60
546.29	1234.32
546.65	1234.85
547.01	1235.79
547.36	1236.44
547.72	1236.99
548.07	1237.28
548.43	1237.73
548.79	1238.23
549.14	1238.92
549.50	1239.25
549.86	1239.36
550.21	1239.90
550.57	1240.70
550.92	1240.77
551.28	1241.63
551.64	1242.10
551.99	1242.57
552.35	1242.39
552.70	1242.67
553.06	1242.96
553.41	1243.40
553.77	1244.31
554.13	1245.13
554.48	1245.83
554.84	1246.60
555.19	1247.28
555.55	1247.71
555.90	1248.08
556.26	1248.55
556.61	1248.71
556.97	1248.77
557.32	1249.50
557.68	1249.34
558.03	1248.89
558.39	1248.76
558.74	1248.85
559.10	1248.99
559.45	1248.73
559.81	1249.07
560.16	1248.83
560.52	1248.69
560.87	1248.86
561.23	1248.20
561.58	1248.05
561.94	1247.40
562.29	1246.27
562.64	1245.57
563.00	1244.87
563.35	1244.61
563.71	1244.65
564.06	1244.76
564.42	1244.95
564.77	1244.82
565.12	1245.05
565.48	1245.26
565.83	1245.14
566.19	1245.13
566.54	1244.52
566.89	1243.93
567.25	1243.83
567.60	1243.93
567.96	1243.91
568.31	1243.75
568.66	1243.45
569.02	1242.50
569.37	1241.57
569.72	1241.15
570.08	1240.54
570.43	1239.80
570.78	1238.75
571.14	1237.13
571.49	1235.56
571.84	1234.38
572.20	1232.83
572.55	1231.36
572.90	1229.30
573.26	1227.43
573.61	1225.22
573.96	1223.29
574.31	1221.29
574.67	1218.78
575.02	1216.07
575.37	1213.42
575.72	1210.19
576.08	1207.78
576.43	1205.24
576.78	1202.86
577.13	1200.56
577.49	1198.15
577.84	1195.72
578.19	1193.33
578.54	1191.37
578.90	1189.42
579.25	1186.67
579.60	1183.55
579.95	1180.26
580.30	1177.61
580.66	1175.14
581.01	1172.38
581.36	1169.40
581.71	1166.36
582.06	1163.60
582.42	1160.81
582.77	1157.43
583.12	1154.56
583.47	1151.31
583.82	1148.53
584.17	1145.49
584.53	1142.60
584.88	1139.36
585.23	1136.13
585.58	1132.72
585.93	1129.08
586.28	1125.50
586.63	1122.30
586.98	1119.38
587.34	1116.57
587.69	1113.15
588.04	1109.89
588.39	1106.77
588.74	1103.31
589.09	1100.30
589.44	1096.63
589.79	1093.47
590.14	1090.54
590.49	1087.44
590.84	1084.20
591.19	1081.19
591.54	1077.95
591.89	1073.96
592.25	1070.70
592.60	1067.00
592.95	1063.28
593.30	1059.25
593.65	1055.29
594.00	1051.43
594.35	1048.56
594.70	1044.78
595.05	1041.39
595.40	1037.71
595.75	1033.69
596.10	1030.44
596.45	1026.75
596.80	1023.39
597.15	1019.90
597.50	1015.90
597.85	1012.25
598.19	1008.46
598.54	1004.41
598.89	1000.93
599.24	997.80
599.59	993.95
599.94	990.52
600.29	986.96
600.64	983.60
600.99	979.98
601.34	976.50
601.69	971.99
602.04	968.06
602.39	964.19
602.74	960.49
603.08	957.16
603.43	954.02
603.78	950.25
604.13	946.46
604.48	942.90
604.83	939.93
605.18	936.80
605.53	933.06
605.87	929.31
606.22	925.68
606.57	921.53
606.92	917.60
607.27	913.65
607.62	910.01
607.96	906.44
608.31	903.20
608.66	899.21
609.01	895.17
609.36	891.38
609.70	887.35
610.05	883.29
610.40	879.35
610.75	874.78
611.10	871.32
611.44	867.09
611.79	862.70
612.14	858.32
612.49	853.62
612.83	849.76
613.18	845.54
613.53	841.27
613.88	836.99
614.22	833.12
614.57	829.06
614.92	824.87
615.27	820.67
615.61	816.21
615.96	812.34
616.31	808.60
616.65	805.15
617.00	801.51
617.35	797.69
617.70	793.66
618.04	789.55
618.39	785.05
618.74	781.17
619.08	777.12
619.43	773.30
619.78	769.65
620.12	765.82
620.47	762.20
620.82	758.22
621.16	754.21
621.51	750.22
621.85	746.55
622.20	742.83
622.55	739.02
622.89	735.20
623.24	731.44
623.59	727.38
623.93	723.32
624.28	719.62
624.62	716.07
624.97	712.37
625.32	708.83
625.66	705.36
626.01	701.77
626.35	698.49
626.70	694.84
627.04	691.23
627.39	687.75
627.73	684.20
628.08	680.94
628.43	677.68
628.77	674.19
629.12	670.61
629.46	667.29
629.81	663.94
630.15	660.77
630.50	657.43
630.84	654.21
631.19	650.96
631.53	647.66
631.88	644.03
632.22	640.56
632.57	637.51
632.91	634.20
633.26	631.03
633.60	627.51
633.95	624.35
634.29	621.03
634.64	617.85
634.98	614.68
635.32	611.57
635.67	608.73
636.01	605.87
636.36	602.90
636.70	599.85
637.05	596.91
637.39	593.95
637.73	591.23
638.08	588.74
638.42	586.05
638.77	583.30
639.11	580.75
639.45	578.18
639.80	575.20
640.14	572.46
640.49	569.71
640.83	567.14
641.17	564.47
641.52	561.84
641.86	558.98
642.20	556.42
642.55	553.45
642.89	550.49
643.23	547.49
643.58	544.92
643.92	542.14
644.26	539.47
644.61	536.83
644.95	534.05
645.29	530.97
645.64	528.11
645.98	525.35
646.32	522.71
646.66	519.93
647.01	517.33
647.35	514.78
647.69	512.07
648.04	509.50
648.38	506.87
648.72	504.33
649.06	501.74
649.41	498.98
649.75	496.35
650.09	494.00
650.43	491.75
650.78	489.05
651.12	486.62
651.46	484.11
651.80	481.62
652.14	479.03
652.49	476.81
652.83	474.34
653.17	471.86
653.51	469.31
653.85	467.08
654.20	464.74
654.54	462.34
654.88	459.99
655.22	457.60
655.56	455.11
655.90	452.74
656.25	450.45
656.59	448.27
656.93	446.27
657.27	444.22
657.61	441.84
657.95	439.75
658.29	437.56
658.64	435.51
658.98	433.43
659.32	431.19
659.66	428.81
660.00	426.70
660.34	424.50
660.68	422.36
661.02	420.03
661.36	418.02
661.70	416.10
662.05	414.15
662.39	412.26
662.73	410.56
663.07	408.80
663.41	407.06
663.75	405.07
664.09	403.07
664.43	400.93
664.77	399.17
665.11	397.16
665.45	395.36
665.79	393.56
666.13	391.59
666.47	389.95
666.81	388.35
667.15	386.56
667.49	385.00
667.83	383.49
668.17	382.05
668.51	380.43
668.85	378.79
669.19	377.38
669.53	375.75
669.87	373.99
670.21	372.34
670.55	370.74
670.89	369.52
671.23	368.18
671.57	366.91
671.91	365.50
672.25	364.11
672.58	362.75
672.92	361.26
673.26	360.04
673.60	358.66
673.94	357.30
674.28	355.95
674.62	354.68
674.96	353.32
675.30	351.89
675.64	350.60
675.97	349.30
676.31	347.95
676.65	346.80
676.99	345.75
677.33	344.47
677.67	343.16
678.01	341.62
678.34	340.30
678.68	338.98
679.02	337.58
679.36	336.38
679.70	335.06
680.04	333.86
680.37	332.56
680.71	331.42
681.05	330.38
681.39	329.37
681.73	328.17
682.06	327.07
682.40	326.07
682.74	324.97
683.08	323.98
683.42	322.77
683.75	321.61
684.09	320.46
684.43	319.31
684.77	318.23
685.10	317.22
685.44	316.20
685.78	315.17
686.12	314.22
686.45	313.27
686.79	312.35
687.13	311.55
687.46	310.62
687.80	309.61
688.14	308.50
688.48	307.47
688.81	306.49
689.15	305.52
689.49	304.48
689.82	303.56
690.16	302.37
690.50	301.47
690.83	300.49
691.17	299.40
691.51	298.54
691.84	297.64
692.18	296.70
692.52	295.78
692.85	294.90
693.19	294.11
693.52	293.10
693.86	292.13
694.20	291.13
694.53	290.28
694.87	289.44
695.21	288.52
695.54	287.58
695.88	286.60
696.21	285.67
696.55	284.89
696.88	283.93
697.22	283.15
697.56	282.43
697.89	281.63
698.23	280.99
698.56	280.21
698.90	279.58
699.23	278.79
699.57	278.10
699.90	277.28
700.24	276.44
700.58	275.79
700.91	275.10
701.25	274.67
701.58	273.95
701.92	273.27
702.25	272.63
702.59	272.07
702.92	271.44
703.26	270.79
703.59	270.09
703.93	269.78
704.26	269.25
704.60	268.61
704.93	267.94
705.26	267.24
705.60	266.66
705.93	265.95
706.27	265.57
706.60	265.02
706.94	264.76
707.27	264.21
707.61	263.70
707.94	263.12
708.27	262.28
708.61	261.73
708.94	261.15
709.28	260.63
709.61	260.07
709.94	259.63
710.28	259.24
710.61	258.81
710.95	258.01
711.28	257.76
711.61	257.26
711.95	256.86
712.28	256.36
712.61	255.94
712.95	255.61
713.28	255.15
713.61	254.64
713.95	253.98
714.28	253.56
714.61	253.07
714.95	252.66
715.28	252.18
715.61	251.74
715.95	251.34
716.28	250.94
716.61	250.52
716.95	250.09
717.28	249.68
717.61	249.24
717.94	248.86
718.28	248.12
718.61	247.66
718.94	247.25
719.27	246.84
719.61	246.41
719.94	245.98
720.27	245.36
720.60	244.97
720.94	244.60
721.27	244.22
721.60	243.88
721.93	243.52
722.27	243.43
722.60	243.16
722.93	242.85
723.26	242.56
723.59	242.17
723.93	241.87
724.26	241.56
724.59	241.31
724.92	241.05
725.25	240.90
725.59	240.71
725.92	240.45
726.25	240.19
726.58	239.98
726.91	239.68
727.24	239.56
727.57	239.34
727.91	238.94
728.24	238.69
728.57	238.45
728.90	238.24
729.23	237.77
729.56	237.66
729.89	237.37
730.22	237.06
730.55	236.84
730.89	236.60
731.22	236.30
731.55	236.05
731.88	235.80
732.21	235.53
732.54	235.17
732.87	234.94
733.20	234.70
733.53	234.41
733.86	234.25
734.19	233.99
734.52	233.85
734.85	233.91
735.18	233.69
735.51	233.48
735.84	233.27
736.17	233.22
736.50	232.80
736.83	233.00
737.16	232.77
737.49	232.60
737.82	232.40
738.15	232.19
738.48	231.97
738.81	231.73
739.14	231.41
739.47	231.22
739.80	231.01
740.13	230.84
740.46	230.64
740.79	230.34
741.12	230.18
741.45	229.86
741.78	229.49
742.11	229.38
742.44	229.18
742.77	228.99
743.10	228.68
743.43	228.44
743.75	227.85
744.08	228.20
744.41	227.91
744.74	227.65
745.07	227.38
745.40	227.20
745.73	227.24
746.06	227.10
746.39	226.96
746.71	226.73
747.04	226.54
747.37	226.34
747.70	226.29
748.03	226.08
748.36	226.04
748.68	225.90
749.01	225.63
749.34	225.48
749.67	225.33
750.00	225.27
750.33	225.34
750.65	225.26
750.98	224.60
751.31	224.54
751.64	224.45
751.97	224.60
752.29	224.47
752.62	224.16
752.95	224.01
753.28	223.82
753.60	223.69
753.93	223.67
754.26	223.52
754.59	223.21
754.91	223.06
755.24	222.80
755.57	222.64
755.90	222.50
756.22	222.37
756.55	222.20
756.88	221.98
757.20	221.72
757.53	221.46
757.86	221.34
758.19	221.25
758.51	221.08
758.84	220.81
759.17	220.65
759.49	220.51
759.82	220.56
760.15	220.52
760.47	220.45
760.80	220.21
761.13	220.19
761.45	220.14
761.78	220.09
762.11	220.00
762.43	219.87
762.76	219.81
763.08	219.70
763.41	219.65
763.74	219.58
764.06	219.46
764.39	219.45
764.71	219.39
765.04	219.22
765.37	219.16
765.69	218.97
766.02	218.87
766.34	218.78
766.67	218.55
767.00	218.51
767.32	218.65
767.65	218.82
767.97	218.70
768.30	218.67
768.62	218.62
768.95	218.45
769.27	218.44
769.60	218.42
769.92	218.30
770.25	218.15
770.57	218.00
770.90	217.89
771.22	217.73
771.55	217.67
771.87	217.60
772.20	217.52
772.52	217.82
772.85	218.20
773.17	218.15
773.50	218.06
773.82	217.95
774.15	217.67
774.47	217.34
774.80	217.25
775.12	217.14
775.45	216.99
775.77	217.05
776.09	216.92
776.42	216.88
776.74	216.95
777.07	216.85
777.39	216.81
777.72	216.84
778.04	216.83
778.36	216.75
778.69	216.71
779.01	216.67
779.33	216.26
779.66	215.79
779.98	215.72
780.31	215.74
780.63	215.90
780.95	215.93
781.28	215.95
781.60	215.91
781.92	215.86
782.25	215.85
782.57	215.84
782.89	215.85
783.22	215.78
783.54	215.68
783.86	215.76
784.19	215.72
784.51	215.77
784.83	215.73
785.16	215.63
785.48	215.60
785.80	215.56
786.12	215.59
786.45	215.56
786.77	215.57
787.09	215.51
787.42	215.28
787.74	215.22
788.06	215.15
788.38	215.08
788.71	215.03
789.03	215.00
789.35	214.95
