SpectraSuite Data File
++++++++++++++++++++++++++++++++++++
Date: Mon Feb 25 17:01:16 EST 2013
User: group
Dark Spectrum Present: No
Reference Spectrum Present: No
Number of Sampled Component Spectra: 1
Spectrometers: USB2E7196
Integration Time (usec): 104000 (USB2E7196)
Spectra Averaged: 20 (USB2E7196)
Boxcar Smoothing: 10 (USB2E7196)
Correct for Electrical Dark: No (USB2E7196)
Strobe/Lamp Enabled: No (USB2E7196)
Correct for Detector Non-linearity: No (USB2E7196)
Correct for Stray Light: No (USB2E7196)
Number of Pixels in Processed Spectrum: 2048
>>>>>Begin Processed Spectral Data<<<<<
339.09	0.00
339.48	197.20
339.86	198.70
340.24	202.40
340.63	201.95
341.01	210.05
341.39	206.30
341.78	206.15
342.16	207.55
342.54	206.65
342.93	197.96
343.31	207.87
343.69	208.46
344.07	208.96
344.46	209.37
344.84	209.81
345.22	209.76
345.60	209.97
345.99	210.21
346.37	210.31
346.75	210.44
347.13	210.46
347.52	210.47
347.90	210.62
348.28	210.61
348.66	210.70
349.05	210.56
349.43	210.62
349.81	210.68
350.19	210.66
350.57	210.63
350.96	210.82
351.34	211.04
351.72	211.14
352.10	211.25
352.48	211.34
352.87	211.40
353.25	211.52
353.63	211.57
354.01	211.61
354.39	211.80
354.77	211.93
355.15	212.13
355.54	212.15
355.92	212.06
356.30	212.22
356.68	212.44
357.06	212.60
357.44	212.58
357.82	212.63
358.20	212.70
358.58	212.77
358.97	212.71
359.35	212.80
359.73	212.89
360.11	212.96
360.49	213.02
360.87	213.03
361.25	213.08
361.63	213.21
362.01	213.25
362.39	213.23
362.77	213.32
363.15	213.33
363.53	213.39
363.91	213.50
364.29	213.55
364.67	213.29
365.05	213.26
365.43	213.35
365.81	213.45
366.19	213.65
366.57	213.81
366.95	213.85
367.33	213.70
367.71	213.75
368.09	213.73
368.47	213.66
368.85	213.66
369.23	213.76
369.61	213.71
369.99	213.74
370.37	213.75
370.75	213.92
371.13	213.79
371.51	213.70
371.89	213.68
372.27	213.57
372.65	213.55
373.03	213.50
373.41	213.45
373.78	213.41
374.16	213.21
374.54	212.99
374.92	212.96
375.30	212.99
375.68	212.84
376.06	212.85
376.44	212.76
376.82	212.73
377.19	212.68
377.57	212.52
377.95	212.39
378.33	212.27
378.71	211.96
379.09	211.98
379.47	212.03
379.84	211.93
380.22	211.89
380.60	211.75
380.98	211.76
381.36	211.68
381.73	211.56
382.11	211.59
382.49	211.63
382.87	211.51
383.25	211.47
383.62	211.79
384.00	211.66
384.38	211.68
384.76	211.69
385.13	211.77
385.51	211.78
385.89	211.74
386.27	211.74
386.64	211.76
387.02	211.68
387.40	211.50
387.78	211.41
388.15	211.41
388.53	211.36
388.91	211.29
389.29	211.25
389.66	211.30
390.04	211.08
390.42	211.08
390.79	211.15
391.17	211.14
391.55	210.80
391.92	210.82
392.30	210.83
392.68	210.73
393.05	210.59
393.43	210.55
393.81	210.59
394.18	210.53
394.56	210.50
394.94	210.56
395.31	210.64
395.69	210.77
396.06	210.79
396.44	210.89
396.82	210.85
397.19	211.02
397.57	211.00
397.95	211.21
398.32	211.14
398.70	211.07
399.07	211.08
399.45	211.09
399.82	211.12
400.20	211.14
400.58	211.17
400.95	211.15
401.33	211.35
401.70	211.63
402.08	211.76
402.45	211.86
402.83	211.99
403.20	212.08
403.58	212.20
403.95	212.42
404.33	212.51
404.71	212.69
405.08	213.05
405.46	213.16
405.83	213.23
406.21	213.43
406.58	213.71
406.96	213.91
407.33	214.15
407.70	214.36
408.08	214.88
408.45	215.28
408.83	215.66
409.20	215.90
409.58	216.08
409.95	216.43
410.33	216.82
410.70	217.17
411.08	217.71
411.45	218.18
411.82	218.61
412.20	219.20
412.57	219.95
412.95	220.27
413.32	221.07
413.69	221.87
414.07	222.71
414.44	223.57
414.82	224.55
415.19	225.60
415.56	226.71
415.94	227.67
416.31	228.96
416.68	230.23
417.06	231.72
417.43	233.12
417.81	234.75
418.18	236.45
418.55	238.23
418.93	240.09
419.30	242.07
419.67	244.13
420.04	246.29
420.42	248.49
420.79	251.23
421.16	253.81
421.54	256.55
421.91	259.30
422.28	262.21
422.66	265.26
423.03	268.47
423.40	271.64
423.77	274.99
424.15	278.39
424.52	281.96
424.89	285.91
425.26	289.75
425.64	293.47
426.01	297.47
426.38	301.63
426.75	305.89
427.13	310.35
427.50	315.03
427.87	319.99
428.24	324.94
428.61	329.45
428.99	334.60
429.36	340.27
429.73	345.88
430.10	351.39
430.47	357.05
430.85	362.66
431.22	368.96
431.59	375.78
431.96	382.09
432.33	389.19
432.70	396.00
433.08	404.03
433.45	411.69
433.82	419.19
434.19	427.66
434.56	435.90
434.93	443.85
435.30	451.83
435.68	460.57
436.05	469.27
436.42	478.20
436.79	486.27
437.16	494.85
437.53	504.00
437.90	513.18
438.27	522.19
438.64	531.67
439.01	540.42
439.38	548.06
439.75	555.93
440.13	564.57
440.50	572.64
440.87	579.36
441.24	586.31
441.61	594.23
441.98	600.10
442.35	606.97
442.72	613.68
443.09	620.44
443.46	624.83
443.83	627.94
444.20	630.60
444.57	634.36
444.94	636.60
445.31	638.80
445.68	641.21
446.05	642.55
446.42	642.35
446.79	641.93
447.16	641.44
447.53	641.06
447.90	638.34
448.27	635.88
448.64	631.88
449.01	629.05
449.37	623.69
449.74	618.61
450.11	612.42
450.48	605.73
450.85	598.54
451.22	592.33
451.59	586.48
451.96	580.87
452.33	573.22
452.70	566.22
453.07	557.75
453.43	548.84
453.80	540.67
454.17	532.82
454.54	525.43
454.91	517.30
455.28	509.50
455.65	502.20
456.02	495.04
456.38	488.93
456.75	481.14
457.12	474.57
457.49	468.13
457.86	461.72
458.23	456.22
458.59	450.27
458.96	444.25
459.33	439.00
459.70	433.75
460.07	429.52
460.43	424.64
460.80	420.14
461.17	416.25
461.54	412.02
461.91	408.05
462.27	404.01
462.64	400.70
463.01	396.82
463.38	393.19
463.74	389.17
464.11	385.78
464.48	383.02
464.85	379.90
465.21	377.51
465.58	374.99
465.95	371.82
466.32	369.31
466.68	366.84
467.05	364.39
467.42	361.73
467.78	359.07
468.15	356.55
468.52	354.75
468.88	352.30
469.25	350.14
469.62	348.34
469.98	346.35
470.35	344.49
470.72	342.73
471.08	340.75
471.45	339.09
471.82	337.53
472.18	335.75
472.55	334.52
472.92	332.91
473.28	331.48
473.65	330.26
474.02	328.96
474.38	327.85
474.75	326.78
475.11	325.76
475.48	324.99
475.85	324.25
476.21	323.45
476.58	322.74
476.94	322.23
477.31	321.50
477.67	320.90
478.04	320.46
478.41	320.21
478.77	320.19
479.14	319.87
479.50	319.57
479.87	319.42
480.23	319.21
480.60	319.01
480.96	318.84
481.33	319.01
481.69	319.10
482.06	319.08
482.42	319.09
482.79	319.27
483.15	319.48
483.52	319.90
483.88	320.17
484.25	320.43
484.61	320.78
484.98	321.27
485.34	321.85
485.71	322.49
486.07	323.00
486.44	323.46
486.80	324.17
487.17	324.97
487.53	325.97
487.90	326.87
488.26	327.99
488.62	329.22
488.99	330.19
489.35	331.23
489.72	332.47
490.08	333.71
490.44	334.93
490.81	336.26
491.17	337.44
491.54	338.90
491.90	340.44
492.26	342.01
492.63	343.63
492.99	345.24
493.36	346.86
493.72	348.70
494.08	350.48
494.45	352.42
494.81	354.43
495.17	356.36
495.54	358.49
495.90	360.50
496.26	362.50
496.63	364.61
496.99	366.78
497.35	368.95
497.72	371.29
498.08	373.63
498.44	375.96
498.80	378.50
499.17	380.90
499.53	383.20
499.89	385.67
500.26	388.07
500.62	390.34
500.98	392.76
501.34	395.11
501.71	397.55
502.07	399.75
502.43	402.00
502.79	404.16
503.16	406.31
503.52	408.38
503.88	410.41
504.24	412.56
504.60	414.71
504.97	416.88
505.33	418.79
505.69	420.93
506.05	422.85
506.41	424.65
506.78	426.36
507.14	428.16
507.50	429.91
507.86	431.47
508.22	433.20
508.59	434.51
508.95	436.12
509.31	437.65
509.67	439.20
510.03	440.51
510.39	441.86
510.75	443.10
511.12	444.46
511.48	445.73
511.84	446.73
512.20	447.73
512.56	448.70
512.92	449.79
513.28	450.51
513.64	451.16
514.00	451.84
514.37	452.53
514.73	453.24
515.09	453.75
515.45	454.32
515.81	454.76
516.17	455.32
516.53	455.60
516.89	455.68
517.25	455.80
517.61	456.04
517.97	456.04
518.33	456.15
518.69	456.20
519.05	456.27
519.41	456.44
519.77	456.53
520.13	456.49
520.49	456.35
520.85	456.24
521.21	456.48
521.57	456.44
521.93	456.24
522.29	456.15
522.65	456.08
523.01	455.99
523.37	455.76
523.73	455.78
524.09	455.58
524.45	455.63
524.81	455.88
525.17	456.10
525.53	456.34
525.89	456.45
526.25	456.61
526.61	456.56
526.97	456.77
527.33	457.06
527.68	457.69
528.04	457.98
528.40	458.30
528.76	458.57
529.12	459.09
529.48	459.71
529.84	460.37
530.20	461.03
530.56	461.84
530.91	462.89
531.27	463.77
531.63	464.75
531.99	465.74
532.35	466.58
532.71	467.43
533.07	468.64
533.42	470.23
533.78	471.23
534.14	472.64
534.50	473.69
534.86	475.10
535.21	476.09
535.57	477.67
535.93	479.24
536.29	480.91
536.65	482.46
537.00	484.08
537.36	485.53
537.72	486.96
538.08	488.64
538.44	490.19
538.79	491.95
539.15	493.77
539.51	495.75
539.87	497.74
540.22	499.84
540.58	501.90
540.94	503.60
541.29	505.85
541.65	507.87
542.01	510.25
542.37	512.31
542.72	514.63
543.08	516.75
543.44	519.25
543.79	521.35
544.15	523.90
544.51	526.64
544.87	529.33
545.22	531.95
545.58	534.54
545.94	537.05
546.29	539.42
546.65	542.10
547.01	544.52
547.36	547.11
547.72	549.75
548.07	552.30
548.43	554.79
548.79	557.34
549.14	560.07
549.50	562.81
549.86	565.53
550.21	568.19
550.57	570.98
550.92	573.57
551.28	576.26
551.64	578.96
551.99	581.55
552.35	584.12
552.70	586.68
553.06	589.34
553.41	592.08
553.77	595.05
554.13	597.68
554.48	600.55
554.84	603.29
555.19	605.77
555.55	608.75
555.90	611.56
556.26	614.13
556.61	616.53
556.97	618.80
557.32	621.27
557.68	623.65
558.03	625.89
558.39	628.09
558.74	630.66
559.10	632.86
559.45	635.19
559.81	637.50
560.16	639.86
560.52	642.07
560.87	644.50
561.23	646.47
561.58	648.84
561.94	650.72
562.29	652.72
562.64	655.12
563.00	657.00
563.35	659.05
563.71	661.51
564.06	663.80
564.42	665.96
564.77	668.34
565.12	670.68
565.48	673.36
565.83	675.69
566.19	677.78
566.54	679.74
566.89	681.68
567.25	683.81
567.60	685.90
567.96	688.21
568.31	690.10
568.66	692.10
569.02	693.66
569.37	695.19
569.72	696.84
570.08	698.20
570.43	699.56
570.78	700.83
571.14	701.83
571.49	702.93
571.84	704.13
572.20	704.90
572.55	705.94
572.90	706.31
573.26	706.88
573.61	707.43
573.96	708.13
574.31	708.65
574.67	709.09
575.02	709.39
575.37	709.39
575.72	709.42
576.08	709.45
576.43	709.48
576.78	709.78
577.13	709.87
577.49	710.05
577.84	710.08
578.19	710.31
578.54	710.66
578.90	711.10
579.25	711.06
579.60	710.80
579.95	710.39
580.30	710.35
580.66	710.45
581.01	710.23
581.36	709.90
581.71	709.71
582.06	709.63
582.42	709.40
582.77	708.96
583.12	708.74
583.47	708.71
583.82	708.51
584.17	708.27
584.53	708.12
584.88	707.70
585.23	707.45
585.58	706.85
585.93	706.22
586.28	705.62
586.63	705.25
586.98	705.01
587.34	704.78
587.69	704.11
588.04	703.60
588.39	703.18
588.74	702.49
589.09	701.99
589.44	701.00
589.79	700.41
590.14	699.85
590.49	699.18
590.84	698.37
591.19	697.78
591.54	697.10
591.89	695.83
592.25	695.09
592.60	694.00
592.95	693.00
593.30	691.74
593.65	690.42
594.00	689.16
594.35	688.88
594.70	687.43
595.05	686.55
595.40	685.34
595.75	684.02
596.10	683.22
596.45	682.20
596.80	681.16
597.15	679.93
597.50	678.61
597.85	677.45
598.19	676.05
598.54	674.75
598.89	673.34
599.24	672.52
599.59	671.07
599.94	669.95
600.29	668.78
600.64	667.59
600.99	666.37
601.34	665.21
601.69	662.96
602.04	661.76
602.39	660.30
602.74	658.96
603.08	657.87
603.43	656.80
603.78	655.25
604.13	653.87
604.48	652.78
604.83	651.81
605.18	650.74
605.53	649.47
605.87	648.18
606.22	647.16
606.57	645.71
606.92	644.29
607.27	642.91
607.62	641.63
607.96	640.47
608.31	639.43
608.66	638.04
609.01	636.74
609.36	635.37
609.70	633.92
610.05	632.30
610.40	630.62
610.75	628.72
611.10	627.53
611.44	625.82
611.79	623.93
612.14	622.07
612.49	619.90
612.83	618.15
613.18	616.27
613.53	614.25
613.88	612.44
614.22	610.72
614.57	608.88
614.92	607.07
615.27	605.24
615.61	603.00
615.96	601.29
616.31	599.55
616.65	597.82
617.00	595.97
617.35	594.12
617.70	592.26
618.04	590.16
618.39	587.72
618.74	585.87
619.08	583.98
619.43	582.09
619.78	580.44
620.12	578.65
620.47	576.89
620.82	574.79
621.16	572.49
621.51	570.64
621.85	568.72
622.20	566.60
622.55	564.50
622.89	562.49
623.24	560.45
623.59	558.35
623.93	556.23
624.28	554.37
624.62	552.86
624.97	551.02
625.32	549.25
625.66	547.47
626.01	545.68
626.35	543.81
626.70	541.75
627.04	539.93
627.39	538.04
627.73	536.15
628.08	534.48
628.43	532.92
628.77	530.89
629.12	528.88
629.46	527.16
629.81	525.39
630.15	523.60
630.50	521.61
630.84	519.83
631.19	518.01
631.53	516.19
631.88	513.97
632.22	511.95
632.57	510.31
632.91	508.39
633.26	506.45
633.60	504.58
633.95	502.87
634.29	500.87
634.64	499.12
634.98	497.02
635.32	495.42
635.67	493.68
636.01	491.94
636.36	490.18
636.70	488.49
637.05	486.58
637.39	485.03
637.73	483.40
638.08	481.89
638.42	480.34
638.77	478.66
639.11	477.10
639.45	475.47
639.80	473.48
640.14	471.69
640.49	470.06
640.83	468.25
641.17	466.67
641.52	464.85
641.86	462.98
642.20	461.52
642.55	459.49
642.89	457.65
643.23	455.92
643.58	454.39
643.92	452.46
644.26	450.91
644.61	449.29
644.95	447.59
645.29	445.66
645.64	443.90
645.98	442.08
646.32	440.30
646.66	438.45
647.01	436.89
647.35	435.41
647.69	433.57
648.04	432.08
648.38	430.27
648.72	428.65
649.06	427.00
649.41	425.33
649.75	423.68
650.09	422.02
650.43	420.51
650.78	418.70
651.12	417.06
651.46	415.37
651.80	413.60
652.14	411.95
652.49	410.45
652.83	408.89
653.17	407.25
653.51	405.57
653.85	404.09
654.20	402.44
654.54	400.74
654.88	399.16
655.22	397.52
655.56	395.80
655.90	394.31
656.25	392.65
656.59	390.99
656.93	389.52
657.27	388.08
657.61	386.28
657.95	384.74
658.29	383.27
658.64	381.85
658.98	380.31
659.32	378.73
659.66	377.19
660.00	375.54
660.34	374.00
660.68	372.46
661.02	370.85
661.36	369.43
661.70	368.02
662.05	366.61
662.39	365.27
662.73	364.10
663.07	362.85
663.41	361.57
663.75	360.26
664.09	358.82
664.43	357.38
664.77	356.13
665.11	354.79
665.45	353.51
665.79	352.14
666.13	350.80
666.47	349.51
666.81	348.12
667.15	346.85
667.49	345.86
667.83	344.75
668.17	343.59
668.51	342.38
668.85	341.22
669.19	340.15
669.53	338.78
669.87	337.47
670.21	336.14
670.55	335.05
670.89	334.17
671.23	333.14
671.57	332.14
671.91	331.07
672.25	329.90
672.58	328.88
672.92	327.80
673.26	326.84
673.60	325.82
673.94	324.84
674.28	323.82
674.62	322.80
674.96	321.81
675.30	320.82
675.64	319.82
675.97	318.81
676.31	317.86
676.65	316.98
676.99	316.25
677.33	315.25
677.67	314.25
678.01	313.09
678.34	312.19
678.68	311.28
679.02	310.40
679.36	309.58
679.70	308.62
680.04	307.76
680.37	306.81
680.71	306.03
681.05	305.18
681.39	304.40
681.73	303.40
682.06	302.62
682.40	301.86
682.74	301.08
683.08	300.42
683.42	299.42
683.75	298.62
684.09	297.62
684.43	296.90
684.77	296.03
685.10	295.20
685.44	294.32
685.78	293.50
686.12	292.67
686.45	291.84
686.79	291.01
687.13	290.30
687.46	289.60
687.80	288.87
688.14	288.16
688.48	287.47
688.81	286.66
689.15	285.90
689.49	285.17
689.82	284.39
690.16	283.43
690.50	282.84
690.83	282.04
691.17	281.27
691.51	280.54
691.84	279.95
692.18	279.26
692.52	278.58
692.85	278.00
693.19	277.46
693.52	276.92
693.86	276.29
694.20	275.57
694.53	274.84
694.87	274.15
695.21	273.42
695.54	272.71
695.88	272.09
696.21	271.41
696.55	270.79
696.88	270.19
697.22	269.55
697.56	268.92
697.89	268.38
698.23	267.85
698.56	267.19
698.90	266.63
699.23	265.99
699.57	265.46
699.90	264.86
700.24	264.16
700.58	263.56
700.91	263.08
701.25	262.75
701.58	262.33
701.92	261.76
702.25	261.23
702.59	260.58
702.92	260.13
703.26	259.59
703.59	259.03
703.93	258.83
704.26	258.43
704.60	258.02
704.93	257.49
705.26	256.95
705.60	256.54
705.93	255.94
706.27	255.59
706.60	255.13
706.94	254.79
707.27	254.26
707.61	253.81
707.94	253.32
708.27	252.63
708.61	252.07
708.94	251.68
709.28	251.29
709.61	250.96
709.94	250.52
710.28	250.10
710.61	249.71
710.95	249.01
711.28	248.76
711.61	248.25
711.95	248.00
712.28	247.60
712.61	247.28
712.95	247.10
713.28	246.92
713.61	246.52
713.95	246.06
714.28	245.82
714.61	245.47
714.95	245.06
715.28	244.68
715.61	244.35
715.95	243.96
716.28	243.53
716.61	243.23
716.95	242.87
717.28	242.60
717.61	242.23
717.94	241.88
718.28	241.41
718.61	241.12
718.94	240.69
719.27	240.41
719.61	240.09
719.94	239.65
720.27	239.05
720.60	238.79
720.94	238.50
721.27	238.19
721.60	237.99
721.93	237.78
722.27	237.68
722.60	237.41
722.93	237.11
723.26	236.92
723.59	236.60
723.93	236.40
724.26	236.14
724.59	235.90
724.92	235.65
725.25	235.49
725.59	235.28
725.92	235.05
726.25	234.84
726.58	234.58
726.91	234.38
727.24	234.25
727.57	233.98
727.91	233.63
728.24	233.47
728.57	233.13
728.90	232.94
729.23	232.62
729.56	232.62
729.89	232.45
730.22	232.17
730.55	231.96
730.89	231.69
731.22	231.43
731.55	231.24
731.88	231.13
732.21	230.89
732.54	230.61
732.87	230.51
733.20	230.37
733.53	230.21
733.86	230.05
734.19	229.80
734.52	229.74
734.85	229.85
735.18	229.62
735.51	229.55
735.84	229.32
736.17	229.25
736.50	228.90
736.83	229.17
737.16	229.04
737.49	228.89
737.82	228.77
738.15	228.68
738.48	228.56
738.81	228.25
739.14	227.97
739.47	227.81
739.80	227.54
740.13	227.40
740.46	227.21
740.79	227.05
741.12	226.87
741.45	226.61
741.78	226.22
742.11	226.12
742.44	225.93
742.77	225.92
743.10	225.65
743.43	225.43
743.75	224.79
744.08	225.13
744.41	224.91
744.74	224.69
745.07	224.38
745.40	224.27
745.73	224.37
746.06	224.30
746.39	224.22
746.71	224.10
747.04	223.95
747.37	223.76
747.70	223.72
748.03	223.62
748.36	223.53
748.68	223.43
749.01	223.22
749.34	223.05
749.67	222.84
750.00	222.74
750.33	222.95
750.65	222.93
750.98	222.29
751.31	222.26
751.64	222.10
751.97	222.31
752.29	222.11
752.62	221.85
752.95	221.75
753.28	221.68
753.60	221.56
753.93	221.50
754.26	221.42
754.59	221.18
754.91	221.05
755.24	220.89
755.57	220.75
755.90	220.62
756.22	220.54
756.55	220.35
756.88	220.23
757.20	219.82
757.53	219.64
757.86	219.65
758.19	219.53
758.51	219.52
758.84	219.22
759.17	219.19
759.49	219.06
759.82	219.14
760.15	218.99
760.47	218.93
760.80	218.68
761.13	218.64
761.45	218.52
761.78	218.39
762.11	218.39
762.43	218.28
762.76	218.22
763.08	218.13
763.41	218.11
763.74	218.00
764.06	217.95
764.39	217.85
764.71	217.69
765.04	217.59
765.37	217.43
765.69	217.32
766.02	217.17
766.34	217.06
766.67	216.81
767.00	216.77
767.32	216.87
767.65	217.09
767.97	217.01
768.30	217.05
768.62	217.05
768.95	216.90
769.27	216.82
769.60	216.85
769.92	216.67
770.25	216.55
770.57	216.45
770.90	216.33
771.22	216.29
771.55	216.27
771.87	216.17
772.20	216.13
772.52	216.39
772.85	216.73
773.17	216.74
773.50	216.66
773.82	216.62
774.15	216.37
774.47	216.01
774.80	215.94
775.12	215.80
775.45	215.71
775.77	215.71
776.09	215.71
776.42	215.62
776.74	215.77
777.07	215.78
777.39	215.70
777.72	215.67
778.04	215.63
778.36	215.57
778.69	215.62
779.01	215.65
779.33	215.35
779.66	214.99
779.98	214.90
780.31	214.91
780.63	214.96
780.95	215.02
781.28	215.04
781.60	214.97
781.92	214.96
782.25	214.92
782.57	214.92
782.89	214.86
783.22	214.77
783.54	214.74
783.86	214.69
784.19	214.78
784.51	214.83
784.83	214.77
785.16	214.73
785.48	214.61
785.80	214.54
786.12	214.57
786.45	214.54
786.77	214.59
787.09	214.52
787.42	214.33
787.74	214.32
788.06	214.34
788.38	214.37
788.71	214.35
789.03	214.32
789.35	214.29
789.67	214.24
789.99	214.26
790.32	214.20
790.64	214.25
790.96	214.50
791.28	214.41
791.61	214.40
791.93	214.38
792.25	214.40
792.57	214.60
792.89	214.41
793.21	214.44
793.54	214.35
793.86	214.33
794.18	214.39
