SpectraSuite Data File
++++++++++++++++++++++++++++++++++++
Date: Mon Feb 25 17:10:33 EST 2013
User: group
Dark Spectrum Present: No
Reference Spectrum Present: No
Number of Sampled Component Spectra: 1
Spectrometers: USB2E7196
Integration Time (usec): 104000 (USB2E7196)
Spectra Averaged: 20 (USB2E7196)
Boxcar Smoothing: 10 (USB2E7196)
Correct for Electrical Dark: No (USB2E7196)
Strobe/Lamp Enabled: No (USB2E7196)
Correct for Detector Non-linearity: No (USB2E7196)
Correct for Stray Light: No (USB2E7196)
Number of Pixels in Processed Spectrum: 2048
>>>>>Begin Processed Spectral Data<<<<<
339.09	0.00
339.48	197.60
339.86	199.75
340.24	200.90
340.63	203.00
341.01	208.50
341.39	205.65
341.78	208.15
342.16	208.50
342.54	210.20
342.93	198.53
343.31	208.53
343.69	209.13
344.07	209.70
344.46	210.17
344.84	210.52
345.22	210.65
345.60	210.94
345.99	211.09
346.37	211.23
346.75	211.25
347.13	211.25
347.52	211.36
347.90	211.45
348.28	211.45
348.66	211.50
349.05	211.45
349.43	211.59
349.81	211.66
350.19	211.65
350.57	211.69
350.96	211.77
351.34	211.84
351.72	211.92
352.10	211.94
352.48	211.95
352.87	212.03
353.25	212.09
353.63	212.10
354.01	212.18
354.39	212.28
354.77	212.41
355.15	212.53
355.54	212.57
355.92	212.41
356.30	212.49
356.68	212.78
357.06	212.88
357.44	212.83
357.82	212.87
358.20	212.95
358.58	212.95
358.97	213.03
359.35	213.20
359.73	213.31
360.11	213.35
360.49	213.47
360.87	213.49
361.25	213.50
361.63	213.71
362.01	213.73
362.39	213.69
362.77	213.68
363.15	213.72
363.53	213.68
363.91	213.82
364.29	213.83
364.67	213.53
365.05	213.47
365.43	213.55
365.81	213.52
366.19	213.69
366.57	213.94
366.95	213.88
367.33	213.84
367.71	213.78
368.09	213.85
368.47	213.76
368.85	213.77
369.23	213.79
369.61	213.61
369.99	213.71
370.37	213.68
370.75	213.80
371.13	213.69
371.51	213.66
371.89	213.63
372.27	213.59
372.65	213.55
373.03	213.47
373.41	213.37
373.78	213.39
374.16	213.15
374.54	212.91
374.92	212.93
375.30	212.80
375.68	212.69
376.06	212.57
376.44	212.60
376.82	212.53
377.19	212.50
377.57	212.41
377.95	212.24
378.33	212.20
378.71	212.00
379.09	212.04
379.47	211.97
379.84	211.90
380.22	211.81
380.60	211.75
380.98	211.76
381.36	211.69
381.73	211.59
382.11	211.68
382.49	211.67
382.87	211.55
383.25	211.56
383.62	211.99
384.00	211.88
384.38	211.84
384.76	211.86
385.13	212.01
385.51	212.00
385.89	211.85
386.27	211.83
386.64	211.80
387.02	211.70
387.40	211.60
387.78	211.61
388.15	211.61
388.53	211.55
388.91	211.58
389.29	211.54
389.66	211.56
390.04	211.46
390.42	211.49
390.79	211.49
391.17	211.40
391.55	210.95
391.92	210.94
392.30	210.94
392.68	210.89
393.05	210.78
393.43	210.76
393.81	210.86
394.18	210.81
394.56	210.85
394.94	210.88
395.31	210.85
395.69	210.89
396.06	210.89
396.44	210.94
396.82	210.89
397.19	211.08
397.57	211.05
397.95	211.03
398.32	210.96
398.70	211.02
399.07	211.09
399.45	211.09
399.82	211.16
400.20	211.11
400.58	211.09
400.95	211.00
401.33	211.11
401.70	211.37
402.08	211.34
402.45	211.39
402.83	211.50
403.20	211.63
403.58	211.61
403.95	211.73
404.33	211.78
404.71	211.81
405.08	211.98
405.46	211.97
405.83	212.07
406.21	212.08
406.58	212.12
406.96	212.19
407.33	212.28
407.70	212.35
408.08	212.73
408.45	212.85
408.83	213.14
409.20	213.21
409.58	213.15
409.95	213.43
410.33	213.60
410.70	213.69
411.08	213.95
411.45	214.25
411.82	214.43
412.20	214.80
412.57	215.32
412.95	215.28
413.32	215.78
413.69	216.06
414.07	216.51
414.44	216.94
414.82	217.42
415.19	217.97
415.56	218.55
415.94	218.90
416.31	219.65
416.68	220.14
417.06	220.81
417.43	221.60
417.81	222.36
418.18	223.19
418.55	224.06
418.93	224.92
419.30	225.76
419.67	226.73
420.04	227.65
420.42	228.69
420.79	230.15
421.16	231.32
421.54	232.84
421.91	234.13
422.28	235.51
422.66	236.90
423.03	238.57
423.40	240.02
423.77	241.58
424.15	243.12
424.52	244.79
424.89	246.66
425.26	248.26
425.64	249.95
426.01	251.72
426.38	253.50
426.75	255.47
427.13	257.51
427.50	259.67
427.87	261.87
428.24	263.92
428.61	265.90
428.99	268.33
429.36	270.65
429.73	273.18
430.10	275.68
430.47	278.28
430.85	280.64
431.22	283.51
431.59	286.64
431.96	289.36
432.33	292.47
432.70	295.46
433.08	299.04
433.45	302.49
433.82	305.79
434.19	309.56
434.56	313.20
434.93	316.56
435.30	319.91
435.68	323.68
436.05	327.45
436.42	331.07
436.79	334.36
437.16	338.04
437.53	341.82
437.90	345.66
438.27	349.47
438.64	353.30
439.01	356.84
439.38	359.90
439.75	363.10
440.13	366.61
440.50	370.02
440.87	372.77
441.24	375.60
441.61	378.70
441.98	380.97
442.35	383.59
442.72	386.36
443.09	389.17
443.46	390.73
443.83	391.79
444.20	392.86
444.57	394.22
444.94	394.88
445.31	395.60
445.68	396.55
446.05	396.74
446.42	396.45
446.79	396.00
447.16	395.50
447.53	395.22
447.90	393.92
448.27	392.41
448.64	390.52
449.01	388.97
449.37	386.52
449.74	384.19
450.11	381.53
450.48	378.31
450.85	374.99
451.22	372.29
451.59	369.77
451.96	367.21
452.33	363.87
452.70	360.77
453.07	357.07
453.43	353.07
453.80	349.57
454.17	346.17
454.54	342.96
454.91	339.49
455.28	335.98
455.65	332.75
456.02	330.04
456.38	327.19
456.75	323.85
457.12	321.02
457.49	318.32
457.86	315.42
458.23	313.30
458.59	310.77
458.96	308.31
459.33	305.91
459.70	303.58
460.07	301.71
460.43	299.67
460.80	297.87
461.17	296.23
461.54	294.39
461.91	292.54
462.27	290.88
462.64	289.33
463.01	287.79
463.38	286.33
463.74	284.34
464.11	282.95
464.48	281.71
464.85	280.42
465.21	279.31
465.58	278.26
465.95	276.89
466.32	275.85
466.68	274.70
467.05	273.70
467.42	272.71
467.78	271.54
468.15	270.52
468.52	269.74
468.88	268.58
469.25	267.75
469.62	267.18
469.98	266.39
470.35	265.78
470.72	265.07
471.08	264.17
471.45	263.62
471.82	263.03
472.18	262.41
472.55	262.02
472.92	261.39
473.28	260.83
473.65	260.32
474.02	259.75
474.38	259.33
474.75	259.04
475.11	258.58
475.48	258.39
475.85	258.11
476.21	257.83
476.58	257.62
476.94	257.35
477.31	257.19
477.67	256.99
478.04	256.81
478.41	256.76
478.77	257.03
479.14	256.84
479.50	256.90
479.87	256.97
480.23	256.93
480.60	256.91
480.96	256.99
481.33	257.16
481.69	257.34
482.06	257.51
482.42	257.61
482.79	257.89
483.15	258.13
483.52	258.42
483.88	258.64
484.25	258.99
484.61	259.34
484.98	259.65
485.34	260.07
485.71	260.58
486.07	260.96
486.44	261.16
486.80	261.82
487.17	262.39
487.53	263.03
487.90	263.71
488.26	264.61
488.62	265.49
488.99	266.29
489.35	267.16
489.72	268.05
490.08	269.03
490.44	270.07
490.81	271.19
491.17	272.30
491.54	273.42
491.90	274.58
492.26	275.84
492.63	277.25
492.99	278.62
493.36	280.15
493.72	281.76
494.08	283.44
494.45	285.13
494.81	286.89
495.17	288.68
495.54	290.68
495.90	292.62
496.26	294.54
496.63	296.65
496.99	298.81
497.35	301.08
497.72	303.43
498.08	305.83
498.44	308.26
498.80	310.90
499.17	313.57
499.53	316.34
499.89	319.28
500.26	322.15
500.62	325.23
500.98	328.30
501.34	331.42
501.71	334.73
502.07	338.03
502.43	341.41
502.79	344.89
503.16	348.37
503.52	352.05
503.88	355.89
504.24	359.72
504.60	363.76
504.97	367.86
505.33	372.00
505.69	376.47
506.05	380.86
506.41	385.34
506.78	389.93
507.14	394.63
507.50	399.30
507.86	404.26
508.22	409.20
508.59	414.12
508.95	419.39
509.31	424.80
509.67	430.03
510.03	435.56
510.39	441.04
510.75	446.70
511.12	452.36
511.48	458.11
511.84	464.02
512.20	469.82
512.56	475.95
512.92	482.13
513.28	488.23
513.64	494.45
514.00	500.72
514.37	507.10
514.73	513.54
515.09	520.24
515.45	526.62
515.81	533.09
516.17	539.84
516.53	546.53
516.89	552.93
517.25	559.82
517.61	566.57
517.97	573.31
518.33	580.30
518.69	587.18
519.05	594.29
519.41	601.48
519.77	608.89
520.13	615.86
520.49	622.84
520.85	629.91
521.21	637.25
521.57	644.65
521.93	651.70
522.29	659.13
522.65	666.31
523.01	673.82
523.37	681.18
523.73	688.62
524.09	695.84
524.45	703.40
524.81	710.93
525.17	718.62
525.53	726.41
525.89	733.76
526.25	741.32
526.61	748.45
526.97	755.74
527.33	763.10
527.68	770.82
528.04	778.21
528.40	785.33
528.76	792.52
529.12	799.87
529.48	807.68
529.84	814.94
530.20	822.51
530.56	829.95
530.91	837.65
531.27	844.96
531.63	852.42
531.99	859.62
532.35	866.59
532.71	873.49
533.07	880.76
533.42	888.30
533.78	895.30
534.14	902.26
534.50	908.74
534.86	915.58
535.21	922.00
535.57	928.96
535.93	935.71
536.29	942.31
536.65	948.74
537.00	954.68
537.36	960.70
537.72	966.48
538.08	972.37
538.44	978.09
538.79	984.00
539.15	989.88
539.51	995.74
539.87	1001.89
540.22	1007.49
540.58	1013.21
540.94	1018.24
541.29	1023.49
541.65	1028.71
542.01	1034.31
542.37	1039.31
542.72	1044.48
543.08	1049.06
543.44	1054.12
543.79	1058.42
544.15	1062.85
544.51	1067.68
544.87	1072.40
545.22	1076.86
545.58	1080.78
545.94	1084.69
546.29	1088.28
546.65	1091.77
547.01	1095.11
547.36	1098.46
547.72	1102.02
548.07	1104.70
548.43	1107.69
548.79	1110.53
549.14	1113.39
549.50	1115.97
549.86	1118.28
550.21	1120.37
550.57	1123.06
550.92	1125.09
551.28	1127.38
551.64	1129.49
551.99	1131.48
552.35	1133.25
552.70	1134.95
553.06	1136.81
553.41	1138.25
553.77	1139.89
554.13	1141.30
554.48	1142.90
554.84	1144.20
555.19	1145.31
555.55	1146.45
555.90	1147.28
556.26	1148.24
556.61	1148.94
556.97	1149.48
557.32	1150.36
557.68	1151.00
558.03	1151.36
558.39	1151.58
558.74	1152.44
559.10	1152.75
559.45	1153.00
559.81	1153.42
560.16	1153.44
560.52	1153.76
560.87	1154.06
561.23	1153.91
561.58	1154.38
561.94	1154.28
562.29	1153.88
562.64	1153.69
563.00	1153.59
563.35	1153.46
563.71	1153.64
564.06	1153.70
564.42	1153.77
564.77	1153.73
565.12	1153.87
565.48	1153.72
565.83	1153.78
566.19	1153.58
566.54	1153.00
566.89	1152.23
567.25	1151.64
567.60	1151.22
567.96	1150.65
568.31	1150.32
568.66	1149.69
569.02	1148.44
569.37	1147.02
569.72	1146.06
570.08	1144.97
570.43	1143.59
570.78	1142.31
571.14	1140.50
571.49	1138.48
571.84	1136.96
572.20	1134.97
572.55	1133.14
572.90	1130.99
573.26	1128.64
573.61	1126.21
573.96	1124.34
574.31	1122.14
574.67	1119.63
575.02	1116.91
575.37	1114.22
575.72	1111.19
576.08	1108.93
576.43	1106.19
576.78	1103.88
577.13	1101.57
577.49	1098.91
577.84	1096.49
578.19	1094.28
578.54	1092.15
578.90	1090.48
579.25	1087.88
579.60	1085.20
579.95	1082.28
580.30	1079.89
580.66	1077.80
581.01	1075.33
581.36	1072.43
581.71	1069.66
582.06	1067.27
582.42	1065.03
582.77	1062.18
583.12	1059.80
583.47	1057.20
583.82	1055.16
584.17	1052.79
584.53	1050.46
584.88	1048.05
585.23	1045.63
585.58	1043.12
585.93	1040.22
586.28	1037.59
586.63	1034.80
586.98	1032.50
587.34	1030.47
587.69	1027.81
588.04	1025.22
588.39	1022.48
588.74	1019.99
589.09	1017.89
589.44	1015.25
589.79	1012.85
590.14	1010.53
590.49	1007.95
590.84	1005.13
591.19	1002.59
591.54	999.98
591.89	996.64
592.25	994.04
592.60	991.07
592.95	987.94
593.30	985.05
593.65	981.69
594.00	978.79
594.35	976.87
594.70	973.68
595.05	971.01
595.40	968.20
595.75	965.28
596.10	962.74
596.45	959.93
596.80	957.40
597.15	954.80
597.50	952.12
597.85	949.42
598.19	946.80
598.54	943.95
598.89	941.29
599.24	939.22
599.59	936.57
599.94	934.36
600.29	932.04
600.64	929.65
600.99	927.21
601.34	925.00
601.69	921.48
602.04	918.77
602.39	916.24
602.74	913.84
603.08	911.75
603.43	909.58
603.78	907.05
604.13	904.28
604.48	901.60
604.83	899.44
605.18	897.38
605.53	894.96
605.87	892.45
606.22	890.12
606.57	887.60
606.92	885.05
607.27	882.33
607.62	879.55
607.96	877.30
608.31	875.15
608.66	872.60
609.01	869.99
609.36	867.36
609.70	864.31
610.05	861.29
610.40	858.24
610.75	855.03
611.10	852.32
611.44	849.17
611.79	846.08
612.14	842.71
612.49	839.14
612.83	835.92
613.18	832.56
613.53	829.18
613.88	825.46
614.22	822.20
614.57	818.72
614.92	815.38
615.27	811.64
615.61	808.05
615.96	804.65
616.31	801.43
616.65	798.51
617.00	795.46
617.35	792.25
617.70	788.98
618.04	785.29
618.39	781.68
618.74	778.53
619.08	775.11
619.43	771.86
619.78	768.60
620.12	765.30
620.47	762.05
620.82	758.58
621.16	755.20
621.51	751.83
621.85	748.70
622.20	745.42
622.55	742.08
622.89	738.75
623.24	735.49
623.59	732.00
623.93	728.58
624.28	725.41
624.62	722.55
624.97	719.52
625.32	716.58
625.66	713.41
626.01	710.26
626.35	707.20
626.70	704.04
627.04	701.21
627.39	698.09
627.73	695.25
628.08	692.52
628.43	689.45
628.77	686.25
629.12	683.05
629.46	680.27
629.81	677.47
630.15	674.33
630.50	671.25
630.84	668.24
631.19	665.17
631.53	662.30
631.88	658.64
632.22	655.44
632.57	652.67
632.91	649.77
633.26	647.05
633.60	644.18
633.95	641.27
634.29	638.12
634.64	635.45
634.98	632.33
635.32	629.41
635.67	626.87
636.01	624.30
636.36	621.37
636.70	618.61
637.05	615.83
637.39	613.23
637.73	610.68
638.08	608.52
638.42	606.10
638.77	603.30
639.11	600.85
639.45	598.17
639.80	595.23
640.14	592.43
640.49	589.57
640.83	586.79
641.17	584.14
641.52	581.31
641.86	578.47
642.20	575.91
642.55	572.92
642.89	569.89
643.23	566.93
643.58	564.45
643.92	561.51
644.26	558.80
644.61	556.19
644.95	553.40
645.29	550.29
645.64	547.43
645.98	544.75
646.32	542.02
646.66	539.27
647.01	536.72
647.35	534.28
647.69	531.45
648.04	528.91
648.38	526.24
648.72	523.79
649.06	521.06
649.41	518.31
649.75	515.90
650.09	513.60
650.43	511.12
650.78	508.39
651.12	505.78
651.46	503.23
651.80	500.82
652.14	498.27
652.49	495.87
652.83	493.28
653.17	490.67
653.51	488.15
653.85	485.76
654.20	483.19
654.54	480.57
654.88	478.17
655.22	475.77
655.56	473.24
655.90	470.71
656.25	468.25
656.59	465.89
656.93	463.42
657.27	461.00
657.61	458.48
657.95	456.24
658.29	453.95
658.64	451.78
658.98	449.15
659.32	446.70
659.66	444.29
660.00	441.99
660.34	439.61
660.68	437.34
661.02	434.95
661.36	432.84
661.70	430.63
662.05	428.48
662.39	426.36
662.73	424.46
663.07	422.52
663.41	420.53
663.75	418.36
664.09	416.26
664.43	414.13
664.77	412.21
665.11	410.16
665.45	408.24
665.79	406.17
666.13	404.29
666.47	402.39
666.81	400.45
667.15	398.60
667.49	396.95
667.83	395.22
668.17	393.55
668.51	391.74
668.85	390.11
669.19	388.46
669.53	386.62
669.87	384.66
670.21	382.85
670.55	381.30
670.89	379.92
671.23	378.41
671.57	376.77
671.91	375.24
672.25	373.77
672.58	372.29
672.92	370.65
673.26	369.20
673.60	367.79
673.94	366.32
674.28	364.89
674.62	363.39
674.96	361.85
675.30	360.42
675.64	358.92
675.97	357.52
676.31	356.06
676.65	354.74
676.99	353.62
677.33	352.20
677.67	350.73
678.01	349.16
678.34	347.78
678.68	346.56
679.02	345.14
679.36	343.74
679.70	342.37
680.04	341.10
680.37	339.74
680.71	338.45
681.05	337.32
681.39	336.03
681.73	334.77
682.06	333.67
682.40	332.44
682.74	331.29
683.08	330.10
683.42	328.93
683.75	327.78
684.09	326.52
684.43	325.40
684.77	324.15
685.10	323.01
685.44	321.72
685.78	320.51
686.12	319.44
686.45	318.33
686.79	317.21
687.13	316.16
687.46	315.07
687.80	314.09
688.14	312.86
688.48	311.81
688.81	310.65
689.15	309.60
689.49	308.47
689.82	307.40
690.16	306.16
690.50	305.00
690.83	303.80
691.17	302.63
691.51	301.59
691.84	300.65
692.18	299.70
692.52	298.86
692.85	297.99
693.19	297.17
693.52	296.11
693.86	295.09
694.20	294.25
694.53	293.29
694.87	292.28
695.21	291.33
695.54	290.35
695.88	289.47
696.21	288.42
696.55	287.58
696.88	286.69
697.22	285.91
697.56	285.15
697.89	284.30
698.23	283.61
698.56	282.81
698.90	282.15
699.23	281.37
699.57	280.52
699.90	279.59
700.24	278.61
700.58	277.85
700.91	277.18
701.25	276.52
701.58	275.90
701.92	275.24
702.25	274.59
702.59	273.95
702.92	273.34
703.26	272.69
703.59	272.01
703.93	271.66
704.26	271.00
704.60	270.31
704.93	269.68
705.26	268.93
705.60	268.31
705.93	267.51
706.27	266.93
706.60	266.38
706.94	265.98
707.27	265.43
707.61	264.89
707.94	264.19
708.27	263.33
708.61	262.68
708.94	261.99
709.28	261.45
709.61	260.86
709.94	260.22
710.28	259.64
710.61	259.10
710.95	258.26
711.28	257.90
711.61	257.43
711.95	257.02
712.28	256.47
712.61	255.97
712.95	255.64
713.28	255.23
713.61	254.72
713.95	254.14
714.28	253.69
714.61	253.16
714.95	252.73
715.28	252.29
715.61	251.80
715.95	251.36
716.28	250.79
716.61	250.38
716.95	249.88
717.28	249.51
717.61	249.06
717.94	248.65
718.28	248.03
718.61	247.60
718.94	247.11
719.27	246.76
719.61	246.35
719.94	245.95
720.27	245.40
720.60	245.00
720.94	244.58
721.27	244.17
721.60	243.95
721.93	243.65
722.27	243.43
722.60	243.16
722.93	242.79
723.26	242.58
723.59	242.14
723.93	241.97
724.26	241.59
724.59	241.32
724.92	241.07
725.25	240.83
725.59	240.60
725.92	240.42
726.25	240.12
726.58	239.89
726.91	239.53
727.24	239.27
727.57	239.06
727.91	238.80
728.24	238.67
728.57	238.31
728.90	238.10
729.23	237.73
729.56	237.64
729.89	237.39
730.22	237.06
730.55	236.80
730.89	236.51
731.22	236.25
731.55	235.90
731.88	235.58
732.21	235.32
732.54	234.97
732.87	234.67
733.20	234.42
733.53	234.15
733.86	233.92
734.19	233.62
734.52	233.41
734.85	233.43
735.18	233.04
735.51	232.88
735.84	232.63
736.17	232.47
736.50	232.02
736.83	232.19
737.16	231.99
737.49	231.77
737.82	231.48
738.15	231.37
738.48	231.23
738.81	231.03
739.14	230.79
739.47	230.54
739.80	230.33
740.13	230.12
740.46	229.85
740.79	229.55
741.12	229.40
741.45	229.10
741.78	228.67
742.11	228.62
742.44	228.34
742.77	228.25
743.10	228.02
743.43	227.91
743.75	227.39
744.08	227.69
744.41	227.50
744.74	227.38
745.07	227.11
745.40	227.00
745.73	227.01
746.06	226.85
746.39	226.81
746.71	226.57
747.04	226.42
747.37	226.25
747.70	226.15
748.03	226.00
748.36	225.95
748.68	225.78
749.01	225.54
749.34	225.45
749.67	225.23
750.00	225.14
750.33	225.20
750.65	225.08
750.98	224.46
751.31	224.44
751.64	224.32
751.97	224.40
752.29	224.21
752.62	223.91
752.95	223.75
753.28	223.45
753.60	223.42
753.93	223.34
754.26	223.26
754.59	223.10
754.91	222.94
755.24	222.69
755.57	222.50
755.90	222.39
756.22	222.26
756.55	222.13
756.88	221.95
757.20	221.61
757.53	221.36
757.86	221.28
758.19	221.18
758.51	221.05
758.84	220.64
759.17	220.59
759.49	220.51
759.82	220.64
760.15	220.65
760.47	220.50
760.80	220.31
761.13	220.28
761.45	220.24
761.78	220.16
762.11	220.23
762.43	220.18
762.76	220.09
763.08	220.00
763.41	219.94
763.74	219.80
764.06	219.71
764.39	219.74
764.71	219.63
765.04	219.50
765.37	219.35
765.69	219.34
766.02	219.22
766.34	219.05
766.67	218.75
767.00	218.69
767.32	218.79
767.65	218.97
767.97	218.77
768.30	218.65
768.62	218.64
768.95	218.38
769.27	218.30
769.60	218.26
769.92	218.18
770.25	218.03
770.57	217.93
770.90	217.87
771.22	217.75
771.55	217.69
771.87	217.63
772.20	217.63
772.52	217.82
772.85	218.17
773.17	218.09
773.50	217.99
773.82	217.93
774.15	217.68
774.47	217.32
774.80	217.32
775.12	217.28
775.45	217.20
775.77	217.25
776.09	217.23
776.42	217.15
776.74	217.14
777.07	217.06
777.39	217.11
777.72	216.98
778.04	216.96
778.36	216.82
778.69	216.79
779.01	216.68
779.33	216.39
779.66	215.89
779.98	215.87
780.31	215.89
780.63	215.96
780.95	215.89
781.28	215.88
781.60	215.75
781.92	215.68
782.25	215.60
782.57	215.53
782.89	215.45
783.22	215.41
783.54	215.31
783.86	215.36
784.19	215.23
784.51	215.36
784.83	215.23
785.16	215.28
785.48	215.20
785.80	215.20
786.12	215.18
786.45	215.12
786.77	215.09
787.09	214.98
787.42	214.75
787.74	214.82
788.06	214.84
788.38	214.85
788.71	214.73
789.03	214.68
789.35	214.70
789.67	214.68
789.99	214.63
790.32	214.56
790.64	214.48
790.96	214.79
791.28	214.63
