SpectraSuite Data File
++++++++++++++++++++++++++++++++++++
Date: Mon Feb 25 17:13:28 EST 2013
User: group
Dark Spectrum Present: No
Reference Spectrum Present: No
Number of Sampled Component Spectra: 1
Spectrometers: USB2E7196
Integration Time (usec): 104000 (USB2E7196)
Spectra Averaged: 20 (USB2E7196)
Boxcar Smoothing: 10 (USB2E7196)
Correct for Electrical Dark: No (USB2E7196)
Strobe/Lamp Enabled: No (USB2E7196)
Correct for Detector Non-linearity: No (USB2E7196)
Correct for Stray Light: No (USB2E7196)
Number of Pixels in Processed Spectrum: 2048
>>>>>Begin Processed Spectral Data<<<<<
339.09	0.00
339.48	198.30
339.86	199.85
340.24	201.45
340.63	202.25
341.01	209.50
341.39	205.90
341.78	206.75
342.16	209.55
342.54	208.65
342.93	198.25
343.31	208.32
343.69	208.84
344.07	209.32
344.46	209.77
344.84	210.20
345.22	210.26
345.60	210.54
345.99	210.73
346.37	210.79
346.75	210.88
347.13	210.89
347.52	210.96
347.90	211.22
348.28	211.24
348.66	211.37
349.05	211.24
349.43	211.30
349.81	211.34
350.19	211.29
350.57	211.38
350.96	211.44
351.34	211.42
351.72	211.53
352.10	211.59
352.48	211.61
352.87	211.63
353.25	211.75
353.63	211.73
354.01	211.75
354.39	211.90
354.77	211.99
355.15	212.15
355.54	212.15
355.92	212.03
356.30	212.14
356.68	212.35
357.06	212.50
357.44	212.48
357.82	212.52
358.20	212.64
358.58	212.68
358.97	212.75
359.35	212.95
359.73	213.10
360.11	213.18
360.49	213.27
360.87	213.33
361.25	213.35
361.63	213.59
362.01	213.69
362.39	213.57
362.77	213.67
363.15	213.66
363.53	213.77
363.91	213.82
364.29	213.72
364.67	213.37
365.05	213.37
365.43	213.42
365.81	213.49
366.19	213.66
366.57	213.85
366.95	213.82
367.33	213.73
367.71	213.68
368.09	213.76
368.47	213.80
368.85	213.74
369.23	213.80
369.61	213.60
369.99	213.70
370.37	213.75
370.75	213.94
371.13	213.88
371.51	213.75
371.89	213.74
372.27	213.85
372.65	213.84
373.03	213.84
373.41	213.85
373.78	213.87
374.16	213.69
374.54	213.48
374.92	213.43
375.30	213.39
375.68	213.29
376.06	213.25
376.44	213.10
376.82	213.14
377.19	213.06
377.57	213.05
377.95	212.87
378.33	212.82
378.71	212.51
379.09	212.47
379.47	212.50
379.84	212.44
380.22	212.34
380.60	212.27
380.98	212.18
381.36	212.03
381.73	211.83
382.11	211.81
382.49	211.78
382.87	211.77
383.25	211.71
383.62	212.09
384.00	212.02
384.38	211.96
384.76	211.98
385.13	212.09
385.51	212.02
385.89	211.94
386.27	211.99
386.64	212.04
387.02	212.03
387.40	211.92
387.78	211.93
388.15	211.94
388.53	211.93
388.91	211.84
389.29	211.84
389.66	211.83
390.04	211.77
390.42	211.84
390.79	211.77
391.17	211.74
391.55	211.27
391.92	211.21
392.30	211.29
392.68	211.24
393.05	211.15
393.43	211.16
393.81	211.20
394.18	211.06
394.56	210.92
394.94	210.95
395.31	210.99
395.69	211.09
396.06	211.14
396.44	211.11
396.82	211.15
397.19	211.32
397.57	211.31
397.95	211.41
398.32	211.33
398.70	211.35
399.07	211.41
399.45	211.47
399.82	211.46
400.20	211.42
400.58	211.40
400.95	211.26
401.33	211.36
401.70	211.59
402.08	211.63
402.45	211.75
402.83	211.83
403.20	211.89
403.58	211.92
403.95	211.95
404.33	212.07
404.71	212.17
405.08	212.46
405.46	212.61
405.83	212.67
406.21	212.77
406.58	212.96
406.96	213.10
407.33	213.20
407.70	213.41
408.08	213.85
408.45	214.00
408.83	214.27
409.20	214.42
409.58	214.48
409.95	214.77
410.33	215.00
410.70	215.21
411.08	215.51
411.45	215.71
411.82	215.97
412.20	216.33
412.57	216.84
412.95	216.87
413.32	217.24
413.69	217.61
414.07	217.97
414.44	218.35
414.82	218.72
415.19	219.32
415.56	219.90
415.94	220.30
416.31	221.05
416.68	221.71
417.06	222.45
417.43	223.23
417.81	224.04
418.18	225.02
418.55	225.90
418.93	226.80
419.30	227.80
419.67	228.89
420.04	229.95
420.42	231.05
420.79	232.60
421.16	233.96
421.54	235.57
421.91	237.03
422.28	238.56
422.66	240.20
423.03	241.95
423.40	243.62
423.77	245.29
424.15	246.95
424.52	248.79
424.89	250.69
425.26	252.46
425.64	254.26
426.01	256.09
426.38	258.14
426.75	260.28
427.13	262.45
427.50	264.77
427.87	267.12
428.24	269.44
428.61	271.51
428.99	274.13
429.36	276.58
429.73	279.28
430.10	281.99
430.47	284.71
430.85	287.31
431.22	290.11
431.59	293.52
431.96	296.57
432.33	299.86
432.70	303.15
433.08	306.96
433.45	310.59
433.82	314.13
434.19	318.08
434.56	321.95
434.93	325.56
435.30	329.09
435.68	333.06
436.05	336.86
436.42	340.75
436.79	344.32
437.16	348.25
437.53	352.24
437.90	356.19
438.27	360.26
438.64	364.36
439.01	368.27
439.38	371.35
439.75	374.50
440.13	378.12
440.50	381.56
440.87	384.36
441.24	387.29
441.61	390.57
441.98	392.89
442.35	395.60
442.72	398.58
443.09	401.43
443.46	403.09
443.83	404.30
444.20	405.31
444.57	406.63
444.94	407.27
445.31	407.93
445.68	408.98
446.05	409.10
446.42	408.80
446.79	408.29
447.16	407.78
447.53	407.56
447.90	406.12
448.27	404.56
448.64	402.52
449.01	400.93
449.37	398.33
449.74	395.77
450.11	392.92
450.48	389.35
450.85	385.79
451.22	382.83
451.59	379.94
451.96	377.11
452.33	373.41
452.70	370.10
453.07	366.24
453.43	361.86
453.80	358.06
454.17	354.30
454.54	350.83
454.91	347.07
455.28	343.35
455.65	339.94
456.02	337.11
456.38	334.19
456.75	330.67
457.12	327.57
457.49	324.68
457.86	321.61
458.23	319.31
458.59	316.69
458.96	313.99
459.33	311.62
459.70	309.31
460.07	307.44
460.43	305.18
460.80	303.20
461.17	301.49
461.54	299.71
461.91	297.91
462.27	296.04
462.64	294.52
463.01	292.85
463.38	291.31
463.74	289.11
464.11	287.64
464.48	286.40
464.85	285.02
465.21	284.03
465.58	282.91
465.95	281.55
466.32	280.39
466.68	279.22
467.05	278.13
467.42	277.02
467.78	275.83
468.15	274.86
468.52	274.15
468.88	273.04
469.25	272.01
469.62	271.36
469.98	270.56
470.35	269.78
470.72	269.14
471.08	268.21
471.45	267.72
471.82	267.16
472.18	266.42
472.55	266.02
472.92	265.33
473.28	264.76
473.65	264.20
474.02	263.78
474.38	263.50
474.75	263.26
475.11	262.88
475.48	262.74
475.85	262.46
476.21	262.15
476.58	262.04
476.94	261.93
477.31	261.74
477.67	261.73
478.04	261.71
478.41	261.67
478.77	262.17
479.14	262.11
479.50	262.18
479.87	262.42
480.23	262.52
480.60	262.64
480.96	262.90
481.33	263.36
481.69	263.65
482.06	264.08
482.42	264.43
482.79	264.87
483.15	265.29
483.52	265.89
483.88	266.36
484.25	266.92
484.61	267.56
484.98	268.11
485.34	268.87
485.71	269.77
486.07	270.66
486.44	271.18
486.80	272.17
487.17	273.15
487.53	274.22
487.90	275.42
488.26	276.85
488.62	278.29
488.99	279.53
489.35	280.93
489.72	282.31
490.08	283.87
490.44	285.49
490.81	287.27
491.17	289.00
491.54	290.98
491.90	293.00
492.26	295.12
492.63	297.48
492.99	299.71
493.36	302.14
493.72	304.72
494.08	307.34
494.45	310.23
494.81	313.23
495.17	316.32
495.54	319.50
495.90	322.75
496.26	326.04
496.63	329.65
496.99	333.41
497.35	337.30
497.72	341.38
498.08	345.51
498.44	349.98
498.80	354.58
499.17	359.28
499.53	364.17
499.89	369.23
500.26	374.35
500.62	379.74
500.98	385.36
501.34	390.92
501.71	397.01
502.07	403.13
502.43	409.37
502.79	415.72
503.16	422.32
503.52	429.15
503.88	436.17
504.24	443.43
504.60	450.81
504.97	458.55
505.33	466.27
505.69	474.69
506.05	482.96
506.41	491.43
506.78	499.86
507.14	508.46
507.50	517.45
507.86	526.74
508.22	536.12
508.59	545.36
508.95	555.25
509.31	565.17
509.67	575.15
510.03	585.53
510.39	596.34
510.75	607.26
511.12	618.22
511.48	629.35
511.84	640.54
512.20	651.93
512.56	663.49
512.92	675.45
513.28	687.13
513.64	699.05
514.00	711.20
514.37	723.62
514.73	736.24
515.09	748.88
515.45	761.50
515.81	774.16
516.17	787.19
516.53	800.00
516.89	813.08
517.25	826.34
517.61	839.60
517.97	852.54
518.33	865.59
518.69	878.88
519.05	892.50
519.41	906.16
519.77	920.09
520.13	933.66
520.49	947.06
520.85	960.97
521.21	974.82
521.57	988.68
521.93	1002.44
522.29	1016.54
522.65	1030.35
523.01	1044.30
523.37	1058.01
523.73	1071.96
524.09	1085.86
524.45	1099.63
524.81	1113.52
525.17	1127.56
525.53	1141.56
525.89	1155.54
526.25	1169.24
526.61	1182.30
526.97	1195.84
527.33	1209.32
527.68	1223.19
528.04	1236.24
528.40	1248.74
528.76	1261.61
529.12	1274.90
529.48	1288.44
529.84	1301.29
530.20	1314.35
530.56	1327.04
530.91	1340.37
531.27	1353.24
531.63	1365.91
531.99	1378.76
532.35	1390.73
532.71	1402.62
533.07	1415.02
533.42	1427.11
533.78	1439.24
534.14	1451.10
534.50	1462.11
534.86	1473.18
535.21	1483.48
535.57	1495.04
535.93	1506.19
536.29	1516.98
536.65	1527.31
537.00	1537.13
537.36	1546.75
537.72	1555.97
538.08	1565.53
538.44	1574.77
538.79	1584.11
539.15	1593.31
539.51	1601.95
539.87	1611.68
540.22	1620.39
540.58	1629.14
540.94	1637.55
541.29	1645.12
541.65	1652.64
542.01	1660.28
542.37	1667.90
542.72	1675.54
543.08	1682.26
543.44	1689.70
543.79	1696.05
544.15	1702.44
544.51	1709.00
544.87	1715.92
545.22	1722.01
545.58	1727.56
545.94	1732.48
546.29	1736.86
546.65	1741.40
547.01	1745.90
547.36	1749.69
547.72	1753.99
548.07	1756.92
548.43	1759.88
548.79	1762.94
549.14	1766.06
549.50	1769.45
549.86	1771.54
550.21	1773.86
550.57	1776.34
550.92	1777.73
551.28	1779.70
551.64	1781.41
551.99	1783.11
552.35	1784.01
552.70	1785.53
553.06	1787.15
553.41	1788.42
553.77	1789.53
554.13	1790.50
554.48	1791.45
554.84	1792.23
555.19	1792.52
555.55	1793.04
555.90	1792.97
556.26	1792.96
556.61	1792.80
556.97	1791.86
557.32	1791.72
557.68	1790.94
558.03	1790.34
558.39	1789.92
558.74	1789.77
559.10	1789.42
559.45	1788.48
559.81	1787.90
560.16	1786.67
560.52	1785.57
560.87	1784.35
561.23	1783.02
561.58	1781.85
561.94	1779.97
562.29	1777.96
562.64	1776.20
563.00	1774.84
563.35	1773.82
563.71	1772.97
564.06	1771.85
564.42	1770.55
564.77	1769.17
565.12	1767.94
565.48	1766.20
565.83	1764.61
566.19	1762.90
566.54	1760.07
566.89	1757.55
567.25	1755.04
567.60	1752.84
567.96	1750.19
568.31	1748.00
568.66	1745.42
569.02	1742.35
569.37	1739.06
569.72	1736.32
570.08	1733.10
570.43	1729.24
570.78	1725.44
571.14	1721.11
571.49	1717.07
571.84	1713.85
572.20	1709.74
572.55	1705.96
572.90	1701.55
573.26	1696.64
573.61	1691.60
573.96	1687.38
574.31	1682.52
574.67	1677.43
575.02	1672.12
575.37	1667.16
575.72	1661.78
576.08	1657.26
576.43	1652.09
576.78	1647.27
577.13	1642.55
577.49	1637.73
577.84	1632.90
578.19	1628.36
578.54	1624.10
578.90	1619.76
579.25	1614.64
579.60	1609.26
579.95	1603.72
580.30	1599.09
580.66	1595.02
581.01	1590.00
581.36	1584.66
581.71	1579.67
582.06	1575.06
582.42	1570.49
582.77	1565.15
583.12	1560.15
583.47	1555.14
583.82	1550.60
584.17	1545.67
584.53	1540.66
584.88	1535.57
585.23	1530.57
585.58	1525.41
585.93	1520.33
586.28	1515.17
586.63	1510.05
586.98	1505.54
587.34	1501.09
587.69	1496.20
588.04	1490.98
588.39	1486.35
588.74	1481.52
589.09	1477.14
589.44	1472.00
589.79	1467.36
590.14	1462.71
590.49	1457.78
590.84	1452.78
591.19	1448.44
591.54	1443.87
591.89	1438.26
592.25	1433.25
592.60	1427.97
592.95	1422.69
593.30	1416.76
593.65	1411.33
594.00	1406.12
594.35	1401.89
594.70	1396.44
595.05	1391.27
595.40	1386.09
595.75	1380.55
596.10	1375.74
596.45	1370.65
596.80	1365.90
597.15	1360.93
597.50	1355.78
597.85	1351.13
598.19	1345.81
598.54	1340.46
598.89	1335.83
599.24	1331.80
599.59	1327.42
599.94	1323.42
600.29	1319.10
600.64	1315.19
600.99	1310.47
601.34	1306.17
601.69	1300.63
602.04	1295.98
602.39	1291.27
602.74	1286.70
603.08	1282.93
603.43	1279.14
603.78	1274.63
604.13	1270.11
604.48	1265.75
604.83	1262.22
605.18	1258.48
605.53	1254.38
605.87	1249.63
606.22	1245.20
606.57	1240.54
606.92	1235.96
607.27	1231.12
607.62	1226.38
607.96	1222.14
608.31	1218.19
608.66	1213.28
609.01	1208.51
609.36	1203.70
609.70	1198.76
610.05	1193.74
610.40	1188.57
610.75	1182.97
611.10	1178.62
611.44	1173.20
611.79	1167.59
612.14	1161.70
612.49	1155.71
612.83	1150.36
613.18	1145.03
613.53	1139.46
613.88	1133.65
614.22	1128.30
614.57	1122.83
614.92	1117.20
615.27	1111.18
615.61	1105.49
615.96	1100.33
616.31	1095.56
616.65	1090.79
617.00	1085.79
617.35	1080.72
617.70	1075.27
618.04	1069.70
618.39	1063.48
618.74	1058.32
619.08	1053.04
619.43	1047.68
619.78	1042.52
620.12	1037.28
620.47	1032.05
620.82	1026.37
621.16	1020.94
621.51	1015.34
621.85	1010.15
622.20	1004.71
622.55	999.54
622.89	993.97
623.24	988.53
623.59	982.76
623.93	977.31
624.28	972.11
624.62	967.04
624.97	961.92
625.32	957.05
625.66	952.23
626.01	947.21
626.35	942.38
626.70	937.58
627.04	932.94
627.39	928.19
627.73	923.48
628.08	919.00
628.43	914.11
628.77	909.30
629.12	904.39
629.46	900.24
629.81	895.75
630.15	891.06
630.50	886.20
630.84	881.46
631.19	876.85
631.53	872.24
631.88	867.10
632.22	862.19
632.57	857.54
632.91	852.81
633.26	848.13
633.60	843.51
633.95	839.12
634.29	834.28
634.64	829.80
634.98	825.11
635.32	820.86
635.67	816.91
636.01	812.82
636.36	808.44
636.70	804.13
637.05	799.78
637.39	795.76
637.73	791.93
638.08	788.41
638.42	784.36
638.77	780.31
639.11	776.29
639.45	772.43
639.80	767.95
640.14	763.71
640.49	759.61
640.83	755.41
641.17	751.22
641.52	747.01
641.86	742.68
642.20	738.62
642.55	734.02
642.89	729.62
643.23	725.16
643.58	721.32
643.92	716.78
644.26	712.72
644.61	708.54
644.95	704.08
645.29	699.59
645.64	695.31
645.98	690.98
646.32	687.02
646.66	682.82
647.01	679.06
647.35	675.20
647.69	671.01
648.04	667.16
648.38	663.31
648.72	659.48
649.06	655.49
649.41	651.63
649.75	647.83
650.09	644.00
650.43	640.18
650.78	636.01
651.12	632.19
651.46	628.16
651.80	624.41
652.14	620.74
652.49	616.92
652.83	613.04
653.17	609.04
653.51	605.16
653.85	601.48
654.20	597.66
654.54	593.68
654.88	590.11
655.22	586.41
655.56	582.41
655.90	578.49
656.25	574.83
656.59	570.98
656.93	567.43
657.27	563.97
657.61	560.32
657.95	556.87
658.29	553.44
658.64	550.18
658.98	546.73
659.32	543.18
659.66	539.63
660.00	536.19
660.34	532.81
660.68	529.40
661.02	525.97
661.36	522.86
661.70	519.93
662.05	516.73
662.39	513.75
662.73	510.88
663.07	508.09
663.41	505.14
663.75	502.23
664.09	499.14
664.43	496.06
664.77	493.15
665.11	490.31
665.45	487.46
665.79	484.49
666.13	481.50
666.47	478.85
666.81	476.12
667.15	473.46
667.49	471.12
667.83	468.89
668.17	466.30
668.51	463.69
668.85	461.15
669.19	458.93
669.53	456.22
669.87	453.48
670.21	450.91
670.55	448.32
670.89	446.17
671.23	444.00
671.57	441.62
671.91	439.26
672.25	436.80
672.58	434.63
672.92	432.36
673.26	430.37
673.60	428.14
673.94	425.91
674.28	423.76
674.62	421.53
674.96	419.19
675.30	417.10
675.64	414.93
675.97	412.81
676.31	410.60
676.65	408.76
676.99	407.12
677.33	405.12
677.67	403.31
678.01	401.00
678.34	398.90
678.68	396.95
679.02	394.96
679.36	393.14
679.70	391.20
680.04	389.25
680.37	387.28
680.71	385.31
681.05	383.70
681.39	381.89
681.73	380.04
682.06	378.33
682.40	376.65
682.74	374.96
683.08	373.42
683.42	371.51
683.75	369.68
684.09	367.77
684.43	366.04
684.77	364.30
685.10	362.72
685.44	361.08
685.78	359.54
686.12	358.04
686.45	356.44
686.79	354.76
687.13	353.29
687.46	351.77
687.80	350.46
688.14	348.75
688.48	347.25
688.81	345.75
689.15	344.10
689.49	342.50
689.82	341.05
690.16	339.15
690.50	337.73
690.83	336.21
691.17	334.67
691.51	333.23
691.84	331.79
692.18	330.45
692.52	329.12
692.85	327.83
693.19	326.71
693.52	325.30
693.86	323.93
694.20	322.68
694.53	321.33
694.87	319.97
695.21	318.73
695.54	317.47
695.88	316.20
696.21	314.96
696.55	313.84
696.88	312.59
697.22	311.48
697.56	310.45
697.89	309.32
698.23	308.25
698.56	307.12
698.90	306.09
699.23	304.89
699.57	303.72
699.90	302.44
700.24	301.20
700.58	300.25
700.91	299.30
701.25	298.45
701.58	297.49
701.92	296.52
702.25	295.60
702.59	294.49
702.92	293.55
703.26	292.60
703.59	291.72
703.93	291.10
704.26	290.23
704.60	289.26
704.93	288.32
705.26	287.45
705.60	286.71
705.93	285.72
706.27	285.00
706.60	284.37
706.94	283.81
707.27	282.97
707.61	282.00
707.94	281.13
708.27	280.12
708.61	279.26
708.94	278.42
709.28	277.59
709.61	276.95
709.94	276.13
710.28	275.43
710.61	274.71
710.95	273.75
711.28	273.23
711.61	272.48
711.95	271.85
712.28	271.10
712.61	270.32
712.95	269.88
713.28	269.37
713.61	268.49
713.95	267.70
714.28	267.01
714.61	266.41
714.95	265.77
715.28	265.07
715.61	264.46
715.95	263.82
716.28	263.23
716.61	262.66
716.95	262.05
717.28	261.51
717.61	260.84
717.94	260.27
718.28	259.49
718.61	259.03
718.94	258.41
719.27	257.89
719.61	257.40
719.94	256.81
720.27	256.07
720.60	255.63
720.94	255.07
721.27	254.72
721.60	254.31
721.93	253.84
722.27	253.43
722.60	253.08
722.93	252.64
723.26	252.21
723.59	251.69
723.93	251.38
724.26	250.88
724.59	250.47
724.92	250.04
725.25	249.67
725.59	249.17
725.92	248.88
726.25	248.52
726.58	248.15
726.91	247.74
727.24	247.48
727.57	247.08
727.91	246.63
728.24	246.15
728.57	245.80
728.90	245.56
729.23	245.14
729.56	244.89
729.89	244.51
730.22	244.13
730.55	243.74
730.89	243.28
731.22	243.05
731.55	242.67
731.88	242.28
732.21	242.03
732.54	241.70
732.87	241.32
733.20	240.96
733.53	240.65
733.86	240.34
734.19	239.96
734.52	239.77
734.85	239.72
735.18	239.42
735.51	239.23
735.84	238.91
736.17	238.74
736.50	238.30
736.83	238.43
737.16	238.11
737.49	237.86
737.82	237.61
738.15	237.33
738.48	237.05
738.81	236.75
739.14	236.39
739.47	236.16
739.80	235.87
740.13	235.62
740.46	235.26
740.79	234.96
741.12	234.68
741.45	234.34
741.78	233.98
742.11	233.81
742.44	233.42
742.77	233.24
743.10	232.91
743.43	232.65
743.75	232.01
744.08	232.25
744.41	231.95
744.74	231.73
745.07	231.35
745.40	231.20
745.73	231.12
746.06	230.90
746.39	230.65
746.71	230.43
747.04	230.21
747.37	230.00
747.70	229.81
748.03	229.56
748.36	229.40
748.68	229.15
749.01	228.86
749.34	228.71
749.67	228.48
750.00	228.31
750.33	228.34
750.65	228.22
750.98	227.58
751.31	227.51
751.64	227.29
751.97	227.43
752.29	227.22
752.62	226.94
752.95	226.74
753.28	226.56
753.60	226.32
753.93	226.19
754.26	226.02
754.59	225.70
754.91	225.50
755.24	225.28
755.57	225.16
755.90	225.04
756.22	224.86
756.55	224.61
756.88	224.38
757.20	223.94
757.53	223.65
757.86	223.46
758.19	223.27
758.51	223.14
758.84	222.74
759.17	222.60
759.49	222.52
759.82	222.57
760.15	222.44
760.47	222.38
760.80	222.16
761.13	222.11
761.45	222.02
761.78	221.90
762.11	221.78
762.43	221.56
762.76	221.37
763.08	221.28
763.41	221.22
763.74	221.13
764.06	221.09
764.39	220.96
764.71	220.94
765.04	220.80
765.37	220.63
765.69	220.53
766.02	220.41
766.34	220.27
766.67	220.00
767.00	220.02
767.32	220.08
767.65	220.20
767.97	220.12
768.30	220.09
768.62	220.00
768.95	219.93
769.27	219.89
769.60	219.86
769.92	219.73
770.25	219.57
770.57	219.45
770.90	219.34
771.22	219.27
771.55	219.15
771.87	219.05
772.20	219.01
772.52	219.30
772.85	219.59
773.17	219.53
773.50	219.46
773.82	219.30
774.15	219.06
774.47	218.74
774.80	218.60
775.12	218.52
775.45	218.51
775.77	218.43
776.09	218.36
776.42	218.34
776.74	218.38
777.07	218.30
777.39	218.33
777.72	218.28
778.04	218.31
778.36	218.30
778.69	218.30
779.01	218.35
779.33	217.96
779.66	217.59
779.98	217.56
780.31	217.53
780.63	217.60
780.95	217.66
781.28	217.66
781.60	217.54
781.92	217.48
782.25	217.43
782.57	217.34
782.89	217.26
783.22	217.18
783.54	217.09
783.86	217.05
784.19	216.89
784.51	216.92
784.83	216.79
785.16	216.68
785.48	216.67
785.80	216.57
786.12	216.56
786.45	216.42
786.77	216.35
787.09	216.32
787.42	216.12
787.74	215.99
788.06	215.98
