SpectraSuite Data File
++++++++++++++++++++++++++++++++++++
Date: Mon Feb 25 16:59:51 EST 2013
User: group
Dark Spectrum Present: No
Reference Spectrum Present: No
Number of Sampled Component Spectra: 1
Spectrometers: USB2E7196
Integration Time (usec): 104000 (USB2E7196)
Spectra Averaged: 20 (USB2E7196)
Boxcar Smoothing: 10 (USB2E7196)
Correct for Electrical Dark: No (USB2E7196)
Strobe/Lamp Enabled: No (USB2E7196)
Correct for Detector Non-linearity: No (USB2E7196)
Correct for Stray Light: No (USB2E7196)
Number of Pixels in Processed Spectrum: 2048
>>>>>Begin Processed Spectral Data<<<<<
339.09	0.00
339.48	198.10
339.86	199.35
340.24	201.15
340.63	202.35
341.01	209.65
341.39	206.45
341.78	206.95
342.16	207.25
342.54	207.95
342.93	198.10
343.31	208.09
343.69	208.64
344.07	209.15
344.46	209.65
344.84	209.97
345.22	209.98
345.60	210.21
345.99	210.39
346.37	210.59
346.75	210.71
347.13	210.78
347.52	210.92
347.90	211.07
348.28	211.09
348.66	211.15
349.05	211.08
349.43	211.11
349.81	211.18
350.19	211.16
350.57	211.18
350.96	211.24
351.34	211.29
351.72	211.39
352.10	211.38
352.48	211.39
352.87	211.55
353.25	211.65
353.63	211.71
354.01	211.79
354.39	211.90
354.77	212.03
355.15	212.19
355.54	212.12
355.92	212.12
356.30	212.23
356.68	212.55
357.06	212.67
357.44	212.70
357.82	212.75
358.20	212.94
358.58	212.96
358.97	213.08
359.35	213.27
359.73	213.38
360.11	213.53
360.49	213.58
360.87	213.61
361.25	213.74
361.63	213.90
362.01	213.94
362.39	213.95
362.77	213.94
363.15	214.00
363.53	214.05
363.91	214.14
364.29	214.04
364.67	213.73
365.05	213.71
365.43	213.76
365.81	213.93
366.19	214.02
366.57	214.20
366.95	214.12
367.33	214.02
367.71	213.96
368.09	213.94
368.47	213.94
368.85	213.88
369.23	213.90
369.61	213.73
369.99	213.84
370.37	213.81
370.75	213.96
371.13	213.87
371.51	213.77
371.89	213.75
372.27	213.77
372.65	213.72
373.03	213.64
373.41	213.56
373.78	213.41
374.16	213.17
374.54	212.94
374.92	212.89
375.30	212.88
375.68	212.78
376.06	212.81
376.44	212.75
376.82	212.75
377.19	212.62
377.57	212.56
377.95	212.44
378.33	212.38
378.71	212.16
379.09	212.09
379.47	212.12
379.84	211.96
380.22	211.95
380.60	211.84
380.98	211.83
381.36	211.78
381.73	211.69
382.11	211.74
382.49	211.81
382.87	211.67
383.25	211.56
383.62	212.02
384.00	211.90
384.38	211.91
384.76	211.99
385.13	212.14
385.51	212.09
385.89	211.96
386.27	211.92
386.64	211.87
387.02	211.91
387.40	211.84
387.78	211.85
388.15	211.79
388.53	211.80
388.91	211.80
389.29	211.75
389.66	211.76
390.04	211.73
390.42	211.66
390.79	211.73
391.17	211.73
391.55	211.24
391.92	211.25
392.30	211.26
392.68	211.15
393.05	211.10
393.43	211.12
393.81	211.13
394.18	211.11
394.56	211.12
394.94	211.15
395.31	211.11
395.69	211.21
396.06	211.31
396.44	211.32
396.82	211.31
397.19	211.49
397.57	211.55
397.95	211.57
398.32	211.59
398.70	211.67
399.07	211.76
399.45	211.84
399.82	211.85
400.20	211.83
400.58	211.83
400.95	211.72
401.33	211.83
401.70	212.09
402.08	212.20
402.45	212.29
402.83	212.41
403.20	212.55
403.58	212.58
403.95	212.68
404.33	212.93
404.71	213.08
405.08	213.41
405.46	213.59
405.83	213.77
406.21	213.94
406.58	214.12
406.96	214.36
407.33	214.62
407.70	214.90
408.08	215.45
408.45	215.85
408.83	216.24
409.20	216.63
409.58	216.86
409.95	217.42
410.33	217.96
410.70	218.48
411.08	219.10
411.45	219.70
411.82	220.26
412.20	220.93
412.57	221.85
412.95	222.30
413.32	223.15
413.69	224.11
414.07	225.13
414.44	226.18
414.82	227.30
415.19	228.53
415.56	229.85
415.94	231.11
416.31	232.67
416.68	234.27
417.06	236.01
417.43	237.77
417.81	239.58
418.18	241.54
418.55	243.47
418.93	245.67
419.30	248.03
419.67	250.55
420.04	253.10
420.42	255.72
420.79	259.01
421.16	262.10
421.54	265.35
421.91	268.70
422.28	272.21
422.66	275.83
423.03	279.63
423.40	283.47
423.77	287.47
424.15	291.61
424.52	295.86
424.89	300.71
425.26	305.26
425.64	309.69
426.01	314.50
426.38	319.61
426.75	324.78
427.13	330.10
427.50	335.60
427.87	341.43
428.24	347.37
428.61	352.90
428.99	359.18
429.36	365.74
429.73	372.34
430.10	378.93
430.47	385.80
430.85	392.78
431.22	400.20
431.59	408.24
431.96	415.80
432.33	424.29
432.70	432.29
433.08	441.88
433.45	450.97
433.82	460.05
434.19	470.16
434.56	480.04
434.93	489.66
435.30	499.37
435.68	509.95
436.05	520.37
436.42	530.75
436.79	540.33
437.16	550.77
437.53	561.78
437.90	572.58
438.27	583.41
438.64	594.79
439.01	605.47
439.38	614.94
439.75	624.12
440.13	634.63
440.50	644.60
440.87	652.83
441.24	661.32
441.61	670.86
441.98	678.15
442.35	686.37
442.72	694.86
443.09	702.87
443.46	707.98
443.83	711.60
444.20	714.95
444.57	719.45
444.94	722.06
445.31	724.73
445.68	727.57
446.05	729.15
446.42	728.91
446.79	728.36
447.16	727.67
447.53	727.47
447.90	724.22
448.27	720.88
448.64	715.93
449.01	712.53
449.37	705.94
449.74	699.61
450.11	692.19
450.48	683.59
450.85	675.04
451.22	667.90
451.59	660.97
451.96	654.25
452.33	645.09
452.70	636.95
453.07	626.88
453.43	616.38
453.80	606.58
454.17	596.98
454.54	587.97
454.91	578.43
455.28	569.03
455.65	560.28
456.02	551.70
456.38	544.33
456.75	535.03
457.12	527.30
457.49	519.63
457.86	512.00
458.23	505.52
458.59	498.38
458.96	491.16
459.33	484.87
459.70	478.54
460.07	473.47
460.43	467.54
460.80	462.20
461.17	457.73
461.54	452.71
461.91	447.97
462.27	443.14
462.64	438.83
463.01	434.25
463.38	429.74
463.74	425.14
464.11	421.10
464.48	417.72
464.85	413.89
465.21	410.90
465.58	407.90
465.95	404.22
466.32	401.13
466.68	398.06
467.05	395.07
467.42	392.15
467.78	388.99
468.15	386.00
468.52	383.70
468.88	380.67
469.25	378.05
469.62	375.86
469.98	373.55
470.35	371.45
470.72	369.28
471.08	367.05
471.45	365.14
471.82	363.35
472.18	361.21
472.55	359.75
472.92	357.89
473.28	356.25
473.65	354.73
474.02	353.27
474.38	352.06
474.75	350.91
475.11	349.66
475.48	348.75
475.85	347.94
476.21	346.98
476.58	346.23
476.94	345.57
477.31	344.86
477.67	344.28
478.04	343.80
478.41	343.55
478.77	343.57
479.14	343.17
479.50	343.03
479.87	343.00
480.23	342.86
480.60	342.79
480.96	342.59
481.33	342.85
481.69	342.91
482.06	342.99
482.42	343.03
482.79	343.27
483.15	343.64
483.52	344.24
483.88	344.69
484.25	345.09
484.61	345.63
484.98	346.22
485.34	346.99
485.71	347.78
486.07	348.67
486.44	349.26
486.80	350.17
487.17	351.17
487.53	352.50
487.90	353.78
488.26	355.15
488.62	356.71
488.99	358.04
489.35	359.61
489.72	361.25
490.08	362.99
490.44	364.74
490.81	366.60
491.17	368.20
491.54	370.22
491.90	372.29
492.26	374.40
492.63	376.57
492.99	378.68
493.36	380.97
493.72	383.37
494.08	385.75
494.45	388.42
494.81	391.21
495.17	393.70
495.54	396.47
495.90	399.32
496.26	402.10
496.63	405.03
496.99	408.02
497.35	410.94
497.72	414.01
498.08	417.05
498.44	420.13
498.80	423.55
499.17	426.89
499.53	430.21
499.89	433.60
500.26	436.88
500.62	440.19
500.98	443.72
501.34	447.07
501.71	450.60
502.07	453.98
502.43	457.27
502.79	460.47
503.16	463.87
503.52	467.03
503.88	470.17
504.24	473.48
504.60	476.67
504.97	480.02
505.33	483.21
505.69	486.57
506.05	489.85
506.41	492.85
506.78	495.69
507.14	498.48
507.50	501.40
507.86	504.25
508.22	507.15
508.59	509.63
508.95	512.27
509.31	514.96
509.67	517.50
510.03	519.82
510.39	522.42
510.75	524.74
511.12	527.21
511.48	529.61
511.84	531.80
512.20	533.98
512.56	536.02
512.92	538.05
513.28	540.04
513.64	541.65
514.00	543.30
514.37	545.13
514.73	546.99
515.09	548.71
515.45	550.24
515.81	551.60
516.17	553.08
516.53	554.36
516.89	555.34
517.25	556.65
517.61	557.84
517.97	558.87
518.33	559.68
518.69	560.62
519.05	561.72
519.41	562.65
519.77	563.74
520.13	564.46
520.49	565.20
520.85	565.82
521.21	566.69
521.57	567.58
521.93	567.97
522.29	568.55
522.65	568.99
523.01	569.67
523.37	570.34
523.73	570.91
524.09	571.41
524.45	571.98
524.81	572.39
525.17	573.00
525.53	573.63
525.89	574.35
526.25	574.93
526.61	575.20
526.97	575.75
527.33	576.17
527.68	577.15
528.04	577.97
528.40	578.56
528.76	579.31
529.12	579.99
529.48	581.11
529.84	582.02
530.20	582.97
530.56	584.00
530.91	585.13
531.27	586.32
531.63	587.61
531.99	588.87
532.35	590.10
532.71	591.36
533.07	592.75
533.42	594.56
533.78	595.90
534.14	597.43
534.50	598.70
534.86	600.40
535.21	601.54
535.57	603.07
535.93	604.76
536.29	606.56
536.65	608.24
537.00	609.87
537.36	611.52
537.72	613.14
538.08	614.97
538.44	616.75
538.79	618.73
539.15	620.59
539.51	622.56
539.87	624.64
540.22	626.60
540.58	628.83
540.94	630.71
541.29	632.87
541.65	634.94
542.01	637.31
542.37	639.36
542.72	641.70
543.08	643.89
543.44	646.29
543.79	648.24
544.15	650.62
544.51	653.02
544.87	655.47
545.22	658.08
545.58	660.53
545.94	662.85
546.29	664.96
546.65	667.20
547.01	669.52
547.36	671.89
547.72	674.37
548.07	676.60
548.43	678.77
548.79	681.13
549.14	683.53
549.50	685.88
549.86	688.22
550.21	690.68
550.57	693.35
550.92	695.69
551.28	698.28
551.64	700.62
551.99	703.21
552.35	705.54
552.70	707.87
553.06	710.22
553.41	712.77
553.77	715.63
554.13	718.29
554.48	721.06
554.84	723.61
555.19	726.03
555.55	728.67
555.90	730.97
556.26	733.34
556.61	735.62
556.97	737.87
557.32	740.32
557.68	742.55
558.03	744.56
558.39	746.47
558.74	748.54
559.10	750.79
559.45	752.89
559.81	755.22
560.16	757.15
560.52	759.22
560.87	761.20
561.23	762.76
561.58	764.89
561.94	766.40
562.29	768.10
562.64	770.11
563.00	771.82
563.35	773.87
563.71	775.99
564.06	778.00
564.42	779.97
564.77	781.82
565.12	783.78
565.48	785.95
565.83	788.14
566.19	790.17
566.54	792.04
566.89	793.56
567.25	795.41
567.60	797.35
567.96	799.36
568.31	801.26
568.66	802.97
569.02	804.11
569.37	805.53
569.72	807.09
570.08	808.32
570.43	809.53
570.78	810.50
571.14	811.33
571.49	812.20
571.84	813.15
572.20	813.87
572.55	814.56
572.90	814.81
573.26	815.08
573.61	815.32
573.96	815.47
574.31	815.64
574.67	815.49
575.02	815.28
575.37	814.82
575.72	814.35
576.08	814.30
576.43	814.23
576.78	814.11
577.13	813.89
577.49	813.52
577.84	813.02
578.19	812.80
578.54	812.69
578.90	812.74
579.25	812.26
579.60	811.55
579.95	810.98
580.30	810.53
580.66	810.09
581.01	809.56
581.36	808.82
581.71	808.07
582.06	807.53
582.42	806.92
582.77	806.02
583.12	805.36
583.47	804.67
583.82	803.90
584.17	803.06
584.53	802.25
584.88	801.44
585.23	800.57
585.58	799.54
585.93	798.32
586.28	797.22
586.63	796.30
586.98	795.63
587.34	794.83
587.69	793.71
588.04	792.70
588.39	791.69
588.74	790.58
589.09	789.83
589.44	788.55
589.79	787.61
590.14	786.78
590.49	785.54
590.84	784.05
591.19	783.16
591.54	782.18
591.89	780.46
592.25	779.28
592.60	777.99
592.95	776.51
593.30	774.92
593.65	772.98
594.00	771.35
594.35	770.63
594.70	768.84
595.05	767.40
595.40	765.79
595.75	763.87
596.10	762.48
596.45	760.74
596.80	759.24
597.15	757.65
597.50	755.74
597.85	754.18
598.19	752.53
598.54	750.55
598.89	748.65
599.24	747.55
599.59	745.77
599.94	744.17
600.29	742.36
600.64	740.77
600.99	739.33
601.34	737.71
601.69	734.93
602.04	733.01
602.39	731.05
602.74	729.33
603.08	727.95
603.43	726.51
603.78	724.78
604.13	722.92
604.48	721.10
604.83	719.77
605.18	718.15
605.53	716.43
605.87	714.63
606.22	712.82
606.57	710.70
606.92	708.69
607.27	706.61
607.62	704.77
607.96	703.07
608.31	701.34
608.66	699.22
609.01	697.27
609.36	695.27
609.70	693.34
610.05	691.30
610.40	689.16
610.75	686.60
611.10	684.64
611.44	682.21
611.79	679.70
612.14	677.15
612.49	674.48
612.83	672.05
613.18	669.73
613.53	667.47
613.88	665.00
614.22	662.71
614.57	660.55
614.92	658.35
615.27	655.82
615.61	653.27
615.96	651.10
616.31	648.90
616.65	646.98
617.00	644.58
617.35	642.20
617.70	639.65
618.04	637.28
618.39	634.50
618.74	632.38
619.08	630.14
619.43	627.92
619.78	625.79
620.12	623.54
620.47	621.18
620.82	618.63
621.16	616.06
621.51	613.75
621.85	611.34
622.20	608.93
622.55	606.58
622.89	604.00
623.24	601.60
623.59	598.93
623.93	596.31
624.28	593.98
624.62	591.92
624.97	589.80
625.32	587.36
625.66	585.29
626.01	582.82
626.35	580.59
626.70	578.26
627.04	576.03
627.39	573.70
627.73	571.50
628.08	569.53
628.43	567.43
628.77	565.12
629.12	562.74
629.46	560.78
629.81	558.45
630.15	556.32
630.50	553.97
630.84	551.95
631.19	549.68
631.53	547.57
631.88	544.90
632.22	542.41
632.57	540.56
632.91	538.30
633.26	536.26
633.60	534.02
633.95	531.82
634.29	529.52
634.64	527.55
634.98	525.26
635.32	523.10
635.67	521.18
636.01	519.21
636.36	517.13
636.70	515.00
637.05	513.12
637.39	511.19
637.73	509.41
638.08	507.62
638.42	505.89
638.77	504.01
639.11	502.19
639.45	500.41
639.80	498.17
640.14	496.27
640.49	494.29
640.83	492.27
641.17	490.44
641.52	488.62
641.86	486.58
642.20	484.85
642.55	482.66
642.89	480.63
643.23	478.52
643.58	476.83
643.92	474.68
644.26	472.66
644.61	470.68
644.95	468.63
645.29	466.53
645.64	464.53
645.98	462.50
646.32	460.66
646.66	458.61
647.01	456.83
647.35	454.88
647.69	452.84
648.04	451.12
648.38	449.11
648.72	447.19
649.06	445.26
649.41	443.22
649.75	441.45
650.09	439.60
650.43	437.90
650.78	435.81
651.12	433.90
651.46	432.00
651.80	430.32
652.14	428.60
652.49	426.88
652.83	425.01
653.17	423.00
653.51	421.05
653.85	419.46
654.20	417.71
654.54	415.85
654.88	414.09
655.22	412.27
655.56	410.37
655.90	408.57
656.25	406.77
656.59	404.96
656.93	403.23
657.27	401.58
657.61	399.53
657.95	397.92
658.29	396.40
658.64	394.78
658.98	392.97
659.32	391.14
659.66	389.44
660.00	387.65
660.34	386.15
660.68	384.53
661.02	382.72
661.36	380.98
661.70	379.45
662.05	377.96
662.39	376.50
662.73	375.17
663.07	373.84
663.41	372.49
663.75	371.01
664.09	369.58
664.43	367.87
664.77	366.67
665.11	365.17
665.45	363.70
665.79	362.42
666.13	360.97
666.47	359.63
666.81	358.19
667.15	356.77
667.49	355.46
667.83	354.26
668.17	352.98
668.51	351.81
668.85	350.62
669.19	349.54
669.53	348.24
669.87	346.86
670.21	345.52
670.55	344.19
670.89	343.20
671.23	342.05
671.57	341.05
671.91	339.85
672.25	338.73
672.58	337.73
672.92	336.48
673.26	335.45
673.60	334.37
673.94	333.29
674.28	332.32
674.62	331.31
674.96	330.22
675.30	329.25
675.64	328.20
675.97	327.02
676.31	325.84
676.65	324.79
676.99	323.96
677.33	322.83
677.67	321.77
678.01	320.56
678.34	319.49
678.68	318.46
679.02	317.35
679.36	316.30
679.70	315.10
680.04	314.15
680.37	313.10
680.71	312.04
681.05	311.12
681.39	310.19
681.73	309.21
682.06	308.31
682.40	307.40
682.74	306.52
683.08	305.89
683.42	305.07
683.75	304.22
684.09	303.20
684.43	302.33
684.77	301.53
685.10	300.73
685.44	299.81
685.78	298.93
686.12	298.20
686.45	297.33
686.79	296.50
687.13	295.72
687.46	294.88
687.80	294.18
688.14	293.32
688.48	292.59
688.81	291.75
689.15	290.92
689.49	290.06
689.82	289.33
690.16	288.25
690.50	287.43
690.83	286.55
691.17	285.71
691.51	285.00
691.84	284.25
692.18	283.47
692.52	282.77
692.85	282.11
693.19	281.49
693.52	280.76
693.86	280.10
694.20	279.43
694.53	278.84
694.87	278.05
695.21	277.32
695.54	276.49
695.88	275.71
696.21	274.92
696.55	274.24
696.88	273.49
697.22	272.83
697.56	272.19
697.89	271.58
698.23	271.00
698.56	270.28
698.90	269.67
699.23	269.05
699.57	268.44
699.90	267.77
700.24	267.07
700.58	266.62
700.91	266.06
701.25	265.69
701.58	265.08
701.92	264.55
702.25	264.04
702.59	263.50
702.92	262.95
703.26	262.40
703.59	261.89
703.93	261.69
704.26	261.26
704.60	260.69
704.93	260.12
705.26	259.52
705.60	259.10
705.93	258.52
706.27	258.16
706.60	257.81
706.94	257.53
707.27	257.03
707.61	256.49
707.94	255.97
708.27	255.21
708.61	254.70
708.94	254.27
709.28	253.75
709.61	253.28
709.94	252.94
710.28	252.63
710.61	252.28
710.95	251.46
711.28	251.28
711.61	250.86
711.95	250.56
712.28	250.17
712.61	249.77
712.95	249.60
713.28	249.31
713.61	248.84
713.95	248.21
714.28	247.91
714.61	247.49
714.95	247.15
715.28	246.76
715.61	246.32
715.95	245.91
716.28	245.55
716.61	245.24
716.95	244.90
717.28	244.49
717.61	244.12
717.94	243.83
718.28	243.24
718.61	242.91
718.94	242.52
719.27	242.21
719.61	241.88
719.94	241.41
720.27	240.89
720.60	240.55
720.94	240.35
721.27	239.96
721.60	239.74
721.93	239.36
722.27	239.19
722.60	239.05
722.93	238.71
723.26	238.55
723.59	238.26
723.93	237.92
724.26	237.67
724.59	237.37
724.92	237.11
725.25	236.94
725.59	236.67
725.92	236.53
726.25	236.26
726.58	235.98
726.91	235.76
727.24	235.54
727.57	235.26
727.91	234.93
728.24	234.77
728.57	234.48
728.90	234.32
729.23	233.99
729.56	233.94
729.89	233.77
730.22	233.48
730.55	233.26
730.89	233.03
731.22	232.77
731.55	232.53
731.88	232.32
732.21	232.04
732.54	231.79
732.87	231.49
733.20	231.33
733.53	231.20
733.86	231.01
734.19	230.72
734.52	230.65
734.85	230.73
735.18	230.47
735.51	230.37
735.84	230.22
736.17	230.13
736.50	229.64
736.83	229.88
737.16	229.73
737.49	229.59
737.82	229.42
738.15	229.34
738.48	229.19
738.81	228.98
739.14	228.75
739.47	228.65
739.80	228.42
740.13	228.31
740.46	228.09
740.79	227.88
741.12	227.73
741.45	227.46
741.78	227.10
742.11	227.06
742.44	226.85
742.77	226.80
743.10	226.57
743.43	226.42
743.75	225.84
744.08	226.08
744.41	225.84
744.74	225.70
745.07	225.41
745.40	225.26
745.73	225.31
746.06	225.16
746.39	225.06
746.71	224.94
747.04	224.61
747.37	224.38
747.70	224.35
748.03	224.26
748.36	224.17
748.68	224.00
749.01	223.75
749.34	223.65
749.67	223.48
750.00	223.42
750.33	223.63
750.65	223.58
750.98	223.09
751.31	222.95
751.64	222.90
751.97	222.95
752.29	222.84
752.62	222.53
752.95	222.45
753.28	222.28
753.60	222.18
753.93	222.27
754.26	222.18
754.59	221.96
754.91	221.78
755.24	221.61
755.57	221.57
755.90	221.50
756.22	221.33
756.55	221.20
756.88	221.01
757.20	220.65
757.53	220.45
757.86	220.37
758.19	220.41
758.51	220.19
758.84	219.95
759.17	219.86
759.49	219.79
759.82	219.85
760.15	219.78
760.47	219.69
760.80	219.49
761.13	219.50
761.45	219.43
761.78	219.38
762.11	219.38
762.43	219.25
762.76	219.15
763.08	219.12
763.41	219.06
763.74	219.01
764.06	218.89
764.39	218.79
764.71	218.71
765.04	218.49
765.37	218.48
765.69	218.43
766.02	218.29
766.34	218.17
766.67	218.00
767.00	217.98
767.32	218.10
767.65	218.23
767.97	218.14
768.30	217.97
768.62	217.91
768.95	217.79
769.27	217.65
769.60	217.58
769.92	217.39
770.25	217.23
770.57	217.12
770.90	217.08
771.22	217.01
771.55	216.90
771.87	216.93
772.20	216.86
772.52	217.13
772.85	217.55
773.17	217.50
773.50	217.35
773.82	217.27
774.15	217.00
774.47	216.67
774.80	216.61
775.12	216.66
775.45	216.59
775.77	216.52
776.09	216.58
776.42	216.50
776.74	216.70
777.07	216.65
777.39	216.63
777.72	216.55
778.04	216.55
778.36	216.46
778.69	216.43
779.01	216.42
779.33	216.04
779.66	215.55
779.98	215.53
780.31	215.57
780.63	215.60
780.95	215.67
781.28	215.75
781.60	215.64
781.92	215.61
782.25	215.52
782.57	215.48
782.89	215.41
783.22	215.42
783.54	215.25
783.86	215.22
784.19	215.20
784.51	215.25
784.83	215.20
785.16	215.22
785.48	215.18
785.80	215.09
786.12	215.04
786.45	214.94
786.77	214.94
787.09	214.87
787.42	214.75
787.74	214.69
788.06	214.55
788.38	214.56
788.71	214.51
789.03	214.49
789.35	214.49
789.67	214.44
789.99	214.42
790.32	214.35
790.64	214.30
790.96	214.48
791.28	214.36
791.61	214.26
791.93	214.21
792.25	214.19
792.57	214.46
792.89	214.38
793.21	214.48
793.54	214.40
793.86	214.33
794.18	214.22
