SpectraSuite Data File
++++++++++++++++++++++++++++++++++++
Date: Mon Feb 25 17:05:28 EST 2013
User: group
Dark Spectrum Present: No
Reference Spectrum Present: No
Number of Sampled Component Spectra: 1
Spectrometers: USB2E7196
Integration Time (usec): 104000 (USB2E7196)
Spectra Averaged: 20 (USB2E7196)
Boxcar Smoothing: 10 (USB2E7196)
Correct for Electrical Dark: No (USB2E7196)
Strobe/Lamp Enabled: No (USB2E7196)
Correct for Detector Non-linearity: No (USB2E7196)
Correct for Stray Light: No (USB2E7196)
Number of Pixels in Processed Spectrum: 2048
>>>>>Begin Processed Spectral Data<<<<<
339.09	0.00
339.48	197.50
339.86	199.75
340.24	200.80
340.63	202.10
341.01	207.85
341.39	205.70
341.78	208.25
342.16	209.35
342.54	208.50
342.93	197.94
343.31	207.90
343.69	208.47
344.07	208.89
344.46	209.40
344.84	209.80
345.22	209.85
345.60	210.07
345.99	210.19
346.37	210.24
346.75	210.35
347.13	210.33
347.52	210.37
347.90	210.47
348.28	210.45
348.66	210.50
349.05	210.41
349.43	210.49
349.81	210.51
350.19	210.63
350.57	210.62
350.96	210.62
351.34	210.73
351.72	210.82
352.10	210.91
352.48	210.86
352.87	210.94
353.25	211.03
353.63	211.10
354.01	211.10
354.39	211.20
354.77	211.28
355.15	211.47
355.54	211.55
355.92	211.55
356.30	211.62
356.68	211.85
357.06	211.92
357.44	211.90
357.82	211.94
358.20	211.99
358.58	212.05
358.97	212.17
359.35	212.29
359.73	212.34
360.11	212.46
360.49	212.59
360.87	212.59
361.25	212.80
361.63	212.96
362.01	213.06
362.39	213.05
362.77	213.13
363.15	213.23
363.53	213.27
363.91	213.32
364.29	213.36
364.67	213.15
365.05	213.17
365.43	213.23
365.81	213.32
366.19	213.45
366.57	213.57
366.95	213.56
367.33	213.47
367.71	213.52
368.09	213.59
368.47	213.50
368.85	213.51
369.23	213.43
369.61	213.25
369.99	213.39
370.37	213.42
370.75	213.47
371.13	213.30
371.51	213.21
371.89	213.20
372.27	213.20
372.65	213.19
373.03	213.18
373.41	213.15
373.78	213.04
374.16	212.79
374.54	212.66
374.92	212.49
375.30	212.46
375.68	212.32
376.06	212.22
376.44	212.17
376.82	212.10
377.19	212.05
377.57	211.99
377.95	211.72
378.33	211.61
378.71	211.44
379.09	211.43
379.47	211.45
379.84	211.30
380.22	211.27
380.60	211.17
380.98	211.07
381.36	210.94
381.73	210.91
382.11	210.97
382.49	210.95
382.87	211.02
383.25	210.98
383.62	211.33
384.00	211.26
384.38	211.26
384.76	211.29
385.13	211.43
385.51	211.41
385.89	211.36
386.27	211.33
386.64	211.31
387.02	211.23
387.40	211.08
387.78	211.19
388.15	211.15
388.53	211.01
388.91	210.98
389.29	210.97
389.66	210.93
390.04	210.86
390.42	210.85
390.79	210.82
391.17	210.75
391.55	210.36
391.92	210.31
392.30	210.36
392.68	210.25
393.05	210.16
393.43	210.12
393.81	210.21
394.18	210.17
394.56	210.17
394.94	210.24
395.31	210.31
395.69	210.34
396.06	210.35
396.44	210.43
396.82	210.44
397.19	210.53
397.57	210.53
397.95	210.56
398.32	210.50
398.70	210.41
399.07	210.46
399.45	210.47
399.82	210.46
400.20	210.41
400.58	210.47
400.95	210.42
401.33	210.57
401.70	210.81
402.08	210.95
402.45	210.96
402.83	211.09
403.20	211.11
403.58	211.04
403.95	211.18
404.33	211.32
404.71	211.50
405.08	211.83
405.46	211.89
405.83	212.01
406.21	212.08
406.58	212.27
406.96	212.46
407.33	212.66
407.70	212.85
408.08	213.32
408.45	213.50
408.83	213.70
409.20	213.81
409.58	213.79
409.95	213.99
410.33	214.22
410.70	214.44
411.08	214.74
411.45	215.12
411.82	215.33
412.20	215.80
412.57	216.28
412.95	216.40
413.32	216.96
413.69	217.39
414.07	217.98
414.44	218.54
414.82	219.06
415.19	219.69
415.56	220.40
415.94	220.89
416.31	221.70
416.68	222.41
417.06	223.34
417.43	224.32
417.81	225.33
418.18	226.37
418.55	227.42
418.93	228.59
419.30	229.76
419.67	231.11
420.04	232.35
420.42	233.67
420.79	235.50
421.16	237.10
421.54	238.90
421.91	240.61
422.28	242.40
422.66	244.29
423.03	246.35
423.40	248.26
423.77	250.33
424.15	252.40
424.52	254.70
424.89	257.10
425.26	259.35
425.64	261.54
426.01	263.99
426.38	266.46
426.75	269.14
427.13	271.89
427.50	274.61
427.87	277.50
428.24	280.35
428.61	282.98
428.99	286.15
429.36	289.40
429.73	292.64
430.10	295.94
430.47	299.41
430.85	302.71
431.22	306.44
431.59	310.66
431.96	314.45
432.33	318.73
432.70	322.99
433.08	327.75
433.45	332.42
433.82	337.00
434.19	342.08
434.56	347.09
434.93	351.75
435.30	356.63
435.68	361.90
436.05	367.21
436.42	372.45
436.79	377.23
437.16	382.41
437.53	387.92
437.90	393.39
438.27	398.88
438.64	404.52
439.01	409.78
439.38	414.23
439.75	418.88
440.13	423.92
440.50	428.64
440.87	432.73
441.24	436.74
441.61	441.32
441.98	444.82
442.35	448.66
442.72	452.68
443.09	456.65
443.46	459.14
443.83	460.91
444.20	462.56
444.57	464.59
444.94	465.77
445.31	467.06
445.68	468.56
446.05	469.12
446.42	468.89
446.79	468.53
447.16	468.09
447.53	467.80
447.90	466.04
448.27	464.33
448.64	461.83
449.01	460.31
449.37	456.99
449.74	453.95
450.11	450.43
450.48	446.34
450.85	441.81
451.22	438.17
451.59	434.62
451.96	431.16
452.33	426.58
452.70	422.38
453.07	417.24
453.43	411.81
453.80	406.91
454.17	402.19
454.54	397.63
454.91	392.78
455.28	388.00
455.65	383.61
456.02	379.59
456.38	375.84
456.75	371.08
457.12	367.25
457.49	363.21
457.86	359.21
458.23	355.95
458.59	352.56
458.96	348.98
459.33	345.77
459.70	342.57
460.07	340.09
460.43	337.26
460.80	334.57
461.17	332.27
461.54	329.79
461.91	327.45
462.27	325.10
462.64	323.01
463.01	320.74
463.38	318.61
463.74	315.99
464.11	313.94
464.48	312.17
464.85	310.26
465.21	308.94
465.58	307.43
465.95	305.52
466.32	303.92
466.68	302.39
467.05	300.89
467.42	299.30
467.78	297.69
468.15	296.13
468.52	295.09
468.88	293.44
469.25	292.01
469.62	290.95
469.98	289.74
470.35	288.69
470.72	287.71
471.08	286.59
471.45	285.66
471.82	284.77
472.18	283.71
472.55	282.97
472.92	281.99
473.28	281.08
473.65	280.27
474.02	279.54
474.38	278.86
474.75	278.33
475.11	277.70
475.48	277.13
475.85	276.65
476.21	276.11
476.58	275.80
476.94	275.58
477.31	275.13
477.67	274.80
478.04	274.50
478.41	274.28
478.77	274.37
479.14	274.13
479.50	274.02
479.87	273.97
480.23	273.84
480.60	273.63
480.96	273.60
481.33	273.74
481.69	273.67
482.06	273.65
482.42	273.60
482.79	273.68
483.15	273.77
483.52	274.05
483.88	274.10
484.25	274.17
484.61	274.24
484.98	274.30
485.34	274.66
485.71	274.93
486.07	275.20
486.44	275.14
486.80	275.51
487.17	275.91
487.53	276.44
487.90	276.96
488.26	277.70
488.62	278.39
488.99	278.88
489.35	279.57
489.72	280.17
490.08	280.85
490.44	281.50
490.81	282.33
491.17	283.02
491.54	283.96
491.90	284.80
492.26	285.65
492.63	286.68
492.99	287.54
493.36	288.60
493.72	289.69
494.08	290.79
494.45	291.88
494.81	292.98
495.17	293.99
495.54	295.15
495.90	296.19
496.26	297.22
496.63	298.52
496.99	299.74
497.35	300.97
497.72	302.27
498.08	303.52
498.44	304.83
498.80	306.23
499.17	307.54
499.53	308.99
499.89	310.47
500.26	311.86
500.62	313.28
500.98	314.65
501.34	316.02
501.71	317.46
502.07	318.82
502.43	320.10
502.79	321.37
503.16	322.64
503.52	323.89
503.88	325.15
504.24	326.39
504.60	327.72
504.97	329.12
505.33	330.47
505.69	331.93
506.05	333.13
506.41	334.34
506.78	335.38
507.14	336.46
507.50	337.60
507.86	338.76
508.22	339.87
508.59	340.88
508.95	341.96
509.31	343.18
509.67	344.30
510.03	345.58
510.39	346.69
510.75	347.74
511.12	348.81
511.48	349.88
511.84	350.85
512.20	351.70
512.56	352.64
512.92	353.67
513.28	354.67
513.64	355.71
514.00	356.64
514.37	357.77
514.73	358.86
515.09	359.88
515.45	360.91
515.81	361.83
516.17	362.79
516.53	363.71
516.89	364.42
517.25	365.24
517.61	366.09
517.97	367.09
518.33	368.04
518.69	369.01
519.05	370.01
519.41	371.04
519.77	372.37
520.13	373.29
520.49	374.12
520.85	375.16
521.21	376.26
521.57	377.36
521.93	378.30
522.29	379.40
522.65	380.39
523.01	381.48
523.37	382.64
523.73	383.85
524.09	385.08
524.45	386.43
524.81	387.83
525.17	389.09
525.53	390.58
525.89	392.00
526.25	393.59
526.61	395.05
526.97	396.52
527.33	398.09
527.68	400.08
528.04	402.01
528.40	403.61
528.76	405.30
529.12	407.09
529.48	409.10
529.84	410.94
530.20	412.93
530.56	414.84
530.91	416.94
531.27	418.95
531.63	421.16
531.99	423.23
532.35	425.47
532.71	427.61
533.07	429.74
533.42	432.37
533.78	434.64
534.14	437.09
534.50	439.58
534.86	441.89
535.21	443.97
535.57	446.30
535.93	448.74
536.29	451.44
536.65	453.83
537.00	456.12
537.36	458.60
537.72	461.15
538.08	463.90
538.44	466.43
538.79	469.17
539.15	471.71
539.51	474.54
539.87	477.06
540.22	479.90
540.58	482.59
540.94	485.15
541.29	487.80
541.65	490.40
542.01	493.11
542.37	495.90
542.72	498.73
543.08	501.44
543.44	504.41
543.79	506.92
544.15	509.94
544.51	513.12
544.87	516.17
545.22	519.03
545.58	521.74
545.94	524.52
546.29	527.41
546.65	530.21
547.01	532.85
547.36	535.70
547.72	538.50
548.07	541.29
548.43	543.90
548.79	546.69
549.14	549.23
549.50	552.00
549.86	554.68
550.21	557.33
550.57	560.11
550.92	562.46
551.28	565.13
551.64	567.59
551.99	569.95
552.35	572.32
552.70	574.76
553.06	577.25
553.41	579.68
553.77	582.18
554.13	584.68
554.48	587.18
554.84	589.66
555.19	591.90
555.55	594.40
555.90	596.42
556.26	598.44
556.61	600.72
556.97	602.64
557.32	604.66
557.68	606.56
558.03	608.45
558.39	610.37
558.74	612.40
559.10	614.39
559.45	616.35
559.81	618.32
560.16	620.21
560.52	622.04
560.87	624.02
561.23	625.46
561.58	627.48
561.94	629.02
562.29	630.44
562.64	632.12
563.00	633.52
563.35	635.45
563.71	637.46
564.06	639.17
564.42	640.88
564.77	642.39
565.12	644.15
565.48	646.02
565.83	647.64
566.19	649.09
566.54	650.24
566.89	651.41
567.25	652.92
567.60	654.48
567.96	656.01
568.31	657.43
568.66	658.82
569.02	659.50
569.37	660.45
569.72	661.63
570.08	662.40
570.43	663.25
570.78	663.91
571.14	664.45
571.49	664.97
571.84	665.65
572.20	666.20
572.55	666.74
572.90	666.85
573.26	667.25
573.61	667.48
573.96	667.91
574.31	668.25
574.67	668.08
575.02	667.76
575.37	667.41
575.72	666.98
576.08	666.74
576.43	666.55
576.78	666.52
577.13	666.50
577.49	666.52
577.84	666.52
578.19	666.29
578.54	666.20
578.90	666.25
579.25	666.03
579.60	665.71
579.95	665.35
580.30	665.06
580.66	665.08
581.01	664.80
581.36	664.50
581.71	664.19
582.06	664.09
582.42	663.98
582.77	663.81
583.12	663.57
583.47	663.47
583.82	663.52
584.17	663.27
584.53	663.07
584.88	662.71
585.23	662.21
585.58	661.89
585.93	661.39
586.28	661.11
586.63	660.69
586.98	660.51
587.34	660.25
587.69	659.91
588.04	659.11
588.39	658.69
588.74	657.96
589.09	657.59
589.44	656.59
589.79	656.03
590.14	655.35
590.49	654.72
590.84	653.96
591.19	653.42
591.54	652.63
591.89	651.60
592.25	650.99
592.60	650.19
592.95	649.32
593.30	648.30
593.65	647.16
594.00	646.23
594.35	646.14
594.70	644.95
595.05	643.99
595.40	643.03
595.75	641.88
596.10	641.05
596.45	639.97
596.80	639.35
597.15	638.45
597.50	637.50
597.85	636.68
598.19	635.72
598.54	634.58
598.89	633.63
599.24	632.85
599.59	631.93
599.94	631.09
600.29	630.30
600.64	629.54
600.99	628.67
601.34	627.80
601.69	625.86
602.04	624.93
602.39	623.90
602.74	623.24
603.08	622.53
603.43	622.01
603.78	621.25
604.13	620.36
604.48	619.39
604.83	618.79
605.18	617.99
605.53	617.08
605.87	615.93
606.22	615.21
606.57	614.17
606.92	613.05
607.27	612.01
607.62	610.90
607.96	609.95
608.31	608.96
608.66	607.82
609.01	606.66
609.36	605.50
609.70	604.28
610.05	602.84
610.40	601.65
610.75	600.10
611.10	598.83
611.44	597.27
611.79	595.75
612.14	594.01
612.49	592.24
612.83	590.72
613.18	589.20
613.53	587.37
613.88	585.63
614.22	584.09
614.57	582.38
614.92	580.76
615.27	579.04
615.61	577.37
615.96	575.93
616.31	574.41
616.65	573.02
617.00	571.39
617.35	569.92
617.70	568.14
618.04	566.22
618.39	564.35
618.74	562.79
619.08	561.00
619.43	559.30
619.78	557.72
620.12	556.04
620.47	554.41
620.82	552.72
621.16	550.89
621.51	549.29
621.85	547.59
622.20	546.00
622.55	544.23
622.89	542.45
623.24	540.51
623.59	538.71
623.93	536.80
624.28	535.28
624.62	533.73
624.97	532.11
625.32	530.55
625.66	528.95
626.01	527.24
626.35	525.65
626.70	524.02
627.04	522.49
627.39	520.78
627.73	519.36
628.08	517.94
628.43	516.40
628.77	514.57
629.12	512.98
629.46	511.27
629.81	509.69
630.15	508.07
630.50	506.48
630.84	504.71
631.19	503.01
631.53	501.23
631.88	499.24
632.22	497.39
632.57	495.99
632.91	494.27
633.26	492.64
633.60	490.99
633.95	489.37
634.29	487.62
634.64	486.12
634.98	484.28
635.32	482.66
635.67	481.16
636.01	479.61
636.36	477.92
636.70	476.42
637.05	474.82
637.39	473.15
637.73	471.66
638.08	470.44
638.42	469.11
638.77	467.63
639.11	466.17
639.45	464.65
639.80	462.79
640.14	461.10
640.49	459.42
640.83	457.83
641.17	456.17
641.52	454.52
641.86	452.87
642.20	451.37
642.55	449.47
642.89	447.85
643.23	446.25
643.58	444.80
643.92	443.01
644.26	441.31
644.61	439.78
644.95	437.93
645.29	436.18
645.64	434.54
645.98	432.89
646.32	431.34
646.66	429.61
647.01	428.06
647.35	426.54
647.69	425.03
648.04	423.46
648.38	421.95
648.72	420.45
649.06	418.73
649.41	417.07
649.75	415.65
650.09	414.16
650.43	412.60
650.78	410.87
651.12	409.25
651.46	407.77
651.80	406.35
652.14	404.92
652.49	403.39
652.83	401.84
653.17	400.16
653.51	398.56
653.85	397.20
654.20	395.71
654.54	394.12
654.88	392.45
655.22	391.01
655.56	389.36
655.90	387.71
656.25	386.26
656.59	384.53
656.93	382.96
657.27	381.49
657.61	379.80
657.95	378.41
658.29	377.05
658.64	375.67
658.98	374.06
659.32	372.54
659.66	370.97
660.00	369.41
660.34	367.92
660.68	366.32
661.02	364.93
661.36	363.56
661.70	362.22
662.05	360.95
662.39	359.65
662.73	358.52
663.07	357.35
663.41	356.18
663.75	355.04
664.09	353.72
664.43	352.30
664.77	351.17
665.11	349.79
665.45	348.55
665.79	347.26
666.13	346.00
666.47	344.75
666.81	343.56
667.15	342.34
667.49	341.42
667.83	340.52
668.17	339.25
668.51	338.10
668.85	337.08
669.19	336.15
669.53	334.82
669.87	333.61
670.21	332.49
670.55	331.33
670.89	330.47
671.23	329.65
671.57	328.65
671.91	327.62
672.25	326.64
672.58	325.64
672.92	324.49
673.26	323.49
673.60	322.60
673.94	321.70
674.28	320.80
674.62	319.84
674.96	318.78
675.30	317.85
675.64	316.91
675.97	315.99
676.31	314.94
676.65	314.15
676.99	313.42
677.33	312.39
677.67	311.42
678.01	310.33
678.34	309.25
678.68	308.36
679.02	307.35
679.36	306.48
679.70	305.48
680.04	304.69
680.37	303.84
680.71	302.89
681.05	302.05
681.39	301.19
681.73	300.22
682.06	299.38
682.40	298.62
682.74	297.74
683.08	296.95
683.42	296.05
683.75	295.27
684.09	294.34
684.43	293.55
684.77	292.72
685.10	291.98
685.44	291.16
685.78	290.33
686.12	289.64
686.45	288.87
686.79	288.19
687.13	287.55
687.46	286.78
687.80	286.15
688.14	285.31
688.48	284.65
688.81	283.96
689.15	283.37
689.49	282.63
689.82	282.04
690.16	281.16
690.50	280.49
690.83	279.77
691.17	278.95
691.51	278.37
691.84	277.77
692.18	277.03
692.52	276.49
692.85	275.92
693.19	275.46
693.52	274.79
693.86	274.08
694.20	273.41
694.53	272.77
694.87	272.09
695.21	271.42
695.54	270.73
695.88	269.99
696.21	269.17
696.55	268.53
696.88	267.77
697.22	267.19
697.56	266.69
697.89	266.09
698.23	265.58
698.56	264.86
698.90	264.24
699.23	263.69
699.57	263.02
699.90	262.44
700.24	261.70
700.58	261.22
700.91	260.75
701.25	260.51
701.58	260.06
701.92	259.60
702.25	259.22
702.59	258.74
702.92	258.35
703.26	257.94
703.59	257.45
703.93	257.31
704.26	256.89
704.60	256.37
704.93	255.81
705.26	255.34
705.60	254.99
705.93	254.56
706.27	254.23
706.60	253.89
706.94	253.62
707.27	253.15
707.61	252.70
707.94	252.18
708.27	251.39
708.61	251.01
708.94	250.51
709.28	249.98
709.61	249.49
709.94	249.15
710.28	248.68
710.61	248.34
710.95	247.66
711.28	247.49
711.61	247.10
711.95	246.85
712.28	246.37
712.61	245.95
712.95	245.69
713.28	245.46
713.61	244.99
713.95	244.48
714.28	244.15
714.61	243.78
714.95	243.45
715.28	243.09
715.61	242.64
715.95	242.37
716.28	242.02
716.61	241.75
716.95	241.27
717.28	241.06
717.61	240.67
717.94	240.38
718.28	239.80
718.61	239.46
718.94	239.03
719.27	238.85
719.61	238.56
719.94	238.24
720.27	237.73
720.60	237.53
720.94	237.30
721.27	236.97
721.60	236.77
721.93	236.53
722.27	236.46
722.60	236.32
722.93	235.98
723.26	235.78
723.59	235.49
723.93	235.34
724.26	235.06
724.59	234.79
724.92	234.52
725.25	234.43
725.59	234.16
725.92	234.00
726.25	233.75
726.58	233.55
726.91	233.30
727.24	233.14
727.57	232.78
727.91	232.50
728.24	232.39
728.57	232.07
728.90	231.92
729.23	231.56
729.56	231.48
729.89	231.40
730.22	231.18
730.55	230.99
730.89	230.71
731.22	230.48
731.55	230.32
731.88	230.19
732.21	229.97
732.54	229.78
732.87	229.55
733.20	229.39
733.53	229.34
733.86	229.20
734.19	228.97
734.52	228.96
734.85	228.98
735.18	228.79
735.51	228.69
735.84	228.52
736.17	228.43
736.50	228.05
736.83	228.23
737.16	228.13
737.49	227.95
737.82	227.83
738.15	227.77
738.48	227.63
738.81	227.41
739.14	227.15
739.47	226.97
739.80	226.91
740.13	226.80
740.46	226.53
740.79	226.31
741.12	226.20
741.45	225.94
741.78	225.57
742.11	225.51
742.44	225.33
742.77	225.24
743.10	225.10
743.43	224.95
743.75	224.40
744.08	224.71
744.41	224.51
744.74	224.40
745.07	224.12
745.40	224.05
745.73	224.14
746.06	224.03
746.39	223.95
746.71	223.80
747.04	223.68
747.37	223.51
747.70	223.41
748.03	223.25
748.36	223.20
748.68	223.12
749.01	222.88
749.34	222.80
749.67	222.69
750.00	222.59
750.33	222.70
750.65	222.63
750.98	222.00
751.31	222.00
751.64	221.88
751.97	221.99
752.29	221.89
752.62	221.66
752.95	221.52
753.28	221.42
753.60	221.33
753.93	221.19
754.26	221.13
754.59	221.00
754.91	220.86
755.24	220.71
755.57	220.61
755.90	220.52
756.22	220.35
756.55	220.24
756.88	220.06
757.20	219.77
757.53	219.50
757.86	219.49
758.19	219.40
758.51	219.33
758.84	219.08
759.17	218.90
759.49	218.80
759.82	218.86
760.15	218.79
760.47	218.65
760.80	218.52
761.13	218.50
761.45	218.43
761.78	218.38
762.11	218.34
762.43	218.27
762.76	218.16
763.08	218.18
763.41	218.11
763.74	218.06
764.06	217.96
764.39	217.96
764.71	217.82
765.04	217.67
765.37	217.52
765.69	217.46
766.02	217.33
766.34	217.19
766.67	217.02
767.00	216.99
767.32	217.06
767.65	217.19
767.97	217.05
768.30	216.96
768.62	216.89
768.95	216.75
769.27	216.66
769.60	216.63
769.92	216.49
770.25	216.34
770.57	216.19
770.90	216.12
771.22	216.08
771.55	216.09
771.87	216.10
772.20	216.01
772.52	216.23
772.85	216.62
773.17	216.58
773.50	216.54
773.82	216.43
774.15	216.29
774.47	216.03
774.80	216.00
775.12	216.00
775.45	215.88
775.77	215.88
776.09	215.88
776.42	215.86
776.74	215.90
777.07	215.85
777.39	215.83
777.72	215.81
778.04	215.81
778.36	215.71
778.69	215.63
779.01	215.63
779.33	215.36
779.66	214.98
779.98	214.94
780.31	214.96
780.63	215.06
780.95	215.01
781.28	214.93
781.60	214.77
781.92	214.65
782.25	214.66
782.57	214.61
782.89	214.50
783.22	214.42
783.54	214.35
783.86	214.29
784.19	214.26
784.51	214.32
784.83	214.19
785.16	214.15
785.48	214.14
785.80	214.11
786.12	214.03
786.45	213.99
786.77	214.02
787.09	213.96
787.42	213.74
787.74	213.71
788.06	213.77
788.38	213.76
788.71	213.74
789.03	213.72
789.35	213.76
789.67	213.76
789.99	213.72
790.32	213.62
790.64	213.61
790.96	213.81
791.28	213.65
791.61	213.65
791.93	213.64
792.25	213.63
792.57	213.86
792.89	213.79
793.21	213.74
793.54	213.67
793.86	213.56
794.18	213.61
