SpectraSuite Data File
++++++++++++++++++++++++++++++++++++
Date: Mon Feb 25 16:59:48 EST 2013
User: group
Dark Spectrum Present: No
Reference Spectrum Present: No
Number of Sampled Component Spectra: 1
Spectrometers: USB2E7196
Integration Time (usec): 104000 (USB2E7196)
Spectra Averaged: 20 (USB2E7196)
Boxcar Smoothing: 10 (USB2E7196)
Correct for Electrical Dark: No (USB2E7196)
Strobe/Lamp Enabled: No (USB2E7196)
Correct for Detector Non-linearity: No (USB2E7196)
Correct for Stray Light: No (USB2E7196)
Number of Pixels in Processed Spectrum: 2048
>>>>>Begin Processed Spectral Data<<<<<
339.09	0.00
339.48	199.00
339.86	199.35
340.24	201.30
340.63	202.00
341.01	209.95
341.39	206.80
341.78	208.20
342.16	208.40
342.54	209.40
342.93	198.45
343.31	208.55
343.69	209.10
344.07	209.59
344.46	210.10
344.84	210.53
345.22	210.58
345.60	210.81
345.99	210.94
346.37	211.04
346.75	211.10
347.13	211.27
347.52	211.40
347.90	211.56
348.28	211.51
348.66	211.61
349.05	211.52
349.43	211.55
349.81	211.65
350.19	211.68
350.57	211.75
350.96	211.72
351.34	211.73
351.72	211.81
352.10	211.91
352.48	211.84
352.87	211.88
353.25	211.94
353.63	211.98
354.01	212.02
354.39	212.13
354.77	212.18
355.15	212.25
355.54	212.26
355.92	212.24
356.30	212.29
356.68	212.47
357.06	212.54
357.44	212.53
357.82	212.44
358.20	212.58
358.58	212.63
358.97	212.72
359.35	212.80
359.73	212.91
360.11	212.95
360.49	213.04
360.87	213.04
361.25	213.16
361.63	213.33
362.01	213.38
362.39	213.38
362.77	213.45
363.15	213.44
363.53	213.43
363.91	213.43
364.29	213.46
364.67	213.23
365.05	213.24
365.43	213.25
365.81	213.34
366.19	213.52
366.57	213.62
366.95	213.62
367.33	213.61
367.71	213.53
368.09	213.55
368.47	213.55
368.85	213.60
369.23	213.59
369.61	213.35
369.99	213.46
370.37	213.45
370.75	213.60
371.13	213.50
371.51	213.47
371.89	213.45
372.27	213.40
372.65	213.35
373.03	213.31
373.41	213.30
373.78	213.30
374.16	213.03
374.54	212.88
374.92	212.78
375.30	212.62
375.68	212.55
376.06	212.55
376.44	212.45
376.82	212.40
377.19	212.34
377.57	212.31
377.95	212.20
378.33	212.16
378.71	211.90
379.09	211.90
379.47	211.93
379.84	211.88
380.22	211.85
380.60	211.74
380.98	211.65
381.36	211.51
381.73	211.39
382.11	211.39
382.49	211.40
382.87	211.28
383.25	211.29
383.62	211.63
384.00	211.49
384.38	211.49
384.76	211.51
385.13	211.54
385.51	211.51
385.89	211.40
386.27	211.38
386.64	211.40
387.02	211.30
387.40	211.21
387.78	211.21
388.15	211.15
388.53	211.16
388.91	211.16
389.29	211.19
389.66	211.16
390.04	211.10
390.42	211.08
390.79	211.15
391.17	211.18
391.55	210.79
391.92	210.79
392.30	210.85
392.68	210.85
393.05	210.83
393.43	210.88
393.81	210.91
394.18	210.74
394.56	210.73
394.94	210.86
395.31	210.81
395.69	210.95
396.06	211.09
396.44	211.07
396.82	211.02
397.19	211.19
397.57	211.25
397.95	211.37
398.32	211.40
398.70	211.46
399.07	211.58
399.45	211.60
399.82	211.67
400.20	211.70
400.58	211.65
400.95	211.55
401.33	211.60
401.70	211.88
402.08	212.10
402.45	212.17
402.83	212.33
403.20	212.51
403.58	212.52
403.95	212.58
404.33	212.76
404.71	212.90
405.08	213.25
405.46	213.42
405.83	213.61
406.21	213.81
406.58	214.04
406.96	214.22
407.33	214.45
407.70	214.76
408.08	215.31
408.45	215.73
408.83	216.18
409.20	216.63
409.58	216.85
409.95	217.34
410.33	217.90
410.70	218.27
411.08	218.83
411.45	219.44
411.82	220.02
412.20	220.81
412.57	221.77
412.95	222.28
413.32	223.21
413.69	224.00
414.07	224.96
414.44	226.02
414.82	227.07
415.19	228.40
415.56	229.67
415.94	230.87
416.31	232.37
416.68	233.95
417.06	235.64
417.43	237.40
417.81	239.23
418.18	241.21
418.55	243.34
418.93	245.57
419.30	247.87
419.67	250.44
420.04	252.98
420.42	255.61
420.79	258.86
421.16	261.97
421.54	265.39
421.91	268.75
422.28	272.18
422.66	275.93
423.03	279.70
423.40	283.53
423.77	287.66
424.15	291.82
424.52	296.04
424.89	300.71
425.26	305.21
425.64	309.66
426.01	314.48
426.38	319.43
426.75	324.63
427.13	330.09
427.50	335.69
427.87	341.46
428.24	347.30
428.61	352.90
428.99	359.09
429.36	365.70
429.73	372.30
430.10	378.90
430.47	385.57
430.85	392.55
431.22	399.99
431.59	408.08
431.96	415.67
432.33	424.16
432.70	432.31
433.08	442.04
433.45	451.03
433.82	460.14
434.19	470.29
434.56	480.30
434.93	489.82
435.30	499.45
435.68	510.12
436.05	520.82
436.42	531.42
436.79	541.01
437.16	551.42
437.53	562.43
437.90	573.53
438.27	584.50
438.64	596.00
439.01	606.52
439.38	615.94
439.75	625.15
440.13	635.66
440.50	645.77
440.87	653.88
441.24	662.54
441.61	672.01
441.98	679.27
442.35	687.46
442.72	695.75
443.09	703.69
443.46	709.03
443.83	712.76
444.20	715.98
444.57	720.62
444.94	723.32
445.31	726.14
445.68	728.90
446.05	730.44
446.42	729.89
446.79	729.47
447.16	728.88
447.53	728.94
447.90	725.64
448.27	722.27
448.64	717.42
449.01	714.20
449.37	707.58
449.74	701.28
450.11	693.77
450.48	685.49
450.85	677.02
451.22	669.69
451.59	662.65
451.96	655.96
452.33	646.79
452.70	638.67
453.07	628.49
453.43	618.07
453.80	608.25
454.17	598.88
454.54	590.12
454.91	580.33
455.28	570.72
455.65	562.09
456.02	553.50
456.38	546.10
456.75	536.69
457.12	528.93
457.49	521.28
457.86	513.72
458.23	507.20
458.59	500.03
458.96	492.70
459.33	486.30
459.70	479.84
460.07	474.76
460.43	468.68
460.80	463.23
461.17	458.42
461.54	453.42
461.91	448.65
462.27	443.69
462.64	439.60
463.01	435.00
463.38	430.56
463.74	425.89
464.11	422.00
464.48	418.60
464.85	414.92
465.21	412.05
465.58	408.97
465.95	405.19
466.32	402.10
466.68	399.07
467.05	396.02
467.42	393.09
467.78	389.87
468.15	386.84
468.52	384.68
468.88	381.73
469.25	379.11
469.62	377.00
469.98	374.57
470.35	372.39
470.72	370.27
471.08	368.03
471.45	366.19
471.82	364.30
472.18	362.26
472.55	360.73
472.92	358.89
473.28	357.15
473.65	355.59
474.02	354.05
474.38	352.77
474.75	351.72
475.11	350.55
475.48	349.63
475.85	348.78
476.21	347.82
476.58	347.12
476.94	346.60
477.31	345.85
477.67	345.27
478.04	344.75
478.41	344.44
478.77	344.34
479.14	343.91
479.50	343.67
479.87	343.53
480.23	343.43
480.60	343.25
480.96	343.24
481.33	343.54
481.69	343.76
482.06	343.95
482.42	343.96
482.79	344.08
483.15	344.43
483.52	345.01
483.88	345.37
484.25	345.82
484.61	346.35
484.98	346.93
485.34	347.68
485.71	348.52
486.07	349.35
486.44	350.00
486.80	350.99
487.17	351.97
487.53	353.26
487.90	354.57
488.26	356.01
488.62	357.46
488.99	358.83
489.35	360.42
489.72	361.91
490.08	363.68
490.44	365.37
490.81	367.21
491.17	369.07
491.54	371.06
491.90	373.13
492.26	375.25
492.63	377.54
492.99	379.71
493.36	382.03
493.72	384.46
494.08	386.89
494.45	389.50
494.81	392.23
495.17	394.81
495.54	397.55
495.90	400.32
496.26	403.22
496.63	406.20
496.99	409.00
497.35	412.10
497.72	415.27
498.08	418.42
498.44	421.63
498.80	425.00
499.17	428.44
499.53	431.67
499.89	435.00
500.26	438.16
500.62	441.54
500.98	444.92
501.34	448.20
501.71	451.73
502.07	455.10
502.43	458.45
502.79	461.73
503.16	465.02
503.52	468.31
503.88	471.43
504.24	474.68
504.60	477.98
504.97	481.33
505.33	484.33
505.69	487.68
506.05	490.90
506.41	493.71
506.78	496.52
507.14	499.55
507.50	502.41
507.86	505.40
508.22	508.19
508.59	510.79
508.95	513.64
509.31	516.24
509.67	518.78
510.03	521.28
510.39	523.90
510.75	526.27
511.12	528.75
511.48	531.08
511.84	533.23
512.20	535.42
512.56	537.47
512.92	539.61
513.28	541.67
513.64	543.36
514.00	545.27
514.37	547.15
514.73	548.77
515.09	550.48
515.45	552.01
515.81	553.61
516.17	555.21
516.53	556.41
516.89	557.70
517.25	559.09
517.61	560.29
517.97	561.29
518.33	562.24
518.69	563.06
519.05	564.01
519.41	565.04
519.77	566.17
520.13	566.78
520.49	567.51
520.85	568.18
521.21	569.11
521.57	569.76
521.93	570.20
522.29	571.04
522.65	571.75
523.01	572.38
523.37	572.73
523.73	573.22
524.09	573.88
524.45	574.44
524.81	575.04
525.17	575.79
525.53	576.44
525.89	577.23
526.25	577.96
526.61	578.48
526.97	578.97
527.33	579.57
527.68	580.69
528.04	581.53
528.40	582.10
528.76	582.80
529.12	583.71
529.48	584.79
529.84	585.50
530.20	586.50
530.56	587.58
530.91	588.99
531.27	590.10
531.63	591.25
531.99	592.34
532.35	593.49
532.71	594.49
533.07	595.92
533.42	597.66
533.78	599.11
534.14	600.68
534.50	602.06
534.86	603.60
535.21	604.94
535.57	606.64
535.93	608.27
536.29	609.90
536.65	611.66
537.00	613.30
537.36	615.00
537.72	616.63
538.08	618.41
538.44	620.04
538.79	622.06
539.15	623.90
539.51	625.96
539.87	628.18
540.22	630.37
540.58	632.69
540.94	634.51
541.29	636.52
541.65	638.55
542.01	640.95
542.37	643.09
542.72	645.17
543.08	647.26
543.44	649.69
543.79	651.79
544.15	654.12
544.51	656.70
544.87	659.32
545.22	661.74
545.58	664.09
545.94	666.46
546.29	668.68
546.65	671.00
547.01	673.18
547.36	675.26
547.72	677.58
548.07	679.77
548.43	681.97
548.79	684.30
549.14	686.69
549.50	688.93
549.86	691.17
550.21	693.81
550.57	696.39
550.92	698.55
551.28	701.25
551.64	703.61
551.99	706.04
552.35	708.31
552.70	710.67
553.06	713.26
553.41	715.72
553.77	718.27
554.13	720.85
554.48	723.59
554.84	726.25
555.19	728.65
555.55	731.34
555.90	733.67
556.26	736.01
556.61	738.27
556.97	740.39
557.32	742.71
557.68	744.77
558.03	746.76
558.39	748.93
558.74	751.08
559.10	753.18
559.45	755.13
559.81	757.33
560.16	759.32
560.52	761.28
560.87	763.16
561.23	764.90
561.58	766.98
561.94	768.72
562.29	770.25
562.64	772.32
563.00	773.82
563.35	775.92
563.71	778.09
564.06	780.16
564.42	782.36
564.77	784.38
565.12	786.32
565.48	788.45
565.83	790.59
566.19	792.37
566.54	794.02
566.89	795.72
567.25	797.69
567.60	799.66
567.96	801.62
568.31	803.69
568.66	805.52
569.02	806.69
569.37	807.84
569.72	809.36
570.08	810.58
570.43	811.70
570.78	812.72
571.14	813.52
571.49	814.31
571.84	815.18
572.20	815.87
572.55	816.59
572.90	816.90
573.26	817.37
573.61	817.82
573.96	818.33
574.31	818.57
574.67	818.46
575.02	818.12
575.37	817.65
575.72	817.14
576.08	816.92
576.43	816.74
576.78	816.72
577.13	816.65
577.49	816.31
577.84	816.16
578.19	815.99
578.54	815.92
578.90	815.91
579.25	815.47
579.60	814.81
579.95	814.24
580.30	813.92
580.66	813.36
581.01	812.55
581.36	811.88
581.71	811.07
582.06	810.64
582.42	810.22
582.77	809.50
583.12	808.80
583.47	808.10
583.82	807.46
584.17	806.57
584.53	805.80
584.88	804.84
585.23	804.03
585.58	802.93
585.93	801.92
586.28	800.83
586.63	799.89
586.98	799.19
587.34	798.42
587.69	797.16
588.04	795.98
588.39	795.05
588.74	793.80
589.09	793.02
589.44	791.59
589.79	790.33
590.14	789.25
590.49	788.19
590.84	786.95
591.19	785.99
591.54	784.95
591.89	783.23
592.25	782.20
592.60	780.46
592.95	778.80
593.30	777.02
593.65	775.17
594.00	773.47
594.35	773.02
594.70	771.23
595.05	769.83
595.40	768.33
595.75	766.53
596.10	765.02
596.45	763.36
596.80	762.08
597.15	760.55
597.50	758.67
597.85	757.09
598.19	755.38
598.54	753.59
598.89	751.80
599.24	750.55
599.59	748.71
599.94	747.24
600.29	745.75
600.64	744.03
600.99	742.53
601.34	740.98
601.69	737.77
602.04	735.83
602.39	733.80
602.74	731.94
603.08	730.27
603.43	728.75
603.78	726.91
604.13	724.80
604.48	722.95
604.83	721.47
605.18	719.65
605.53	717.78
605.87	715.71
606.22	713.95
606.57	711.80
606.92	709.80
607.27	707.68
607.62	705.83
607.96	704.07
608.31	702.23
608.66	700.15
609.01	698.37
609.36	696.40
609.70	694.25
610.05	692.09
610.40	690.19
610.75	687.72
611.10	685.62
611.44	683.30
611.79	681.03
612.14	678.66
612.49	676.09
612.83	673.81
613.18	671.45
613.53	669.06
613.88	666.64
614.22	664.35
614.57	662.05
614.92	659.50
615.27	657.08
615.61	654.80
615.96	652.57
616.31	650.22
616.65	648.27
617.00	646.16
617.35	643.77
617.70	641.18
618.04	638.85
618.39	636.29
618.74	633.91
619.08	631.38
619.43	629.07
619.78	626.80
620.12	624.43
620.47	622.17
620.82	619.66
621.16	617.16
621.51	614.73
621.85	612.32
622.20	610.00
622.55	607.56
622.89	604.91
623.24	602.42
623.59	599.90
623.93	597.23
624.28	594.93
624.62	592.98
624.97	590.76
625.32	588.46
625.66	586.26
626.01	583.90
626.35	581.69
626.70	579.27
627.04	577.13
627.39	574.88
627.73	572.66
628.08	570.72
628.43	568.52
628.77	566.21
629.12	563.88
629.46	561.79
629.81	559.47
630.15	557.16
630.50	554.85
630.84	552.53
631.19	550.43
631.53	548.13
631.88	545.42
632.22	543.01
632.57	540.95
632.91	538.72
633.26	536.64
633.60	534.59
633.95	532.54
634.29	530.27
634.64	528.22
634.98	525.85
635.32	523.70
635.67	521.84
636.01	519.80
636.36	517.83
636.70	515.80
637.05	513.91
637.39	512.06
637.73	510.18
638.08	508.58
638.42	506.65
638.77	504.71
639.11	502.89
639.45	501.06
639.80	498.84
640.14	496.81
640.49	494.91
640.83	492.79
641.17	490.92
641.52	488.95
641.86	486.85
642.20	485.09
642.55	482.93
642.89	480.81
643.23	478.83
643.58	477.07
643.92	474.97
644.26	473.00
644.61	471.04
644.95	469.06
645.29	466.81
645.64	464.70
645.98	462.81
646.32	460.94
646.66	458.82
647.01	457.00
647.35	455.10
647.69	453.10
648.04	451.34
648.38	449.24
648.72	447.29
649.06	445.37
649.41	443.42
649.75	441.49
650.09	439.70
650.43	437.82
650.78	435.74
651.12	433.75
651.46	431.86
651.80	429.92
652.14	428.20
652.49	426.63
652.83	424.89
653.17	422.91
653.51	421.00
653.85	419.46
654.20	417.68
654.54	415.73
654.88	413.77
655.22	411.96
655.56	410.15
655.90	408.42
656.25	406.62
656.59	404.81
656.93	403.09
657.27	401.56
657.61	399.71
657.95	398.16
658.29	396.57
658.64	395.10
658.98	393.51
659.32	391.62
659.66	389.93
660.00	388.12
660.34	386.47
660.68	384.83
661.02	382.96
661.36	381.30
661.70	379.89
662.05	378.54
662.39	377.12
662.73	375.74
663.07	374.44
663.41	373.14
663.75	371.69
664.09	370.20
664.43	368.54
664.77	367.13
665.11	365.58
665.45	364.13
665.79	362.59
666.13	361.13
666.47	359.72
666.81	358.26
667.15	356.98
667.49	355.77
667.83	354.52
668.17	353.38
668.51	352.23
668.85	351.01
669.19	349.84
669.53	348.42
669.87	347.22
670.21	345.75
670.55	344.47
670.89	343.61
671.23	342.55
671.57	341.41
671.91	340.34
672.25	339.10
672.58	338.05
672.92	336.81
673.26	335.71
673.60	334.75
673.94	333.58
674.28	332.51
674.62	331.44
674.96	330.34
675.30	329.25
675.64	328.14
675.97	326.94
676.31	325.77
676.65	324.73
676.99	323.70
677.33	322.77
677.67	321.74
678.01	320.39
678.34	319.37
678.68	318.33
679.02	317.20
679.36	316.34
679.70	315.30
680.04	314.35
680.37	313.37
680.71	312.29
681.05	311.45
681.39	310.51
681.73	309.51
682.06	308.64
682.40	307.76
682.74	306.76
683.08	306.06
683.42	305.12
683.75	304.24
684.09	303.22
684.43	302.26
684.77	301.29
685.10	300.42
685.44	299.42
685.78	298.56
686.12	297.79
686.45	296.90
686.79	296.05
687.13	295.37
687.46	294.63
687.80	293.95
688.14	293.07
688.48	292.29
688.81	291.48
689.15	290.71
689.49	289.80
689.82	289.08
690.16	288.15
690.50	287.45
690.83	286.62
691.17	285.79
691.51	285.00
691.84	284.20
692.18	283.48
692.52	282.80
692.85	282.09
693.19	281.46
693.52	280.68
693.86	279.89
694.20	279.16
694.53	278.43
694.87	277.62
695.21	276.87
695.54	276.17
695.88	275.46
696.21	274.71
696.55	274.15
696.88	273.46
697.22	272.86
697.56	272.18
697.89	271.46
698.23	270.95
698.56	270.27
698.90	269.68
699.23	268.95
699.57	268.34
699.90	267.64
700.24	266.97
700.58	266.42
700.91	265.94
701.25	265.59
701.58	265.10
701.92	264.58
702.25	264.16
702.59	263.57
702.92	263.06
703.26	262.56
703.59	261.99
703.93	261.73
704.26	261.14
704.60	260.66
704.93	260.23
705.26	259.71
705.60	259.33
705.93	258.87
706.27	258.58
706.60	258.16
706.94	257.86
707.27	257.33
707.61	256.87
707.94	256.30
708.27	255.53
708.61	255.00
708.94	254.58
709.28	254.01
709.61	253.44
709.94	253.03
710.28	252.61
710.61	252.17
710.95	251.46
711.28	251.30
711.61	250.87
711.95	250.59
712.28	250.13
712.61	249.69
712.95	249.45
713.28	249.17
713.61	248.78
713.95	248.31
714.28	247.94
714.61	247.49
714.95	247.18
715.28	246.76
715.61	246.32
715.95	245.91
716.28	245.50
716.61	245.27
716.95	244.83
717.28	244.50
717.61	244.16
717.94	243.80
718.28	243.23
718.61	242.90
718.94	242.48
719.27	242.13
719.61	241.82
719.94	241.45
720.27	240.95
720.60	240.58
720.94	240.27
721.27	240.05
721.60	239.91
721.93	239.60
722.27	239.47
722.60	239.23
722.93	238.92
723.26	238.74
723.59	238.49
723.93	238.26
724.26	237.95
724.59	237.65
724.92	237.52
725.25	237.28
725.59	237.00
725.92	236.75
726.25	236.52
726.58	236.28
726.91	235.95
727.24	235.87
727.57	235.65
727.91	235.38
728.24	235.10
728.57	234.76
728.90	234.57
729.23	234.26
729.56	234.21
729.89	234.03
730.22	233.76
730.55	233.45
730.89	233.20
731.22	232.98
731.55	232.75
731.88	232.43
732.21	232.18
732.54	232.03
732.87	231.82
733.20	231.63
733.53	231.40
733.86	231.26
734.19	230.92
734.52	230.84
734.85	230.86
735.18	230.67
735.51	230.61
735.84	230.40
736.17	230.31
736.50	229.92
736.83	230.10
737.16	229.94
737.49	229.84
737.82	229.67
738.15	229.57
738.48	229.41
738.81	229.28
739.14	229.10
739.47	228.85
739.80	228.66
740.13	228.46
740.46	228.26
740.79	228.06
741.12	227.88
741.45	227.58
741.78	227.32
742.11	227.29
742.44	227.00
742.77	226.84
743.10	226.59
743.43	226.41
743.75	225.78
744.08	226.09
744.41	225.88
744.74	225.71
745.07	225.40
745.40	225.28
745.73	225.30
746.06	225.16
746.39	225.09
746.71	224.88
747.04	224.71
747.37	224.63
747.70	224.52
748.03	224.42
748.36	224.34
748.68	224.10
749.01	223.78
749.34	223.66
749.67	223.57
750.00	223.46
750.33	223.59
750.65	223.54
750.98	222.97
751.31	222.85
751.64	222.80
751.97	222.97
752.29	222.84
752.62	222.54
752.95	222.39
753.28	222.18
753.60	222.15
753.93	222.17
754.26	222.07
754.59	221.81
754.91	221.59
755.24	221.47
755.57	221.39
755.90	221.29
756.22	221.15
756.55	220.99
756.88	220.79
757.20	220.49
757.53	220.32
757.86	220.14
758.19	220.07
758.51	219.91
758.84	219.61
759.17	219.52
759.49	219.48
759.82	219.56
760.15	219.55
760.47	219.40
760.80	219.22
761.13	219.16
761.45	219.10
761.78	219.03
762.11	218.93
762.43	218.72
762.76	218.61
763.08	218.63
763.41	218.60
763.74	218.61
764.06	218.52
764.39	218.41
764.71	218.37
765.04	218.34
765.37	218.25
765.69	218.13
766.02	218.05
766.34	217.87
766.67	217.70
767.00	217.67
767.32	217.76
767.65	217.91
767.97	217.77
768.30	217.72
768.62	217.70
768.95	217.60
769.27	217.65
769.60	217.65
769.92	217.55
770.25	217.42
770.57	217.26
770.90	217.22
771.22	217.22
771.55	217.20
771.87	217.07
772.20	217.02
772.52	217.30
772.85	217.61
773.17	217.68
773.50	217.60
773.82	217.44
774.15	217.26
774.47	216.98
774.80	216.94
775.12	216.90
775.45	216.77
775.77	216.75
776.09	216.70
776.42	216.66
776.74	216.65
777.07	216.55
777.39	216.55
777.72	216.50
778.04	216.50
778.36	216.38
778.69	216.35
779.01	216.37
779.33	216.03
779.66	215.57
779.98	215.44
780.31	215.43
780.63	215.47
780.95	215.52
781.28	215.46
781.60	215.41
781.92	215.36
782.25	215.40
782.57	215.36
782.89	215.25
783.22	215.15
783.54	215.01
783.86	215.06
784.19	214.96
784.51	214.89
784.83	214.78
785.16	214.77
785.48	214.80
785.80	214.73
786.12	214.73
786.45	214.72
786.77	214.70
787.09	214.56
787.42	214.43
787.74	214.38
788.06	214.34
788.38	214.24
788.71	214.22
789.03	214.15
789.35	214.12
789.67	214.06
789.99	214.04
790.32	213.96
790.64	213.88
790.96	214.14
791.28	214.04
791.61	213.98
791.93	213.96
792.25	213.82
792.57	214.02
792.89	213.93
793.21	213.91
793.54	213.81
793.86	213.80
794.18	213.84
