SpectraSuite Data File
++++++++++++++++++++++++++++++++++++
Date: Mon Feb 25 17:07:46 EST 2013
User: group
Dark Spectrum Present: No
Reference Spectrum Present: No
Number of Sampled Component Spectra: 1
Spectrometers: USB2E7196
Integration Time (usec): 104000 (USB2E7196)
Spectra Averaged: 20 (USB2E7196)
Boxcar Smoothing: 10 (USB2E7196)
Correct for Electrical Dark: No (USB2E7196)
Strobe/Lamp Enabled: No (USB2E7196)
Correct for Detector Non-linearity: No (USB2E7196)
Correct for Stray Light: No (USB2E7196)
Number of Pixels in Processed Spectrum: 2048
>>>>>Begin Processed Spectral Data<<<<<
339.09	0.00
339.48	198.50
339.86	200.65
340.24	200.40
340.63	202.75
341.01	209.65
341.39	206.85
341.78	207.45
342.16	209.50
342.54	209.00
342.93	198.70
343.31	208.76
343.69	209.34
344.07	209.85
344.46	210.33
344.84	210.77
345.22	210.83
345.60	210.96
345.99	211.08
346.37	211.15
346.75	211.22
347.13	211.22
347.52	211.25
347.90	211.38
348.28	211.34
348.66	211.41
349.05	211.18
349.43	211.27
349.81	211.29
350.19	211.29
350.57	211.32
350.96	211.39
351.34	211.40
351.72	211.41
352.10	211.39
352.48	211.37
352.87	211.37
353.25	211.34
353.63	211.43
354.01	211.45
354.39	211.50
354.77	211.57
355.15	211.72
355.54	211.72
355.92	211.63
356.30	211.61
356.68	211.86
357.06	211.96
357.44	211.94
357.82	211.98
358.20	212.05
358.58	212.02
358.97	212.03
359.35	212.17
359.73	212.33
360.11	212.42
360.49	212.46
360.87	212.41
361.25	212.50
361.63	212.67
362.01	212.77
362.39	212.81
362.77	212.83
363.15	212.80
363.53	212.84
363.91	212.86
364.29	212.97
364.67	212.65
365.05	212.65
365.43	212.61
365.81	212.67
366.19	212.76
366.57	212.93
366.95	213.00
367.33	212.86
367.71	212.79
368.09	212.81
368.47	212.84
368.85	212.89
369.23	213.01
369.61	212.86
369.99	212.97
370.37	212.95
370.75	213.11
371.13	213.03
371.51	212.94
371.89	212.94
372.27	212.81
372.65	212.76
373.03	212.79
373.41	212.76
373.78	212.67
374.16	212.52
374.54	212.38
374.92	212.23
375.30	212.18
375.68	212.10
376.06	212.06
376.44	211.93
376.82	211.89
377.19	211.77
377.57	211.71
377.95	211.54
378.33	211.53
378.71	211.24
379.09	211.32
379.47	211.31
379.84	211.27
380.22	211.27
380.60	211.20
380.98	211.10
381.36	211.12
381.73	211.02
382.11	211.01
382.49	210.99
382.87	211.01
383.25	211.00
383.62	211.40
384.00	211.26
384.38	211.28
384.76	211.31
385.13	211.37
385.51	211.29
385.89	211.20
386.27	211.10
386.64	211.14
387.02	211.01
387.40	211.01
387.78	211.00
388.15	211.05
388.53	210.99
388.91	210.97
389.29	210.90
389.66	210.96
390.04	210.93
390.42	210.89
390.79	210.81
391.17	210.75
391.55	210.31
391.92	210.38
392.30	210.40
392.68	210.30
393.05	210.28
393.43	210.33
393.81	210.33
394.18	210.31
394.56	210.31
394.94	210.36
395.31	210.29
395.69	210.42
396.06	210.43
396.44	210.44
396.82	210.40
397.19	210.59
397.57	210.49
397.95	210.52
398.32	210.46
398.70	210.48
399.07	210.61
399.45	210.55
399.82	210.50
400.20	210.46
400.58	210.52
400.95	210.39
401.33	210.41
401.70	210.71
402.08	210.80
402.45	210.85
402.83	210.93
403.20	211.07
403.58	210.97
403.95	210.96
404.33	211.11
404.71	211.20
405.08	211.39
405.46	211.55
405.83	211.65
406.21	211.70
406.58	211.81
406.96	211.86
407.33	212.12
407.70	212.27
408.08	212.73
408.45	212.87
408.83	213.12
409.20	213.32
409.58	213.24
409.95	213.45
410.33	213.65
410.70	213.78
411.08	214.01
411.45	214.31
411.82	214.58
412.20	214.96
412.57	215.42
412.95	215.59
413.32	216.01
413.69	216.30
414.07	216.80
414.44	217.25
414.82	217.73
415.19	218.24
415.56	218.78
415.94	219.14
416.31	219.85
416.68	220.57
417.06	221.36
417.43	222.17
417.81	223.04
418.18	223.97
418.55	224.90
418.93	225.92
419.30	226.91
419.67	228.00
420.04	229.01
420.42	230.15
420.79	231.68
421.16	232.97
421.54	234.55
421.91	235.99
422.28	237.51
422.66	239.10
423.03	240.83
423.40	242.47
423.77	244.19
424.15	245.85
424.52	247.58
424.89	249.59
425.26	251.48
425.64	253.24
426.01	255.22
426.38	257.41
426.75	259.50
427.13	261.81
427.50	264.17
427.87	266.58
428.24	268.95
428.61	270.98
428.99	273.59
429.36	276.25
429.73	278.94
430.10	281.70
430.47	284.54
430.85	287.29
431.22	290.36
431.59	293.85
431.96	297.00
432.33	300.49
432.70	303.81
433.08	307.71
433.45	311.42
433.82	315.08
434.19	319.04
434.56	323.06
434.93	326.80
435.30	330.60
435.68	334.86
436.05	339.07
436.42	343.30
436.79	347.30
437.16	351.41
437.53	355.76
437.90	360.05
438.27	364.39
438.64	368.83
439.01	373.10
439.38	376.41
439.75	380.07
440.13	384.18
440.50	388.06
440.87	391.24
441.24	394.50
441.61	398.18
441.98	400.97
442.35	404.11
442.72	407.33
443.09	410.51
443.46	412.48
443.83	413.88
444.20	415.14
444.57	416.66
444.94	417.56
445.31	418.59
445.68	419.88
446.05	420.23
446.42	419.96
446.79	419.57
447.16	419.37
447.53	419.11
447.90	417.61
448.27	416.18
448.64	414.18
449.01	412.85
449.37	410.07
449.74	407.43
450.11	404.60
450.48	401.06
450.85	397.39
451.22	394.36
451.59	391.51
451.96	388.60
452.33	384.86
452.70	381.45
453.07	377.25
453.43	372.63
453.80	368.71
454.17	364.81
454.54	361.14
454.91	357.27
455.28	353.42
455.65	349.90
456.02	346.69
456.38	343.62
456.75	339.81
457.12	336.57
457.49	333.53
457.86	330.17
458.23	327.64
458.59	324.82
458.96	321.88
459.33	319.25
459.70	316.76
460.07	314.64
460.43	312.37
460.80	310.22
461.17	308.39
461.54	306.32
461.91	304.39
462.27	302.43
462.64	300.61
463.01	298.74
463.38	297.03
463.74	294.80
464.11	293.20
464.48	291.85
464.85	290.41
465.21	289.33
465.58	288.22
465.95	286.70
466.32	285.46
466.68	284.31
467.05	283.10
467.42	281.80
467.78	280.57
468.15	279.38
468.52	278.56
468.88	277.28
469.25	276.21
469.62	275.41
469.98	274.45
470.35	273.60
470.72	272.81
471.08	271.77
471.45	271.08
471.82	270.43
472.18	269.54
472.55	269.01
472.92	268.16
473.28	267.37
473.65	266.76
474.02	266.15
474.38	265.54
474.75	265.18
475.11	264.79
475.48	264.33
475.85	263.93
476.21	263.52
476.58	263.28
476.94	263.02
477.31	262.79
477.67	262.53
478.04	262.35
478.41	262.24
478.77	262.50
479.14	262.20
479.50	262.01
479.87	261.94
480.23	261.79
480.60	261.75
480.96	261.70
481.33	261.84
481.69	261.83
482.06	261.84
482.42	261.76
482.79	261.82
483.15	262.00
483.52	262.21
483.88	262.25
484.25	262.38
484.61	262.56
484.98	262.70
485.34	263.10
485.71	263.43
486.07	263.74
486.44	263.77
486.80	264.27
487.17	264.58
487.53	265.18
487.90	265.80
488.26	266.45
488.62	267.16
488.99	267.65
489.35	268.42
489.72	269.14
490.08	269.85
490.44	270.54
490.81	271.31
491.17	271.99
491.54	272.96
491.90	273.88
492.26	274.83
492.63	275.77
492.99	276.61
493.36	277.68
493.72	278.76
494.08	279.85
494.45	281.04
494.81	282.39
495.17	283.54
495.54	284.82
495.90	286.03
496.26	287.34
496.63	288.76
496.99	290.09
497.35	291.68
497.72	293.18
498.08	294.65
498.44	296.26
498.80	298.05
499.17	299.69
499.53	301.37
499.89	303.11
500.26	304.85
500.62	306.66
500.98	308.52
501.34	310.43
501.71	312.43
502.07	314.36
502.43	316.38
502.79	318.31
503.16	320.26
503.52	322.29
503.88	324.27
504.24	326.44
504.60	328.64
504.97	330.81
505.33	333.02
505.69	335.65
506.05	337.91
506.41	340.14
506.78	342.40
507.14	344.75
507.50	347.17
507.86	349.66
508.22	352.15
508.59	354.54
508.95	356.96
509.31	359.51
509.67	362.14
510.03	364.57
510.39	367.29
510.75	369.94
511.12	372.54
511.48	375.24
511.84	377.87
512.20	380.59
512.56	383.28
512.92	386.07
513.28	388.63
513.64	391.38
514.00	394.14
514.37	397.04
514.73	399.92
515.09	402.87
515.45	405.64
515.81	408.57
516.17	411.49
516.53	414.39
516.89	417.20
517.25	420.07
517.61	423.25
517.97	426.14
518.33	429.16
518.69	432.47
519.05	435.69
519.41	438.99
519.77	442.46
520.13	445.63
520.49	448.79
520.85	452.07
521.21	455.48
521.57	458.89
521.93	461.97
522.29	465.50
522.65	468.91
523.01	472.44
523.37	475.80
523.73	479.39
524.09	483.00
524.45	486.65
524.81	490.21
525.17	493.86
525.53	497.74
525.89	501.51
526.25	505.15
526.61	508.57
526.97	512.08
527.33	515.56
527.68	519.66
528.04	523.47
528.40	527.19
528.76	530.94
529.12	535.00
529.48	539.25
529.84	543.09
530.20	547.03
530.56	551.15
530.91	555.29
531.27	559.36
531.63	563.36
531.99	567.30
532.35	571.32
532.71	575.09
533.07	579.10
533.42	583.35
533.78	587.37
534.14	591.62
534.50	595.49
534.86	599.52
535.21	603.16
535.57	607.30
535.93	611.08
536.29	615.19
536.65	619.10
537.00	622.76
537.36	626.38
537.72	630.06
538.08	633.92
538.44	637.76
538.79	641.54
539.15	645.18
539.51	649.01
539.87	652.90
540.22	656.78
540.58	660.62
540.94	664.02
541.29	667.57
541.65	671.04
542.01	674.82
542.37	678.38
542.72	681.87
543.08	685.21
543.44	689.08
543.79	692.39
544.15	695.70
544.51	699.25
544.87	702.89
545.22	706.40
545.58	709.55
545.94	712.61
546.29	715.66
546.65	718.89
547.01	721.78
547.36	724.58
547.72	727.50
548.07	730.02
548.43	732.72
548.79	735.27
549.14	737.98
549.50	740.81
549.86	743.13
550.21	745.60
550.57	748.21
550.92	750.37
551.28	752.73
551.64	755.01
551.99	757.48
552.35	759.45
552.70	761.23
553.06	763.52
553.41	765.64
553.77	767.70
554.13	769.62
554.48	771.75
554.84	773.83
555.19	775.68
555.55	777.63
555.90	779.41
556.26	781.39
556.61	782.81
556.97	784.01
557.32	785.60
557.68	787.18
558.03	788.55
558.39	789.95
558.74	791.57
559.10	792.99
559.45	794.05
559.81	795.61
560.16	796.87
560.52	797.82
560.87	798.96
561.23	799.91
561.58	801.19
561.94	802.18
562.29	802.96
562.64	803.79
563.00	804.75
563.35	805.87
563.71	806.85
564.06	807.97
564.42	809.11
564.77	810.28
565.12	811.14
565.48	812.12
565.83	813.01
566.19	813.65
566.54	814.24
566.89	814.85
567.25	815.54
567.60	816.53
567.96	817.22
568.31	817.86
568.66	818.27
569.02	818.32
569.37	818.41
569.72	818.69
570.08	818.96
570.43	818.90
570.78	818.73
571.14	818.32
571.49	818.19
571.84	818.10
572.20	817.58
572.55	817.52
572.90	816.84
573.26	816.23
573.61	815.38
573.96	814.73
574.31	813.89
574.67	812.91
575.02	811.79
575.37	810.72
575.72	809.45
576.08	808.69
576.43	807.69
576.78	806.80
577.13	805.88
577.49	804.88
577.84	804.03
578.19	803.21
578.54	802.55
578.90	801.74
579.25	800.68
579.60	799.69
579.95	798.22
580.30	797.19
580.66	796.29
581.01	795.33
581.36	794.28
581.71	793.36
582.06	792.54
582.42	791.61
582.77	790.53
583.12	789.57
583.47	788.54
583.82	787.77
584.17	786.66
584.53	785.91
584.88	784.90
585.23	783.73
585.58	782.49
585.93	781.21
586.28	779.97
586.63	778.80
586.98	777.77
587.34	776.94
587.69	775.76
588.04	774.55
588.39	773.42
588.74	772.04
589.09	770.95
589.44	769.36
589.79	768.00
590.14	766.81
590.49	765.56
590.84	764.07
591.19	762.83
591.54	761.53
591.89	759.61
592.25	758.30
592.60	756.67
592.95	755.19
593.30	753.55
593.65	751.90
594.00	750.15
594.35	749.53
594.70	747.81
595.05	746.55
595.40	744.98
595.75	743.23
596.10	741.80
596.45	740.25
596.80	739.06
597.15	737.75
597.50	736.14
597.85	734.82
598.19	733.36
598.54	731.86
598.89	730.32
599.24	729.22
599.59	727.65
599.94	726.53
600.29	725.10
600.64	723.77
600.99	722.22
601.34	720.99
601.69	718.59
602.04	717.10
602.39	715.46
602.74	714.10
603.08	713.04
603.43	712.00
603.78	710.48
604.13	708.89
604.48	707.31
604.83	706.39
605.18	704.92
605.53	703.55
605.87	701.89
606.22	700.71
606.57	699.25
606.92	697.75
607.27	696.07
607.62	694.53
607.96	693.19
608.31	691.96
608.66	690.41
609.01	688.79
609.36	687.02
609.70	685.29
610.05	683.52
610.40	681.73
610.75	679.57
611.10	677.98
611.44	675.90
611.79	673.81
612.14	671.53
612.49	669.25
612.83	667.29
613.18	665.20
613.53	662.98
613.88	660.63
614.22	658.58
614.57	656.41
614.92	654.20
615.27	651.95
615.61	649.65
615.96	647.42
616.31	645.33
616.65	643.61
617.00	641.47
617.35	639.38
617.70	637.07
618.04	634.96
618.39	632.58
618.74	630.60
619.08	628.52
619.43	626.40
619.78	624.52
620.12	622.29
620.47	620.28
620.82	617.96
621.16	615.72
621.51	613.67
621.85	611.59
622.20	609.44
622.55	607.10
622.89	604.97
623.24	602.80
623.59	600.47
623.93	598.08
624.28	595.95
624.62	594.00
624.97	591.97
625.32	589.80
625.66	587.60
626.01	585.41
626.35	583.35
626.70	581.08
627.04	579.07
627.39	576.91
627.73	574.80
628.08	572.95
628.43	570.70
628.77	568.36
629.12	566.17
629.46	564.14
629.81	562.12
630.15	559.95
630.50	557.73
630.84	555.49
631.19	553.37
631.53	551.37
631.88	548.78
632.22	546.46
632.57	544.39
632.91	542.29
633.26	540.42
633.60	538.35
633.95	536.35
634.29	534.11
634.64	532.14
634.98	529.98
635.32	527.94
635.67	526.29
636.01	524.30
636.36	522.33
636.70	520.47
637.05	518.45
637.39	516.47
637.73	514.74
638.08	513.25
638.42	511.40
638.77	509.50
639.11	507.75
639.45	505.94
639.80	503.92
640.14	501.86
640.49	499.80
640.83	497.85
641.17	495.96
641.52	494.12
641.86	492.08
642.20	490.32
642.55	488.14
642.89	485.97
643.23	484.00
643.58	482.31
643.92	480.28
644.26	478.40
644.61	476.55
644.95	474.55
645.29	472.37
645.64	470.35
645.98	468.33
646.32	466.38
646.66	464.38
647.01	462.42
647.35	460.72
647.69	458.64
648.04	456.78
648.38	454.92
648.72	452.89
649.06	451.03
649.41	449.07
649.75	447.24
650.09	445.56
650.43	443.59
650.78	441.36
651.12	439.40
651.46	437.48
651.80	435.65
652.14	433.82
652.49	432.07
652.83	430.20
653.17	428.31
653.51	426.37
653.85	424.67
654.20	422.89
654.54	420.94
654.88	419.13
655.22	417.35
655.56	415.35
655.90	413.56
656.25	411.71
656.59	409.76
656.93	408.00
657.27	406.26
657.61	404.40
657.95	402.82
658.29	401.08
658.64	399.50
658.98	397.71
659.32	395.80
659.66	394.15
660.00	392.46
660.34	390.70
660.68	389.08
661.02	387.26
661.36	385.56
661.70	383.98
662.05	382.45
662.39	380.96
662.73	379.70
663.07	378.34
663.41	376.82
663.75	375.20
664.09	373.57
664.43	371.84
664.77	370.48
665.11	368.86
665.45	367.37
665.79	365.85
666.13	364.40
666.47	362.90
666.81	361.36
667.15	359.84
667.49	358.63
667.83	357.39
668.17	356.02
668.51	354.77
668.85	353.52
669.19	352.34
669.53	350.90
669.87	349.27
670.21	347.77
670.55	346.59
670.89	345.64
671.23	344.47
671.57	343.29
671.91	342.05
672.25	340.83
672.58	339.66
672.92	338.44
673.26	337.29
673.60	336.35
673.94	335.17
674.28	334.12
674.62	332.97
674.96	331.82
675.30	330.83
675.64	329.72
675.97	328.58
676.31	327.48
676.65	326.36
676.99	325.56
677.33	324.51
677.67	323.40
678.01	322.27
678.34	321.32
678.68	320.31
679.02	319.26
679.36	318.43
679.70	317.36
680.04	316.32
680.37	315.27
680.71	314.23
681.05	313.31
681.39	312.42
681.73	311.43
682.06	310.43
682.40	309.43
682.74	308.49
683.08	307.66
683.42	306.56
683.75	305.66
684.09	304.59
684.43	303.70
684.77	302.79
685.10	301.86
685.44	300.89
685.78	299.97
686.12	299.16
686.45	298.09
686.79	297.24
687.13	296.55
687.46	295.68
687.80	294.95
688.14	294.07
688.48	293.25
688.81	292.35
689.15	291.55
689.49	290.70
689.82	289.90
690.16	288.89
690.50	288.02
690.83	287.22
691.17	286.29
691.51	285.45
691.84	284.70
692.18	283.85
692.52	283.11
692.85	282.31
693.19	281.64
693.52	280.99
693.86	280.26
694.20	279.36
694.53	278.69
694.87	277.77
695.21	277.04
695.54	276.38
695.88	275.62
696.21	274.78
696.55	274.07
696.88	273.31
697.22	272.68
697.56	272.21
697.89	271.50
698.23	270.98
698.56	270.33
698.90	269.75
699.23	269.12
699.57	268.48
699.90	267.86
700.24	267.07
700.58	266.45
700.91	265.89
701.25	265.58
701.58	265.03
701.92	264.57
702.25	263.95
702.59	263.20
702.92	262.69
703.26	262.17
703.59	261.66
703.93	261.41
704.26	260.87
704.60	260.33
704.93	259.75
705.26	259.20
705.60	258.72
705.93	258.18
706.27	257.77
706.60	257.42
706.94	257.13
707.27	256.68
707.61	256.21
707.94	255.58
708.27	254.82
708.61	254.23
708.94	253.75
709.28	253.39
709.61	253.00
709.94	252.49
710.28	252.17
710.61	251.72
710.95	251.00
711.28	250.83
711.61	250.38
711.95	250.09
712.28	249.64
712.61	249.19
712.95	248.85
713.28	248.66
713.61	248.15
713.95	247.64
714.28	247.29
714.61	246.87
714.95	246.60
715.28	246.20
715.61	245.84
715.95	245.43
716.28	244.94
716.61	244.58
716.95	244.17
717.28	243.85
717.61	243.55
717.94	243.21
718.28	242.55
718.61	242.21
718.94	241.80
719.27	241.53
719.61	241.28
719.94	240.92
720.27	240.35
720.60	240.02
720.94	239.69
721.27	239.37
721.60	239.11
721.93	238.87
722.27	238.70
722.60	238.45
722.93	238.20
723.26	238.04
723.59	237.73
723.93	237.51
724.26	237.17
724.59	236.89
724.92	236.65
725.25	236.56
725.59	236.28
725.92	236.09
726.25	235.78
726.58	235.46
726.91	235.22
727.24	235.10
727.57	234.85
727.91	234.54
728.24	234.36
728.57	234.11
728.90	233.87
729.23	233.56
729.56	233.45
729.89	233.16
730.22	232.88
730.55	232.64
730.89	232.46
731.22	232.27
731.55	231.99
731.88	231.80
732.21	231.49
732.54	231.18
732.87	230.92
733.20	230.74
733.53	230.61
733.86	230.38
734.19	230.08
734.52	229.98
734.85	230.10
735.18	229.81
735.51	229.70
735.84	229.50
736.17	229.46
736.50	229.12
736.83	229.36
737.16	229.21
737.49	229.13
737.82	228.95
738.15	228.85
738.48	228.77
738.81	228.53
739.14	228.32
739.47	228.19
739.80	227.99
740.13	227.86
740.46	227.60
740.79	227.39
741.12	227.23
741.45	227.00
741.78	226.60
742.11	226.56
742.44	226.32
742.77	226.26
743.10	225.99
743.43	225.86
743.75	225.36
744.08	225.65
744.41	225.40
744.74	225.19
745.07	224.96
745.40	224.78
745.73	224.87
746.06	224.77
746.39	224.73
746.71	224.65
747.04	224.47
747.37	224.46
747.70	224.45
748.03	224.28
748.36	224.19
748.68	224.11
749.01	223.88
749.34	223.81
749.67	223.62
750.00	223.60
750.33	223.73
750.65	223.61
750.98	223.06
751.31	223.00
751.64	222.95
751.97	223.01
752.29	222.90
752.62	222.63
752.95	222.47
753.28	222.32
753.60	222.14
753.93	222.12
754.26	221.96
754.59	221.72
754.91	221.65
755.24	221.59
755.57	221.40
755.90	221.33
756.22	221.20
756.55	221.09
756.88	220.90
757.20	220.55
757.53	220.43
757.86	220.34
758.19	220.23
758.51	220.12
758.84	219.88
759.17	219.75
759.49	219.61
759.82	219.73
760.15	219.64
760.47	219.55
760.80	219.36
761.13	219.28
761.45	219.16
761.78	219.00
762.11	218.85
762.43	218.83
762.76	218.74
763.08	218.70
763.41	218.60
763.74	218.50
764.06	218.43
764.39	218.32
764.71	218.19
765.04	218.09
765.37	217.99
765.69	217.88
766.02	217.79
766.34	217.76
766.67	217.52
767.00	217.54
767.32	217.66
767.65	217.81
767.97	217.75
768.30	217.73
768.62	217.75
768.95	217.58
769.27	217.50
769.60	217.47
769.92	217.30
770.25	217.19
770.57	217.09
770.90	217.03
771.22	216.97
771.55	216.90
771.87	216.86
772.20	216.80
772.52	217.03
772.85	217.39
773.17	217.34
773.50	217.31
773.82	217.20
774.15	216.98
774.47	216.73
774.80	216.58
775.12	216.47
775.45	216.34
775.77	216.35
776.09	216.26
776.42	216.21
776.74	216.30
777.07	216.25
777.39	216.20
777.72	216.11
778.04	216.09
778.36	216.04
778.69	215.99
779.01	215.95
779.33	215.69
779.66	215.31
779.98	215.22
780.31	215.09
780.63	215.16
780.95	215.20
781.28	215.11
781.60	215.11
781.92	215.10
782.25	215.10
782.57	215.09
782.89	215.05
783.22	214.98
783.54	214.85
783.86	214.81
784.19	214.78
784.51	214.87
784.83	214.76
785.16	214.73
785.48	214.69
785.80	214.69
786.12	214.56
786.45	214.48
786.77	214.47
787.09	214.48
787.42	214.31
787.74	214.31
788.06	214.30
788.38	214.22
788.71	214.15
789.03	214.17
789.35	214.17
789.67	214.02
789.99	214.11
790.32	214.03
790.64	214.10
790.96	214.40
791.28	214.21
791.61	214.22
791.93	214.20
792.25	214.14
792.57	214.37
792.89	214.30
793.21	214.25
793.54	214.17
793.86	214.15
794.18	214.18
