SpectraSuite Data File
++++++++++++++++++++++++++++++++++++
Date: Mon Feb 25 17:16:34 EST 2013
User: group
Dark Spectrum Present: No
Reference Spectrum Present: No
Number of Sampled Component Spectra: 1
Spectrometers: USB2E7196
Integration Time (usec): 104000 (USB2E7196)
Spectra Averaged: 20 (USB2E7196)
Boxcar Smoothing: 10 (USB2E7196)
Correct for Electrical Dark: No (USB2E7196)
Strobe/Lamp Enabled: No (USB2E7196)
Correct for Detector Non-linearity: No (USB2E7196)
Correct for Stray Light: No (USB2E7196)
Number of Pixels in Processed Spectrum: 2048
>>>>>Begin Processed Spectral Data<<<<<
339.09	0.00
339.48	199.30
339.86	200.35
340.24	201.80
340.63	203.10
341.01	208.90
341.39	205.80
341.78	207.75
342.16	208.15
342.54	208.35
342.93	198.50
343.31	208.54
343.69	209.08
344.07	209.58
344.46	210.04
344.84	210.44
345.22	210.61
345.60	210.88
345.99	211.06
346.37	211.25
346.75	211.48
347.13	211.56
347.52	211.72
347.90	211.99
348.28	212.09
348.66	212.19
349.05	212.13
349.43	212.23
349.81	212.27
350.19	212.28
350.57	212.37
350.96	212.50
351.34	212.58
351.72	212.70
352.10	212.79
352.48	212.88
352.87	212.99
353.25	213.05
353.63	213.13
354.01	213.21
354.39	213.36
354.77	213.34
355.15	213.49
355.54	213.44
355.92	213.28
356.30	213.37
356.68	213.65
357.06	213.70
357.44	213.67
357.82	213.75
358.20	213.92
358.58	213.96
358.97	213.98
359.35	214.11
359.73	214.23
360.11	214.30
360.49	214.34
360.87	214.33
361.25	214.44
361.63	214.56
362.01	214.59
362.39	214.52
362.77	214.66
363.15	214.64
363.53	214.66
363.91	214.66
364.29	214.66
364.67	214.35
365.05	214.44
365.43	214.48
365.81	214.49
366.19	214.55
366.57	214.67
366.95	214.65
367.33	214.53
367.71	214.53
368.09	214.54
368.47	214.51
368.85	214.46
369.23	214.44
369.61	214.30
369.99	214.38
370.37	214.43
370.75	214.49
371.13	214.37
371.51	214.36
371.89	214.43
372.27	214.33
372.65	214.37
373.03	214.27
373.41	214.22
373.78	214.19
374.16	213.96
374.54	213.74
374.92	213.65
375.30	213.59
375.68	213.37
376.06	213.35
376.44	213.26
376.82	213.27
377.19	213.14
377.57	213.09
377.95	212.88
378.33	212.74
378.71	212.50
379.09	212.57
379.47	212.56
379.84	212.46
380.22	212.40
380.60	212.29
380.98	212.25
381.36	212.25
381.73	212.18
382.11	212.23
382.49	212.26
382.87	212.27
383.25	212.30
383.62	212.69
384.00	212.61
384.38	212.64
384.76	212.63
385.13	212.80
385.51	212.84
385.89	212.82
386.27	212.85
386.64	212.84
387.02	212.76
387.40	212.68
387.78	212.56
388.15	212.55
388.53	212.52
388.91	212.52
389.29	212.44
389.66	212.42
390.04	212.37
390.42	212.42
390.79	212.38
391.17	212.39
391.55	212.03
391.92	212.00
392.30	212.04
392.68	212.01
393.05	211.89
393.43	211.88
393.81	211.97
394.18	211.93
394.56	211.93
394.94	211.96
395.31	211.90
395.69	212.09
396.06	212.12
396.44	212.08
396.82	212.02
397.19	212.18
397.57	212.19
397.95	212.26
398.32	212.15
398.70	212.31
399.07	212.30
399.45	212.38
399.82	212.43
400.20	212.42
400.58	212.40
400.95	212.37
401.33	212.48
401.70	212.72
402.08	212.74
402.45	212.79
402.83	212.98
403.20	213.12
403.58	213.14
403.95	213.28
404.33	213.44
404.71	213.57
405.08	213.83
405.46	213.93
405.83	213.96
406.21	214.14
406.58	214.14
406.96	214.26
407.33	214.35
407.70	214.52
408.08	215.02
408.45	215.33
408.83	215.67
409.20	215.86
409.58	215.97
409.95	216.24
410.33	216.55
410.70	216.74
411.08	217.13
411.45	217.54
411.82	217.86
412.20	218.37
412.57	218.97
412.95	219.15
413.32	219.71
413.69	220.27
414.07	220.82
414.44	221.46
414.82	222.15
415.19	222.92
415.56	223.60
415.94	224.13
416.31	225.00
416.68	225.76
417.06	226.75
417.43	227.73
417.81	228.97
418.18	230.09
418.55	231.37
418.93	232.59
419.30	233.82
419.67	235.19
420.04	236.61
420.42	238.11
420.79	240.09
421.16	241.84
421.54	243.73
421.91	245.60
422.28	247.48
422.66	249.48
423.03	251.67
423.40	253.76
423.77	255.96
424.15	258.13
424.52	260.56
424.89	263.04
425.26	265.40
425.64	267.62
426.01	270.19
426.38	272.85
426.75	275.65
427.13	278.42
427.50	281.34
427.87	284.31
428.24	287.30
428.61	289.95
428.99	293.17
429.36	296.58
429.73	300.02
430.10	303.57
430.47	307.10
430.85	310.50
431.22	314.40
431.59	318.53
431.96	322.36
432.33	326.64
432.70	330.82
433.08	335.67
433.45	340.22
433.82	344.76
434.19	349.74
434.56	354.72
434.93	359.44
435.30	364.07
435.68	369.31
436.05	374.42
436.42	379.60
436.79	384.26
437.16	389.28
437.53	394.50
437.90	399.72
438.27	404.89
438.64	410.23
439.01	415.17
439.38	419.48
439.75	423.82
440.13	428.61
440.50	433.23
440.87	436.99
441.24	440.88
441.61	445.19
441.98	448.25
442.35	451.64
442.72	455.29
443.09	459.05
443.46	461.22
443.83	462.68
444.20	463.85
444.57	465.56
444.94	466.35
445.31	467.27
445.68	468.34
446.05	468.57
446.42	468.07
446.79	467.44
447.16	466.68
447.53	466.17
447.90	464.18
448.27	462.12
448.64	459.21
449.01	457.20
449.37	453.62
449.74	450.19
450.11	446.42
450.48	442.11
450.85	437.46
451.22	433.57
451.59	429.86
451.96	426.30
452.33	421.59
452.70	417.27
453.07	412.14
453.43	406.61
453.80	401.74
454.17	396.87
454.54	392.26
454.91	387.60
455.28	382.79
455.65	378.27
456.02	374.30
456.38	370.62
456.75	366.03
457.12	362.12
457.49	358.38
457.86	354.53
458.23	351.43
458.59	347.96
458.96	344.43
459.33	341.20
459.70	338.16
460.07	335.66
460.43	332.85
460.80	330.32
461.17	328.06
461.54	325.67
461.91	323.44
462.27	321.11
462.64	318.95
463.01	316.74
463.38	314.79
463.74	312.18
464.11	310.28
464.48	308.69
464.85	306.94
465.21	305.66
465.58	304.34
465.95	302.39
466.32	301.05
466.68	299.59
467.05	298.21
467.42	296.88
467.78	295.53
468.15	294.31
468.52	293.31
468.88	291.97
469.25	290.79
469.62	289.94
469.98	288.93
470.35	288.00
470.72	287.21
471.08	286.19
471.45	285.52
471.82	284.93
472.18	284.07
472.55	283.55
472.92	282.82
473.28	282.10
473.65	281.62
474.02	281.14
474.38	280.79
474.75	280.64
475.11	280.28
475.48	280.05
475.85	279.82
476.21	279.55
476.58	279.52
476.94	279.46
477.31	279.36
477.67	279.36
478.04	279.49
478.41	279.59
478.77	280.09
479.14	280.16
479.50	280.32
479.87	280.73
480.23	281.05
480.60	281.32
480.96	281.83
481.33	282.50
481.69	282.99
482.06	283.54
482.42	284.08
482.79	284.70
483.15	285.47
483.52	286.36
483.88	287.23
484.25	288.12
484.61	289.13
484.98	290.27
485.34	291.54
485.71	292.82
486.07	294.25
486.44	295.32
486.80	296.95
487.17	298.54
487.53	300.32
487.90	302.23
488.26	304.36
488.62	306.50
488.99	308.57
489.35	310.81
489.72	313.22
490.08	315.79
490.44	318.39
490.81	321.31
491.17	324.12
491.54	327.24
491.90	330.48
492.26	333.89
492.63	337.48
492.99	341.24
493.36	345.02
493.72	349.14
494.08	353.55
494.45	358.05
494.81	362.95
495.17	367.84
495.54	373.04
495.90	378.29
496.26	383.79
496.63	389.63
496.99	395.81
497.35	402.13
497.72	408.70
498.08	415.56
498.44	422.42
498.80	429.97
499.17	437.74
499.53	445.61
499.89	453.86
500.26	462.21
500.62	470.86
500.98	480.12
501.34	489.57
501.71	499.20
502.07	509.10
502.43	519.25
502.79	529.59
503.16	540.59
503.52	551.86
503.88	563.31
504.24	575.19
504.60	587.23
504.97	599.88
505.33	612.78
505.69	626.44
506.05	640.38
506.41	654.18
506.78	668.32
507.14	683.14
507.50	698.10
507.86	713.26
508.22	728.88
508.59	744.76
508.95	760.86
509.31	777.40
509.67	794.43
510.03	811.50
510.39	829.40
510.75	847.32
511.12	865.50
511.48	884.12
511.84	902.96
512.20	921.83
512.56	941.16
512.92	960.74
513.28	980.53
513.64	1000.19
514.00	1020.31
514.37	1040.88
514.73	1061.52
515.09	1082.40
515.45	1103.52
515.81	1124.80
516.17	1145.94
516.53	1167.45
516.89	1189.16
517.25	1210.73
517.61	1232.54
517.97	1254.26
518.33	1275.55
518.69	1297.74
519.05	1319.72
519.41	1342.02
519.77	1364.97
520.13	1386.86
520.49	1408.66
520.85	1430.55
521.21	1453.01
521.57	1475.69
521.93	1497.51
522.29	1519.96
522.65	1542.59
523.01	1564.85
523.37	1586.50
523.73	1608.67
524.09	1630.57
524.45	1652.47
524.81	1674.43
525.17	1696.91
525.53	1718.92
525.89	1741.44
526.25	1762.61
526.61	1783.35
526.97	1804.21
527.33	1824.72
527.68	1846.12
528.04	1866.75
528.40	1886.65
528.76	1906.77
529.12	1926.87
529.48	1947.75
529.84	1967.45
530.20	1986.74
530.56	2006.28
530.91	2026.65
531.27	2046.58
531.63	2065.93
531.99	2084.88
532.35	2103.30
532.71	2121.11
533.07	2139.62
533.42	2157.01
533.78	2174.96
534.14	2192.86
534.50	2208.89
534.86	2226.06
535.21	2241.92
535.57	2259.21
535.93	2275.41
536.29	2291.23
536.65	2307.07
537.00	2321.18
537.36	2335.37
537.72	2349.41
538.08	2363.60
538.44	2377.18
538.79	2390.69
539.15	2404.13
539.51	2417.69
539.87	2431.47
540.22	2444.37
540.58	2457.24
540.94	2469.91
541.29	2481.26
541.65	2491.96
542.01	2504.02
542.37	2514.44
542.72	2525.50
543.08	2534.76
543.44	2545.53
543.79	2554.29
544.15	2562.73
544.51	2572.55
544.87	2582.34
545.22	2590.76
545.58	2598.34
545.94	2605.13
546.29	2611.12
546.65	2616.83
547.01	2622.06
547.36	2627.38
547.72	2632.72
548.07	2636.65
548.43	2640.53
548.79	2644.37
549.14	2648.22
549.50	2651.73
549.86	2654.46
550.21	2656.74
550.57	2659.76
550.92	2661.22
551.28	2663.34
551.64	2665.38
551.99	2667.39
552.35	2668.08
552.70	2669.34
553.06	2670.84
553.41	2671.90
553.77	2673.20
554.13	2673.93
554.48	2675.03
554.84	2675.60
555.19	2675.21
555.55	2674.66
555.90	2673.64
556.26	2672.57
556.61	2671.63
556.97	2669.87
557.32	2669.08
557.68	2667.16
558.03	2664.99
558.39	2663.04
558.74	2662.07
559.10	2660.20
559.45	2657.48
559.81	2655.64
560.16	2652.55
560.52	2650.11
560.87	2647.35
561.23	2643.37
561.58	2640.84
561.94	2636.73
562.29	2632.05
562.64	2628.30
563.00	2624.82
563.35	2622.17
563.71	2619.97
564.06	2616.84
564.42	2614.00
564.77	2610.75
565.12	2607.77
565.48	2604.35
565.83	2601.27
566.19	2597.67
566.54	2592.99
566.89	2588.24
567.25	2583.76
567.60	2580.10
567.96	2575.19
568.31	2570.84
568.66	2566.13
569.02	2560.39
569.37	2554.66
569.72	2550.03
570.08	2544.85
570.43	2539.08
570.78	2532.45
571.14	2525.68
571.49	2519.20
571.84	2513.57
572.20	2506.66
572.55	2500.38
572.90	2492.98
573.26	2485.35
573.61	2477.61
573.96	2470.49
574.31	2462.92
574.67	2454.47
575.02	2445.81
575.37	2437.50
575.72	2428.67
576.08	2421.07
576.43	2412.86
576.78	2405.25
577.13	2397.48
577.49	2389.20
577.84	2381.43
578.19	2374.20
578.54	2366.90
578.90	2359.89
579.25	2351.36
579.60	2342.44
579.95	2333.43
580.30	2326.33
580.66	2319.23
581.01	2310.81
581.36	2302.23
581.71	2293.70
582.06	2285.65
582.42	2277.35
582.77	2268.50
583.12	2260.21
583.47	2252.55
583.82	2244.96
584.17	2236.99
584.53	2228.91
584.88	2221.05
585.23	2212.72
585.58	2204.12
585.93	2195.43
586.28	2187.34
586.63	2178.93
586.98	2171.40
587.34	2164.26
587.69	2155.84
588.04	2147.33
588.39	2139.62
588.74	2131.56
589.09	2124.01
589.44	2115.80
589.79	2108.67
590.14	2101.83
590.49	2093.99
590.84	2085.46
591.19	2078.32
591.54	2070.37
591.89	2061.23
592.25	2052.72
592.60	2044.25
592.95	2035.73
593.30	2026.57
593.65	2017.43
594.00	2008.80
594.35	2001.90
594.70	1993.40
595.05	1985.48
595.40	1977.24
595.75	1968.47
596.10	1960.86
596.45	1953.23
596.80	1946.11
597.15	1938.63
597.50	1930.25
597.85	1922.81
598.19	1915.20
598.54	1906.93
598.89	1899.55
599.24	1893.37
599.59	1886.44
599.94	1880.32
600.29	1873.36
600.64	1866.67
600.99	1859.20
601.34	1852.68
601.69	1844.19
602.04	1836.56
602.39	1829.07
602.74	1822.02
603.08	1816.06
603.43	1809.52
603.78	1802.58
604.13	1795.40
604.48	1788.00
604.83	1782.38
605.18	1776.43
605.53	1769.24
605.87	1762.17
606.22	1755.60
606.57	1748.19
606.92	1740.93
607.27	1732.97
607.62	1725.65
607.96	1718.99
608.31	1712.67
608.66	1704.94
609.01	1697.35
609.36	1689.92
609.70	1682.02
610.05	1674.13
610.40	1666.08
610.75	1657.92
611.10	1650.27
611.44	1641.66
611.79	1633.31
612.14	1623.93
612.49	1614.55
612.83	1606.53
613.18	1597.98
613.53	1589.19
613.88	1580.10
614.22	1571.86
614.57	1563.38
614.92	1554.89
615.27	1546.24
615.61	1537.47
615.96	1529.62
616.31	1522.11
616.65	1514.71
617.00	1507.21
617.35	1499.37
617.70	1491.02
618.04	1482.22
618.39	1473.06
618.74	1465.20
619.08	1457.01
619.43	1448.92
619.78	1441.29
620.12	1433.34
620.47	1425.45
620.82	1417.08
621.16	1408.73
621.51	1400.60
621.85	1392.96
622.20	1384.98
622.55	1376.73
622.89	1368.63
623.24	1360.38
623.59	1351.84
623.93	1343.31
624.28	1335.32
624.62	1327.58
624.97	1319.76
625.32	1312.60
625.66	1305.66
626.01	1298.16
626.35	1290.90
626.70	1283.47
627.04	1276.29
627.39	1269.09
627.73	1261.85
628.08	1254.88
628.43	1247.69
628.77	1240.06
629.12	1232.49
629.46	1225.93
629.81	1218.98
630.15	1211.90
630.50	1204.64
630.84	1197.30
631.19	1190.47
631.53	1183.24
631.88	1175.62
632.22	1168.34
632.57	1161.33
632.91	1154.21
633.26	1147.30
633.60	1140.29
633.95	1133.80
634.29	1126.71
634.64	1119.92
634.98	1112.64
635.32	1105.97
635.67	1099.97
636.01	1093.65
636.36	1086.82
636.70	1080.03
637.05	1073.50
637.39	1067.22
637.73	1061.30
638.08	1055.91
638.42	1049.89
638.77	1044.00
639.11	1037.62
639.45	1031.55
639.80	1024.95
640.14	1018.34
640.49	1011.80
640.83	1005.37
641.17	998.93
641.52	992.55
641.86	985.83
642.20	979.83
642.55	973.08
642.89	966.27
643.23	959.60
643.58	953.67
643.92	946.94
644.26	940.71
644.61	934.27
644.95	927.89
645.29	921.28
645.64	914.76
645.98	908.35
646.32	902.49
646.66	896.29
647.01	890.51
647.35	884.77
647.69	878.39
648.04	872.35
648.38	866.27
648.72	860.23
649.06	854.35
649.41	848.50
649.75	842.80
650.09	837.05
650.43	831.51
650.78	825.39
651.12	819.58
651.46	813.84
651.80	808.38
652.14	802.74
652.49	797.07
652.83	791.36
653.17	785.09
653.51	779.20
653.85	773.69
654.20	767.89
654.54	762.10
654.88	756.87
655.22	751.45
655.56	745.78
655.90	740.20
656.25	734.75
656.59	729.21
656.93	724.00
657.27	718.92
657.61	713.26
657.95	708.05
658.29	702.94
658.64	697.87
658.98	692.68
659.32	687.26
659.66	682.20
660.00	677.00
660.34	672.09
660.68	667.15
661.02	662.05
661.36	657.39
661.70	652.59
662.05	648.06
662.39	643.62
662.73	639.16
663.07	634.94
663.41	630.60
663.75	626.12
664.09	621.58
664.43	616.94
664.77	612.79
665.11	608.55
665.45	604.52
665.79	600.38
666.13	596.15
666.47	592.01
666.81	587.94
667.15	584.10
667.49	580.56
667.83	576.98
668.17	573.07
668.51	569.32
668.85	565.67
669.19	562.04
669.53	558.26
669.87	554.66
670.21	550.98
670.55	547.26
670.89	544.01
671.23	540.75
671.57	537.44
671.91	534.00
672.25	530.65
672.58	527.15
672.92	523.76
673.26	520.59
673.60	517.48
673.94	514.12
674.28	510.97
674.62	507.88
674.96	504.68
675.30	501.80
675.64	498.61
675.97	495.59
676.31	492.52
676.65	489.61
676.99	486.85
677.33	483.93
677.67	481.12
678.01	478.08
678.34	475.11
678.68	472.30
679.02	469.46
679.36	466.76
679.70	464.10
680.04	461.28
680.37	458.53
680.71	455.90
681.05	453.40
681.39	450.65
681.73	447.87
682.06	445.40
682.40	442.93
682.74	440.44
683.08	437.97
683.42	435.46
683.75	432.98
684.09	430.31
684.43	427.83
684.77	425.33
685.10	422.90
685.44	420.44
685.78	418.06
686.12	416.05
686.45	413.62
686.79	411.33
687.13	409.25
687.46	407.04
687.80	404.86
688.14	402.49
688.48	400.43
688.81	398.16
689.15	396.01
689.49	393.79
689.82	391.69
690.16	389.44
690.50	387.26
690.83	385.11
691.17	382.92
691.51	380.72
691.84	378.73
692.18	376.80
692.52	374.90
692.85	373.12
693.19	371.24
693.52	369.46
693.86	367.60
694.20	365.78
694.53	363.93
694.87	361.98
695.21	360.23
695.54	358.43
695.88	356.62
696.21	354.74
696.55	353.08
696.88	351.37
697.22	349.71
697.56	348.20
697.89	346.59
698.23	345.04
698.56	343.55
698.90	342.10
699.23	340.47
699.57	338.89
699.90	337.19
700.24	335.51
700.58	333.91
700.91	332.48
701.25	331.19
701.58	329.78
701.92	328.42
702.25	326.99
702.59	325.50
702.92	324.17
703.26	322.79
703.59	321.39
703.93	320.41
704.26	319.08
704.60	317.66
704.93	316.25
705.26	314.96
705.60	313.78
705.93	312.44
706.27	311.29
706.60	310.22
706.94	309.24
707.27	307.99
707.61	306.83
707.94	305.60
708.27	304.19
708.61	302.90
708.94	301.75
709.28	300.62
709.61	299.56
709.94	298.61
710.28	297.62
710.61	296.63
710.95	295.25
711.28	294.48
711.61	293.58
711.95	292.83
712.28	291.91
712.61	290.92
712.95	290.17
713.28	289.35
713.61	288.27
713.95	287.22
714.28	286.39
714.61	285.46
714.95	284.61
715.28	283.67
715.61	282.82
715.95	281.99
716.28	281.06
716.61	280.24
716.95	279.33
717.28	278.56
717.61	277.69
717.94	276.97
718.28	275.94
718.61	275.13
718.94	274.24
719.27	273.40
719.61	272.72
719.94	271.86
720.27	271.01
720.60	270.30
720.94	269.66
721.27	268.90
721.60	268.25
721.93	267.65
722.27	267.17
722.60	266.64
722.93	265.93
723.26	265.45
723.59	264.84
723.93	264.31
724.26	263.68
724.59	263.10
724.92	262.53
725.25	262.07
725.59	261.48
725.92	261.06
726.25	260.58
726.58	259.95
726.91	259.44
727.24	258.93
727.57	258.40
727.91	257.79
728.24	257.40
728.57	256.93
728.90	256.42
729.23	255.77
729.56	255.45
729.89	254.97
730.22	254.40
730.55	253.92
730.89	253.39
731.22	252.90
731.55	252.54
731.88	252.07
732.21	251.54
732.54	251.11
732.87	250.58
733.20	250.10
733.53	249.72
733.86	249.31
734.19	248.83
734.52	248.49
734.85	248.30
735.18	247.84
735.51	247.52
735.84	247.07
736.17	246.84
736.50	246.20
736.83	246.30
737.16	245.94
737.49	245.65
737.82	245.27
738.15	245.00
738.48	244.60
738.81	244.23
739.14	243.87
739.47	243.47
739.80	243.14
740.13	242.77
740.46	242.35
740.79	241.89
741.12	241.57
741.45	241.21
741.78	240.72
742.11	240.53
742.44	240.09
742.77	239.84
743.10	239.43
743.43	239.15
743.75	238.41
744.08	238.56
744.41	238.20
744.74	237.95
745.07	237.53
745.40	237.27
745.73	237.12
746.06	236.89
746.39	236.68
746.71	236.27
747.04	236.05
747.37	235.71
747.70	235.56
748.03	235.32
748.36	235.14
748.68	234.81
749.01	234.35
749.34	234.09
749.67	233.87
750.00	233.65
750.33	233.65
750.65	233.42
750.98	232.81
751.31	232.54
751.64	232.29
751.97	232.28
752.29	232.07
752.62	231.65
752.95	231.36
753.28	231.11
753.60	230.98
753.93	230.88
754.26	230.73
754.59	230.34
754.91	230.09
755.24	229.88
755.57	229.68
755.90	229.56
756.22	229.39
756.55	229.15
756.88	228.84
757.20	228.41
757.53	228.13
757.86	227.89
758.19	227.75
758.51	227.50
758.84	227.16
759.17	226.90
759.49	226.75
759.82	226.73
760.15	226.54
760.47	226.32
760.80	225.95
761.13	225.83
761.45	225.61
761.78	225.47
762.11	225.19
762.43	224.98
762.76	224.73
763.08	224.55
763.41	224.36
763.74	224.32
764.06	224.15
764.39	223.96
764.71	223.80
765.04	223.58
765.37	223.47
765.69	223.25
766.02	223.13
766.34	223.01
766.67	222.70
767.00	222.64
767.32	222.70
767.65	222.81
767.97	222.64
768.30	222.59
768.62	222.47
768.95	222.31
769.27	222.31
769.60	222.28
769.92	222.11
770.25	221.99
770.57	221.76
770.90	221.58
771.22	221.52
771.55	221.38
771.87	221.23
772.20	221.13
772.52	221.38
772.85	221.69
773.17	221.59
773.50	221.48
773.82	221.31
774.15	221.00
774.47	220.66
774.80	220.52
775.12	220.48
775.45	220.32
775.77	220.24
776.09	220.07
776.42	220.00
776.74	220.04
777.07	219.93
777.39	219.88
777.72	219.82
778.04	219.74
778.36	219.68
778.69	219.68
779.01	219.62
779.33	219.26
779.66	218.76
779.98	218.64
780.31	218.59
780.63	218.68
780.95	218.67
781.28	218.63
781.60	218.55
781.92	218.46
782.25	218.40
782.57	218.37
782.89	218.30
783.22	218.18
783.54	218.03
783.86	217.99
784.19	217.82
784.51	217.89
784.83	217.81
785.16	217.72
785.48	217.59
785.80	217.60
786.12	217.54
786.45	217.44
