SpectraSuite Data File
++++++++++++++++++++++++++++++++++++
Date: Mon Feb 25 17:17:07 EST 2013
User: group
Dark Spectrum Present: No
Reference Spectrum Present: No
Number of Sampled Component Spectra: 1
Spectrometers: USB2E7196
Integration Time (usec): 104000 (USB2E7196)
Spectra Averaged: 20 (USB2E7196)
Boxcar Smoothing: 10 (USB2E7196)
Correct for Electrical Dark: No (USB2E7196)
Strobe/Lamp Enabled: No (USB2E7196)
Correct for Detector Non-linearity: No (USB2E7196)
Correct for Stray Light: No (USB2E7196)
Number of Pixels in Processed Spectrum: 2048
>>>>>Begin Processed Spectral Data<<<<<
339.09	0.00
339.48	199.85
339.86	200.55
340.24	200.55
340.63	202.95
341.01	208.85
341.39	206.10
341.78	208.65
342.16	208.30
342.54	209.10
342.93	198.72
343.31	208.77
343.69	209.32
344.07	209.75
344.46	210.24
344.84	210.68
345.22	210.80
345.60	211.08
345.99	211.25
346.37	211.39
346.75	211.56
347.13	211.64
347.52	211.77
347.90	211.96
348.28	212.00
348.66	212.11
349.05	212.08
349.43	212.21
349.81	212.27
350.19	212.33
350.57	212.44
350.96	212.59
351.34	212.69
351.72	212.81
352.10	213.00
352.48	213.04
352.87	213.05
353.25	213.15
353.63	213.19
354.01	213.24
354.39	213.40
354.77	213.48
355.15	213.59
355.54	213.48
355.92	213.41
356.30	213.47
356.68	213.69
357.06	213.75
357.44	213.75
357.82	213.82
358.20	213.92
358.58	213.96
358.97	213.98
359.35	214.02
359.73	214.07
360.11	214.02
360.49	214.10
360.87	214.14
361.25	214.20
361.63	214.33
362.01	214.35
362.39	214.38
362.77	214.41
363.15	214.41
363.53	214.55
363.91	214.58
364.29	214.56
364.67	214.29
365.05	214.36
365.43	214.37
365.81	214.42
366.19	214.52
366.57	214.62
366.95	214.60
367.33	214.63
367.71	214.61
368.09	214.67
368.47	214.67
368.85	214.70
369.23	214.70
369.61	214.57
369.99	214.75
370.37	214.68
370.75	214.74
371.13	214.59
371.51	214.41
371.89	214.41
372.27	214.39
372.65	214.42
373.03	214.32
373.41	214.24
373.78	214.16
374.16	213.96
374.54	213.79
374.92	213.71
375.30	213.62
375.68	213.49
376.06	213.47
376.44	213.39
376.82	213.29
377.19	213.20
377.57	213.20
377.95	213.02
378.33	213.02
378.71	212.76
379.09	212.82
379.47	212.92
379.84	212.85
380.22	212.80
380.60	212.66
380.98	212.58
381.36	212.55
381.73	212.43
382.11	212.45
382.49	212.41
382.87	212.33
383.25	212.25
383.62	212.65
384.00	212.61
384.38	212.59
384.76	212.63
385.13	212.82
385.51	212.69
385.89	212.48
386.27	212.36
386.64	212.48
387.02	212.34
387.40	212.27
387.78	212.25
388.15	212.24
388.53	212.12
388.91	212.10
389.29	212.03
389.66	212.09
390.04	212.05
390.42	212.14
390.79	212.16
391.17	212.17
391.55	211.80
391.92	211.77
392.30	211.78
392.68	211.74
393.05	211.62
393.43	211.65
393.81	211.78
394.18	211.80
394.56	211.77
394.94	211.89
395.31	211.87
395.69	211.95
396.06	212.00
396.44	212.16
396.82	212.15
397.19	212.31
397.57	212.28
397.95	212.32
398.32	212.26
398.70	212.34
399.07	212.42
399.45	212.38
399.82	212.43
400.20	212.47
400.58	212.44
400.95	212.37
401.33	212.55
401.70	212.84
402.08	212.94
402.45	212.95
402.83	213.13
403.20	213.20
403.58	213.24
403.95	213.36
404.33	213.45
404.71	213.53
405.08	213.85
405.46	213.99
405.83	214.13
406.21	214.29
406.58	214.45
406.96	214.60
407.33	214.85
407.70	215.07
408.08	215.53
408.45	215.85
408.83	216.08
409.20	216.28
409.58	216.30
409.95	216.56
410.33	216.89
410.70	217.01
411.08	217.35
411.45	217.75
411.82	218.08
412.20	218.60
412.57	219.30
412.95	219.51
413.32	220.06
413.69	220.57
414.07	221.23
414.44	221.84
414.82	222.63
415.19	223.47
415.56	224.26
415.94	224.91
416.31	225.90
416.68	226.93
417.06	228.08
417.43	229.16
417.81	230.36
418.18	231.57
418.55	232.92
418.93	234.30
419.30	235.67
419.67	237.16
420.04	238.62
420.42	240.14
420.79	242.16
421.16	244.00
421.54	246.11
421.91	248.00
422.28	250.10
422.66	252.20
423.03	254.43
423.40	256.67
423.77	258.99
424.15	261.28
424.52	263.79
424.89	266.47
425.26	269.05
425.64	271.57
426.01	274.28
426.38	277.12
426.75	280.10
427.13	283.09
427.50	286.24
427.87	289.48
428.24	292.75
428.61	295.80
428.99	299.34
429.36	302.94
429.73	306.61
430.10	310.16
430.47	313.78
430.85	317.50
431.22	321.45
431.59	325.89
431.96	330.04
432.33	334.54
432.70	338.87
433.08	344.03
433.45	348.80
433.82	353.72
434.19	359.25
434.56	364.49
434.93	369.38
435.30	374.41
435.68	379.97
436.05	385.36
436.42	390.65
436.79	395.52
437.16	400.74
437.53	406.29
437.90	411.84
438.27	417.46
438.64	423.12
439.01	428.42
439.38	433.00
439.75	437.60
440.13	442.86
440.50	447.64
440.87	451.64
441.24	455.79
441.61	460.25
441.98	463.40
442.35	467.34
442.72	471.32
443.09	475.08
443.46	477.22
443.83	478.76
444.20	480.09
444.57	481.88
444.94	482.79
445.31	483.69
445.68	484.78
446.05	484.98
446.42	484.28
446.79	483.55
447.16	482.69
447.53	481.97
447.90	479.66
448.27	477.48
448.64	474.51
449.01	472.20
449.37	468.49
449.74	464.76
450.11	460.50
450.48	455.72
450.85	450.84
451.22	446.71
451.59	442.73
451.96	438.95
452.33	434.04
452.70	429.35
453.07	423.99
453.43	418.29
453.80	413.01
454.17	408.06
454.54	403.29
454.91	398.17
455.28	393.19
455.65	388.50
456.02	384.32
456.38	380.28
456.75	375.48
457.12	371.37
457.49	367.36
457.86	363.26
458.23	360.02
458.59	356.40
458.96	352.77
459.33	349.46
459.70	346.19
460.07	343.53
460.43	340.63
460.80	337.84
461.17	335.46
461.54	332.94
461.91	330.49
462.27	327.96
462.64	325.75
463.01	323.44
463.38	321.38
463.74	318.73
464.11	316.76
464.48	315.05
464.85	313.14
465.21	311.77
465.58	310.23
465.95	308.28
466.32	306.74
466.68	305.20
467.05	303.67
467.42	302.20
467.78	300.70
468.15	299.28
468.52	298.28
468.88	296.81
469.25	295.62
469.62	294.60
469.98	293.65
470.35	292.83
470.72	291.91
471.08	290.80
471.45	290.07
471.82	289.35
472.18	288.44
472.55	287.91
472.92	287.16
473.28	286.51
473.65	286.01
474.02	285.50
474.38	285.18
474.75	284.96
475.11	284.62
475.48	284.41
475.85	284.18
476.21	283.96
476.58	283.91
476.94	283.91
477.31	283.83
477.67	283.77
478.04	283.80
478.41	284.05
478.77	284.60
479.14	284.69
479.50	284.99
479.87	285.48
480.23	285.87
480.60	286.22
480.96	286.72
481.33	287.37
481.69	288.03
482.06	288.74
482.42	289.48
482.79	290.18
483.15	291.01
483.52	292.09
483.88	292.95
484.25	293.89
484.61	294.96
484.98	296.21
485.34	297.59
485.71	299.02
486.07	300.47
486.44	301.74
486.80	303.53
487.17	305.23
487.53	307.20
487.90	309.18
488.26	311.50
488.62	313.88
488.99	316.12
489.35	318.52
489.72	320.98
490.08	323.63
490.44	326.49
490.81	329.50
491.17	332.51
491.54	336.00
491.90	339.53
492.26	343.21
492.63	347.11
492.99	351.24
493.36	355.48
493.72	360.02
494.08	364.73
494.45	369.65
494.81	374.83
495.17	379.96
495.54	385.58
495.90	391.24
496.26	397.11
496.63	403.54
496.99	410.19
497.35	417.06
497.72	424.18
498.08	431.56
498.44	439.22
498.80	447.45
499.17	455.75
499.53	464.41
499.89	473.49
500.26	482.63
500.62	491.86
500.98	501.78
501.34	511.80
501.71	522.39
502.07	533.21
502.43	544.33
502.79	555.82
503.16	567.68
503.52	579.94
503.88	592.61
504.24	605.44
504.60	618.60
504.97	632.33
505.33	646.08
505.69	660.88
506.05	675.69
506.41	690.51
506.78	705.74
507.14	721.42
507.50	737.40
507.86	753.98
508.22	771.03
508.59	787.98
508.95	805.80
509.31	823.62
509.67	841.77
510.03	860.48
510.39	879.77
510.75	899.25
511.12	918.94
511.48	938.91
511.84	959.28
512.20	979.71
512.56	1000.78
512.92	1022.35
513.28	1043.62
513.64	1065.42
514.00	1087.34
514.37	1109.55
514.73	1132.43
515.09	1155.06
515.45	1177.53
515.81	1200.20
516.17	1223.31
516.53	1246.36
516.89	1269.80
517.25	1293.14
517.61	1316.57
517.97	1339.92
518.33	1363.24
518.69	1387.01
519.05	1410.68
519.41	1434.54
519.77	1459.04
520.13	1482.47
520.49	1505.96
520.85	1529.87
521.21	1553.89
521.57	1578.11
521.93	1601.56
522.29	1625.54
522.65	1649.89
523.01	1674.22
523.37	1697.69
523.73	1721.33
524.09	1744.91
524.45	1768.46
524.81	1792.13
525.17	1815.88
525.53	1839.41
525.89	1862.97
526.25	1885.84
526.61	1908.19
526.97	1930.55
527.33	1952.67
527.68	1975.20
528.04	1997.04
528.40	2018.10
528.76	2039.30
529.12	2061.15
529.48	2083.74
529.84	2105.08
530.20	2126.08
530.56	2146.85
530.91	2168.70
531.27	2189.77
531.63	2210.24
531.99	2230.64
532.35	2250.42
532.71	2269.77
533.07	2289.67
533.42	2308.81
533.78	2328.15
534.14	2347.40
534.50	2365.16
534.86	2383.38
535.21	2400.82
535.57	2419.51
535.93	2436.81
536.29	2453.72
536.65	2470.43
537.00	2486.00
537.36	2501.14
537.72	2515.59
538.08	2530.23
538.44	2544.47
538.79	2559.38
539.15	2573.71
539.51	2587.74
539.87	2602.48
540.22	2616.13
540.58	2630.20
540.94	2643.31
541.29	2655.03
541.65	2666.21
542.01	2678.76
542.37	2689.99
542.72	2701.50
543.08	2711.31
543.44	2722.86
543.79	2732.70
544.15	2741.59
544.51	2751.21
544.87	2761.17
545.22	2769.92
545.58	2778.04
545.94	2785.40
546.29	2791.81
546.65	2797.91
547.01	2803.43
547.36	2808.87
547.72	2814.15
548.07	2817.49
548.43	2821.61
548.79	2826.02
549.14	2830.22
549.50	2833.94
549.86	2836.52
550.21	2839.17
550.57	2842.21
550.92	2843.61
551.28	2845.50
551.64	2847.58
551.99	2849.69
552.35	2850.16
552.70	2851.75
553.06	2853.05
553.41	2853.93
553.77	2854.55
554.13	2855.20
554.48	2856.04
554.84	2856.30
555.19	2855.85
555.55	2855.41
555.90	2854.07
556.26	2852.70
556.61	2850.92
556.97	2848.52
557.32	2847.45
557.68	2845.05
558.03	2842.73
558.39	2840.54
558.74	2839.27
559.10	2837.16
559.45	2833.82
559.81	2831.93
560.16	2828.51
560.52	2825.65
560.87	2822.78
561.23	2818.95
561.58	2815.84
561.94	2811.64
562.29	2806.81
562.64	2803.20
563.00	2799.64
563.35	2796.67
563.71	2793.98
564.06	2791.20
564.42	2788.38
564.77	2785.26
565.12	2782.74
565.48	2778.94
565.83	2775.45
566.19	2771.91
566.54	2766.98
566.89	2762.32
567.25	2757.21
567.60	2753.37
567.96	2748.77
568.31	2744.34
568.66	2739.26
569.02	2733.49
569.37	2727.26
569.72	2722.25
570.08	2716.05
570.43	2709.88
570.78	2703.06
571.14	2695.85
571.49	2688.70
571.84	2682.07
572.20	2674.22
572.55	2666.85
572.90	2659.00
573.26	2650.77
573.61	2641.95
573.96	2633.81
574.31	2625.48
574.67	2616.69
575.02	2607.37
575.37	2598.06
575.72	2587.98
576.08	2579.90
576.43	2570.95
576.78	2562.92
577.13	2554.64
577.49	2546.26
577.84	2537.43
578.19	2529.31
578.54	2521.50
578.90	2513.75
579.25	2504.66
579.60	2495.60
579.95	2485.53
580.30	2477.42
580.66	2469.50
581.01	2460.58
581.36	2451.80
581.71	2442.92
582.06	2434.50
582.42	2425.54
582.77	2416.19
583.12	2407.54
583.47	2398.98
583.82	2390.80
584.17	2381.93
584.53	2373.05
584.88	2364.31
585.23	2355.19
585.58	2346.40
585.93	2337.19
586.28	2328.38
586.63	2319.46
586.98	2311.04
587.34	2303.45
587.69	2294.65
588.04	2285.51
588.39	2276.93
588.74	2268.01
589.09	2259.92
589.44	2251.15
589.79	2243.01
590.14	2235.34
590.49	2226.97
590.84	2218.15
591.19	2210.26
591.54	2201.83
591.89	2191.77
592.25	2182.91
592.60	2174.04
592.95	2164.50
593.30	2154.30
593.65	2144.65
594.00	2135.48
594.35	2127.96
594.70	2118.63
595.05	2109.89
595.40	2101.20
595.75	2091.97
596.10	2083.85
596.45	2075.45
596.80	2067.18
597.15	2059.38
597.50	2050.53
597.85	2042.48
598.19	2033.83
598.54	2024.95
598.89	2016.97
599.24	2010.14
599.59	2002.50
599.94	1995.93
600.29	1988.48
600.64	1981.58
600.99	1973.35
601.34	1966.30
601.69	1957.00
602.04	1949.03
602.39	1941.23
602.74	1933.84
603.08	1927.19
603.43	1920.31
603.78	1912.69
604.13	1905.00
604.48	1897.19
604.83	1891.12
605.18	1884.60
605.53	1877.31
605.87	1869.58
606.22	1862.41
606.57	1854.95
606.92	1847.38
607.27	1838.78
607.62	1831.25
607.96	1823.77
608.31	1817.12
608.66	1808.95
609.01	1801.37
609.36	1793.54
609.70	1785.14
610.05	1776.51
610.40	1767.84
610.75	1759.05
611.10	1751.17
611.44	1742.00
611.79	1732.96
612.14	1723.18
612.49	1713.19
612.83	1704.35
613.18	1694.94
613.53	1685.59
613.88	1675.70
614.22	1666.60
614.57	1657.59
614.92	1648.30
615.27	1638.99
615.61	1629.72
615.96	1621.25
616.31	1612.91
616.65	1604.61
617.00	1596.46
617.35	1587.95
617.70	1579.39
618.04	1569.96
618.39	1560.07
618.74	1551.82
619.08	1543.00
619.43	1534.28
619.78	1526.19
620.12	1517.52
620.47	1509.64
620.82	1500.64
621.16	1491.72
621.51	1482.89
621.85	1474.66
622.20	1466.01
622.55	1457.54
622.89	1448.63
623.24	1439.95
623.59	1430.72
623.93	1422.15
624.28	1413.60
624.62	1405.63
624.97	1397.23
625.32	1389.55
625.66	1382.00
626.01	1373.90
626.35	1366.08
626.70	1358.18
627.04	1350.39
627.39	1342.84
627.73	1334.98
628.08	1327.83
628.43	1320.08
628.77	1312.22
629.12	1304.19
629.46	1297.37
629.81	1289.75
630.15	1282.37
630.50	1274.42
630.84	1266.70
631.19	1259.02
631.53	1251.22
631.88	1242.80
632.22	1234.76
632.57	1227.32
632.91	1219.53
633.26	1212.06
633.60	1204.72
633.95	1197.56
634.29	1189.92
634.64	1182.57
634.98	1174.87
635.32	1167.61
635.67	1161.05
636.01	1154.19
636.36	1146.85
636.70	1139.38
637.05	1132.50
637.39	1125.80
637.73	1119.50
638.08	1113.65
638.42	1107.41
638.77	1101.00
639.11	1094.53
639.45	1088.05
639.80	1081.10
640.14	1074.14
640.49	1067.47
640.83	1060.80
641.17	1053.88
641.52	1046.94
641.86	1039.96
642.20	1033.62
642.55	1026.48
642.89	1019.40
643.23	1012.48
643.58	1006.25
643.92	999.20
644.26	992.48
644.61	985.78
644.95	978.77
645.29	971.73
645.64	964.68
645.98	958.12
646.32	951.77
646.66	945.16
647.01	938.75
647.35	932.68
647.69	925.80
648.04	919.30
648.38	912.92
648.72	906.63
649.06	900.18
649.41	893.61
649.75	887.29
650.09	881.15
650.43	874.89
650.78	868.17
651.12	862.06
651.46	855.86
651.80	849.73
652.14	843.73
652.49	837.60
652.83	831.26
653.17	824.54
653.51	818.37
653.85	812.45
654.20	806.35
654.54	799.91
654.88	794.10
655.22	787.85
655.56	781.65
655.90	775.71
656.25	770.03
656.59	764.25
656.93	758.64
657.27	753.12
657.61	747.15
657.95	741.80
658.29	736.19
658.64	730.66
658.98	725.07
659.32	719.31
659.66	713.84
660.00	708.45
660.34	703.26
660.68	697.73
661.02	692.40
661.36	687.19
661.70	682.30
662.05	677.44
662.39	672.96
662.73	668.29
663.07	663.67
663.41	658.86
663.75	654.03
664.09	649.08
664.43	644.03
664.77	639.64
665.11	634.97
665.45	630.53
665.79	626.17
666.13	621.66
666.47	617.42
666.81	612.89
667.15	608.55
667.49	604.55
667.83	600.69
668.17	596.69
668.51	592.75
668.85	588.81
669.19	584.93
669.53	580.86
669.87	576.76
670.21	572.79
670.55	568.84
670.89	565.45
671.23	562.03
671.57	558.47
671.91	554.74
672.25	551.02
672.58	547.34
672.92	543.78
673.26	540.35
673.60	536.84
673.94	533.57
674.28	530.29
674.62	527.04
674.96	523.58
675.30	520.36
675.64	517.01
675.97	513.77
676.31	510.55
676.65	507.40
676.99	504.62
677.33	501.35
677.67	498.28
678.01	494.88
678.34	491.90
678.68	488.91
679.02	485.96
679.36	483.12
679.70	480.30
680.04	477.26
680.37	474.27
680.71	471.29
681.05	468.39
681.39	465.70
681.73	462.81
682.06	460.28
682.40	457.63
682.74	455.00
683.08	452.43
683.42	449.65
683.75	447.04
684.09	444.12
684.43	441.56
684.77	438.87
685.10	436.35
685.44	433.59
685.78	431.07
686.12	428.69
686.45	426.22
686.79	423.65
687.13	421.41
687.46	419.16
687.80	417.03
688.14	414.52
688.48	412.24
688.81	409.70
689.15	407.20
689.49	404.74
689.82	402.42
690.16	400.01
690.50	397.70
690.83	395.36
691.17	393.14
691.51	391.08
691.84	388.98
692.18	386.88
692.52	384.91
692.85	383.02
693.19	381.07
693.52	379.03
693.86	377.01
694.20	374.99
694.53	373.00
694.87	370.83
695.21	369.03
695.54	366.92
695.88	365.09
696.21	363.12
696.55	361.19
696.88	359.40
697.22	357.62
697.56	356.00
697.89	354.28
698.23	352.60
698.56	350.70
698.90	349.17
699.23	347.34
699.57	345.56
699.90	343.77
700.24	342.03
700.58	340.34
700.91	338.79
701.25	337.44
701.58	335.93
701.92	334.42
702.25	332.84
702.59	331.35
702.92	329.90
703.26	328.54
703.59	327.15
703.93	325.99
704.26	324.62
704.60	323.15
704.93	321.69
705.26	320.28
705.60	319.12
705.93	317.73
706.27	316.65
706.60	315.51
706.94	314.37
707.27	313.04
707.61	311.81
707.94	310.58
708.27	309.10
708.61	307.85
708.94	306.70
709.28	305.66
709.61	304.60
709.94	303.50
710.28	302.39
710.61	301.42
710.95	300.08
711.28	299.16
711.61	298.11
711.95	297.24
712.28	296.32
712.61	295.26
712.95	294.40
713.28	293.48
713.61	292.54
713.95	291.52
714.28	290.71
714.61	289.75
714.95	288.86
715.28	287.85
715.61	286.90
715.95	286.07
716.28	285.13
716.61	284.25
716.95	283.30
717.28	282.52
717.61	281.66
717.94	280.74
718.28	279.72
718.61	278.93
718.94	278.04
719.27	277.18
719.61	276.44
719.94	275.63
720.27	274.69
720.60	273.80
720.94	273.05
721.27	272.24
721.60	271.66
721.93	270.85
722.27	270.34
722.60	269.78
722.93	269.12
723.26	268.51
723.59	267.80
723.93	267.30
724.26	266.63
724.59	266.04
724.92	265.49
725.25	264.96
725.59	264.31
725.92	263.90
726.25	263.37
726.58	262.81
726.91	262.22
727.24	261.74
727.57	261.24
727.91	260.63
728.24	260.13
728.57	259.56
728.90	259.17
729.23	258.53
729.56	258.06
729.89	257.49
730.22	256.96
730.55	256.42
730.89	255.86
731.22	255.39
731.55	254.84
731.88	254.44
732.21	253.91
732.54	253.46
732.87	252.89
733.20	252.43
733.53	251.95
733.86	251.55
734.19	251.08
734.52	250.66
734.85	250.51
735.18	250.01
735.51	249.70
735.84	249.25
736.17	248.97
736.50	248.45
736.83	248.45
737.16	248.05
737.49	247.65
737.82	247.26
738.15	246.82
738.48	246.42
738.81	245.91
739.14	245.43
739.47	244.99
739.80	244.59
740.13	244.18
740.46	243.73
740.79	243.22
741.12	242.87
741.45	242.40
741.78	241.84
742.11	241.63
742.44	241.16
742.77	240.81
743.10	240.36
743.43	239.94
743.75	239.27
744.08	239.34
744.41	239.08
744.74	238.77
745.07	238.46
745.40	238.18
745.73	238.07
746.06	237.86
746.39	237.70
746.71	237.43
747.04	237.19
747.37	236.92
747.70	236.74
748.03	236.52
748.36	236.35
748.68	235.97
749.01	235.51
749.34	235.26
749.67	235.03
750.00	234.83
750.33	234.77
750.65	234.53
750.98	233.85
751.31	233.58
751.64	233.35
751.97	233.30
752.29	233.02
752.62	232.62
752.95	232.38
753.28	232.07
753.60	231.75
753.93	231.55
754.26	231.35
754.59	231.04
754.91	230.72
755.24	230.46
755.57	230.35
755.90	230.26
756.22	230.04
756.55	229.71
756.88	229.41
757.20	229.02
757.53	228.69
757.86	228.51
758.19	228.35
758.51	228.12
758.84	227.70
759.17	227.51
759.49	227.32
759.82	227.26
760.15	227.15
760.47	226.93
760.80	226.68
761.13	226.53
761.45	226.30
761.78	226.13
762.11	226.00
762.43	225.82
762.76	225.51
763.08	225.34
763.41	225.34
763.74	225.16
764.06	225.05
764.39	224.95
764.71	224.74
765.04	224.48
765.37	224.32
765.69	224.15
766.02	224.05
766.34	223.84
766.67	223.60
767.00	223.49
767.32	223.57
767.65	223.62
767.97	223.45
768.30	223.30
768.62	223.17
768.95	223.00
769.27	222.81
769.60	222.78
769.92	222.61
770.25	222.36
770.57	222.19
770.90	221.99
771.22	221.76
771.55	221.69
771.87	221.69
772.20	221.48
772.52	221.67
772.85	221.94
773.17	221.86
773.50	221.74
773.82	221.63
774.15	221.30
774.47	220.93
774.80	220.82
775.12	220.82
775.45	220.74
775.77	220.70
776.09	220.68
776.42	220.55
776.74	220.53
777.07	220.43
777.39	220.39
777.72	220.32
778.04	220.31
778.36	220.20
778.69	220.04
779.01	220.07
779.33	219.68
779.66	219.21
779.98	219.13
780.31	219.05
780.63	219.05
780.95	219.11
781.28	219.02
781.60	218.90
781.92	218.80
782.25	218.71
782.57	218.61
782.89	218.41
783.22	218.41
783.54	218.28
783.86	218.25
784.19	218.18
784.51	218.17
784.83	217.99
785.16	217.90
785.48	217.90
785.80	217.77
786.12	217.77
