SpectraSuite Data File
++++++++++++++++++++++++++++++++++++
Date: Mon Feb 25 17:19:11 EST 2013
User: group
Dark Spectrum Present: No
Reference Spectrum Present: No
Number of Sampled Component Spectra: 1
Spectrometers: USB2E7196
Integration Time (usec): 104000 (USB2E7196)
Spectra Averaged: 20 (USB2E7196)
Boxcar Smoothing: 10 (USB2E7196)
Correct for Electrical Dark: No (USB2E7196)
Strobe/Lamp Enabled: No (USB2E7196)
Correct for Detector Non-linearity: No (USB2E7196)
Correct for Stray Light: No (USB2E7196)
Number of Pixels in Processed Spectrum: 2048
>>>>>Begin Processed Spectral Data<<<<<
339.09	0.00
339.48	199.25
339.86	199.75
340.24	202.15
340.63	202.35
341.01	209.85
341.39	206.70
341.78	207.00
342.16	209.05
342.54	209.20
342.93	198.45
343.31	208.40
343.69	208.91
344.07	209.38
344.46	209.87
344.84	210.28
345.22	210.29
345.60	210.54
345.99	210.76
346.37	210.90
346.75	211.07
347.13	211.17
347.52	211.28
347.90	211.46
348.28	211.52
348.66	211.64
349.05	211.47
349.43	211.61
349.81	211.66
350.19	211.70
350.57	211.85
350.96	211.90
351.34	212.04
351.72	212.18
352.10	212.31
352.48	212.28
352.87	212.30
353.25	212.45
353.63	212.52
354.01	212.60
354.39	212.65
354.77	212.65
355.15	212.83
355.54	212.86
355.92	212.88
356.30	212.92
356.68	213.22
357.06	213.35
357.44	213.36
357.82	213.40
358.20	213.63
358.58	213.66
358.97	213.86
359.35	214.12
359.73	214.25
360.11	214.28
360.49	214.42
360.87	214.56
361.25	214.64
361.63	214.84
362.01	214.95
362.39	215.00
362.77	215.13
363.15	215.20
363.53	215.27
363.91	215.23
364.29	215.34
364.67	215.06
365.05	215.21
365.43	215.29
365.81	215.42
366.19	215.50
366.57	215.65
366.95	215.58
367.33	215.45
367.71	215.46
368.09	215.60
368.47	215.62
368.85	215.56
369.23	215.66
369.61	215.48
369.99	215.55
370.37	215.62
370.75	215.76
371.13	215.71
371.51	215.68
371.89	215.72
372.27	215.64
372.65	215.69
373.03	215.57
373.41	215.46
373.78	215.41
374.16	215.24
374.54	215.14
374.92	215.11
375.30	215.12
375.68	215.05
376.06	215.02
376.44	214.94
376.82	214.97
377.19	214.93
377.57	214.93
377.95	214.81
378.33	214.71
378.71	214.45
379.09	214.35
379.47	214.33
379.84	214.21
380.22	214.18
380.60	214.04
380.98	213.98
381.36	214.05
381.73	213.90
382.11	213.94
382.49	213.86
382.87	213.74
383.25	213.66
383.62	213.99
384.00	213.82
384.38	213.78
384.76	213.82
385.13	213.90
385.51	213.81
385.89	213.71
386.27	213.76
386.64	213.71
387.02	213.70
387.40	213.65
387.78	213.72
388.15	213.70
388.53	213.73
388.91	213.72
389.29	213.55
389.66	213.60
390.04	213.50
390.42	213.49
390.79	213.51
391.17	213.47
391.55	213.07
391.92	213.09
392.30	213.20
392.68	213.11
393.05	213.01
393.43	213.03
393.81	213.04
394.18	212.94
394.56	213.03
394.94	213.04
395.31	212.95
395.69	213.00
396.06	213.10
396.44	213.10
396.82	213.06
397.19	213.37
397.57	213.33
397.95	213.40
398.32	213.38
398.70	213.50
399.07	213.56
399.45	213.63
399.82	213.76
400.20	213.65
400.58	213.65
400.95	213.55
401.33	213.65
401.70	213.94
402.08	213.95
402.45	214.05
402.83	214.21
403.20	214.38
403.58	214.40
403.95	214.56
404.33	214.71
404.71	214.90
405.08	215.14
405.46	215.32
405.83	215.48
406.21	215.66
406.58	215.82
406.96	216.01
407.33	216.21
407.70	216.35
408.08	216.92
408.45	217.29
408.83	217.73
409.20	217.99
409.58	218.10
409.95	218.58
410.33	218.97
410.70	219.35
411.08	219.85
411.45	220.37
411.82	220.78
412.20	221.44
412.57	222.17
412.95	222.48
413.32	223.22
413.69	223.90
414.07	224.73
414.44	225.55
414.82	226.48
415.19	227.48
415.56	228.52
415.94	229.33
416.31	230.48
416.68	231.61
417.06	232.95
417.43	234.30
417.81	235.69
418.18	237.13
418.55	238.67
418.93	240.30
419.30	242.01
419.67	243.88
420.04	245.67
420.42	247.52
420.79	249.98
421.16	252.25
421.54	254.86
421.91	257.21
422.28	259.72
422.66	262.39
423.03	265.11
423.40	267.87
423.77	270.79
424.15	273.83
424.52	276.84
424.89	280.28
425.26	283.52
425.64	286.67
426.01	290.09
426.38	293.69
426.75	297.38
427.13	301.22
427.50	305.08
427.87	309.26
428.24	313.39
428.61	317.30
428.99	321.59
429.36	326.09
429.73	330.63
430.10	335.20
430.47	339.77
430.85	344.55
431.22	349.69
431.59	355.24
431.96	360.31
432.33	366.01
432.70	371.56
433.08	378.09
433.45	384.12
433.82	390.29
434.19	396.98
434.56	403.66
434.93	409.83
435.30	416.16
435.68	422.99
436.05	429.90
436.42	436.57
436.79	442.83
437.16	449.46
437.53	456.58
437.90	463.76
438.27	470.66
438.64	477.77
439.01	484.43
439.38	490.23
439.75	495.95
440.13	502.55
440.50	508.54
440.87	513.32
441.24	518.61
441.61	524.29
441.98	528.51
442.35	533.33
442.72	538.38
443.09	543.13
443.46	545.95
443.83	547.70
444.20	549.37
444.57	551.77
444.94	552.82
445.31	553.99
445.68	555.08
446.05	555.51
446.42	554.69
446.79	553.72
447.16	552.67
447.53	551.94
447.90	549.09
448.27	546.34
448.64	542.76
449.01	540.04
449.37	535.23
449.74	530.57
450.11	525.28
450.48	519.15
450.85	513.05
451.22	507.92
451.59	503.04
451.96	498.21
452.33	491.88
452.70	486.19
453.07	479.38
453.43	472.27
453.80	465.61
454.17	459.24
454.54	453.32
454.91	446.90
455.28	440.67
455.65	434.88
456.02	429.52
456.38	424.54
456.75	418.35
457.12	413.16
457.49	408.14
457.86	402.94
458.23	398.89
458.59	394.27
458.96	389.55
459.33	385.38
459.70	381.32
460.07	378.13
460.43	374.38
460.80	370.91
461.17	367.90
461.54	364.65
461.91	361.75
462.27	358.62
462.64	356.02
463.01	353.12
463.38	350.47
463.74	347.29
464.11	344.74
464.48	342.60
464.85	340.31
465.21	338.52
465.58	336.72
465.95	334.46
466.32	332.69
466.68	330.92
467.05	329.22
467.42	327.33
467.78	325.30
468.15	323.62
468.52	322.28
468.88	320.44
469.25	319.04
469.62	317.83
469.98	316.46
470.35	315.25
470.72	314.10
471.08	312.75
471.45	311.87
471.82	310.94
472.18	309.92
472.55	309.25
472.92	308.35
473.28	307.52
473.65	306.82
474.02	306.12
474.38	305.69
474.75	305.22
475.11	304.85
475.48	304.64
475.85	304.33
476.21	304.07
476.58	304.06
476.94	304.14
477.31	304.09
477.67	304.16
478.04	304.28
478.41	304.53
478.77	305.23
479.14	305.40
479.50	305.88
479.87	306.38
480.23	306.88
480.60	307.46
480.96	308.18
481.33	309.11
481.69	309.89
482.06	310.66
482.42	311.53
482.79	312.55
483.15	313.76
483.52	315.18
483.88	316.44
484.25	317.72
484.61	319.17
484.98	320.61
485.34	322.44
485.71	324.39
486.07	326.32
486.44	328.07
486.80	330.30
487.17	332.57
487.53	335.11
487.90	337.81
488.26	340.75
488.62	343.80
488.99	346.75
489.35	350.06
489.72	353.54
490.08	357.23
490.44	361.10
490.81	365.09
491.17	369.14
491.54	373.67
491.90	378.42
492.26	383.32
492.63	388.56
492.99	393.81
493.36	399.38
493.72	405.43
494.08	411.50
494.45	418.08
494.81	425.01
495.17	431.95
495.54	439.31
495.90	447.00
496.26	454.86
496.63	463.10
496.99	471.80
497.35	480.88
497.72	490.29
498.08	499.90
498.44	509.86
498.80	520.63
499.17	531.60
499.53	542.92
499.89	554.78
500.26	566.75
500.62	579.13
500.98	592.27
501.34	605.71
501.71	619.84
502.07	634.15
502.43	648.72
502.79	663.89
503.16	679.75
503.52	695.89
503.88	712.52
504.24	729.55
504.60	747.12
504.97	765.20
505.33	783.69
505.69	803.37
506.05	823.24
506.41	843.18
506.78	863.40
507.14	884.36
507.50	905.83
507.86	927.86
508.22	950.44
508.59	973.18
508.95	996.48
509.31	1020.07
509.67	1044.45
510.03	1069.48
510.39	1095.00
510.75	1120.65
511.12	1146.54
511.48	1172.93
511.84	1199.86
512.20	1226.71
512.56	1254.51
512.92	1282.39
513.28	1310.38
513.64	1338.64
514.00	1367.18
514.37	1396.17
514.73	1425.58
515.09	1454.99
515.45	1484.50
515.81	1514.25
516.17	1544.11
516.53	1574.14
516.89	1604.29
517.25	1634.53
517.61	1664.76
517.97	1694.99
518.33	1725.11
518.69	1755.37
519.05	1786.10
519.41	1817.21
519.77	1848.56
520.13	1878.73
520.49	1908.92
520.85	1939.33
521.21	1970.06
521.57	2001.31
521.93	2031.53
522.29	2062.79
522.65	2093.82
523.01	2124.24
523.37	2153.86
523.73	2184.27
524.09	2214.43
524.45	2244.60
524.81	2274.64
525.17	2304.79
525.53	2334.55
525.89	2364.57
526.25	2394.02
526.61	2422.24
526.97	2450.53
527.33	2478.71
527.68	2507.14
528.04	2534.77
528.40	2561.55
528.76	2588.68
529.12	2616.10
529.48	2644.43
529.84	2670.89
530.20	2696.76
530.56	2723.44
530.91	2751.21
531.27	2778.02
531.63	2803.90
531.99	2829.45
532.35	2853.83
532.71	2877.48
533.07	2902.69
533.42	2926.09
533.78	2950.60
534.14	2974.25
534.50	2996.22
534.86	3019.12
535.21	3040.71
535.57	3064.16
535.93	3085.86
536.29	3106.70
536.65	3126.97
537.00	3146.22
537.36	3165.11
537.72	3183.72
538.08	3201.85
538.44	3219.77
538.79	3237.45
539.15	3254.89
539.51	3272.10
539.87	3290.42
540.22	3308.03
540.58	3324.99
540.94	3341.50
541.29	3355.50
541.65	3369.73
542.01	3384.64
542.37	3397.98
542.72	3412.25
543.08	3424.16
543.44	3438.13
543.79	3450.19
544.15	3461.27
544.51	3473.44
544.87	3485.64
545.22	3496.34
545.58	3506.32
545.94	3514.60
546.29	3522.08
546.65	3529.36
547.01	3536.51
547.36	3542.90
547.72	3549.20
548.07	3553.40
548.43	3558.18
548.79	3562.91
549.14	3567.60
549.50	3571.97
549.86	3575.52
550.21	3577.91
550.57	3581.76
550.92	3583.10
551.28	3584.85
551.64	3587.26
551.99	3589.15
552.35	3589.69
552.70	3591.32
553.06	3592.52
553.41	3593.66
553.77	3594.31
554.13	3594.96
554.48	3595.61
554.84	3595.76
555.19	3594.78
555.55	3593.49
555.90	3591.69
556.26	3590.49
556.61	3588.81
556.97	3585.78
557.32	3584.08
557.68	3581.46
558.03	3577.87
558.39	3575.36
558.74	3574.00
559.10	3571.44
559.45	3567.60
559.81	3565.31
560.16	3560.80
560.52	3557.58
560.87	3553.33
561.23	3548.55
561.58	3544.67
561.94	3539.27
562.29	3533.03
562.64	3528.27
563.00	3524.02
563.35	3520.08
563.71	3516.56
564.06	3512.03
564.42	3508.25
564.77	3503.78
565.12	3499.87
565.48	3495.08
565.83	3490.00
566.19	3485.15
566.54	3478.32
566.89	3471.92
567.25	3465.25
567.60	3459.81
567.96	3452.92
568.31	3447.22
568.66	3440.50
569.02	3432.85
569.37	3424.98
569.72	3418.20
570.08	3410.50
570.43	3402.33
570.78	3393.69
571.14	3384.20
571.49	3375.34
571.84	3367.07
572.20	3356.99
572.55	3348.19
572.90	3338.38
573.26	3328.12
573.61	3317.17
573.96	3307.26
574.31	3296.31
574.67	3284.50
575.02	3272.30
575.37	3260.90
575.72	3248.29
576.08	3237.74
576.43	3225.63
576.78	3214.99
577.13	3204.44
577.49	3193.55
577.84	3182.47
578.19	3171.74
578.54	3161.97
578.90	3152.17
579.25	3140.47
579.60	3128.52
579.95	3115.88
580.30	3105.06
580.66	3094.82
581.01	3082.90
581.36	3071.37
581.71	3060.04
582.06	3049.14
582.42	3038.38
582.77	3026.19
583.12	3014.81
583.47	3003.66
583.82	2993.69
584.17	2982.02
584.53	2970.84
584.88	2959.33
585.23	2947.67
585.58	2936.22
585.93	2923.69
586.28	2911.98
586.63	2900.39
586.98	2889.81
587.34	2879.35
587.69	2867.73
588.04	2855.92
588.39	2845.38
588.74	2833.37
589.09	2822.94
589.44	2811.33
589.79	2800.81
590.14	2790.75
590.49	2779.97
590.84	2768.61
591.19	2758.28
591.54	2747.60
591.89	2734.75
592.25	2723.41
592.60	2711.70
592.95	2699.87
593.30	2687.13
593.65	2674.57
594.00	2663.22
594.35	2653.12
594.70	2641.61
595.05	2630.63
595.40	2619.59
595.75	2607.16
596.10	2596.63
596.45	2585.67
596.80	2575.78
597.15	2565.03
597.50	2553.83
597.85	2543.50
598.19	2532.43
598.54	2521.17
598.89	2510.90
599.24	2502.15
599.59	2492.08
599.94	2483.09
600.29	2473.30
600.64	2464.33
600.99	2453.45
601.34	2443.70
601.69	2432.39
602.04	2421.73
602.39	2411.39
602.74	2401.08
603.08	2392.70
603.43	2383.96
603.78	2373.79
604.13	2363.55
604.48	2353.93
604.83	2345.61
605.18	2337.34
605.53	2327.94
605.87	2317.88
606.22	2308.60
606.57	2298.30
606.92	2288.16
607.27	2277.70
607.62	2267.68
607.96	2258.14
608.31	2250.11
608.66	2239.88
609.01	2229.55
609.36	2219.48
609.70	2209.12
610.05	2198.52
610.40	2187.99
610.75	2176.87
611.10	2167.47
611.44	2155.78
611.79	2143.98
612.14	2131.60
612.49	2118.57
612.83	2107.56
613.18	2095.94
613.53	2083.91
613.88	2071.73
614.22	2060.96
614.57	2049.43
614.92	2037.93
615.27	2026.20
615.61	2014.14
615.96	2003.05
616.31	1992.69
616.65	1982.50
617.00	1971.83
617.35	1961.05
617.70	1949.28
618.04	1937.54
618.39	1924.89
618.74	1914.16
619.08	1903.23
619.43	1892.49
619.78	1882.30
620.12	1871.30
620.47	1860.61
620.82	1849.65
621.16	1838.70
621.51	1827.24
621.85	1816.52
622.20	1805.22
622.55	1794.24
622.89	1783.13
623.24	1772.20
623.59	1760.47
623.93	1749.24
624.28	1738.54
624.62	1728.08
624.97	1717.60
625.32	1707.37
625.66	1697.62
626.01	1687.75
626.35	1677.85
626.70	1668.03
627.04	1658.32
627.39	1648.82
627.73	1639.05
628.08	1629.72
628.43	1619.68
628.77	1609.82
629.12	1599.74
629.46	1590.97
629.81	1581.79
630.15	1572.46
630.50	1562.72
630.84	1553.20
631.19	1543.67
631.53	1534.19
631.88	1523.82
632.22	1513.86
632.57	1504.57
632.91	1494.81
633.26	1485.15
633.60	1475.77
633.95	1466.48
634.29	1456.61
634.64	1447.16
634.98	1437.56
635.32	1428.26
635.67	1420.00
636.01	1411.15
636.36	1401.92
636.70	1392.95
637.05	1383.56
637.39	1374.77
637.73	1366.40
638.08	1358.65
638.42	1350.44
638.77	1341.92
639.11	1333.94
639.45	1325.50
639.80	1316.63
640.14	1307.88
640.49	1299.31
640.83	1290.65
641.17	1281.89
641.52	1273.17
641.86	1264.15
642.20	1255.71
642.55	1246.59
642.89	1237.31
643.23	1228.31
643.58	1220.37
643.92	1211.13
644.26	1202.60
644.61	1194.23
644.95	1185.51
645.29	1176.41
645.64	1167.47
645.98	1158.93
646.32	1150.71
646.66	1142.55
647.01	1134.66
647.35	1126.53
647.69	1117.69
648.04	1109.60
648.38	1101.12
648.72	1093.12
649.06	1085.06
649.41	1077.10
649.75	1069.06
650.09	1061.23
650.43	1053.42
650.78	1044.93
651.12	1036.87
651.46	1029.17
651.80	1021.40
652.14	1013.56
652.49	1005.88
652.83	998.04
653.17	989.64
653.51	981.38
653.85	973.62
654.20	965.57
654.54	957.80
654.88	950.45
655.22	942.66
655.56	935.08
655.90	927.23
656.25	919.85
656.59	912.34
656.93	905.02
657.27	897.86
657.61	890.21
657.95	883.09
658.29	876.23
658.64	869.28
658.98	861.88
659.32	854.45
659.66	847.47
660.00	840.39
660.34	833.46
660.68	826.59
661.02	819.59
661.36	813.06
661.70	806.62
662.05	800.23
662.39	794.15
662.73	788.14
663.07	782.32
663.41	776.04
663.75	769.87
664.09	763.77
664.43	757.34
664.77	751.67
665.11	745.74
665.45	739.96
665.79	734.14
666.13	728.58
666.47	723.14
666.81	717.58
667.15	712.05
667.49	707.20
667.83	702.13
668.17	696.96
668.51	691.94
668.85	686.86
669.19	682.11
669.53	676.88
669.87	671.54
670.21	666.45
670.55	661.54
670.89	656.92
671.23	652.41
671.57	647.90
671.91	643.21
672.25	638.54
672.58	633.99
672.92	629.45
673.26	625.11
673.60	620.77
673.94	616.26
674.28	612.15
674.62	607.80
674.96	603.63
675.30	599.50
675.64	595.35
675.97	591.24
676.31	587.03
676.65	583.05
676.99	579.40
677.33	575.41
677.67	571.53
678.01	567.50
678.34	563.53
678.68	559.85
679.02	555.94
679.36	552.37
679.70	548.57
680.04	544.69
680.37	540.75
680.71	537.09
681.05	533.81
681.39	530.14
681.73	526.60
682.06	523.20
682.40	519.83
682.74	516.21
683.08	512.80
683.42	509.30
683.75	505.89
684.09	502.44
684.43	499.22
684.77	495.90
685.10	492.68
685.44	489.22
685.78	485.87
686.12	482.86
686.45	479.73
686.79	476.68
687.13	473.77
687.46	471.04
687.80	468.09
688.14	464.86
688.48	462.02
688.81	458.89
689.15	455.90
689.49	453.02
689.82	450.19
690.16	446.99
690.50	444.09
690.83	441.25
691.17	438.39
691.51	435.50
691.84	432.63
692.18	429.96
692.52	427.55
692.85	425.30
693.19	422.75
693.52	420.02
693.86	417.35
694.20	414.80
694.53	412.24
694.87	409.68
695.21	407.16
695.54	404.56
695.88	402.14
696.21	399.70
696.55	397.33
696.88	395.08
697.22	392.94
697.56	390.83
697.89	388.57
698.23	386.35
698.56	384.23
698.90	382.39
699.23	380.18
699.57	378.01
699.90	375.64
700.24	373.58
700.58	371.68
700.91	369.85
701.25	368.12
701.58	366.13
701.92	364.23
702.25	362.49
702.59	360.62
702.92	358.86
703.26	356.98
703.59	355.10
703.93	353.61
704.26	351.90
704.60	350.16
704.93	348.45
705.26	346.66
705.60	345.04
705.93	343.23
706.27	341.65
706.60	340.14
706.94	338.77
707.27	337.11
707.61	335.54
707.94	333.87
708.27	332.01
708.61	330.41
708.94	328.89
709.28	327.35
709.61	325.93
709.94	324.46
710.28	323.17
710.61	321.94
710.95	320.18
711.28	319.01
711.61	317.66
711.95	316.44
712.28	315.27
712.61	313.94
712.95	312.86
713.28	311.73
713.61	310.40
713.95	309.17
714.28	307.96
714.61	306.77
714.95	305.62
715.28	304.47
715.61	303.37
715.95	302.33
716.28	301.27
716.61	300.21
716.95	299.13
717.28	297.97
717.61	296.82
717.94	295.75
718.28	294.62
718.61	293.56
718.94	292.50
719.27	291.55
719.61	290.57
719.94	289.51
720.27	288.37
720.60	287.47
720.94	286.49
721.27	285.65
721.60	284.84
721.93	284.04
722.27	283.37
722.60	282.61
722.93	281.73
723.26	280.87
723.59	280.02
723.93	279.24
724.26	278.55
724.59	277.85
724.92	277.27
725.25	276.63
725.59	275.89
725.92	275.28
726.25	274.60
726.58	273.96
726.91	273.34
727.24	272.76
727.57	272.11
727.91	271.27
728.24	270.69
728.57	269.98
728.90	269.36
729.23	268.61
729.56	268.05
729.89	267.38
730.22	266.79
730.55	266.21
730.89	265.63
731.22	265.01
731.55	264.38
731.88	263.72
732.21	263.04
732.54	262.44
732.87	261.78
733.20	261.18
733.53	260.57
733.86	260.03
734.19	259.34
734.52	258.93
734.85	258.77
735.18	258.11
735.51	257.67
735.84	257.14
736.17	256.71
736.50	256.06
736.83	255.94
737.16	255.45
737.49	254.92
737.82	254.40
738.15	254.00
738.48	253.55
738.81	253.04
739.14	252.52
739.47	252.07
739.80	251.56
740.13	251.10
740.46	250.52
740.79	249.99
741.12	249.61
741.45	249.08
741.78	248.42
742.11	248.12
742.44	247.60
742.77	247.23
743.10	246.73
743.43	246.28
743.75	245.56
744.08	245.69
744.41	245.31
744.74	244.93
745.07	244.44
745.40	244.17
745.73	243.93
746.06	243.47
746.39	243.10
746.71	242.79
747.04	242.46
747.37	242.19
747.70	241.93
748.03	241.55
748.36	241.26
748.68	240.87
749.01	240.49
749.34	240.17
749.67	239.81
750.00	239.55
750.33	239.52
750.65	239.28
750.98	238.44
751.31	238.16
751.64	237.90
751.97	237.78
752.29	237.37
752.62	236.88
752.95	236.66
753.28	236.35
753.60	236.00
753.93	235.77
754.26	235.57
754.59	235.17
754.91	234.91
755.24	234.58
755.57	234.26
755.90	233.95
756.22	233.71
756.55	233.44
756.88	233.11
757.20	232.52
757.53	232.09
757.86	231.81
758.19	231.54
758.51	231.31
758.84	230.86
759.17	230.56
759.49	230.41
759.82	230.32
760.15	230.11
760.47	229.86
760.80	229.48
761.13	229.30
761.45	229.10
761.78	228.88
762.11	228.65
762.43	228.47
762.76	228.24
763.08	228.10
763.41	227.92
763.74	227.75
764.06	227.58
764.39	227.49
764.71	227.25
765.04	227.02
765.37	226.80
765.69	226.70
766.02	226.55
766.34	226.30
766.67	225.99
767.00	225.87
767.32	225.92
767.65	226.00
767.97	225.72
768.30	225.53
768.62	225.45
768.95	225.18
769.27	225.05
769.60	224.98
769.92	224.69
770.25	224.47
770.57	224.24
770.90	224.18
771.22	223.98
771.55	223.92
771.87	223.82
772.20	223.66
772.52	223.75
772.85	224.03
773.17	223.95
773.50	223.89
773.82	223.75
774.15	223.42
774.47	223.08
774.80	222.91
775.12	222.78
775.45	222.60
775.77	222.68
776.09	222.53
776.42	222.43
776.74	222.48
777.07	222.36
777.39	222.27
777.72	222.11
778.04	222.05
778.36	221.92
778.69	221.83
779.01	221.78
779.33	221.32
779.66	220.79
779.98	220.61
780.31	220.47
780.63	220.47
780.95	220.45
781.28	220.36
781.60	220.29
781.92	220.24
782.25	220.10
782.57	219.84
782.89	219.81
783.22	219.68
783.54	219.49
783.86	219.50
784.19	219.41
784.51	219.36
784.83	219.31
785.16	219.19
785.48	219.10
