SpectraSuite Data File
++++++++++++++++++++++++++++++++++++
Date: Mon Feb 25 17:19:42 EST 2013
User: group
Dark Spectrum Present: No
Reference Spectrum Present: No
Number of Sampled Component Spectra: 1
Spectrometers: USB2E7196
Integration Time (usec): 104000 (USB2E7196)
Spectra Averaged: 20 (USB2E7196)
Boxcar Smoothing: 10 (USB2E7196)
Correct for Electrical Dark: No (USB2E7196)
Strobe/Lamp Enabled: No (USB2E7196)
Correct for Detector Non-linearity: No (USB2E7196)
Correct for Stray Light: No (USB2E7196)
Number of Pixels in Processed Spectrum: 2048
>>>>>Begin Processed Spectral Data<<<<<
339.09	0.00
339.48	197.80
339.86	199.45
340.24	201.55
340.63	201.95
341.01	210.05
341.39	206.60
341.78	207.20
342.16	210.35
342.54	209.20
342.93	198.57
343.31	208.56
343.69	209.23
344.07	209.71
344.46	210.20
344.84	210.69
345.22	210.79
345.60	211.11
345.99	211.35
346.37	211.42
346.75	211.54
347.13	211.60
347.52	211.70
347.90	211.82
348.28	211.81
348.66	211.91
349.05	211.89
349.43	211.97
349.81	212.01
350.19	211.99
350.57	212.10
350.96	212.20
351.34	212.37
351.72	212.49
352.10	212.64
352.48	212.73
352.87	212.77
353.25	212.80
353.63	212.75
354.01	212.83
354.39	212.89
354.77	212.92
355.15	213.15
355.54	213.20
355.92	213.18
356.30	213.39
356.68	213.62
357.06	213.78
357.44	213.83
357.82	213.84
358.20	213.99
358.58	214.05
358.97	214.12
359.35	214.17
359.73	214.23
360.11	214.29
360.49	214.35
360.87	214.40
361.25	214.48
361.63	214.71
362.01	214.74
362.39	214.77
362.77	214.88
363.15	214.87
363.53	214.86
363.91	214.90
364.29	214.83
364.67	214.60
365.05	214.61
365.43	214.64
365.81	214.77
366.19	214.88
366.57	214.95
366.95	214.93
367.33	214.99
367.71	214.95
368.09	215.04
368.47	214.99
368.85	215.01
369.23	215.07
369.61	214.89
369.99	215.03
370.37	215.05
370.75	215.24
371.13	215.11
371.51	215.04
371.89	215.09
372.27	215.17
372.65	215.17
373.03	215.14
373.41	215.13
373.78	215.05
374.16	214.85
374.54	214.72
374.92	214.66
375.30	214.56
375.68	214.50
376.06	214.48
376.44	214.38
376.82	214.33
377.19	214.32
377.57	214.28
377.95	214.10
378.33	214.04
378.71	213.76
379.09	213.81
379.47	213.88
379.84	213.72
380.22	213.59
380.60	213.49
380.98	213.47
381.36	213.37
381.73	213.30
382.11	213.39
382.49	213.43
382.87	213.34
383.25	213.30
383.62	213.62
384.00	213.45
384.38	213.49
384.76	213.54
385.13	213.57
385.51	213.60
385.89	213.56
386.27	213.53
386.64	213.57
387.02	213.48
387.40	213.37
387.78	213.45
388.15	213.45
388.53	213.41
388.91	213.35
389.29	213.30
389.66	213.38
390.04	213.31
390.42	213.31
390.79	213.31
391.17	213.31
391.55	212.92
391.92	212.99
392.30	212.99
392.68	212.95
393.05	213.02
393.43	212.99
393.81	212.98
394.18	212.97
394.56	213.00
394.94	213.08
395.31	213.09
395.69	213.16
396.06	213.17
396.44	213.25
396.82	213.24
397.19	213.43
397.57	213.36
397.95	213.43
398.32	213.41
398.70	213.49
399.07	213.59
399.45	213.69
399.82	213.72
400.20	213.72
400.58	213.77
400.95	213.57
401.33	213.69
401.70	214.04
402.08	214.08
402.45	214.12
402.83	214.25
403.20	214.35
403.58	214.44
403.95	214.66
404.33	214.81
404.71	214.93
405.08	215.25
405.46	215.45
405.83	215.60
406.21	215.77
406.58	215.99
406.96	216.16
407.33	216.39
407.70	216.66
408.08	217.25
408.45	217.54
408.83	217.96
409.20	218.27
409.58	218.43
409.95	218.90
410.33	219.35
410.70	219.70
411.08	220.24
411.45	220.75
411.82	221.21
412.20	221.82
412.57	222.66
412.95	223.02
413.32	223.72
413.69	224.48
414.07	225.25
414.44	226.15
414.82	227.05
415.19	228.10
415.56	229.10
415.94	230.05
416.31	231.37
416.68	232.59
417.06	234.01
417.43	235.43
417.81	236.93
418.18	238.57
418.55	240.30
418.93	242.10
419.30	243.93
419.67	245.95
420.04	248.00
420.42	250.04
420.79	252.68
421.16	255.16
421.54	257.81
421.91	260.49
422.28	263.25
422.66	266.06
423.03	269.01
423.40	272.03
423.77	275.08
424.15	278.08
424.52	281.33
424.89	284.88
425.26	288.29
425.64	291.66
426.01	295.14
426.38	298.91
426.75	302.77
427.13	306.80
427.50	310.94
427.87	315.24
428.24	319.55
428.61	323.61
428.99	328.26
429.36	333.04
429.73	337.89
430.10	342.59
430.47	347.60
430.85	352.60
431.22	357.93
431.59	363.80
431.96	369.29
432.33	375.44
432.70	381.32
433.08	388.12
433.45	394.55
433.82	401.05
434.19	408.11
434.56	415.17
434.93	421.80
435.30	428.42
435.68	435.86
436.05	443.26
436.42	450.49
436.79	456.99
437.16	464.17
437.53	471.59
437.90	479.15
438.27	486.49
438.64	493.96
439.01	501.07
439.38	507.12
439.75	513.32
440.13	520.18
440.50	526.64
440.87	531.93
441.24	537.44
441.61	543.43
441.98	547.94
442.35	552.97
442.72	558.23
443.09	563.30
443.46	566.13
443.83	568.06
444.20	569.76
444.57	572.40
444.94	573.60
445.31	574.77
445.68	576.12
446.05	576.57
446.42	575.84
446.79	574.88
447.16	573.90
447.53	573.00
447.90	570.06
448.27	567.19
448.64	563.27
449.01	560.32
449.37	555.29
449.74	550.49
450.11	545.03
450.48	538.65
450.85	532.29
451.22	526.87
451.59	521.58
451.96	516.48
452.33	509.66
452.70	503.41
453.07	496.25
453.43	488.58
453.80	481.62
454.17	474.88
454.54	468.52
454.91	461.70
455.28	455.09
455.65	448.89
456.02	443.04
456.38	437.74
456.75	431.25
457.12	425.93
457.49	420.50
457.86	414.97
458.23	410.68
458.59	405.70
458.96	400.74
459.33	396.30
459.70	391.94
460.07	388.50
460.43	384.60
460.80	380.85
461.17	377.73
461.54	374.23
461.91	370.97
462.27	367.63
462.64	364.86
463.01	361.78
463.38	358.93
463.74	355.54
464.11	352.94
464.48	350.67
464.85	348.14
465.21	346.32
465.58	344.32
465.95	341.81
466.32	339.85
466.68	337.96
467.05	336.09
467.42	334.23
467.78	332.16
468.15	330.30
468.52	329.00
468.88	327.11
469.25	325.47
469.62	324.30
469.98	322.91
470.35	321.57
470.72	320.48
471.08	319.13
471.45	318.15
471.82	317.12
472.18	315.90
472.55	315.11
472.92	314.06
473.28	313.40
473.65	312.61
474.02	312.00
474.38	311.44
474.75	310.97
475.11	310.56
475.48	310.37
475.85	310.14
476.21	309.92
476.58	309.80
476.94	309.90
477.31	309.85
477.67	309.88
478.04	310.10
478.41	310.31
478.77	310.97
479.14	311.31
479.50	311.79
479.87	312.41
480.23	313.03
480.60	313.67
480.96	314.25
481.33	315.24
481.69	316.03
482.06	316.93
482.42	317.96
482.79	318.96
483.15	320.22
483.52	321.70
483.88	323.03
484.25	324.57
484.61	326.02
484.98	327.68
485.34	329.67
485.71	331.64
486.07	333.70
486.44	335.47
486.80	337.88
487.17	340.38
487.53	343.30
487.90	346.15
488.26	349.33
488.62	352.67
488.99	355.88
489.35	359.36
489.72	363.11
490.08	367.03
490.44	371.09
490.81	375.31
491.17	379.63
491.54	384.45
491.90	389.43
492.26	394.78
492.63	400.27
492.99	406.00
493.36	412.13
493.72	418.44
494.08	425.05
494.45	431.91
494.81	439.24
495.17	446.51
495.54	454.48
495.90	462.61
496.26	471.01
496.63	479.93
496.99	489.20
497.35	498.79
497.72	508.88
498.08	519.30
498.44	530.10
498.80	541.73
499.17	553.53
499.53	565.61
499.89	578.26
500.26	591.00
500.62	604.16
500.98	618.01
501.34	632.48
501.71	647.52
502.07	662.99
502.43	678.57
502.79	694.88
503.16	711.59
503.52	728.79
503.88	746.37
504.24	764.47
504.60	783.08
504.97	802.39
505.33	821.92
505.69	842.75
506.05	863.85
506.41	885.01
506.78	906.65
507.14	928.71
507.50	951.36
507.86	974.86
508.22	998.75
508.59	1022.96
508.95	1047.56
509.31	1072.68
509.67	1098.20
510.03	1124.74
510.39	1151.90
510.75	1179.18
511.12	1206.89
511.48	1235.09
511.84	1263.80
512.20	1292.39
512.56	1321.76
512.92	1351.89
513.28	1381.68
513.64	1411.59
514.00	1441.99
514.37	1472.66
514.73	1504.13
515.09	1535.55
515.45	1566.87
515.81	1598.54
516.17	1630.19
516.53	1662.08
516.89	1694.24
517.25	1726.30
517.61	1758.17
517.97	1789.84
518.33	1821.72
518.69	1853.67
519.05	1885.82
519.41	1918.17
519.77	1951.12
520.13	1983.37
520.49	2015.18
520.85	2047.44
521.21	2080.04
521.57	2112.64
521.93	2144.33
522.29	2177.30
522.65	2209.90
523.01	2242.25
523.37	2273.57
523.73	2305.57
524.09	2337.55
524.45	2369.45
524.81	2401.42
525.17	2433.31
525.53	2464.97
525.89	2496.77
526.25	2527.87
526.61	2558.09
526.97	2588.28
527.33	2618.04
527.68	2648.27
528.04	2677.41
528.40	2705.48
528.76	2733.87
529.12	2763.23
529.48	2793.32
529.84	2821.27
530.20	2848.97
530.56	2876.96
530.91	2906.19
531.27	2934.12
531.63	2961.15
531.99	2987.91
532.35	3013.60
532.71	3038.87
533.07	3065.17
533.42	3089.74
533.78	3115.41
534.14	3139.98
534.50	3162.84
534.86	3186.77
535.21	3209.13
535.57	3233.16
535.93	3256.00
536.29	3278.00
536.65	3299.18
537.00	3318.95
537.36	3338.06
537.72	3357.40
538.08	3376.74
538.44	3395.34
538.79	3414.17
539.15	3432.81
539.51	3450.99
539.87	3469.60
540.22	3487.27
540.58	3505.33
540.94	3522.50
541.29	3537.60
541.65	3552.26
542.01	3568.00
542.37	3582.26
542.72	3596.70
543.08	3609.61
543.44	3624.05
543.79	3636.29
544.15	3647.81
544.51	3660.53
544.87	3673.55
545.22	3684.71
545.58	3694.68
545.94	3703.12
546.29	3711.06
546.65	3718.50
547.01	3725.82
547.36	3732.48
547.72	3739.42
548.07	3743.67
548.43	3748.40
548.79	3752.80
549.14	3758.25
549.50	3762.83
549.86	3766.54
550.21	3770.14
550.57	3773.84
550.92	3775.35
551.28	3777.26
551.64	3779.56
551.99	3781.80
552.35	3782.48
552.70	3783.94
553.06	3785.21
553.41	3786.56
553.77	3787.21
554.13	3787.76
554.48	3788.22
554.84	3788.92
555.19	3788.26
555.55	3786.73
555.90	3784.97
556.26	3783.39
556.61	3781.19
556.97	3778.46
557.32	3776.65
557.68	3772.89
558.03	3769.45
558.39	3766.55
558.74	3765.19
559.10	3762.31
559.45	3758.02
559.81	3754.91
560.16	3750.05
560.52	3746.31
560.87	3741.92
561.23	3736.69
561.58	3732.39
561.94	3726.27
562.29	3719.50
562.64	3714.07
563.00	3709.45
563.35	3705.46
563.71	3701.62
564.06	3696.88
564.42	3692.48
564.77	3688.38
565.12	3684.10
565.48	3678.70
565.83	3673.94
566.19	3668.63
566.54	3661.71
566.89	3655.48
567.25	3649.15
567.60	3643.59
567.96	3636.52
568.31	3630.24
568.66	3623.45
569.02	3615.77
569.37	3607.77
569.72	3600.88
570.08	3592.78
570.43	3584.26
570.78	3575.27
571.14	3565.48
571.49	3556.15
571.84	3547.49
572.20	3536.21
572.55	3526.84
572.90	3516.37
573.26	3505.04
573.61	3493.39
573.96	3482.84
574.31	3470.83
574.67	3458.22
575.02	3445.76
575.37	3433.80
575.72	3420.90
576.08	3409.96
576.43	3397.19
576.78	3385.90
577.13	3374.42
577.49	3362.85
577.84	3351.31
578.19	3340.28
578.54	3329.72
578.90	3319.28
579.25	3306.89
579.60	3294.58
579.95	3281.75
580.30	3270.58
580.66	3259.26
581.01	3247.13
581.36	3234.30
581.71	3222.37
582.06	3210.81
582.42	3199.34
582.77	3186.48
583.12	3174.28
583.47	3162.37
583.82	3151.36
584.17	3139.28
584.53	3127.20
584.88	3114.90
585.23	3102.66
585.58	3089.93
585.93	3077.09
586.28	3065.05
586.63	3052.91
586.98	3041.30
587.34	3030.04
587.69	3017.77
588.04	3005.78
588.39	2994.39
588.74	2982.45
589.09	2971.21
589.44	2959.29
589.79	2947.88
590.14	2937.46
590.49	2926.04
590.84	2913.60
591.19	2903.05
591.54	2891.55
591.89	2878.18
592.25	2865.86
592.60	2853.51
592.95	2840.63
593.30	2827.50
593.65	2813.99
594.00	2801.53
594.35	2790.86
594.70	2778.76
595.05	2767.51
595.40	2755.78
595.75	2742.85
596.10	2731.80
596.45	2720.61
596.80	2709.80
597.15	2698.58
597.50	2686.52
597.85	2675.52
598.19	2664.30
598.54	2652.26
598.89	2641.56
599.24	2632.42
599.59	2622.05
599.94	2612.33
600.29	2602.68
600.64	2592.93
600.99	2581.91
601.34	2571.92
601.69	2560.02
602.04	2548.67
602.39	2537.50
602.74	2526.80
603.08	2517.79
603.43	2508.16
603.78	2497.65
604.13	2487.38
604.48	2476.90
604.83	2468.11
605.18	2458.80
605.53	2448.52
605.87	2438.05
606.22	2428.24
606.57	2417.55
606.92	2407.23
607.27	2396.37
607.62	2385.50
607.96	2375.27
608.31	2366.40
608.66	2355.55
609.01	2344.63
609.36	2333.85
609.70	2322.29
610.05	2310.92
610.40	2299.48
610.75	2287.96
611.10	2277.15
611.44	2264.34
611.79	2252.00
612.14	2238.82
612.49	2225.82
612.83	2214.18
613.18	2201.58
613.53	2188.72
613.88	2175.56
614.22	2163.98
614.57	2151.47
614.92	2138.96
615.27	2126.53
615.61	2113.84
615.96	2102.14
616.31	2091.16
616.65	2080.61
617.00	2069.78
617.35	2058.33
617.70	2046.15
618.04	2033.60
618.39	2020.58
618.74	2009.57
619.08	1997.69
619.43	1986.39
619.78	1975.19
620.12	1963.72
620.47	1952.92
620.82	1941.27
621.16	1929.61
621.51	1917.46
621.85	1906.34
622.20	1895.02
622.55	1883.55
622.89	1871.59
623.24	1860.06
623.59	1847.98
623.93	1836.22
624.28	1824.73
624.62	1813.70
624.97	1802.82
625.32	1792.29
625.66	1782.36
626.01	1771.77
626.35	1761.56
626.70	1750.94
627.04	1740.83
627.39	1730.49
627.73	1719.80
628.08	1709.95
628.43	1699.60
628.77	1689.19
629.12	1678.30
629.46	1669.15
629.81	1659.04
630.15	1649.67
630.50	1639.70
630.84	1629.67
631.19	1619.45
631.53	1609.67
631.88	1599.20
632.22	1588.85
632.57	1579.00
632.91	1568.38
633.26	1558.28
633.60	1548.29
633.95	1538.54
634.29	1528.45
634.64	1518.96
634.98	1508.78
635.32	1499.07
635.67	1490.47
636.01	1481.17
636.36	1471.67
636.70	1461.92
637.05	1452.39
637.39	1443.03
637.73	1433.94
638.08	1425.65
638.42	1417.27
638.77	1408.12
639.11	1399.20
639.45	1390.26
639.80	1380.70
640.14	1371.56
640.49	1362.31
640.83	1353.44
641.17	1344.38
641.52	1334.98
641.86	1325.29
642.20	1316.55
642.55	1307.00
642.89	1297.12
643.23	1287.75
643.58	1279.26
643.92	1269.75
644.26	1260.75
644.61	1251.47
644.95	1242.21
645.29	1232.64
645.64	1222.98
645.98	1213.99
646.32	1205.61
646.66	1196.53
647.01	1188.35
647.35	1179.69
647.69	1170.47
648.04	1161.81
648.38	1152.95
648.72	1144.37
649.06	1135.76
649.41	1127.26
649.75	1118.75
650.09	1110.73
650.43	1102.45
650.78	1093.59
651.12	1084.94
651.46	1076.59
651.80	1068.44
652.14	1060.17
652.49	1051.82
652.83	1043.48
653.17	1034.62
653.51	1025.70
653.85	1017.80
654.20	1009.19
654.54	1000.98
654.88	993.17
655.22	984.96
655.56	976.66
655.90	968.78
656.25	960.73
656.59	952.79
656.93	945.01
657.27	937.20
657.61	929.02
657.95	921.38
658.29	914.03
658.64	906.78
658.98	899.06
659.32	891.10
659.66	883.89
660.00	876.41
660.34	869.15
660.68	861.78
661.02	854.25
661.36	847.28
661.70	840.50
662.05	833.80
662.39	827.52
662.73	821.22
663.07	814.65
663.41	808.33
663.75	801.96
664.09	795.51
664.43	788.97
664.77	782.77
665.11	776.54
665.45	770.41
665.79	764.13
666.13	758.02
666.47	752.21
666.81	746.07
667.15	740.26
667.49	734.92
667.83	729.54
668.17	724.26
668.51	718.93
668.85	713.50
669.19	708.24
669.53	702.54
669.87	697.09
670.21	691.91
670.55	686.47
670.89	681.48
671.23	676.64
671.57	671.78
671.91	666.84
672.25	661.93
672.58	657.05
672.92	652.35
673.26	647.82
673.60	643.41
673.94	638.79
674.28	634.39
674.62	630.04
674.96	625.65
675.30	621.11
675.64	616.64
675.97	612.26
676.31	608.11
676.65	603.79
676.99	599.81
677.33	595.48
677.67	591.32
678.01	586.90
678.34	582.64
678.68	578.44
679.02	574.41
679.36	570.54
679.70	566.64
680.04	562.66
680.37	558.66
680.71	554.55
681.05	550.94
681.39	547.01
681.73	543.07
682.06	539.49
682.40	536.15
682.74	532.58
683.08	529.05
683.42	525.24
683.75	521.71
684.09	518.00
684.43	514.54
684.77	510.98
685.10	507.59
685.44	504.16
685.78	500.80
686.12	497.71
686.45	494.44
686.79	491.05
687.13	487.96
687.46	484.73
687.80	481.76
688.14	478.38
688.48	475.33
688.81	472.13
689.15	469.04
689.49	465.67
689.82	462.50
690.16	459.13
690.50	455.99
690.83	452.96
691.17	449.86
691.51	446.86
691.84	444.07
692.18	441.25
692.52	438.48
692.85	435.96
693.19	433.29
693.52	430.46
693.86	427.77
694.20	425.09
694.53	422.63
694.87	419.91
695.21	417.39
695.54	414.73
695.88	412.18
696.21	409.47
696.55	407.15
696.88	404.75
697.22	402.33
697.56	400.15
697.89	397.76
698.23	395.52
698.56	393.18
698.90	390.98
699.23	388.68
699.57	386.45
699.90	384.06
700.24	381.68
700.58	379.47
700.91	377.38
701.25	375.31
701.58	373.20
701.92	371.18
702.25	369.18
702.59	367.21
702.92	365.31
703.26	363.44
703.59	361.44
703.93	359.86
704.26	358.12
704.60	356.25
704.93	354.36
705.26	352.50
705.60	350.90
705.93	349.12
706.27	347.49
706.60	345.91
706.94	344.44
707.27	342.74
707.61	341.10
707.94	339.54
708.27	337.81
708.61	336.21
708.94	334.59
709.28	333.01
709.61	331.44
709.94	329.99
710.28	328.57
710.61	327.33
710.95	325.62
711.28	324.48
711.61	323.13
711.95	321.89
712.28	320.55
712.61	319.14
712.95	318.01
713.28	316.85
713.61	315.52
713.95	314.11
714.28	312.97
714.61	311.79
714.95	310.60
715.28	309.41
715.61	308.27
715.95	307.18
716.28	306.05
716.61	305.04
716.95	303.79
717.28	302.63
717.61	301.31
717.94	300.27
718.28	298.95
718.61	297.83
718.94	296.76
719.27	295.77
719.61	294.78
719.94	293.66
720.27	292.49
720.60	291.49
720.94	290.55
721.27	289.66
721.60	288.78
721.93	287.84
722.27	287.03
722.60	286.10
722.93	285.15
723.26	284.38
723.59	283.42
723.93	282.66
724.26	281.89
724.59	281.26
724.92	280.56
725.25	279.94
725.59	279.20
725.92	278.48
726.25	277.77
726.58	277.07
726.91	276.30
727.24	275.69
727.57	275.09
727.91	274.26
728.24	273.59
728.57	272.89
728.90	272.29
729.23	271.54
729.56	271.09
729.89	270.46
730.22	269.76
730.55	269.21
730.89	268.54
731.22	267.84
731.55	267.15
731.88	266.48
732.21	265.73
732.54	265.12
732.87	264.50
733.20	263.93
733.53	263.28
733.86	262.76
734.19	262.06
734.52	261.46
734.85	261.24
735.18	260.64
735.51	260.11
735.84	259.46
736.17	258.98
736.50	258.20
736.83	258.14
737.16	257.64
737.49	257.11
737.82	256.52
738.15	256.09
738.48	255.52
738.81	255.01
739.14	254.47
739.47	253.84
739.80	253.33
740.13	252.85
740.46	252.33
740.79	251.79
741.12	251.30
741.45	250.83
741.78	250.12
742.11	249.76
742.44	249.25
742.77	248.96
743.10	248.53
743.43	248.16
743.75	247.24
744.08	247.24
744.41	246.72
744.74	246.38
745.07	245.97
745.40	245.62
745.73	245.38
746.06	245.04
746.39	244.77
746.71	244.30
747.04	243.79
747.37	243.40
747.70	243.12
748.03	242.83
748.36	242.45
748.68	242.05
749.01	241.56
749.34	241.18
749.67	240.77
750.00	240.43
750.33	240.31
750.65	240.06
750.98	239.29
751.31	239.02
751.64	238.70
751.97	238.50
752.29	238.17
752.62	237.67
752.95	237.35
753.28	236.98
753.60	236.70
753.93	236.60
754.26	236.29
754.59	235.95
754.91	235.65
755.24	235.44
755.57	235.23
755.90	235.02
756.22	234.83
756.55	234.50
756.88	234.15
757.20	233.66
757.53	233.25
757.86	233.01
758.19	232.78
758.51	232.51
758.84	232.01
759.17	231.68
759.49	231.48
759.82	231.37
760.15	231.23
760.47	231.08
760.80	230.64
761.13	230.50
761.45	230.18
761.78	230.05
762.11	229.73
762.43	229.51
762.76	229.24
763.08	229.10
763.41	228.86
763.74	228.70
764.06	228.53
764.39	228.33
764.71	228.08
765.04	227.88
765.37	227.74
765.69	227.66
766.02	227.45
766.34	227.20
766.67	226.92
767.00	226.86
767.32	226.83
767.65	226.86
767.97	226.67
768.30	226.60
768.62	226.38
768.95	226.18
769.27	225.92
769.60	225.84
769.92	225.58
770.25	225.50
770.57	225.27
770.90	225.13
771.22	224.98
771.55	224.84
771.87	224.65
772.20	224.41
772.52	224.54
772.85	224.90
773.17	224.74
773.50	224.52
773.82	224.23
774.15	223.96
774.47	223.65
774.80	223.50
775.12	223.37
775.45	223.28
775.77	223.14
776.09	223.05
776.42	222.82
776.74	222.82
777.07	222.65
777.39	222.62
777.72	222.45
778.04	222.39
778.36	222.34
778.69	222.32
779.01	222.24
779.33	221.78
779.66	221.29
779.98	221.20
780.31	221.21
780.63	221.26
780.95	221.15
781.28	221.02
781.60	220.84
781.92	220.66
782.25	220.45
782.57	220.40
782.89	220.34
783.22	220.32
783.54	220.15
783.86	220.04
784.19	219.87
784.51	219.96
784.83	219.79
785.16	219.65
785.48	219.51
