SpectraSuite Data File
++++++++++++++++++++++++++++++++++++
Date: Mon Feb 25 17:13:26 EST 2013
User: group
Dark Spectrum Present: No
Reference Spectrum Present: No
Number of Sampled Component Spectra: 1
Spectrometers: USB2E7196
Integration Time (usec): 104000 (USB2E7196)
Spectra Averaged: 20 (USB2E7196)
Boxcar Smoothing: 10 (USB2E7196)
Correct for Electrical Dark: No (USB2E7196)
Strobe/Lamp Enabled: No (USB2E7196)
Correct for Detector Non-linearity: No (USB2E7196)
Correct for Stray Light: No (USB2E7196)
Number of Pixels in Processed Spectrum: 2048
>>>>>Begin Processed Spectral Data<<<<<
339.09	0.00
339.48	198.75
339.86	199.85
340.24	202.15
340.63	203.05
341.01	210.10
341.39	206.05
341.78	206.80
342.16	208.20
342.54	210.10
342.93	198.49
343.31	208.56
343.69	209.10
344.07	209.56
344.46	210.08
344.84	210.51
345.22	210.51
345.60	210.79
345.99	211.01
346.37	211.09
346.75	211.13
347.13	211.14
347.52	211.19
347.90	211.39
348.28	211.32
348.66	211.40
349.05	211.25
349.43	211.34
349.81	211.48
350.19	211.46
350.57	211.67
350.96	211.67
351.34	211.71
351.72	211.79
352.10	211.90
352.48	211.89
352.87	211.91
353.25	212.05
353.63	212.13
354.01	212.19
354.39	212.35
354.77	212.40
355.15	212.65
355.54	212.67
355.92	212.61
356.30	212.73
356.68	213.01
357.06	213.15
357.44	213.15
357.82	213.18
358.20	213.33
358.58	213.22
358.97	213.34
359.35	213.45
359.73	213.65
360.11	213.74
360.49	213.77
360.87	213.77
361.25	213.81
361.63	213.90
362.01	213.92
362.39	213.95
362.77	214.06
363.15	214.05
363.53	214.11
363.91	214.13
364.29	214.14
364.67	213.91
365.05	213.84
365.43	213.91
365.81	213.92
366.19	214.06
366.57	214.28
366.95	214.31
367.33	214.21
367.71	214.03
368.09	214.10
368.47	214.03
368.85	214.01
369.23	214.03
369.61	213.86
369.99	213.91
370.37	213.88
370.75	213.93
371.13	213.85
371.51	213.68
371.89	213.71
372.27	213.68
372.65	213.58
373.03	213.59
373.41	213.47
373.78	213.42
374.16	213.12
374.54	212.92
374.92	212.86
375.30	212.78
375.68	212.75
376.06	212.75
376.44	212.68
376.82	212.65
377.19	212.55
377.57	212.51
377.95	212.40
378.33	212.27
378.71	212.12
379.09	212.07
379.47	212.12
379.84	212.03
380.22	211.95
380.60	211.81
380.98	211.78
381.36	211.76
381.73	211.66
382.11	211.78
382.49	211.82
382.87	211.70
383.25	211.75
383.62	212.12
384.00	211.96
384.38	211.99
384.76	212.09
385.13	212.21
385.51	212.18
385.89	212.10
386.27	212.16
386.64	212.13
387.02	212.07
387.40	212.04
387.78	211.97
388.15	212.02
388.53	212.00
388.91	211.93
389.29	211.88
389.66	211.95
390.04	211.85
390.42	211.83
390.79	211.76
391.17	211.74
391.55	211.32
391.92	211.35
392.30	211.34
392.68	211.19
393.05	211.16
393.43	211.15
393.81	211.20
394.18	211.19
394.56	211.21
394.94	211.32
395.31	211.22
395.69	211.33
396.06	211.33
396.44	211.36
396.82	211.32
397.19	211.47
397.57	211.45
397.95	211.48
398.32	211.32
398.70	211.41
399.07	211.52
399.45	211.52
399.82	211.47
400.20	211.48
400.58	211.50
400.95	211.40
401.33	211.50
401.70	211.75
402.08	211.74
402.45	211.64
402.83	211.64
403.20	211.76
403.58	211.72
403.95	211.83
404.33	212.02
404.71	212.21
405.08	212.40
405.46	212.44
405.83	212.53
406.21	212.65
406.58	212.81
406.96	212.86
407.33	213.04
407.70	213.16
408.08	213.57
408.45	213.79
408.83	213.99
409.20	214.09
409.58	214.04
409.95	214.27
410.33	214.63
410.70	214.83
411.08	215.13
411.45	215.45
411.82	215.63
412.20	215.89
412.57	216.35
412.95	216.43
413.32	216.84
413.69	217.23
414.07	217.69
414.44	218.13
414.82	218.64
415.19	219.17
415.56	219.75
415.94	220.14
416.31	220.77
416.68	221.53
417.06	222.28
417.43	223.10
417.81	223.96
418.18	224.79
418.55	225.69
418.93	226.58
419.30	227.61
419.67	228.71
420.04	229.82
420.42	230.87
420.79	232.35
421.16	233.74
421.54	235.34
421.91	236.81
422.28	238.22
422.66	239.72
423.03	241.43
423.40	243.03
423.77	244.68
424.15	246.37
424.52	248.11
424.89	250.07
425.26	251.90
425.64	253.63
426.01	255.65
426.38	257.78
426.75	260.02
427.13	262.13
427.50	264.30
427.87	266.60
428.24	268.87
428.61	271.04
428.99	273.60
429.36	276.05
429.73	278.67
430.10	281.41
430.47	284.13
430.85	286.80
431.22	289.76
431.59	293.10
431.96	296.04
432.33	299.31
432.70	302.53
433.08	306.35
433.45	309.98
433.82	313.36
434.19	317.23
434.56	321.09
434.93	324.69
435.30	328.36
435.68	332.39
436.05	336.40
436.42	340.21
436.79	343.82
437.16	347.66
437.53	351.70
437.90	355.56
438.27	359.53
438.64	363.57
439.01	367.39
439.38	370.64
439.75	373.95
440.13	377.67
440.50	381.26
440.87	384.05
441.24	386.93
441.61	390.24
441.98	392.53
442.35	395.24
442.72	398.08
443.09	400.90
443.46	402.55
443.83	403.72
444.20	404.77
444.57	406.01
444.94	406.73
445.31	407.44
445.68	408.54
446.05	408.74
446.42	408.37
446.79	407.90
447.16	407.29
447.53	406.98
447.90	405.46
448.27	403.77
448.64	401.62
449.01	400.12
449.37	397.50
449.74	394.98
450.11	392.13
450.48	388.69
450.85	385.13
451.22	382.10
451.59	379.20
451.96	376.49
452.33	372.75
452.70	369.37
453.07	365.41
453.43	361.14
453.80	357.29
454.17	353.57
454.54	350.05
454.91	346.34
455.28	342.60
455.65	339.25
456.02	336.42
456.38	333.59
456.75	330.01
457.12	326.94
457.49	323.92
457.86	320.76
458.23	318.53
458.59	315.94
458.96	313.31
459.33	310.87
459.70	308.39
460.07	306.66
460.43	304.54
460.80	302.61
461.17	300.83
461.54	298.99
461.91	297.17
462.27	295.38
462.64	293.86
463.01	292.26
463.38	290.67
463.74	288.48
464.11	286.97
464.48	285.72
464.85	284.37
465.21	283.47
465.58	282.43
465.95	280.98
466.32	279.85
466.68	278.68
467.05	277.67
467.42	276.59
467.78	275.44
468.15	274.39
468.52	273.54
468.88	272.47
469.25	271.62
469.62	270.95
469.98	270.18
470.35	269.45
470.72	268.81
471.08	268.03
471.45	267.48
471.82	266.94
472.18	266.32
472.55	265.88
472.92	265.19
473.28	264.64
473.65	264.16
474.02	263.74
474.38	263.51
474.75	263.20
475.11	262.86
475.48	262.64
475.85	262.35
476.21	262.12
476.58	261.92
476.94	261.82
477.31	261.76
477.67	261.74
478.04	261.77
478.41	261.71
478.77	262.05
479.14	262.15
479.50	262.24
479.87	262.35
480.23	262.47
480.60	262.67
480.96	262.85
481.33	263.19
481.69	263.41
482.06	263.64
482.42	264.01
482.79	264.44
483.15	264.89
483.52	265.51
483.88	265.98
484.25	266.47
484.61	267.10
484.98	267.71
485.34	268.41
485.71	269.23
486.07	270.03
486.44	270.58
486.80	271.44
487.17	272.40
487.53	273.58
487.90	274.84
488.26	276.24
488.62	277.67
488.99	278.97
489.35	280.42
489.72	281.98
490.08	283.53
490.44	285.25
490.81	286.99
491.17	288.82
491.54	290.90
491.90	292.90
492.26	294.95
492.63	297.21
492.99	299.47
493.36	301.77
493.72	304.44
494.08	307.08
494.45	309.82
494.81	312.79
495.17	315.71
495.54	318.88
495.90	321.95
496.26	325.22
496.63	328.81
496.99	332.53
497.35	336.41
497.72	340.43
498.08	344.49
498.44	348.85
498.80	353.28
499.17	357.80
499.53	362.78
499.89	367.90
500.26	373.02
500.62	378.27
500.98	383.85
501.34	389.51
501.71	395.45
502.07	401.51
502.43	407.69
502.79	414.14
503.16	420.66
503.52	427.51
503.88	434.53
504.24	441.67
504.60	449.05
504.97	456.67
505.33	464.30
505.69	472.68
506.05	480.75
506.41	489.22
506.78	497.71
507.14	506.32
507.50	515.21
507.86	524.40
508.22	533.97
508.59	543.26
508.95	552.95
509.31	562.83
509.67	572.96
510.03	583.23
510.39	593.67
510.75	604.53
511.12	615.47
511.48	626.52
511.84	637.77
512.20	649.04
512.56	660.64
512.92	672.58
513.28	684.24
513.64	696.24
514.00	708.38
514.37	720.55
514.73	732.92
515.09	745.49
515.45	757.93
515.81	770.42
516.17	783.38
516.53	796.36
516.89	809.40
517.25	822.57
517.61	835.75
517.97	849.01
518.33	862.22
518.69	875.50
519.05	888.88
519.41	902.42
519.77	916.28
520.13	929.78
520.49	943.18
520.85	956.80
521.21	970.71
521.57	984.60
521.93	998.28
522.29	1012.35
522.65	1026.13
523.01	1040.12
523.37	1053.91
523.73	1067.88
524.09	1081.40
524.45	1095.12
524.81	1109.08
525.17	1123.14
525.53	1136.97
525.89	1150.93
526.25	1164.63
526.61	1177.95
526.97	1191.37
527.33	1204.62
527.68	1218.34
528.04	1231.33
528.40	1243.98
528.76	1257.05
529.12	1270.15
529.48	1283.77
529.84	1296.48
530.20	1309.51
530.56	1322.23
530.91	1335.30
531.27	1348.14
531.63	1360.87
531.99	1373.56
532.35	1385.52
532.71	1397.22
533.07	1409.36
533.42	1421.25
533.78	1433.25
534.14	1444.71
534.50	1455.68
534.86	1466.99
535.21	1477.27
535.57	1488.78
535.93	1499.85
536.29	1510.31
536.65	1520.71
537.00	1530.39
537.36	1540.12
537.72	1549.35
538.08	1558.93
538.44	1568.29
538.79	1577.60
539.15	1586.79
539.51	1595.48
539.87	1604.77
540.22	1613.48
540.58	1622.17
540.94	1630.32
541.29	1638.02
541.65	1645.54
542.01	1653.30
542.37	1660.99
542.72	1668.71
543.08	1675.30
543.44	1682.88
543.79	1689.40
544.15	1695.54
544.51	1702.13
544.87	1709.04
545.22	1715.10
545.58	1720.66
545.94	1725.49
546.29	1729.75
546.65	1734.11
547.01	1738.86
547.36	1742.98
547.72	1747.07
548.07	1750.44
548.43	1753.79
548.79	1756.61
549.14	1760.22
549.50	1763.23
549.86	1765.31
550.21	1767.49
550.57	1770.27
550.92	1771.61
551.28	1773.37
551.64	1775.11
551.99	1776.83
552.35	1777.88
552.70	1779.49
553.06	1780.90
553.41	1782.27
553.77	1783.62
554.13	1784.45
554.48	1785.33
554.84	1785.87
555.19	1786.49
555.55	1786.61
555.90	1786.26
556.26	1786.39
556.61	1786.06
556.97	1785.32
557.32	1785.05
557.68	1784.05
558.03	1783.06
558.39	1782.37
558.74	1782.05
559.10	1781.56
559.45	1780.81
559.81	1780.29
560.16	1778.65
560.52	1777.53
560.87	1776.46
561.23	1774.82
561.58	1774.05
561.94	1771.83
562.29	1769.75
562.64	1767.91
563.00	1766.67
563.35	1765.69
563.71	1764.91
564.06	1763.38
564.42	1762.35
564.77	1760.91
565.12	1760.13
565.48	1758.62
565.83	1757.12
566.19	1755.59
566.54	1753.05
566.89	1750.29
567.25	1747.82
567.60	1745.84
567.96	1743.15
568.31	1740.89
568.66	1738.14
569.02	1734.78
569.37	1731.41
569.72	1728.72
570.08	1725.46
570.43	1721.91
570.78	1718.13
571.14	1713.74
571.49	1709.96
571.84	1706.36
572.20	1702.25
572.55	1698.15
572.90	1693.51
573.26	1688.95
573.61	1683.97
573.96	1679.69
574.31	1675.05
574.67	1669.77
575.02	1664.52
575.37	1659.83
575.72	1654.12
576.08	1649.72
576.43	1644.93
576.78	1640.74
577.13	1636.10
577.49	1631.31
577.84	1626.49
578.19	1622.07
578.54	1617.86
578.90	1613.58
579.25	1608.75
579.60	1603.72
579.95	1598.33
580.30	1594.02
580.66	1589.45
581.01	1584.51
581.36	1579.31
581.71	1574.38
582.06	1569.62
582.42	1564.73
582.77	1559.43
583.12	1554.55
583.47	1549.61
583.82	1544.91
584.17	1539.81
584.53	1535.03
584.88	1530.19
585.23	1525.16
585.58	1519.96
585.93	1514.67
586.28	1509.98
586.63	1504.90
586.98	1500.14
587.34	1495.66
587.69	1490.35
588.04	1485.29
588.39	1480.71
588.74	1475.63
589.09	1471.22
589.44	1466.07
589.79	1461.57
590.14	1457.07
590.49	1452.22
590.84	1447.33
591.19	1442.84
591.54	1437.89
591.89	1432.43
592.25	1427.53
592.60	1422.29
592.95	1416.89
593.30	1411.33
593.65	1405.58
594.00	1400.34
594.35	1396.40
594.70	1391.03
595.05	1386.31
595.40	1381.44
595.75	1375.83
596.10	1371.10
596.45	1365.84
596.80	1361.67
597.15	1356.95
597.50	1351.63
597.85	1347.09
598.19	1342.10
598.54	1336.96
598.89	1332.62
599.24	1328.60
599.59	1323.97
599.94	1320.16
600.29	1316.07
600.64	1311.99
600.99	1307.02
601.34	1302.71
601.69	1297.06
602.04	1292.42
602.39	1287.59
602.74	1282.97
603.08	1279.39
603.43	1275.50
603.78	1271.06
604.13	1266.38
604.48	1261.76
604.83	1258.31
605.18	1254.47
605.53	1250.09
605.87	1245.49
606.22	1241.25
606.57	1236.54
606.92	1232.07
607.27	1227.00
607.62	1222.30
607.96	1218.03
608.31	1214.18
608.66	1209.26
609.01	1204.62
609.36	1200.09
609.70	1195.32
610.05	1190.15
610.40	1184.89
610.75	1179.68
611.10	1175.34
611.44	1169.57
611.79	1164.23
612.14	1158.26
612.49	1151.96
612.83	1146.77
613.18	1141.20
613.53	1135.56
613.88	1129.65
614.22	1124.14
614.57	1118.63
614.92	1112.99
615.27	1107.21
615.61	1101.65
615.96	1096.64
616.31	1091.63
616.65	1086.55
617.00	1081.42
617.35	1076.61
617.70	1071.21
618.04	1065.44
618.39	1059.24
618.74	1054.30
619.08	1049.00
619.43	1043.83
619.78	1038.97
620.12	1033.63
620.47	1028.85
620.82	1023.30
621.16	1017.62
621.51	1012.17
621.85	1007.05
622.20	1001.72
622.55	996.38
622.89	991.05
623.24	985.57
623.59	979.79
623.93	974.50
624.28	969.40
624.62	964.20
624.97	959.12
625.32	954.32
625.66	949.51
626.01	944.65
626.35	939.97
626.70	935.15
627.04	930.51
627.39	925.84
627.73	920.94
628.08	916.43
628.43	911.82
628.77	907.10
629.12	902.16
629.46	897.90
629.81	893.27
630.15	888.60
630.50	883.82
630.84	879.22
631.19	874.48
631.53	869.77
631.88	864.72
632.22	859.62
632.57	855.06
632.91	850.58
633.26	845.99
633.60	841.42
633.95	836.85
634.29	831.97
634.64	827.45
634.98	822.60
635.32	818.02
635.67	814.03
636.01	809.85
636.36	805.43
636.70	801.16
637.05	796.92
637.39	792.67
637.73	788.79
638.08	785.14
638.42	781.27
638.77	777.28
639.11	773.23
639.45	769.37
639.80	765.03
640.14	760.50
640.49	756.17
640.83	751.89
641.17	747.72
641.52	743.70
641.86	739.27
642.20	735.55
642.55	731.18
642.89	726.72
643.23	722.30
643.58	718.46
643.92	713.99
644.26	709.95
644.61	705.83
644.95	701.61
645.29	697.15
645.64	693.02
645.98	688.63
646.32	684.71
646.66	680.49
647.01	676.56
647.35	672.92
647.69	668.92
648.04	665.04
648.38	661.10
648.72	657.19
649.06	653.20
649.41	649.09
649.75	645.43
650.09	641.80
650.43	638.08
650.78	633.85
651.12	629.97
651.46	626.06
651.80	622.47
652.14	618.64
652.49	615.00
652.83	610.88
653.17	606.97
653.51	603.14
653.85	599.64
654.20	595.92
654.54	592.04
654.88	588.34
655.22	584.62
655.56	580.84
655.90	577.15
656.25	573.63
656.59	569.99
656.93	566.29
657.27	562.70
657.61	559.04
657.95	555.81
658.29	552.41
658.64	549.09
658.98	545.49
659.32	541.90
659.66	538.50
660.00	535.13
660.34	531.86
660.68	528.48
661.02	525.04
661.36	521.81
661.70	518.72
662.05	515.74
662.39	512.75
662.73	509.76
663.07	506.70
663.41	503.68
663.75	500.53
664.09	497.51
664.43	494.51
664.77	491.60
665.11	488.50
665.45	485.65
665.79	482.69
666.13	479.95
666.47	477.08
666.81	474.32
667.15	471.68
667.49	469.16
667.83	466.67
668.17	464.11
668.51	461.69
668.85	459.18
669.19	456.90
669.53	454.32
669.87	451.80
670.21	449.45
670.55	447.15
670.89	445.16
671.23	443.01
671.57	440.78
671.91	438.55
672.25	436.32
672.58	434.04
672.92	431.85
673.26	429.55
673.60	427.55
673.94	425.32
674.28	423.18
674.62	421.17
674.96	418.99
675.30	417.01
675.64	414.87
675.97	412.77
676.31	410.63
676.65	408.53
676.99	406.86
677.33	404.77
677.67	402.67
678.01	400.58
678.34	398.56
678.68	396.49
679.02	394.50
679.36	392.70
679.70	390.91
680.04	389.06
680.37	387.14
680.71	385.31
681.05	383.50
681.39	381.67
681.73	379.79
682.06	378.05
682.40	376.27
682.74	374.55
683.08	372.95
683.42	371.03
683.75	369.32
684.09	367.31
684.43	365.66
684.77	363.92
685.10	362.19
685.44	360.37
685.78	358.78
686.12	357.22
686.45	355.64
686.79	354.03
687.13	352.61
687.46	351.15
687.80	349.64
688.14	348.05
688.48	346.67
688.81	345.14
689.15	343.63
689.49	342.02
689.82	340.54
690.16	338.83
690.50	337.36
690.83	335.95
691.17	334.50
691.51	332.97
691.84	331.70
692.18	330.30
692.52	329.15
692.85	327.93
693.19	326.72
693.52	325.25
693.86	323.84
694.20	322.42
694.53	321.13
694.87	319.82
695.21	318.62
695.54	317.23
695.88	315.89
696.21	314.62
696.55	313.53
696.88	312.29
697.22	311.12
697.56	310.05
697.89	308.90
698.23	307.81
698.56	306.72
698.90	305.66
699.23	304.50
699.57	303.26
699.90	302.06
700.24	300.86
700.58	299.87
700.91	298.95
701.25	298.11
701.58	297.20
701.92	296.15
702.25	295.13
702.59	294.08
702.92	293.21
703.26	292.30
703.59	291.40
703.93	290.85
704.26	290.06
704.60	289.13
704.93	288.22
705.26	287.30
705.60	286.53
705.93	285.56
706.27	284.78
706.60	284.07
706.94	283.40
707.27	282.56
707.61	281.78
707.94	280.84
708.27	279.80
708.61	278.78
708.94	277.93
709.28	277.16
709.61	276.40
709.94	275.71
710.28	275.03
710.61	274.28
710.95	273.17
711.28	272.67
711.61	271.99
711.95	271.30
712.28	270.58
712.61	269.81
712.95	269.30
713.28	268.80
713.61	268.07
713.95	267.36
714.28	266.78
714.61	266.12
714.95	265.59
715.28	264.95
715.61	264.44
715.95	263.91
716.28	263.32
716.61	262.80
716.95	262.10
717.28	261.48
717.61	260.82
717.94	260.26
718.28	259.35
718.61	258.75
718.94	258.21
719.27	257.75
719.61	257.18
719.94	256.56
720.27	255.79
720.60	255.35
720.94	254.88
721.27	254.39
721.60	253.93
721.93	253.41
722.27	253.04
722.60	252.64
722.93	252.17
723.26	251.75
723.59	251.27
723.93	250.88
724.26	250.53
724.59	250.07
724.92	249.69
725.25	249.45
725.59	249.05
725.92	248.67
726.25	248.23
726.58	247.92
726.91	247.62
727.24	247.40
727.57	246.99
727.91	246.47
728.24	246.11
728.57	245.70
728.90	245.42
729.23	244.94
729.56	244.70
729.89	244.28
730.22	243.90
730.55	243.54
730.89	243.22
731.22	242.81
731.55	242.48
731.88	242.16
732.21	241.72
732.54	241.38
732.87	241.08
733.20	240.76
733.53	240.45
733.86	240.13
734.19	239.68
734.52	239.37
734.85	239.42
735.18	239.06
735.51	238.87
735.84	238.62
736.17	238.51
736.50	238.05
736.83	238.22
737.16	237.98
737.49	237.75
737.82	237.46
738.15	237.28
738.48	237.02
738.81	236.70
739.14	236.45
739.47	236.14
739.80	235.85
740.13	235.64
740.46	235.33
740.79	235.00
741.12	234.78
741.45	234.55
741.78	234.05
742.11	233.90
742.44	233.58
742.77	233.28
743.10	232.99
743.43	232.79
743.75	232.14
744.08	232.37
744.41	232.08
744.74	231.88
745.07	231.56
745.40	231.45
745.73	231.40
746.06	231.21
746.39	231.09
746.71	230.80
747.04	230.57
747.37	230.41
747.70	230.24
748.03	230.10
748.36	229.90
748.68	229.69
749.01	229.47
749.34	229.33
749.67	229.04
750.00	228.86
750.33	228.83
750.65	228.75
750.98	228.06
751.31	227.92
751.64	227.75
751.97	227.76
752.29	227.54
752.62	227.11
752.95	226.84
753.28	226.61
753.60	226.50
753.93	226.50
754.26	226.33
754.59	226.04
754.91	225.81
755.24	225.61
755.57	225.42
755.90	225.26
756.22	225.06
756.55	225.00
756.88	224.76
757.20	224.45
757.53	224.15
757.86	224.05
758.19	223.92
758.51	223.72
758.84	223.41
759.17	223.20
759.49	223.10
759.82	223.17
760.15	223.02
760.47	222.85
760.80	222.47
761.13	222.33
761.45	222.27
761.78	222.19
762.11	222.04
762.43	221.95
762.76	221.75
763.08	221.62
763.41	221.46
763.74	221.39
764.06	221.29
764.39	221.20
764.71	221.04
765.04	220.83
765.37	220.68
765.69	220.58
766.02	220.47
766.34	220.34
766.67	220.10
767.00	220.05
767.32	220.17
767.65	220.35
767.97	220.28
768.30	220.11
768.62	219.98
768.95	219.91
769.27	219.76
769.60	219.78
769.92	219.68
770.25	219.58
770.57	219.40
770.90	219.23
771.22	219.17
771.55	219.09
771.87	219.07
772.20	218.96
772.52	219.11
772.85	219.53
773.17	219.53
773.50	219.47
773.82	219.34
774.15	219.02
774.47	218.70
774.80	218.55
775.12	218.51
775.45	218.41
775.77	218.35
776.09	218.28
776.42	218.19
776.74	218.21
777.07	218.11
777.39	218.10
777.72	218.10
778.04	218.03
778.36	217.92
778.69	217.82
779.01	217.77
779.33	217.42
779.66	216.86
779.98	216.77
780.31	216.75
780.63	216.86
780.95	216.90
781.28	216.82
781.60	216.70
781.92	216.60
782.25	216.57
782.57	216.43
782.89	216.41
783.22	216.32
783.54	216.18
783.86	216.18
784.19	216.06
784.51	216.07
784.83	215.98
785.16	215.95
785.48	215.92
785.80	216.02
786.12	216.01
786.45	216.03
786.77	216.07
787.09	215.97
787.42	215.83
787.74	215.81
788.06	215.77
