SpectraSuite Data File
++++++++++++++++++++++++++++++++++++
Date: Mon Feb 25 17:18:13 EST 2013
User: group
Dark Spectrum Present: No
Reference Spectrum Present: No
Number of Sampled Component Spectra: 1
Spectrometers: USB2E7196
Integration Time (usec): 104000 (USB2E7196)
Spectra Averaged: 20 (USB2E7196)
Boxcar Smoothing: 10 (USB2E7196)
Correct for Electrical Dark: No (USB2E7196)
Strobe/Lamp Enabled: No (USB2E7196)
Correct for Detector Non-linearity: No (USB2E7196)
Correct for Stray Light: No (USB2E7196)
Number of Pixels in Processed Spectrum: 2048
>>>>>Begin Processed Spectral Data<<<<<
339.09	0.00
339.48	197.75
339.86	200.95
340.24	202.05
340.63	203.45
341.01	209.85
341.39	206.50
341.78	208.10
342.16	209.60
342.54	209.35
342.93	198.75
343.31	208.77
343.69	209.39
344.07	209.82
344.46	210.29
344.84	210.70
345.22	210.73
345.60	211.08
345.99	211.23
346.37	211.38
346.75	211.47
347.13	211.64
347.52	211.67
347.90	211.83
348.28	211.93
348.66	212.10
349.05	212.12
349.43	212.10
349.81	212.17
350.19	212.24
350.57	212.36
350.96	212.52
351.34	212.63
351.72	212.75
352.10	212.89
352.48	212.90
352.87	212.97
353.25	213.08
353.63	213.08
354.01	213.16
354.39	213.22
354.77	213.29
355.15	213.43
355.54	213.47
355.92	213.38
356.30	213.34
356.68	213.59
357.06	213.60
357.44	213.61
357.82	213.60
358.20	213.73
358.58	213.74
358.97	213.74
359.35	213.84
359.73	213.91
360.11	213.95
360.49	213.99
360.87	214.00
361.25	214.11
361.63	214.23
362.01	214.28
362.39	214.28
362.77	214.34
363.15	214.27
363.53	214.31
363.91	214.40
364.29	214.51
364.67	214.18
365.05	214.13
365.43	214.27
365.81	214.40
366.19	214.54
366.57	214.65
366.95	214.65
367.33	214.61
367.71	214.60
368.09	214.63
368.47	214.68
368.85	214.61
369.23	214.57
369.61	214.38
369.99	214.55
370.37	214.60
370.75	214.77
371.13	214.73
371.51	214.70
371.89	214.62
372.27	214.55
372.65	214.61
373.03	214.70
373.41	214.62
373.78	214.51
374.16	214.30
374.54	214.21
374.92	214.17
375.30	214.14
375.68	214.07
376.06	214.03
376.44	214.00
376.82	214.00
377.19	214.00
377.57	213.99
377.95	213.79
378.33	213.67
378.71	213.47
379.09	213.37
379.47	213.36
379.84	213.32
380.22	213.28
380.60	213.10
380.98	212.94
381.36	212.85
381.73	212.77
382.11	212.71
382.49	212.62
382.87	212.56
383.25	212.46
383.62	212.83
384.00	212.78
384.38	212.72
384.76	212.81
385.13	212.92
385.51	212.97
385.89	212.90
386.27	212.90
386.64	212.87
387.02	212.84
387.40	212.73
387.78	212.76
388.15	212.77
388.53	212.74
388.91	212.77
389.29	212.76
389.66	212.75
390.04	212.76
390.42	212.84
390.79	212.81
391.17	212.85
391.55	212.49
391.92	212.48
392.30	212.56
392.68	212.41
393.05	212.39
393.43	212.37
393.81	212.36
394.18	212.28
394.56	212.28
394.94	212.39
395.31	212.40
395.69	212.51
396.06	212.52
396.44	212.62
396.82	212.57
397.19	212.72
397.57	212.72
397.95	212.80
398.32	212.72
398.70	212.82
399.07	212.98
399.45	212.98
399.82	213.00
400.20	212.96
400.58	213.06
400.95	212.91
401.33	212.94
401.70	213.22
402.08	213.33
402.45	213.48
402.83	213.56
403.20	213.68
403.58	213.69
403.95	213.80
404.33	213.86
404.71	214.07
405.08	214.35
405.46	214.51
405.83	214.66
406.21	214.81
406.58	214.94
406.96	215.03
407.33	215.21
407.70	215.44
408.08	215.94
408.45	216.23
408.83	216.59
409.20	216.83
409.58	216.95
409.95	217.31
410.33	217.57
410.70	217.87
411.08	218.28
411.45	218.64
411.82	219.08
412.20	219.62
412.57	220.32
412.95	220.61
413.32	221.18
413.69	221.85
414.07	222.60
414.44	223.30
414.82	224.14
415.19	224.98
415.56	225.85
415.94	226.59
416.31	227.58
416.68	228.61
417.06	229.86
417.43	231.08
417.81	232.37
418.18	233.82
418.55	235.24
418.93	236.76
419.30	238.42
419.67	240.12
420.04	241.82
420.42	243.57
420.79	245.85
421.16	247.90
421.54	250.14
421.91	252.33
422.28	254.62
422.66	256.94
423.03	259.54
423.40	262.00
423.77	264.57
424.15	267.25
424.52	269.99
424.89	272.97
425.26	275.81
425.64	278.67
426.01	281.55
426.38	284.75
426.75	288.10
427.13	291.41
427.50	294.83
427.87	298.50
428.24	302.09
428.61	305.30
428.99	309.27
429.36	313.26
429.73	317.32
430.10	321.54
430.47	325.75
430.85	329.90
431.22	334.37
431.59	339.39
431.96	343.91
432.33	349.10
432.70	354.05
433.08	359.90
433.45	365.25
433.82	370.82
434.19	376.83
434.56	382.63
434.93	388.26
435.30	393.91
435.68	400.05
436.05	406.10
436.42	412.21
436.79	417.74
437.16	423.68
437.53	429.91
437.90	436.10
438.27	442.28
438.64	448.69
439.01	454.79
439.38	459.85
439.75	465.15
440.13	470.90
440.50	476.38
440.87	480.79
441.24	485.34
441.61	490.42
441.98	494.08
442.35	498.46
442.72	502.89
443.09	507.15
443.46	509.64
443.83	511.29
444.20	512.74
444.57	514.77
444.94	515.75
445.31	516.91
445.68	518.02
446.05	518.29
446.42	517.39
446.79	516.49
447.16	515.54
447.53	514.75
447.90	512.27
448.27	509.75
448.64	506.36
449.01	504.05
449.37	499.70
449.74	495.71
450.11	490.91
450.48	485.50
450.85	479.92
451.22	475.26
451.59	470.87
451.96	466.70
452.33	461.14
452.70	456.05
453.07	449.82
453.43	443.35
453.80	437.45
454.17	431.97
454.54	426.58
454.91	420.84
455.28	415.22
455.65	410.00
456.02	405.15
456.38	400.81
456.75	395.25
457.12	390.73
457.49	386.24
457.86	381.70
458.23	378.02
458.59	374.02
458.96	369.95
459.33	366.32
459.70	362.66
460.07	359.73
460.43	356.39
460.80	353.36
461.17	350.78
461.54	348.00
461.91	345.18
462.27	342.44
462.64	340.09
463.01	337.50
463.38	335.05
463.74	332.19
464.11	329.99
464.48	328.12
464.85	325.94
465.21	324.40
465.58	322.83
465.95	320.73
466.32	319.08
466.68	317.44
467.05	315.83
467.42	314.16
467.78	312.42
468.15	310.89
468.52	309.77
468.88	308.12
469.25	306.66
469.62	305.73
469.98	304.57
470.35	303.55
470.72	302.60
471.08	301.51
471.45	300.68
471.82	299.80
472.18	298.80
472.55	298.22
472.92	297.38
473.28	296.65
473.65	296.00
474.02	295.43
474.38	294.99
474.75	294.63
475.11	294.26
475.48	294.07
475.85	293.81
476.21	293.64
476.58	293.65
476.94	293.84
477.31	293.74
477.67	293.77
478.04	293.92
478.41	294.15
478.77	294.77
479.14	294.95
479.50	295.37
479.87	295.89
480.23	296.44
480.60	296.89
480.96	297.38
481.33	298.26
481.69	298.99
482.06	299.74
482.42	300.35
482.79	301.20
483.15	302.19
483.52	303.47
483.88	304.53
484.25	305.58
484.61	306.74
484.98	308.13
485.34	309.77
485.71	311.49
486.07	313.16
486.44	314.55
486.80	316.51
487.17	318.40
487.53	320.75
487.90	323.05
488.26	325.60
488.62	328.38
488.99	330.97
489.35	333.70
489.72	336.77
490.08	340.10
490.44	343.39
490.81	346.91
491.17	350.29
491.54	354.19
491.90	358.28
492.26	362.66
492.63	367.19
492.99	371.77
493.36	376.57
493.72	381.81
494.08	387.24
494.45	392.92
494.81	398.99
495.17	404.91
495.54	411.36
495.90	418.02
496.26	424.72
496.63	432.07
496.99	439.63
497.35	447.52
497.72	455.89
498.08	464.45
498.44	473.35
498.80	482.92
499.17	492.56
499.53	502.59
499.89	512.88
500.26	523.38
500.62	534.29
500.98	545.90
501.34	557.76
501.71	570.02
502.07	582.64
502.43	595.53
502.79	609.01
503.16	622.81
503.52	636.96
503.88	651.78
504.24	666.58
504.60	682.15
504.97	697.95
505.33	713.85
505.69	730.93
506.05	748.15
506.41	765.62
506.78	783.27
507.14	801.39
507.50	820.19
507.86	839.42
508.22	859.16
508.59	878.75
508.95	898.94
509.31	919.84
509.67	941.19
510.03	962.92
510.39	985.05
510.75	1007.70
511.12	1030.53
511.48	1053.77
511.84	1077.60
512.20	1101.09
512.56	1125.51
512.92	1150.35
513.28	1175.02
513.64	1200.05
514.00	1225.21
514.37	1250.89
514.73	1277.15
515.09	1303.11
515.45	1329.34
515.81	1355.56
516.17	1382.35
516.53	1409.22
516.89	1435.68
517.25	1462.28
517.61	1489.14
517.97	1515.81
518.33	1542.40
518.69	1569.25
519.05	1596.29
519.41	1623.57
519.77	1651.72
520.13	1678.74
520.49	1705.58
520.85	1732.79
521.21	1760.17
521.57	1787.77
521.93	1814.41
522.29	1842.06
522.65	1869.65
523.01	1896.48
523.37	1923.23
523.73	1950.04
524.09	1976.60
524.45	2003.62
524.81	2030.72
525.17	2057.71
525.53	2084.34
525.89	2111.09
526.25	2137.58
526.61	2163.02
526.97	2188.54
527.33	2213.64
527.68	2239.24
528.04	2264.02
528.40	2287.91
528.76	2312.00
529.12	2336.45
529.48	2361.99
529.84	2385.67
530.20	2409.53
530.56	2433.72
530.91	2458.22
531.27	2482.38
531.63	2505.53
531.99	2528.58
532.35	2550.64
532.71	2572.00
533.07	2594.77
533.42	2616.20
533.78	2637.96
534.14	2659.08
534.50	2678.65
534.86	2699.04
535.21	2717.91
535.57	2738.45
535.93	2757.91
536.29	2776.82
536.65	2795.45
537.00	2812.50
537.36	2829.12
537.72	2845.39
538.08	2862.06
538.44	2878.13
538.79	2894.09
539.15	2910.02
539.51	2925.33
539.87	2941.25
540.22	2956.72
540.58	2971.98
540.94	2986.81
541.29	2999.89
541.65	3012.56
542.01	3026.26
542.37	3038.70
542.72	3052.09
543.08	3063.27
543.44	3076.45
543.79	3087.35
544.15	3097.25
544.51	3108.73
544.87	3120.21
545.22	3130.13
545.58	3138.64
545.94	3146.32
546.29	3153.18
546.65	3160.08
547.01	3167.32
547.36	3173.79
547.72	3179.84
548.07	3183.85
548.43	3188.09
548.79	3192.38
549.14	3196.93
549.50	3200.93
549.86	3204.20
550.21	3206.95
550.57	3210.69
550.92	3211.62
551.28	3213.64
551.64	3216.03
551.99	3217.74
552.35	3218.71
552.70	3219.91
553.06	3221.52
553.41	3222.83
553.77	3223.85
554.13	3224.52
554.48	3224.81
554.84	3225.05
555.19	3224.44
555.55	3223.81
555.90	3222.04
556.26	3220.45
556.61	3219.07
556.97	3216.77
557.32	3215.24
557.68	3212.56
558.03	3209.66
558.39	3207.51
558.74	3206.01
559.10	3203.99
559.45	3200.36
559.81	3197.85
560.16	3193.81
560.52	3190.45
560.87	3186.71
561.23	3182.37
561.58	3178.82
561.94	3173.74
562.29	3167.89
562.64	3163.62
563.00	3159.52
563.35	3156.92
563.71	3154.04
564.06	3150.12
564.42	3146.47
564.77	3142.40
565.12	3138.84
565.48	3134.45
565.83	3130.05
566.19	3125.56
566.54	3119.24
566.89	3113.76
567.25	3108.21
567.60	3103.65
567.96	3097.91
568.31	3092.52
568.66	3086.42
569.02	3079.89
569.37	3072.99
569.72	3067.08
570.08	3060.14
570.43	3052.85
570.78	3045.04
571.14	3036.68
571.49	3028.69
571.84	3021.52
572.20	3012.55
572.55	3004.24
572.90	2995.35
573.26	2986.12
573.61	2976.54
573.96	2967.86
574.31	2958.08
574.67	2947.40
575.02	2936.42
575.37	2926.00
575.72	2915.04
576.08	2905.98
576.43	2895.19
576.78	2885.64
577.13	2876.11
577.49	2866.49
577.84	2856.51
578.19	2846.58
578.54	2837.74
578.90	2828.89
579.25	2818.34
579.60	2807.92
579.95	2796.77
580.30	2787.32
580.66	2778.05
581.01	2767.25
581.36	2756.49
581.71	2746.26
582.06	2736.67
582.42	2727.06
582.77	2716.60
583.12	2706.38
583.47	2696.47
583.82	2687.08
584.17	2676.94
584.53	2666.96
584.88	2656.69
585.23	2646.39
585.58	2635.85
585.93	2624.99
586.28	2614.66
586.63	2604.43
586.98	2594.93
587.34	2586.28
587.69	2575.95
588.04	2565.44
588.39	2556.19
588.74	2546.01
589.09	2536.97
589.44	2526.97
589.79	2517.82
590.14	2508.96
590.49	2499.81
590.84	2489.76
591.19	2481.38
591.54	2471.70
591.89	2460.49
592.25	2450.41
592.60	2439.95
592.95	2429.64
593.30	2418.37
593.65	2407.35
594.00	2396.93
594.35	2388.29
594.70	2377.73
595.05	2367.83
595.40	2358.05
595.75	2347.40
596.10	2338.40
596.45	2328.74
596.80	2319.49
597.15	2310.20
597.50	2299.89
597.85	2290.43
598.19	2280.43
598.54	2270.21
598.89	2261.17
599.24	2253.63
599.59	2244.82
599.94	2237.13
600.29	2228.55
600.64	2220.29
600.99	2210.99
601.34	2202.66
601.69	2192.24
602.04	2182.87
602.39	2173.81
602.74	2165.23
603.08	2157.59
603.43	2149.70
603.78	2141.10
604.13	2132.51
604.48	2123.94
604.83	2116.68
605.18	2109.30
605.53	2100.89
605.87	2091.98
606.22	2083.97
606.57	2074.79
606.92	2066.02
607.27	2056.59
607.62	2047.59
607.96	2039.62
608.31	2032.35
608.66	2022.90
609.01	2014.07
609.36	2005.04
609.70	1995.50
610.05	1985.65
610.40	1976.23
610.75	1966.27
611.10	1957.18
611.44	1946.42
611.79	1935.67
612.14	1924.70
612.49	1913.39
612.83	1903.53
613.18	1892.82
613.53	1882.06
613.88	1871.19
614.22	1861.28
614.57	1851.01
614.92	1841.07
615.27	1830.19
615.61	1819.19
615.96	1809.68
616.31	1800.31
616.65	1791.40
617.00	1782.02
617.35	1772.84
617.70	1762.59
618.04	1751.83
618.39	1740.72
618.74	1731.27
619.08	1721.56
619.43	1711.97
619.78	1702.71
620.12	1693.12
620.47	1683.82
620.82	1673.81
621.16	1663.79
621.51	1653.65
621.85	1644.19
622.20	1634.02
622.55	1624.32
622.89	1614.61
623.24	1604.81
623.59	1594.16
623.93	1583.99
624.28	1574.59
624.62	1564.91
624.97	1555.42
625.32	1546.58
625.66	1537.88
626.01	1528.92
626.35	1520.13
626.70	1510.88
627.04	1502.01
627.39	1493.17
627.73	1484.69
628.08	1476.49
628.43	1467.81
628.77	1458.83
629.12	1449.75
629.46	1441.81
629.81	1433.55
630.15	1424.90
630.50	1416.17
630.84	1407.58
631.19	1399.28
631.53	1390.63
631.88	1381.44
632.22	1372.36
632.57	1364.10
632.91	1355.48
633.26	1346.75
633.60	1338.08
633.95	1330.24
634.29	1321.63
634.64	1313.49
634.98	1304.47
635.32	1296.05
635.67	1288.28
636.01	1280.44
636.36	1272.18
636.70	1264.09
637.05	1255.87
637.39	1248.17
637.73	1240.77
638.08	1234.04
638.42	1226.80
638.77	1219.15
639.11	1211.71
639.45	1204.41
639.80	1196.30
640.14	1188.35
640.49	1180.65
640.83	1173.18
641.17	1165.23
641.52	1157.50
641.86	1149.22
642.20	1141.74
642.55	1133.79
642.89	1125.72
643.23	1117.70
643.58	1110.65
643.92	1102.55
644.26	1094.90
644.61	1087.39
644.95	1079.48
645.29	1071.34
645.64	1063.26
645.98	1055.67
646.32	1048.60
646.66	1041.03
647.01	1033.91
647.35	1026.74
647.69	1019.15
648.04	1011.71
648.38	1004.36
648.72	996.94
649.06	989.71
649.41	982.51
649.75	975.14
650.09	968.51
650.43	961.66
650.78	954.06
651.12	946.99
651.46	939.97
651.80	933.12
652.14	926.27
652.49	919.51
652.83	912.14
653.17	904.62
653.51	897.36
653.85	890.68
654.20	883.71
654.54	876.87
654.88	870.21
655.22	863.47
655.56	856.50
655.90	849.75
656.25	843.20
656.59	836.74
656.93	830.39
657.27	823.75
657.61	816.88
657.95	810.70
658.29	804.53
658.64	798.46
658.98	791.90
659.32	785.59
659.66	779.20
660.00	773.10
660.34	767.18
660.68	761.10
661.02	754.97
661.36	749.18
661.70	743.43
662.05	737.93
662.39	732.66
662.73	727.40
663.07	722.22
663.41	716.79
663.75	711.15
664.09	705.51
664.43	699.95
664.77	694.81
665.11	689.49
665.45	684.36
665.79	679.16
666.13	674.11
666.47	668.88
666.81	664.02
667.15	659.09
667.49	654.68
667.83	650.09
668.17	645.49
668.51	640.97
668.85	636.56
669.19	632.17
669.53	627.43
669.87	622.85
670.21	618.41
670.55	613.90
670.89	610.05
671.23	606.27
671.57	602.23
671.91	598.09
672.25	593.91
672.58	589.69
672.92	585.62
673.26	581.80
673.60	578.08
673.94	574.09
674.28	570.35
674.62	566.56
674.96	562.76
675.30	559.04
675.64	555.20
675.97	551.46
676.31	547.93
676.65	544.41
676.99	541.18
677.33	537.54
677.67	534.15
678.01	530.39
678.34	526.86
678.68	523.36
679.02	520.02
679.36	516.79
679.70	513.48
680.04	510.30
680.37	506.85
680.71	503.45
681.05	500.44
681.39	497.27
681.73	494.02
682.06	490.98
682.40	488.10
682.74	485.07
683.08	482.07
683.42	478.87
683.75	475.94
684.09	472.75
684.43	469.73
684.77	466.67
685.10	463.70
685.44	460.59
685.78	457.76
686.12	455.04
686.45	452.35
686.79	449.74
687.13	447.02
687.46	444.49
687.80	441.98
688.14	439.12
688.48	436.63
688.81	433.85
689.15	431.29
689.49	428.56
689.82	425.97
690.16	423.14
690.50	420.40
690.83	417.71
691.17	415.01
691.51	412.51
691.84	410.21
692.18	407.88
692.52	405.68
692.85	403.53
693.19	401.32
693.52	398.82
693.86	396.34
694.20	394.03
694.53	391.78
694.87	389.49
695.21	387.30
695.54	384.96
695.88	382.84
696.21	380.53
696.55	378.49
696.88	376.37
697.22	374.43
697.56	372.65
697.89	370.72
698.23	368.84
698.56	367.05
698.90	365.21
699.23	363.41
699.57	361.46
699.90	359.43
700.24	357.48
700.58	355.71
700.91	354.07
701.25	352.56
701.58	350.78
701.92	349.07
702.25	347.48
702.59	345.88
702.92	344.31
703.26	342.77
703.59	341.12
703.93	339.85
704.26	338.34
704.60	336.74
704.93	335.16
705.26	333.65
705.60	332.23
705.93	330.74
706.27	329.32
706.60	328.03
706.94	326.75
707.27	325.29
707.61	323.83
707.94	322.31
708.27	320.67
708.61	319.32
708.94	318.00
709.28	316.56
709.61	315.25
709.94	313.97
710.28	312.76
710.61	311.54
710.95	310.01
711.28	308.98
711.61	307.75
711.95	306.68
712.28	305.50
712.61	304.29
712.95	303.31
713.28	302.28
713.61	301.06
713.95	299.91
714.28	298.91
714.61	297.89
714.95	296.97
715.28	295.85
715.61	294.73
715.95	293.70
716.28	292.69
716.61	291.68
716.95	290.66
717.28	289.60
717.61	288.54
717.94	287.67
718.28	286.60
718.61	285.67
718.94	284.72
719.27	283.94
719.61	283.15
719.94	282.20
720.27	281.18
720.60	280.40
720.94	279.55
721.27	278.74
721.60	278.07
721.93	277.18
722.27	276.58
722.60	275.91
722.93	275.08
723.26	274.50
723.59	273.81
723.93	273.16
724.26	272.51
724.59	271.90
724.92	271.19
725.25	270.53
725.59	269.93
725.92	269.39
726.25	268.63
726.58	267.93
726.91	267.23
727.24	266.69
727.57	266.05
727.91	265.46
728.24	264.98
728.57	264.28
728.90	263.90
729.23	263.31
729.56	262.86
729.89	262.38
730.22	261.79
730.55	261.22
730.89	260.63
731.22	260.10
731.55	259.55
731.88	259.07
732.21	258.47
732.54	257.92
732.87	257.38
733.20	256.87
733.53	256.33
733.86	255.85
734.19	255.31
734.52	254.94
734.85	254.74
735.18	254.19
735.51	253.87
735.84	253.28
736.17	252.78
736.50	252.13
736.83	252.01
737.16	251.56
737.49	251.15
737.82	250.67
738.15	250.22
738.48	249.85
738.81	249.41
739.14	248.96
739.47	248.43
739.80	247.99
740.13	247.62
740.46	247.17
740.79	246.74
741.12	246.31
741.45	245.73
741.78	245.10
742.11	244.73
742.44	244.23
742.77	243.95
743.10	243.62
743.43	243.30
743.75	242.61
744.08	242.72
744.41	242.30
744.74	241.92
745.07	241.59
745.40	241.28
745.73	241.10
746.06	240.79
746.39	240.55
746.71	240.11
747.04	239.81
747.37	239.53
747.70	239.23
748.03	238.93
748.36	238.70
748.68	238.39
749.01	238.02
749.34	237.78
749.67	237.46
750.00	237.20
750.33	237.15
750.65	236.84
750.98	236.03
751.31	235.76
751.64	235.60
751.97	235.48
752.29	235.15
752.62	234.74
752.95	234.40
753.28	234.08
753.60	233.81
753.93	233.60
754.26	233.34
754.59	233.05
754.91	232.84
755.24	232.56
755.57	232.27
755.90	231.95
756.22	231.65
756.55	231.38
756.88	231.00
757.20	230.46
757.53	230.13
757.86	229.85
758.19	229.62
758.51	229.38
758.84	228.93
759.17	228.60
759.49	228.35
759.82	228.38
760.15	228.19
760.47	228.02
760.80	227.65
761.13	227.43
761.45	227.16
761.78	226.92
762.11	226.70
762.43	226.50
762.76	226.37
763.08	226.22
763.41	226.03
763.74	225.90
764.06	225.76
764.39	225.63
764.71	225.60
765.04	225.32
765.37	225.18
765.69	225.03
766.02	224.98
766.34	224.75
766.67	224.41
767.00	224.35
767.32	224.32
767.65	224.46
767.97	224.28
768.30	224.11
768.62	223.89
768.95	223.77
769.27	223.66
769.60	223.50
769.92	223.31
770.25	223.15
770.57	222.96
770.90	222.86
771.22	222.69
771.55	222.51
771.87	222.45
772.20	222.24
772.52	222.41
772.85	222.60
773.17	222.56
773.50	222.48
773.82	222.32
774.15	222.05
774.47	221.74
774.80	221.63
775.12	221.60
775.45	221.52
775.77	221.47
776.09	221.36
776.42	221.28
776.74	221.26
777.07	221.16
777.39	221.11
777.72	220.96
778.04	220.92
778.36	220.74
778.69	220.67
779.01	220.62
779.33	220.28
779.66	219.85
779.98	219.70
780.31	219.57
780.63	219.57
780.95	219.58
781.28	219.46
781.60	219.32
781.92	219.22
782.25	219.18
782.57	219.06
782.89	218.92
783.22	218.85
783.54	218.69
783.86	218.63
784.19	218.53
784.51	218.57
784.83	218.54
785.16	218.53
785.48	218.51
785.80	218.43
