SpectraSuite Data File
++++++++++++++++++++++++++++++++++++
Date: Mon Feb 25 17:07:02 EST 2013
User: group
Dark Spectrum Present: No
Reference Spectrum Present: No
Number of Sampled Component Spectra: 1
Spectrometers: USB2E7196
Integration Time (usec): 104000 (USB2E7196)
Spectra Averaged: 20 (USB2E7196)
Boxcar Smoothing: 10 (USB2E7196)
Correct for Electrical Dark: No (USB2E7196)
Strobe/Lamp Enabled: No (USB2E7196)
Correct for Detector Non-linearity: No (USB2E7196)
Correct for Stray Light: No (USB2E7196)
Number of Pixels in Processed Spectrum: 2048
>>>>>Begin Processed Spectral Data<<<<<
339.09	0.00
339.48	197.65
339.86	199.40
340.24	199.60
340.63	201.55
341.01	209.20
341.39	205.60
341.78	207.40
342.16	209.35
342.54	207.30
342.93	197.91
343.31	207.95
343.69	208.51
344.07	209.05
344.46	209.62
344.84	210.05
345.22	210.13
345.60	210.39
345.99	210.51
346.37	210.60
346.75	210.74
347.13	210.78
347.52	210.87
347.90	211.01
348.28	211.04
348.66	211.17
349.05	211.13
349.43	211.25
349.81	211.30
350.19	211.37
350.57	211.42
350.96	211.51
351.34	211.56
351.72	211.68
352.10	211.75
352.48	211.77
352.87	211.90
353.25	211.96
353.63	211.97
354.01	212.07
354.39	212.20
354.77	212.30
355.15	212.53
355.54	212.57
355.92	212.55
356.30	212.60
356.68	212.79
357.06	212.91
357.44	212.94
357.82	213.05
358.20	213.11
358.58	213.12
358.97	213.16
359.35	213.25
359.73	213.36
360.11	213.42
360.49	213.51
360.87	213.55
361.25	213.63
361.63	213.89
362.01	213.94
362.39	213.88
362.77	213.91
363.15	213.87
363.53	213.86
363.91	213.87
364.29	213.92
364.67	213.64
365.05	213.53
365.43	213.55
365.81	213.51
366.19	213.61
366.57	213.86
366.95	213.82
367.33	213.75
367.71	213.74
368.09	213.77
368.47	213.72
368.85	213.63
369.23	213.66
369.61	213.45
369.99	213.50
370.37	213.53
370.75	213.71
371.13	213.63
371.51	213.56
371.89	213.58
372.27	213.55
372.65	213.58
373.03	213.62
373.41	213.54
373.78	213.50
374.16	213.29
374.54	213.06
374.92	212.95
375.30	212.88
375.68	212.73
376.06	212.64
376.44	212.54
376.82	212.51
377.19	212.44
377.57	212.29
377.95	212.11
378.33	212.03
378.71	211.78
379.09	211.73
379.47	211.69
379.84	211.58
380.22	211.47
380.60	211.32
380.98	211.24
381.36	211.14
381.73	211.11
382.11	211.11
382.49	211.06
382.87	210.99
383.25	210.98
383.62	211.26
384.00	211.19
384.38	211.25
384.76	211.28
385.13	211.40
385.51	211.40
385.89	211.39
386.27	211.32
386.64	211.31
387.02	211.32
387.40	211.27
387.78	211.29
388.15	211.24
388.53	211.21
388.91	211.13
389.29	211.08
389.66	211.04
390.04	210.97
390.42	210.98
390.79	210.95
391.17	211.00
391.55	210.63
391.92	210.63
392.30	210.58
392.68	210.49
393.05	210.37
393.43	210.30
393.81	210.33
394.18	210.28
394.56	210.25
394.94	210.31
395.31	210.30
395.69	210.33
396.06	210.42
396.44	210.44
396.82	210.47
397.19	210.68
397.57	210.63
397.95	210.73
398.32	210.69
398.70	210.78
399.07	210.82
399.45	210.85
399.82	210.85
400.20	210.78
400.58	210.76
400.95	210.68
401.33	210.88
401.70	211.13
402.08	211.16
402.45	211.25
402.83	211.35
403.20	211.40
403.58	211.37
403.95	211.51
404.33	211.60
404.71	211.69
405.08	211.84
405.46	211.99
405.83	212.02
406.21	212.06
406.58	212.16
406.96	212.21
407.33	212.35
407.70	212.47
408.08	212.97
408.45	213.16
408.83	213.38
409.20	213.50
409.58	213.46
409.95	213.75
410.33	213.93
410.70	213.96
411.08	214.23
411.45	214.56
411.82	214.73
412.20	215.08
412.57	215.55
412.95	215.62
413.32	216.05
413.69	216.46
414.07	216.90
414.44	217.38
414.82	217.85
415.19	218.42
415.56	218.98
415.94	219.34
416.31	220.04
416.68	220.68
417.06	221.43
417.43	222.32
417.81	223.16
418.18	224.10
418.55	225.10
418.93	226.06
419.30	227.07
419.67	228.21
420.04	229.45
420.42	230.57
420.79	232.26
421.16	233.57
421.54	235.25
421.91	236.78
422.28	238.33
422.66	240.04
423.03	241.92
423.40	243.60
423.77	245.42
424.15	247.19
424.52	249.16
424.89	251.29
425.26	253.18
425.64	255.11
426.01	257.16
426.38	259.38
426.75	261.75
427.13	264.03
427.50	266.39
427.87	268.85
428.24	271.35
428.61	273.65
428.99	276.52
429.36	279.17
429.73	282.07
430.10	284.95
430.47	287.94
430.85	290.76
431.22	294.18
431.59	297.85
431.96	301.23
432.33	304.89
432.70	308.49
433.08	312.74
433.45	316.69
433.82	320.52
434.19	324.90
434.56	329.27
434.93	333.35
435.30	337.58
435.68	342.16
436.05	346.69
436.42	351.14
436.79	355.22
437.16	359.65
437.53	364.24
437.90	368.87
438.27	373.40
438.64	378.14
439.01	382.49
439.38	386.26
439.75	390.04
440.13	394.38
440.50	398.50
440.87	401.82
441.24	405.30
441.61	409.30
441.98	412.17
442.35	415.46
442.72	418.95
443.09	422.43
443.46	424.48
443.83	425.96
444.20	427.22
444.57	428.89
444.94	429.88
445.31	430.95
445.68	432.23
446.05	432.82
446.42	432.56
446.79	432.32
447.16	431.97
447.53	431.87
447.90	430.41
448.27	428.86
448.64	426.79
449.01	425.31
449.37	422.46
449.74	419.67
450.11	416.45
450.48	412.75
450.85	408.69
451.22	405.49
451.59	402.51
451.96	399.71
452.33	395.81
452.70	392.17
453.07	387.81
453.43	383.06
453.80	378.75
454.17	374.76
454.54	370.80
454.91	366.51
455.28	362.42
455.65	358.58
456.02	355.26
456.38	351.98
456.75	347.95
457.12	344.56
457.49	341.30
457.86	337.96
458.23	335.29
458.59	332.29
458.96	329.23
459.33	326.42
459.70	323.55
460.07	321.41
460.43	318.96
460.80	316.79
461.17	314.91
461.54	312.76
461.91	310.69
462.27	308.65
462.64	306.88
463.01	304.89
463.38	303.12
463.74	300.64
464.11	298.87
464.48	297.44
464.85	295.79
465.21	294.69
465.58	293.37
465.95	291.75
466.32	290.45
466.68	289.03
467.05	287.71
467.42	286.38
467.78	284.89
468.15	283.67
468.52	282.63
468.88	281.20
469.25	280.09
469.62	279.24
469.98	278.15
470.35	277.24
470.72	276.40
471.08	275.37
471.45	274.70
471.82	274.05
472.18	273.13
472.55	272.53
472.92	271.56
473.28	270.86
473.65	270.16
474.02	269.50
474.38	269.10
474.75	268.70
475.11	268.19
475.48	267.93
475.85	267.51
476.21	266.98
476.58	266.71
476.94	266.50
477.31	266.08
477.67	265.81
478.04	265.65
478.41	265.45
478.77	265.44
479.14	265.22
479.50	265.00
479.87	264.97
480.23	264.92
480.60	264.96
480.96	264.83
481.33	264.98
481.69	264.98
482.06	264.93
482.42	264.94
482.79	264.99
483.15	264.99
483.52	265.23
483.88	265.40
484.25	265.43
484.61	265.60
484.98	265.87
485.34	266.27
485.71	266.55
486.07	266.90
486.44	267.04
486.80	267.38
487.17	267.70
487.53	268.25
487.90	268.73
488.26	269.31
488.62	270.05
488.99	270.53
489.35	271.22
489.72	271.89
490.08	272.48
490.44	273.13
490.81	273.94
491.17	274.67
491.54	275.52
491.90	276.47
492.26	277.20
492.63	278.16
492.99	279.01
493.36	280.02
493.72	280.92
494.08	282.00
494.45	283.11
494.81	284.41
495.17	285.40
495.54	286.58
495.90	287.63
496.26	288.81
496.63	290.12
496.99	291.41
497.35	292.73
497.72	294.19
498.08	295.62
498.44	297.04
498.80	298.45
499.17	299.88
499.53	301.40
499.89	303.17
500.26	304.62
500.62	306.25
500.98	307.87
501.34	309.60
501.71	311.38
502.07	313.10
502.43	314.78
502.79	316.46
503.16	318.19
503.52	319.97
503.88	321.67
504.24	323.43
504.60	325.21
504.97	327.03
505.33	328.81
505.69	330.87
506.05	332.72
506.41	334.65
506.78	336.57
507.14	338.44
507.50	340.24
507.86	342.16
508.22	344.03
508.59	345.87
508.95	347.90
509.31	349.91
509.67	351.90
510.03	353.85
510.39	356.00
510.75	358.08
511.12	360.15
511.48	362.27
511.84	364.35
512.20	366.35
512.56	368.52
512.92	370.64
513.28	372.76
513.64	374.94
514.00	377.01
514.37	379.19
514.73	381.41
515.09	383.59
515.45	385.72
515.81	387.97
516.17	390.16
516.53	392.13
516.89	394.10
517.25	396.27
517.61	398.59
517.97	400.75
518.33	402.97
518.69	405.44
519.05	407.82
519.41	410.20
519.77	412.89
520.13	415.12
520.49	417.44
520.85	419.78
521.21	422.24
521.57	424.73
521.93	427.16
522.29	429.72
522.65	432.27
523.01	434.97
523.37	437.56
523.73	440.20
524.09	443.08
524.45	445.86
524.81	448.67
525.17	451.37
525.53	454.28
525.89	457.21
526.25	460.10
526.61	462.87
526.97	465.81
527.33	468.64
527.68	472.11
528.04	475.20
528.40	478.11
528.76	481.19
529.12	484.37
529.48	487.72
529.84	490.82
530.20	494.17
530.56	497.50
530.91	500.81
531.27	504.27
531.63	507.60
531.99	510.95
532.35	514.07
532.71	517.39
533.07	520.80
533.42	524.64
533.78	527.90
534.14	531.34
534.50	534.51
534.86	537.99
535.21	541.06
535.57	544.58
535.93	547.95
536.29	551.37
536.65	554.89
537.00	558.25
537.36	561.67
537.72	564.88
538.08	568.25
538.44	571.51
538.79	574.85
539.15	578.21
539.51	581.64
539.87	585.15
540.22	588.58
540.58	592.09
540.94	595.07
541.29	598.37
541.65	601.59
542.01	605.05
542.37	608.33
542.72	611.64
543.08	614.73
543.44	618.19
543.79	621.21
544.15	624.42
544.51	627.72
544.87	630.94
545.22	634.10
545.58	637.00
545.94	640.03
546.29	642.88
546.65	645.75
547.01	648.57
547.36	651.49
547.72	654.33
548.07	657.15
548.43	659.83
548.79	662.36
549.14	664.97
549.50	667.67
549.86	669.97
550.21	672.46
550.57	675.03
550.92	677.33
551.28	679.65
551.64	681.80
551.99	683.98
552.35	685.95
552.70	688.11
553.06	690.37
553.41	692.48
553.77	694.94
554.13	696.93
554.48	699.10
554.84	701.31
555.19	703.27
555.55	705.17
555.90	707.01
556.26	708.98
556.61	710.77
556.97	712.27
557.32	714.20
557.68	715.73
558.03	717.31
558.39	718.82
558.74	720.69
559.10	722.46
559.45	724.11
559.81	725.96
560.16	727.26
560.52	728.74
560.87	730.20
561.23	730.95
561.58	732.56
561.94	733.68
562.29	734.60
562.64	735.78
563.00	736.78
563.35	738.05
563.71	739.29
564.06	740.55
564.42	741.83
564.77	742.80
565.12	744.33
565.48	745.77
565.83	746.89
566.19	747.94
566.54	748.68
566.89	749.27
567.25	750.21
567.60	751.44
567.96	752.39
568.31	753.45
568.66	754.49
569.02	754.84
569.37	755.22
569.72	755.93
570.08	756.34
570.43	756.72
570.78	756.81
571.14	756.92
571.49	756.91
571.84	757.07
572.20	757.12
572.55	756.82
572.90	756.26
573.26	756.19
573.61	755.92
573.96	755.68
574.31	755.45
574.67	754.96
575.02	754.04
575.37	753.24
575.72	752.35
576.08	751.92
576.43	751.22
576.78	750.82
577.13	750.10
577.49	749.58
577.84	748.70
578.19	748.05
578.54	747.59
578.90	747.18
579.25	746.60
579.60	745.71
579.95	744.90
580.30	744.31
580.66	743.54
581.01	742.59
581.36	741.64
581.71	740.74
582.06	739.95
582.42	739.42
582.77	738.62
583.12	737.89
583.47	737.23
583.82	736.70
584.17	736.05
584.53	735.39
584.88	734.59
585.23	734.07
585.58	733.25
585.93	732.32
586.28	731.46
586.63	730.45
586.98	729.88
587.34	729.25
587.69	728.38
588.04	727.52
588.39	726.69
588.74	725.65
589.09	724.95
589.44	723.75
589.79	722.90
590.14	722.05
590.49	721.05
590.84	719.85
591.19	719.06
591.54	717.84
591.89	716.51
592.25	715.55
592.60	714.17
592.95	712.85
593.30	711.52
593.65	710.03
594.00	708.61
594.35	708.32
594.70	706.80
595.05	705.58
595.40	704.30
595.75	702.77
596.10	701.70
596.45	700.32
596.80	699.31
597.15	698.04
597.50	696.65
597.85	695.38
598.19	694.04
598.54	692.50
598.89	691.25
599.24	690.30
599.59	688.94
599.94	688.12
600.29	687.08
600.64	685.81
600.99	684.70
601.34	683.61
601.69	681.25
602.04	680.02
602.39	678.71
602.74	677.49
603.08	676.54
603.43	675.64
603.78	674.54
604.13	673.23
604.48	671.91
604.83	670.95
605.18	669.95
605.53	668.69
605.87	667.46
606.22	666.22
606.57	664.81
606.92	663.29
607.27	661.66
607.62	660.26
607.96	659.14
608.31	658.05
608.66	656.61
609.01	655.27
609.36	653.74
609.70	652.29
610.05	650.75
610.40	649.18
610.75	647.26
611.10	645.70
611.44	643.85
611.79	641.94
612.14	640.09
612.49	637.90
612.83	636.07
613.18	634.06
613.53	632.25
613.88	630.30
614.22	628.50
614.57	626.54
614.92	624.58
615.27	622.72
615.61	620.44
615.96	618.50
616.31	616.75
616.65	615.03
617.00	613.03
617.35	611.10
617.70	609.12
618.04	607.22
618.39	605.04
618.74	603.17
619.08	601.38
619.43	599.40
619.78	597.55
620.12	595.57
620.47	593.71
620.82	591.59
621.16	589.39
621.51	587.55
621.85	585.61
622.20	583.63
622.55	581.26
622.89	579.24
623.24	577.29
623.59	575.04
623.93	572.98
624.28	571.17
624.62	569.47
624.97	567.60
625.32	565.50
625.66	563.56
626.01	561.69
626.35	559.76
626.70	557.72
627.04	555.98
627.39	554.15
627.73	552.32
628.08	550.69
628.43	548.84
628.77	546.64
629.12	544.67
629.46	542.87
629.81	541.12
630.15	539.27
630.50	537.32
630.84	535.29
631.19	533.33
631.53	531.31
631.88	528.90
632.22	526.70
632.57	524.97
632.91	523.10
633.26	521.12
633.60	519.17
633.95	517.38
634.29	515.42
634.64	513.63
634.98	511.50
635.32	509.59
635.67	508.06
636.01	506.38
636.36	504.57
636.70	502.78
637.05	500.97
637.39	499.20
637.73	497.59
638.08	496.21
638.42	494.53
638.77	492.75
639.11	491.10
639.45	489.57
639.80	487.66
640.14	485.81
640.49	484.05
640.83	482.27
641.17	480.40
641.52	478.52
641.86	476.58
642.20	474.98
642.55	472.93
642.89	470.86
643.23	469.03
643.58	467.39
643.92	465.48
644.26	463.65
644.61	461.93
644.95	460.00
645.29	457.95
645.64	456.15
645.98	454.30
646.32	452.46
646.66	450.39
647.01	448.69
647.35	447.07
647.69	445.18
648.04	443.33
648.38	441.56
648.72	439.82
649.06	438.08
649.41	436.13
649.75	434.35
650.09	432.78
650.43	431.03
650.78	429.15
651.12	427.37
651.46	425.65
651.80	423.90
652.14	422.21
652.49	420.65
652.83	418.92
653.17	417.08
653.51	415.41
653.85	413.81
654.20	412.04
654.54	410.14
654.88	408.43
655.22	406.84
655.56	405.04
655.90	403.25
656.25	401.53
656.59	399.88
656.93	398.29
657.27	396.61
657.61	394.77
657.95	393.07
658.29	391.41
658.64	389.93
658.98	388.24
659.32	386.38
659.66	384.71
660.00	383.06
660.34	381.44
660.68	379.85
661.02	378.21
661.36	376.73
661.70	375.22
662.05	373.75
662.39	372.32
662.73	371.05
663.07	369.93
663.41	368.53
663.75	367.12
664.09	365.74
664.43	364.20
664.77	363.01
665.11	361.62
665.45	360.27
665.79	358.89
666.13	357.46
666.47	356.28
666.81	354.89
667.15	353.48
667.49	352.40
667.83	351.21
668.17	349.97
668.51	348.60
668.85	347.43
669.19	346.30
669.53	344.95
669.87	343.60
670.21	342.19
670.55	340.90
670.89	339.96
671.23	338.78
671.57	337.65
671.91	336.47
672.25	335.41
672.58	334.46
672.92	333.24
673.26	332.22
673.60	331.14
673.94	330.00
674.28	328.94
674.62	327.85
674.96	326.81
675.30	325.85
675.64	324.89
675.97	323.78
676.31	322.70
676.65	321.72
676.99	320.91
677.33	319.80
677.67	318.81
678.01	317.57
678.34	316.67
678.68	315.81
679.02	314.77
679.36	313.74
679.70	312.64
680.04	311.75
680.37	310.75
680.71	309.77
681.05	308.97
681.39	308.05
681.73	307.06
682.06	306.09
682.40	305.23
682.74	304.42
683.08	303.66
683.42	302.80
683.75	301.99
684.09	300.96
684.43	300.15
684.77	299.24
685.10	298.51
685.44	297.57
685.78	296.60
686.12	295.80
686.45	294.98
686.79	294.14
687.13	293.34
687.46	292.45
687.80	291.81
688.14	290.95
688.48	290.21
688.81	289.41
689.15	288.68
689.49	287.74
689.82	286.89
690.16	285.91
690.50	285.10
690.83	284.22
691.17	283.36
691.51	282.63
691.84	281.94
692.18	281.16
692.52	280.48
692.85	279.89
693.19	279.26
693.52	278.47
693.86	277.71
694.20	277.01
694.53	276.41
694.87	275.61
695.21	274.84
695.54	274.12
695.88	273.45
696.21	272.65
696.55	272.11
696.88	271.53
697.22	270.95
697.56	270.29
697.89	269.71
698.23	269.23
698.56	268.46
698.90	267.95
699.23	267.28
699.57	266.60
699.90	265.90
700.24	265.21
700.58	264.74
700.91	264.19
701.25	263.86
701.58	263.39
701.92	262.94
702.25	262.37
702.59	261.83
702.92	261.30
703.26	260.88
703.59	260.30
703.93	260.03
704.26	259.48
704.60	258.94
704.93	258.44
705.26	257.85
705.60	257.52
705.93	256.91
706.27	256.45
706.60	256.10
706.94	255.82
707.27	255.38
707.61	254.87
707.94	254.43
708.27	253.66
708.61	253.12
708.94	252.69
709.28	252.32
709.61	251.87
709.94	251.47
710.28	250.98
710.61	250.68
710.95	249.93
711.28	249.70
711.61	249.39
711.95	249.07
712.28	248.70
712.61	248.23
712.95	248.00
713.28	247.80
713.61	247.39
713.95	246.85
714.28	246.41
714.61	245.98
714.95	245.52
715.28	245.13
715.61	244.67
715.95	244.22
716.28	243.79
716.61	243.45
716.95	243.08
717.28	242.71
717.61	242.27
717.94	241.90
718.28	241.37
718.61	240.99
718.94	240.57
719.27	240.22
719.61	239.90
719.94	239.49
720.27	239.04
720.60	238.66
720.94	238.32
721.27	238.05
721.60	237.81
721.93	237.57
722.27	237.42
722.60	237.21
722.93	236.90
723.26	236.70
723.59	236.45
723.93	236.24
724.26	236.02
724.59	235.72
724.92	235.55
725.25	235.44
725.59	235.24
725.92	235.04
726.25	234.79
726.58	234.60
726.91	234.40
727.24	234.16
727.57	233.98
727.91	233.71
728.24	233.50
728.57	233.37
728.90	233.20
729.23	232.88
729.56	232.91
729.89	232.71
730.22	232.46
730.55	232.23
730.89	232.00
731.22	231.82
731.55	231.60
731.88	231.41
732.21	231.12
732.54	230.85
732.87	230.62
733.20	230.48
733.53	230.33
733.86	230.07
734.19	229.81
734.52	229.66
734.85	229.74
735.18	229.59
735.51	229.46
735.84	229.26
736.17	229.21
736.50	228.81
736.83	229.10
737.16	229.01
737.49	228.85
737.82	228.54
738.15	228.40
738.48	228.28
738.81	228.12
739.14	227.91
739.47	227.84
739.80	227.67
740.13	227.52
740.46	227.27
740.79	227.13
741.12	227.00
741.45	226.80
741.78	226.54
742.11	226.42
742.44	226.16
742.77	226.10
743.10	225.89
743.43	225.75
743.75	225.23
744.08	225.52
744.41	225.37
744.74	225.26
745.07	225.07
745.40	225.13
745.73	225.07
746.06	225.01
746.39	224.87
746.71	224.76
747.04	224.59
747.37	224.48
747.70	224.42
748.03	224.33
748.36	224.24
748.68	224.06
749.01	223.85
749.34	223.78
749.67	223.64
750.00	223.53
750.33	223.67
750.65	223.55
750.98	222.95
751.31	222.83
751.64	222.74
751.97	222.81
752.29	222.52
752.62	222.26
752.95	222.09
753.28	221.95
753.60	221.83
753.93	221.76
754.26	221.68
754.59	221.48
754.91	221.32
755.24	221.20
755.57	221.09
755.90	220.99
756.22	220.85
756.55	220.73
756.88	220.61
757.20	220.25
757.53	220.07
757.86	219.92
758.19	219.84
758.51	219.72
758.84	219.44
759.17	219.36
759.49	219.35
759.82	219.46
760.15	219.30
760.47	219.21
760.80	219.12
761.13	219.07
761.45	218.95
761.78	218.93
762.11	218.88
762.43	218.80
762.76	218.73
763.08	218.68
763.41	218.56
763.74	218.48
764.06	218.43
764.39	218.36
764.71	218.39
765.04	218.32
765.37	218.38
765.69	218.32
766.02	218.25
766.34	218.09
766.67	217.80
767.00	217.84
767.32	217.96
767.65	218.05
767.97	217.99
768.30	217.99
768.62	217.88
768.95	217.72
769.27	217.68
769.60	217.64
769.92	217.50
770.25	217.50
770.57	217.38
770.90	217.32
771.22	217.28
771.55	217.15
771.87	217.10
772.20	216.90
772.52	217.17
772.85	217.54
773.17	217.56
773.50	217.57
773.82	217.48
774.15	217.28
774.47	217.04
774.80	217.01
775.12	216.88
775.45	216.84
775.77	216.89
776.09	216.85
776.42	216.82
776.74	216.90
777.07	216.80
777.39	216.79
777.72	216.71
778.04	216.67
778.36	216.57
778.69	216.47
779.01	216.54
779.33	216.17
779.66	215.70
779.98	215.63
780.31	215.63
780.63	215.79
780.95	215.77
781.28	215.72
781.60	215.58
781.92	215.59
782.25	215.54
782.57	215.40
782.89	215.29
783.22	215.15
783.54	214.98
783.86	215.00
784.19	214.90
784.51	214.93
784.83	214.83
785.16	214.79
785.48	214.82
785.80	214.75
786.12	214.72
786.45	214.69
786.77	214.64
787.09	214.55
787.42	214.38
787.74	214.34
788.06	214.24
788.38	214.26
788.71	214.23
789.03	214.17
789.35	214.23
789.67	214.14
789.99	214.24
790.32	214.20
790.64	214.18
790.96	214.48
791.28	214.36
791.61	214.30
791.93	214.34
792.25	214.25
792.57	214.46
792.89	214.38
793.21	214.42
793.54	214.31
793.86	214.26
794.18	214.23
