SpectraSuite Data File
++++++++++++++++++++++++++++++++++++
Date: Mon Feb 25 17:02:27 EST 2013
User: group
Dark Spectrum Present: No
Reference Spectrum Present: No
Number of Sampled Component Spectra: 1
Spectrometers: USB2E7196
Integration Time (usec): 104000 (USB2E7196)
Spectra Averaged: 20 (USB2E7196)
Boxcar Smoothing: 10 (USB2E7196)
Correct for Electrical Dark: No (USB2E7196)
Strobe/Lamp Enabled: No (USB2E7196)
Correct for Detector Non-linearity: No (USB2E7196)
Correct for Stray Light: No (USB2E7196)
Number of Pixels in Processed Spectrum: 2048
>>>>>Begin Processed Spectral Data<<<<<
339.09	0.00
339.48	199.40
339.86	200.10
340.24	202.00
340.63	203.35
341.01	211.05
341.39	206.00
341.78	207.45
342.16	208.65
342.54	208.65
342.93	198.75
343.31	208.79
343.69	209.30
344.07	209.84
344.46	210.28
344.84	210.65
345.22	210.55
345.60	210.77
345.99	210.94
346.37	211.05
346.75	211.12
347.13	211.16
347.52	211.15
347.90	211.31
348.28	211.37
348.66	211.42
349.05	211.30
349.43	211.29
349.81	211.28
350.19	211.24
350.57	211.23
350.96	211.33
351.34	211.34
351.72	211.45
352.10	211.47
352.48	211.51
352.87	211.55
353.25	211.70
353.63	211.76
354.01	211.80
354.39	211.89
354.77	211.99
355.15	212.22
355.54	212.25
355.92	212.18
356.30	212.11
356.68	212.38
357.06	212.46
357.44	212.53
357.82	212.63
358.20	212.63
358.58	212.65
358.97	212.65
359.35	212.82
359.73	212.85
360.11	212.85
360.49	212.85
360.87	212.91
361.25	212.93
361.63	213.11
362.01	213.16
362.39	213.13
362.77	213.24
363.15	213.15
363.53	213.25
363.91	213.26
364.29	213.31
364.67	213.02
365.05	213.06
365.43	213.06
365.81	213.02
366.19	213.22
366.57	213.30
366.95	213.30
367.33	213.14
367.71	213.15
368.09	213.23
368.47	213.18
368.85	213.14
369.23	213.26
369.61	213.07
369.99	213.16
370.37	213.16
370.75	213.27
371.13	213.14
371.51	213.01
371.89	213.00
372.27	213.03
372.65	213.06
373.03	213.03
373.41	212.95
373.78	212.90
374.16	212.72
374.54	212.62
374.92	212.55
375.30	212.51
375.68	212.45
376.06	212.40
376.44	212.38
376.82	212.32
377.19	212.22
377.57	212.21
377.95	212.05
378.33	212.01
378.71	211.69
379.09	211.71
379.47	211.77
379.84	211.70
380.22	211.58
380.60	211.46
380.98	211.41
381.36	211.42
381.73	211.39
382.11	211.38
382.49	211.40
382.87	211.34
383.25	211.32
383.62	211.67
384.00	211.57
384.38	211.58
384.76	211.62
385.13	211.67
385.51	211.62
385.89	211.57
386.27	211.56
386.64	211.62
387.02	211.54
387.40	211.39
387.78	211.38
388.15	211.35
388.53	211.35
388.91	211.37
389.29	211.33
389.66	211.32
390.04	211.22
390.42	211.26
390.79	211.22
391.17	211.26
391.55	210.90
391.92	210.92
392.30	210.92
392.68	210.90
393.05	210.82
393.43	210.87
393.81	210.86
394.18	210.80
394.56	210.88
394.94	210.92
395.31	210.96
395.69	211.02
396.06	211.08
396.44	211.10
396.82	210.96
397.19	211.17
397.57	211.16
397.95	211.31
398.32	211.20
398.70	211.27
399.07	211.25
399.45	211.19
399.82	211.18
400.20	211.12
400.58	211.14
400.95	211.10
401.33	211.15
401.70	211.44
402.08	211.55
402.45	211.56
402.83	211.67
403.20	211.70
403.58	211.77
403.95	211.89
404.33	211.94
404.71	212.13
405.08	212.33
405.46	212.46
405.83	212.53
406.21	212.68
406.58	212.83
406.96	213.04
407.33	213.25
407.70	213.50
408.08	214.08
408.45	214.34
408.83	214.68
409.20	214.97
409.58	215.10
409.95	215.47
410.33	215.85
410.70	216.20
411.08	216.70
411.45	217.15
411.82	217.54
412.20	218.13
412.57	218.87
412.95	219.16
413.32	219.79
413.69	220.43
414.07	221.15
414.44	221.95
414.82	222.74
415.19	223.73
415.56	224.64
415.94	225.50
416.31	226.55
416.68	227.63
417.06	228.85
417.43	230.08
417.81	231.44
418.18	232.87
418.55	234.36
418.93	235.90
419.30	237.55
419.67	239.35
420.04	241.20
420.42	243.06
420.79	245.51
421.16	247.74
421.54	250.22
421.91	252.63
422.28	255.16
422.66	257.93
423.03	260.70
423.40	263.45
423.77	266.31
424.15	269.35
424.52	272.54
424.89	275.99
425.26	279.26
425.64	282.33
426.01	285.75
426.38	289.39
426.75	293.21
427.13	297.08
427.50	301.14
427.87	305.34
428.24	309.55
428.61	313.47
428.99	318.03
429.36	322.80
429.73	327.67
430.10	332.43
430.47	337.21
430.85	342.03
431.22	347.37
431.59	353.28
431.96	358.79
432.33	364.86
432.70	370.79
433.08	377.74
433.45	384.41
433.82	391.03
434.19	398.27
434.56	405.38
434.93	412.16
435.30	419.16
435.68	426.80
436.05	434.48
436.42	442.13
436.79	449.13
437.16	456.64
437.53	464.57
437.90	472.51
438.27	480.36
438.64	488.48
439.01	496.17
439.38	502.84
439.75	509.40
440.13	516.93
440.50	524.04
440.87	529.89
441.24	535.96
441.61	542.72
441.98	547.83
442.35	553.54
442.72	559.61
443.09	565.34
443.46	568.93
443.83	571.48
444.20	573.71
444.57	576.90
444.94	578.66
445.31	580.59
445.68	582.36
446.05	583.41
446.42	583.25
446.79	582.92
447.16	582.32
447.53	582.15
447.90	579.73
448.27	577.35
448.64	573.86
449.01	571.42
449.37	566.70
449.74	562.29
450.11	557.11
450.48	550.95
450.85	544.59
451.22	539.37
451.59	534.26
451.96	529.51
452.33	522.89
452.70	516.86
453.07	509.48
453.43	501.97
453.80	495.02
454.17	488.19
454.54	481.64
454.91	474.71
455.28	467.89
455.65	461.53
456.02	455.43
456.38	450.09
456.75	443.44
457.12	437.81
457.49	432.14
457.86	426.64
458.23	422.08
458.59	417.10
458.96	411.91
459.33	407.39
459.70	402.77
460.07	399.13
460.43	395.08
460.80	391.11
461.17	387.79
461.54	384.13
461.91	380.71
462.27	377.21
462.64	374.26
463.01	370.91
463.38	367.72
463.74	364.21
464.11	361.36
464.48	358.88
464.85	356.16
465.21	354.24
465.58	352.01
465.95	349.33
466.32	347.08
466.68	344.92
467.05	342.79
467.42	340.59
467.78	338.18
468.15	335.99
468.52	334.42
468.88	332.29
469.25	330.29
469.62	328.77
469.98	327.08
470.35	325.52
470.72	324.01
471.08	322.38
471.45	320.97
471.82	319.56
472.18	317.89
472.55	316.80
472.92	315.42
473.28	314.19
473.65	313.05
474.02	311.88
474.38	310.94
474.75	310.00
475.11	309.04
475.48	308.30
475.85	307.62
476.21	306.87
476.58	306.29
476.94	305.82
477.31	305.29
477.67	304.84
478.04	304.43
478.41	304.18
478.77	304.20
479.14	303.81
479.50	303.61
479.87	303.60
480.23	303.42
480.60	303.17
480.96	303.11
481.33	303.27
481.69	303.37
482.06	303.36
482.42	303.39
482.79	303.50
483.15	303.75
483.52	304.00
483.88	304.19
484.25	304.47
484.61	304.71
484.98	305.01
485.34	305.40
485.71	305.84
486.07	306.32
486.44	306.49
486.80	307.02
487.17	307.58
487.53	308.39
487.90	309.17
488.26	310.11
488.62	310.94
488.99	311.65
489.35	312.46
489.72	313.43
490.08	314.43
490.44	315.39
490.81	316.46
491.17	317.52
491.54	318.77
491.90	319.97
492.26	321.28
492.63	322.51
492.99	323.82
493.36	325.25
493.72	326.77
494.08	328.28
494.45	329.88
494.81	331.52
495.17	333.02
495.54	334.57
495.90	336.05
496.26	337.58
496.63	339.31
496.99	341.06
497.35	342.78
497.72	344.62
498.08	346.43
498.44	348.32
498.80	350.22
499.17	352.14
499.53	353.86
499.89	355.81
500.26	357.65
500.62	359.48
500.98	361.28
501.34	362.93
501.71	364.80
502.07	366.48
502.43	368.16
502.79	369.71
503.16	371.49
503.52	373.20
503.88	374.76
504.24	376.35
504.60	377.95
504.97	379.53
505.33	380.81
505.69	382.45
506.05	383.79
506.41	385.06
506.78	386.13
507.14	387.29
507.50	388.34
507.86	389.56
508.22	390.66
508.59	391.70
508.95	392.73
509.31	393.76
509.67	394.75
510.03	395.53
510.39	396.44
510.75	397.15
511.12	397.77
511.48	398.51
511.84	399.12
512.20	399.63
512.56	400.06
512.92	400.58
513.28	400.81
513.64	401.07
514.00	401.40
514.37	401.69
514.73	402.01
515.09	402.30
515.45	402.29
515.81	402.35
516.17	402.25
516.53	402.20
516.89	401.97
517.25	401.83
517.61	401.77
517.97	401.54
518.33	401.25
518.69	401.11
519.05	400.99
519.41	400.67
519.77	400.74
520.13	400.53
520.49	400.31
520.85	400.22
521.21	400.07
521.57	399.87
521.93	399.69
522.29	399.55
522.65	399.35
523.01	399.29
523.37	399.13
523.73	399.12
524.09	399.07
524.45	398.91
524.81	399.03
525.17	399.15
525.53	399.40
525.89	399.64
526.25	399.91
526.61	399.95
526.97	400.33
527.33	400.45
527.68	401.12
528.04	401.45
528.40	401.74
528.76	402.16
529.12	402.55
529.48	403.20
529.84	403.80
530.20	404.48
530.56	405.28
530.91	406.17
531.27	407.10
531.63	408.02
531.99	409.12
532.35	410.13
532.71	411.17
533.07	412.20
533.42	413.69
533.78	414.84
534.14	416.16
534.50	417.39
534.86	418.79
535.21	419.86
535.57	421.40
535.93	422.83
536.29	424.56
536.65	426.25
537.00	427.77
537.36	429.53
537.72	431.15
538.08	432.93
538.44	434.55
538.79	436.41
539.15	438.38
539.51	440.29
539.87	442.32
540.22	444.41
540.58	446.60
540.94	448.57
541.29	450.82
541.65	453.01
542.01	455.41
542.37	457.66
542.72	459.89
543.08	462.16
543.44	464.91
543.79	467.06
544.15	469.58
544.51	472.35
544.87	474.85
545.22	477.55
545.58	480.14
545.94	482.90
546.29	485.41
546.65	488.05
547.01	490.74
547.36	493.40
547.72	496.08
548.07	498.75
548.43	501.27
548.79	503.72
549.14	506.47
549.50	509.08
549.86	511.80
550.21	514.61
550.57	517.55
550.92	519.90
551.28	522.73
551.64	525.50
551.99	528.14
552.35	530.73
552.70	533.26
553.06	536.04
553.41	538.68
553.77	541.51
554.13	544.15
554.48	546.99
554.84	549.65
555.19	552.21
555.55	555.08
555.90	557.70
556.26	560.43
556.61	562.80
556.97	565.22
557.32	567.90
557.68	570.37
558.03	572.69
558.39	575.21
558.74	577.65
559.10	580.02
559.45	582.35
559.81	585.02
560.16	587.44
560.52	589.65
560.87	592.10
561.23	594.33
561.58	596.82
561.94	598.93
562.29	601.07
562.64	603.42
563.00	605.30
563.35	607.49
563.71	609.85
564.06	612.19
564.42	614.58
564.77	616.54
565.12	618.73
565.48	621.18
565.83	623.34
566.19	625.52
566.54	627.50
566.89	629.41
567.25	631.30
567.60	633.42
567.96	635.58
568.31	637.59
568.66	639.34
569.02	640.85
569.37	642.43
569.72	644.15
570.08	645.61
570.43	647.07
570.78	648.51
571.14	649.53
571.49	650.54
571.84	651.53
572.20	652.62
572.55	653.69
572.90	654.18
573.26	654.91
573.61	655.54
573.96	656.24
574.31	656.97
574.67	657.41
575.02	657.65
575.37	657.72
575.72	657.72
576.08	658.13
576.43	658.35
576.78	658.61
577.13	658.80
577.49	658.83
577.84	659.14
578.19	659.37
578.54	659.86
578.90	660.37
579.25	660.60
579.60	660.52
579.95	660.38
580.30	660.72
580.66	660.83
581.01	660.88
581.36	660.74
581.71	660.63
582.06	660.80
582.42	660.80
582.77	660.57
583.12	660.53
583.47	660.41
583.82	660.27
584.17	660.07
584.53	660.05
584.88	659.98
585.23	659.72
585.58	659.40
585.93	658.98
586.28	658.64
586.63	658.37
586.98	658.17
587.34	658.04
587.69	657.50
588.04	657.15
588.39	656.86
588.74	656.53
589.09	656.28
589.44	655.59
589.79	655.18
590.14	654.89
590.49	654.50
590.84	653.95
591.19	653.62
591.54	653.19
591.89	652.15
592.25	651.64
592.60	650.78
592.95	649.98
593.30	649.05
593.65	648.10
594.00	647.17
594.35	647.17
594.70	646.20
595.05	645.53
595.40	644.61
595.75	643.60
596.10	642.76
596.45	641.71
596.80	641.06
597.15	640.27
597.50	639.22
597.85	638.28
598.19	637.19
598.54	636.19
598.89	635.15
599.24	634.59
599.59	633.50
599.94	632.83
600.29	631.83
600.64	630.94
600.99	630.06
601.34	629.09
601.69	627.16
602.04	625.91
602.39	624.75
602.74	623.84
603.08	622.93
603.43	622.20
603.78	621.24
604.13	620.06
604.48	618.95
604.83	618.32
605.18	617.58
605.53	616.56
605.87	615.41
606.22	614.59
606.57	613.46
606.92	612.29
607.27	611.01
607.62	609.93
607.96	608.99
608.31	608.05
608.66	606.83
609.01	605.68
609.36	604.68
609.70	603.38
610.05	602.00
610.40	600.69
610.75	598.98
611.10	597.73
611.44	596.17
611.79	594.70
612.14	593.11
612.49	591.15
612.83	589.63
613.18	587.93
613.53	586.12
613.88	584.16
614.22	582.72
614.57	581.06
614.92	579.49
615.27	577.66
615.61	575.65
615.96	574.05
616.31	572.53
616.65	571.20
617.00	569.62
617.35	567.98
617.70	566.21
618.04	564.37
618.39	562.40
618.74	560.85
619.08	559.02
619.43	557.13
619.78	555.52
620.12	553.83
620.47	552.33
620.82	550.59
621.16	548.69
621.51	547.06
621.85	545.31
622.20	543.54
622.55	541.74
622.89	540.02
623.24	538.32
623.59	536.34
623.93	534.36
624.28	532.63
624.62	531.09
624.97	529.51
625.32	527.96
625.66	526.36
626.01	524.63
626.35	522.91
626.70	521.25
627.04	519.74
627.39	518.02
627.73	516.33
628.08	514.81
628.43	513.40
628.77	511.42
629.12	509.76
629.46	508.02
629.81	506.41
630.15	504.70
630.50	502.82
630.84	501.11
631.19	499.39
631.53	497.75
631.88	495.81
632.22	493.95
632.57	492.45
632.91	490.93
633.26	489.22
633.60	487.66
633.95	486.09
634.29	484.19
634.64	482.75
634.98	480.99
635.32	479.39
635.67	478.04
636.01	476.59
636.36	474.95
636.70	473.46
637.05	471.81
637.39	470.51
637.73	469.26
638.08	468.14
638.42	466.85
638.77	465.35
639.11	463.96
639.45	462.54
639.80	460.77
640.14	459.00
640.49	457.50
640.83	455.95
641.17	454.39
641.52	452.88
641.86	451.07
642.20	449.62
642.55	447.74
642.89	445.87
643.23	444.29
643.58	442.94
643.92	441.28
644.26	439.62
644.61	437.93
644.95	436.20
645.29	434.37
645.64	432.66
645.98	431.03
646.32	429.43
646.66	427.65
647.01	426.04
647.35	424.66
647.69	422.95
648.04	421.40
648.38	419.70
648.72	418.13
649.06	416.64
649.41	415.07
649.75	413.59
650.09	412.20
650.43	410.52
650.78	408.69
651.12	407.15
651.46	405.73
651.80	404.25
652.14	402.73
652.49	401.34
652.83	399.77
653.17	398.12
653.51	396.53
653.85	395.20
654.20	393.76
654.54	391.92
654.88	390.34
655.22	388.87
655.56	387.32
655.90	385.72
656.25	384.12
656.59	382.62
656.93	381.19
657.27	379.79
657.61	378.20
657.95	376.85
658.29	375.43
658.64	374.13
658.98	372.67
659.32	371.10
659.66	369.57
660.00	368.04
660.34	366.61
660.68	365.11
661.02	363.60
661.36	362.19
661.70	361.01
662.05	359.71
662.39	358.38
662.73	357.25
663.07	356.24
663.41	355.10
663.75	353.71
664.09	352.38
664.43	350.97
664.77	349.80
665.11	348.50
665.45	347.17
665.79	345.82
666.13	344.52
666.47	343.32
666.81	342.09
667.15	340.85
667.49	339.83
667.83	338.84
668.17	337.62
668.51	336.56
668.85	335.55
669.19	334.71
669.53	333.53
669.87	332.29
670.21	331.03
670.55	329.91
670.89	329.11
671.23	328.14
671.57	327.14
671.91	326.23
672.25	325.23
672.58	324.31
672.92	323.37
673.26	322.48
673.60	321.63
673.94	320.63
674.28	319.70
674.62	318.70
674.96	317.72
675.30	316.90
675.64	315.84
675.97	314.81
676.31	313.70
676.65	312.81
676.99	312.13
677.33	311.21
677.67	310.33
678.01	309.28
678.34	308.44
678.68	307.52
679.02	306.56
679.36	305.71
679.70	304.83
680.04	303.95
680.37	303.06
680.71	302.21
681.05	301.45
681.39	300.70
681.73	299.92
682.06	299.09
682.40	298.26
682.74	297.59
683.08	296.95
683.42	296.20
683.75	295.41
684.09	294.42
684.43	293.67
684.77	292.87
685.10	292.09
685.44	291.32
685.78	290.56
686.12	289.75
686.45	289.05
686.79	288.28
687.13	287.57
687.46	286.88
687.80	286.18
688.14	285.37
688.48	284.66
688.81	283.94
689.15	283.23
689.49	282.56
689.82	281.92
690.16	281.01
690.50	280.22
690.83	279.53
691.17	278.75
691.51	278.08
691.84	277.37
692.18	276.73
692.52	276.01
692.85	275.40
693.19	274.90
693.52	274.20
693.86	273.56
694.20	272.83
694.53	272.06
694.87	271.35
695.21	270.77
695.54	270.15
695.88	269.43
696.21	268.75
696.55	268.11
696.88	267.46
697.22	266.84
697.56	266.34
697.89	265.64
698.23	265.21
698.56	264.60
698.90	264.15
699.23	263.55
699.57	262.95
699.90	262.32
700.24	261.72
700.58	261.20
700.91	260.68
701.25	260.43
701.58	260.08
701.92	259.62
702.25	259.04
702.59	258.44
702.92	258.01
703.26	257.55
703.59	257.00
703.93	256.80
704.26	256.40
704.60	255.96
704.93	255.56
705.26	255.01
705.60	254.63
705.93	254.03
706.27	253.70
706.60	253.38
706.94	253.22
707.27	252.77
707.61	252.35
707.94	251.90
708.27	251.22
708.61	250.76
708.94	250.31
709.28	249.94
709.61	249.60
709.94	249.23
710.28	248.85
710.61	248.61
710.95	247.82
711.28	247.71
711.61	247.34
711.95	247.07
712.28	246.68
712.61	246.26
712.95	246.08
713.28	245.78
713.61	245.30
713.95	244.83
714.28	244.46
714.61	244.14
714.95	243.74
715.28	243.40
715.61	243.03
715.95	242.78
716.28	242.43
716.61	242.16
716.95	241.83
717.28	241.45
717.61	240.98
717.94	240.82
718.28	240.21
718.61	239.89
718.94	239.44
719.27	239.19
719.61	238.93
719.94	238.60
720.27	238.15
720.60	237.94
720.94	237.64
721.27	237.45
721.60	237.21
721.93	237.00
722.27	236.79
722.60	236.53
722.93	236.20
723.26	236.00
723.59	235.66
723.93	235.35
724.26	235.24
724.59	235.05
724.92	234.80
725.25	234.72
725.59	234.43
725.92	234.33
726.25	234.04
726.58	233.80
726.91	233.54
727.24	233.40
727.57	233.19
727.91	232.84
728.24	232.71
728.57	232.47
728.90	232.26
729.23	232.03
729.56	231.97
729.89	231.76
730.22	231.53
730.55	231.28
730.89	231.14
731.22	230.81
731.55	230.59
731.88	230.35
732.21	230.01
732.54	229.81
732.87	229.61
733.20	229.43
733.53	229.32
733.86	229.16
734.19	228.89
734.52	228.74
734.85	228.89
735.18	228.62
735.51	228.50
735.84	228.33
736.17	228.27
736.50	227.87
736.83	228.06
737.16	227.96
737.49	227.80
737.82	227.64
738.15	227.53
738.48	227.42
738.81	227.25
739.14	227.11
739.47	227.01
739.80	226.87
740.13	226.84
740.46	226.54
740.79	226.37
741.12	226.24
741.45	226.04
741.78	225.64
742.11	225.53
742.44	225.33
742.77	225.31
743.10	225.05
743.43	224.93
743.75	224.45
744.08	224.76
744.41	224.62
744.74	224.38
745.07	224.19
745.40	224.09
745.73	224.17
746.06	224.00
746.39	223.89
746.71	223.73
747.04	223.48
747.37	223.38
747.70	223.25
748.03	223.14
748.36	223.09
748.68	222.97
749.01	222.79
749.34	222.64
749.67	222.49
750.00	222.44
750.33	222.61
750.65	222.53
750.98	221.90
751.31	221.88
751.64	221.88
751.97	222.03
752.29	221.90
752.62	221.59
752.95	221.47
753.28	221.34
753.60	221.15
753.93	221.22
754.26	221.21
754.59	221.08
754.91	220.90
755.24	220.76
755.57	220.62
755.90	220.54
756.22	220.44
756.55	220.30
756.88	220.16
757.20	219.87
757.53	219.73
757.86	219.67
758.19	219.63
758.51	219.57
758.84	219.32
759.17	219.21
759.49	219.24
759.82	219.34
760.15	219.22
760.47	219.17
760.80	218.90
761.13	218.83
761.45	218.71
761.78	218.63
762.11	218.61
762.43	218.54
762.76	218.43
763.08	218.38
763.41	218.28
763.74	218.20
764.06	218.11
764.39	217.98
764.71	217.95
765.04	217.80
765.37	217.66
765.69	217.56
766.02	217.51
766.34	217.32
766.67	217.15
767.00	217.18
767.32	217.35
767.65	217.56
767.97	217.49
768.30	217.46
768.62	217.43
768.95	217.32
769.27	217.23
769.60	217.22
769.92	217.12
770.25	217.04
770.57	216.91
770.90	216.76
771.22	216.78
771.55	216.65
771.87	216.55
772.20	216.45
772.52	216.74
772.85	217.03
773.17	217.09
773.50	216.99
773.82	216.92
774.15	216.69
774.47	216.38
774.80	216.27
775.12	216.15
775.45	216.08
775.77	216.03
776.09	216.11
776.42	216.06
776.74	216.15
777.07	216.09
777.39	216.11
777.72	216.10
778.04	216.05
778.36	216.02
778.69	216.13
779.01	216.18
779.33	215.75
779.66	215.36
779.98	215.23
780.31	215.24
780.63	215.25
780.95	215.29
781.28	215.28
781.60	215.24
781.92	215.25
782.25	215.25
782.57	215.24
782.89	215.06
783.22	214.98
783.54	214.90
783.86	214.90
784.19	214.80
784.51	214.90
784.83	214.85
785.16	214.84
785.48	214.75
785.80	214.71
786.12	214.74
786.45	214.77
786.77	214.75
787.09	214.71
787.42	214.62
787.74	214.53
788.06	214.56
788.38	214.56
788.71	214.50
789.03	214.56
789.35	214.51
789.67	214.58
789.99	214.60
790.32	214.58
790.64	214.62
790.96	214.87
791.28	214.75
791.61	214.68
791.93	214.66
792.25	214.59
792.57	214.77
792.89	214.77
793.21	214.72
793.54	214.71
793.86	214.66
794.18	214.66
