SpectraSuite Data File
++++++++++++++++++++++++++++++++++++
Date: Mon Feb 25 16:57:42 EST 2013
User: group
Dark Spectrum Present: No
Reference Spectrum Present: No
Number of Sampled Component Spectra: 1
Spectrometers: USB2E7196
Integration Time (usec): 104000 (USB2E7196)
Spectra Averaged: 20 (USB2E7196)
Boxcar Smoothing: 10 (USB2E7196)
Correct for Electrical Dark: No (USB2E7196)
Strobe/Lamp Enabled: No (USB2E7196)
Correct for Detector Non-linearity: No (USB2E7196)
Correct for Stray Light: No (USB2E7196)
Number of Pixels in Processed Spectrum: 2048
>>>>>Begin Processed Spectral Data<<<<<
339.09	0.00
339.48	199.40
339.86	199.65
340.24	201.55
340.63	203.25
341.01	209.65
341.39	204.30
341.78	207.50
342.16	209.50
342.54	209.40
342.93	198.66
343.31	208.75
343.69	209.30
344.07	209.83
344.46	210.36
344.84	210.82
345.22	210.95
345.60	211.35
345.99	211.62
346.37	211.73
346.75	211.83
347.13	211.95
347.52	212.05
347.90	212.27
348.28	212.27
348.66	212.32
349.05	212.30
349.43	212.46
349.81	212.55
350.19	212.60
350.57	212.74
350.96	212.81
351.34	212.89
351.72	212.98
352.10	213.10
352.48	213.09
352.87	213.12
353.25	213.18
353.63	213.19
354.01	213.17
354.39	213.28
354.77	213.36
355.15	213.54
355.54	213.58
355.92	213.47
356.30	213.55
356.68	213.84
357.06	213.93
357.44	213.94
357.82	214.02
358.20	214.05
358.58	214.07
358.97	214.09
359.35	214.15
359.73	214.28
360.11	214.23
360.49	214.26
360.87	214.19
361.25	214.21
361.63	214.35
362.01	214.45
362.39	214.40
362.77	214.43
363.15	214.34
363.53	214.35
363.91	214.37
364.29	214.37
364.67	214.09
365.05	214.06
365.43	214.04
365.81	213.99
366.19	214.11
366.57	214.21
366.95	214.24
367.33	214.13
367.71	214.02
368.09	214.11
368.47	214.06
368.85	214.02
369.23	214.09
369.61	213.92
369.99	213.96
370.37	213.98
370.75	214.10
371.13	213.96
371.51	213.86
371.89	213.83
372.27	213.78
372.65	213.74
373.03	213.69
373.41	213.68
373.78	213.55
374.16	213.39
374.54	213.18
374.92	213.06
375.30	213.04
375.68	212.93
376.06	212.85
376.44	212.79
376.82	212.82
377.19	212.68
377.57	212.58
377.95	212.39
378.33	212.27
378.71	212.04
379.09	212.07
379.47	212.00
379.84	211.93
380.22	211.80
380.60	211.67
380.98	211.60
381.36	211.45
381.73	211.44
382.11	211.47
382.49	211.51
382.87	211.45
383.25	211.44
383.62	211.83
384.00	211.76
384.38	211.80
384.76	211.84
385.13	211.91
385.51	211.93
385.89	211.82
386.27	211.86
386.64	211.86
387.02	211.80
387.40	211.80
387.78	211.80
388.15	211.85
388.53	211.81
388.91	211.80
389.29	211.78
389.66	211.86
390.04	211.75
390.42	211.72
390.79	211.79
391.17	211.80
391.55	211.40
391.92	211.41
392.30	211.42
392.68	211.37
393.05	211.47
393.43	211.52
393.81	211.60
394.18	211.56
394.56	211.63
394.94	211.75
395.31	211.78
395.69	211.88
396.06	212.00
396.44	212.06
396.82	212.09
397.19	212.37
397.57	212.31
397.95	212.40
398.32	212.43
398.70	212.44
399.07	212.56
399.45	212.65
399.82	212.76
400.20	212.81
400.58	212.89
400.95	212.77
401.33	212.85
401.70	213.24
402.08	213.39
402.45	213.43
402.83	213.62
403.20	213.73
403.58	213.84
403.95	214.05
404.33	214.34
404.71	214.50
405.08	214.87
405.46	215.12
405.83	215.37
406.21	215.54
406.58	215.89
406.96	216.20
407.33	216.55
407.70	216.93
408.08	217.60
408.45	218.09
408.83	218.56
409.20	219.02
409.58	219.37
409.95	219.97
410.33	220.74
410.70	221.30
411.08	222.12
411.45	222.99
411.82	223.70
412.20	224.64
412.57	225.91
412.95	226.65
413.32	227.81
413.69	229.03
414.07	230.34
414.44	231.74
414.82	233.15
415.19	234.88
415.56	236.57
415.94	238.27
416.31	240.17
416.68	242.27
417.06	244.59
417.43	246.77
417.81	249.29
418.18	251.83
418.55	254.62
418.93	257.61
419.30	260.62
419.67	263.88
420.04	267.26
420.42	270.74
420.79	274.93
421.16	279.00
421.54	283.35
421.91	287.78
422.28	292.34
422.66	297.27
423.03	302.12
423.40	307.17
423.77	312.44
424.15	317.95
424.52	323.70
424.89	329.90
425.26	335.98
425.64	341.75
426.01	348.13
426.38	354.81
426.75	361.60
427.13	368.56
427.50	375.96
427.87	383.58
428.24	391.33
428.61	398.69
428.99	406.92
429.36	415.78
429.73	424.53
430.10	433.32
430.47	442.31
430.85	451.66
431.22	461.46
431.59	472.03
431.96	482.17
432.33	493.28
432.70	504.17
433.08	516.84
433.45	528.83
433.82	540.74
434.19	554.20
434.56	567.30
434.93	579.95
435.30	592.85
435.68	606.98
436.05	620.93
436.42	634.90
436.79	647.82
437.16	661.89
437.53	676.60
437.90	691.18
438.27	705.55
438.64	720.71
439.01	734.81
439.38	747.42
439.75	759.66
440.13	773.70
440.50	786.88
440.87	797.90
441.24	809.47
441.61	822.36
441.98	831.69
442.35	842.79
442.72	854.01
443.09	864.57
443.46	871.41
443.83	876.51
444.20	880.94
444.57	887.04
444.94	890.13
445.31	893.75
445.68	897.11
446.05	899.14
446.42	898.61
446.79	897.98
447.16	897.18
447.53	897.09
447.90	892.76
448.27	888.61
448.64	882.28
449.01	877.92
449.37	869.10
449.74	860.86
450.11	850.74
450.48	839.71
450.85	828.30
451.22	818.72
451.59	809.44
451.96	800.69
452.33	788.53
452.70	777.71
453.07	764.45
453.43	750.87
453.80	737.92
454.17	725.53
454.54	713.72
454.91	701.05
455.28	688.48
455.65	676.88
456.02	665.15
456.38	655.12
456.75	642.58
457.12	632.41
457.49	622.29
457.86	612.24
458.23	603.69
458.59	594.31
458.96	584.84
459.33	576.35
459.70	567.90
460.07	561.01
460.43	553.35
460.80	546.10
461.17	539.94
461.54	533.26
461.91	526.72
462.27	520.24
462.64	514.77
463.01	508.76
463.38	502.91
463.74	497.05
464.11	491.95
464.48	487.36
464.85	482.20
465.21	478.44
465.58	474.42
465.95	469.44
466.32	465.43
466.68	461.41
467.05	457.44
467.42	453.42
467.78	449.36
468.15	445.32
468.52	442.27
468.88	438.33
469.25	434.79
469.62	432.07
469.98	429.04
470.35	426.20
470.72	423.46
471.08	420.50
471.45	418.03
471.82	415.51
472.18	412.86
472.55	410.95
472.92	408.51
473.28	406.34
473.65	404.29
474.02	402.30
474.38	400.69
474.75	399.30
475.11	397.74
475.48	396.55
475.85	395.56
476.21	394.48
476.58	393.64
476.94	393.12
477.31	392.30
477.67	391.55
478.04	390.79
478.41	390.37
478.77	390.29
479.14	389.75
479.50	389.60
479.87	389.61
480.23	389.75
480.60	389.77
480.96	389.85
481.33	390.51
481.69	390.85
482.06	391.03
482.42	391.32
482.79	391.69
483.15	392.32
483.52	393.12
483.88	393.88
484.25	394.56
484.61	395.41
484.98	396.33
485.34	397.71
485.71	399.15
486.07	400.46
486.44	401.65
486.80	403.28
487.17	404.89
487.53	406.79
487.90	408.63
488.26	410.78
488.62	413.03
488.99	415.09
489.35	417.46
489.72	420.03
490.08	422.56
490.44	425.31
490.81	428.13
491.17	430.92
491.54	434.05
491.90	437.23
492.26	440.56
492.63	444.04
492.99	447.41
493.36	451.08
493.72	455.03
494.08	458.89
494.45	463.05
494.81	467.36
495.17	471.68
495.54	476.25
495.90	480.76
496.26	485.46
496.63	490.30
496.99	495.26
497.35	500.32
497.72	505.50
498.08	510.74
498.44	516.01
498.80	521.70
499.17	527.39
499.53	533.11
499.89	539.00
500.26	544.70
500.62	550.48
500.98	556.48
501.34	562.46
501.71	568.55
502.07	574.51
502.43	580.57
502.79	586.54
503.16	592.53
503.52	598.65
503.88	604.79
504.24	610.78
504.60	616.98
504.97	623.50
505.33	629.70
505.69	636.43
506.05	642.91
506.41	648.99
506.78	654.84
507.14	660.76
507.50	666.59
507.86	672.67
508.22	678.67
508.59	684.44
508.95	690.30
509.31	696.23
509.67	702.23
510.03	707.98
510.39	714.08
510.75	719.96
511.12	725.55
511.48	731.21
511.84	736.87
512.20	742.31
512.56	747.55
512.92	753.09
513.28	758.08
513.64	763.09
514.00	768.18
514.37	773.04
514.73	778.26
515.09	783.51
515.45	788.32
515.81	793.32
516.17	798.05
516.53	802.64
516.89	807.15
517.25	811.35
517.61	815.54
517.97	819.39
518.33	823.09
518.69	827.20
519.05	831.08
519.41	835.08
519.77	839.03
520.13	842.64
520.49	845.82
520.85	849.16
521.21	852.69
521.57	856.10
521.93	859.41
522.29	862.67
522.65	865.51
523.01	868.75
523.37	871.24
523.73	874.02
524.09	876.56
524.45	879.45
524.81	882.30
525.17	885.29
525.53	888.05
525.89	891.00
526.25	893.45
526.61	895.68
526.97	897.85
527.33	900.28
527.68	902.84
528.04	905.41
528.40	907.54
528.76	909.67
529.12	912.10
529.48	915.03
529.84	917.18
530.20	919.59
530.56	921.91
530.91	924.69
531.27	927.18
531.63	929.65
531.99	931.73
532.35	933.89
532.71	936.03
533.07	938.69
533.42	941.33
533.78	943.78
534.14	946.38
534.50	948.55
534.86	951.00
535.21	952.81
535.57	955.15
535.93	957.47
536.29	959.77
536.65	961.88
537.00	963.55
537.36	965.49
537.72	967.31
538.08	969.14
538.44	970.98
538.79	972.96
539.15	975.10
539.51	977.41
539.87	979.90
540.22	982.20
540.58	984.40
540.94	986.29
541.29	988.17
541.65	989.97
542.01	992.13
542.37	993.90
542.72	996.09
543.08	997.88
543.44	1000.24
543.79	1001.91
544.15	1003.66
544.51	1005.80
544.87	1008.13
545.22	1010.28
545.58	1012.38
545.94	1014.03
546.29	1015.87
546.65	1017.25
547.01	1018.64
547.36	1019.99
547.72	1021.25
548.07	1022.45
548.43	1023.55
548.79	1024.84
549.14	1026.14
549.50	1027.55
549.86	1028.66
550.21	1030.07
550.57	1031.62
550.92	1032.39
551.28	1033.84
551.64	1035.26
551.99	1036.65
552.35	1037.66
552.70	1038.67
553.06	1039.85
553.41	1041.40
553.77	1042.81
554.13	1044.45
554.48	1046.16
554.84	1047.77
555.19	1049.49
555.55	1050.90
555.90	1052.12
556.26	1053.35
556.61	1054.29
556.97	1055.14
557.32	1056.25
557.68	1057.10
558.03	1057.88
558.39	1058.66
558.74	1059.55
559.10	1060.47
559.45	1061.22
559.81	1062.30
560.16	1062.94
560.52	1063.83
560.87	1064.54
561.23	1064.70
561.58	1065.56
561.94	1065.83
562.29	1065.87
562.64	1066.33
563.00	1066.72
563.35	1067.50
563.71	1068.67
564.06	1069.58
564.42	1070.77
564.77	1071.85
565.12	1072.81
565.48	1073.93
565.83	1075.13
566.19	1076.25
566.54	1076.85
566.89	1077.32
567.25	1078.24
567.60	1079.44
567.96	1080.18
568.31	1081.03
568.66	1082.00
569.02	1082.07
569.37	1082.07
569.72	1082.58
570.08	1082.55
570.43	1082.61
570.78	1082.44
571.14	1081.95
571.49	1081.85
571.84	1081.46
572.20	1080.68
572.55	1080.23
572.90	1079.25
573.26	1078.27
573.61	1077.23
573.96	1076.35
574.31	1075.24
574.67	1073.66
575.02	1071.97
575.37	1070.35
575.72	1068.36
576.08	1067.01
576.43	1065.25
576.78	1063.94
577.13	1062.33
577.49	1060.76
577.84	1059.11
578.19	1057.91
578.54	1056.66
578.90	1055.45
579.25	1053.69
579.60	1052.01
579.95	1049.91
580.30	1048.33
580.66	1046.76
581.01	1044.67
581.36	1042.44
581.71	1040.36
582.06	1038.35
582.42	1036.55
582.77	1034.17
583.12	1032.02
583.47	1029.70
583.82	1027.74
584.17	1025.61
584.53	1023.47
584.88	1021.19
585.23	1019.01
585.58	1016.21
585.93	1013.47
586.28	1011.03
586.63	1008.66
586.98	1006.45
587.34	1004.34
587.69	1001.64
588.04	999.12
588.39	996.77
588.74	994.32
589.09	992.17
589.44	989.46
589.79	987.03
590.14	984.85
590.49	982.44
590.84	979.83
591.19	977.76
591.54	975.31
591.89	972.49
592.25	969.83
592.60	966.72
592.95	963.93
593.30	960.82
593.65	957.50
594.00	954.37
594.35	952.34
594.70	949.19
595.05	946.53
595.40	943.67
595.75	940.57
596.10	937.78
596.45	934.78
596.80	932.26
597.15	929.46
597.50	926.33
597.85	923.44
598.19	920.35
598.54	917.14
598.89	914.06
599.24	911.52
599.59	908.66
599.94	906.05
600.29	903.41
600.64	900.81
600.99	897.98
601.34	895.23
601.69	891.03
602.04	887.73
602.39	884.55
602.74	881.71
603.08	878.92
603.43	876.30
603.78	873.44
604.13	870.34
604.48	867.28
604.83	864.82
605.18	862.30
605.53	859.37
605.87	856.23
606.22	853.34
606.57	849.92
606.92	846.69
607.27	843.65
607.62	840.12
607.96	837.25
608.31	834.49
608.66	831.32
609.01	828.44
609.36	825.51
609.70	822.31
610.05	818.71
610.40	815.46
610.75	811.79
611.10	808.61
611.44	804.95
611.79	801.31
612.14	797.57
612.49	793.56
612.83	790.35
613.18	786.90
613.53	783.20
613.88	779.80
614.22	776.33
614.57	772.80
614.92	769.61
615.27	765.92
615.61	762.17
615.96	758.76
616.31	755.37
616.65	752.41
617.00	749.08
617.35	745.88
617.70	742.17
618.04	738.53
618.39	734.68
618.74	731.36
619.08	727.98
619.43	724.60
619.78	721.53
620.12	718.07
620.47	714.70
620.82	711.30
621.16	707.71
621.51	704.52
621.85	701.13
622.20	697.83
622.55	694.38
622.89	690.97
623.24	687.50
623.59	683.76
623.93	680.17
624.28	677.06
624.62	673.96
624.97	670.99
625.32	667.85
625.66	664.94
626.01	661.79
626.35	658.73
626.70	655.48
627.04	652.35
627.39	649.15
627.73	646.26
628.08	643.52
628.43	640.47
628.77	637.24
629.12	634.02
629.46	630.92
629.81	627.88
630.15	624.84
630.50	621.94
630.84	619.25
631.19	616.32
631.53	613.09
631.88	609.85
632.22	606.81
632.57	604.10
632.91	601.07
633.26	598.28
633.60	595.48
633.95	592.70
634.29	589.73
634.64	587.09
634.98	584.01
635.32	581.24
635.67	578.76
636.01	576.20
636.36	573.55
636.70	571.02
637.05	568.47
637.39	566.06
637.73	563.61
638.08	561.27
638.42	558.83
638.77	556.54
639.11	554.03
639.45	551.74
639.80	549.15
640.14	546.50
640.49	543.99
640.83	541.25
641.17	538.63
641.52	536.15
641.86	533.47
642.20	531.07
642.55	528.27
642.89	525.69
643.23	523.19
643.58	520.99
643.92	518.45
644.26	515.99
644.61	513.55
644.95	510.97
645.29	508.35
645.64	505.77
645.98	503.22
646.32	500.89
646.66	498.38
647.01	496.00
647.35	493.85
647.69	491.41
648.04	489.21
648.38	487.00
648.72	484.80
649.06	482.58
649.41	480.32
649.75	478.10
650.09	475.82
650.43	473.52
650.78	471.06
651.12	468.69
651.46	466.38
651.80	464.23
652.14	462.15
652.49	460.08
652.83	457.99
653.17	455.67
653.51	453.46
653.85	451.38
654.20	449.28
654.54	446.92
654.88	444.65
655.22	442.54
655.56	440.27
655.90	438.12
656.25	435.90
656.59	433.76
656.93	431.66
657.27	429.70
657.61	427.46
657.95	425.55
658.29	423.70
658.64	421.95
658.98	419.79
659.32	417.64
659.66	415.59
660.00	413.45
660.34	411.52
660.68	409.50
661.02	407.31
661.36	405.34
661.70	403.72
662.05	402.01
662.39	400.20
662.73	398.61
663.07	396.85
663.41	395.15
663.75	393.44
664.09	391.82
664.43	389.94
664.77	388.50
665.11	386.74
665.45	384.96
665.79	383.22
666.13	381.61
666.47	379.99
666.81	378.31
667.15	376.71
667.49	375.21
667.83	373.78
668.17	372.40
668.51	371.05
668.85	369.51
669.19	368.28
669.53	366.82
669.87	365.25
670.21	363.81
670.55	362.49
670.89	361.21
671.23	359.88
671.57	358.65
671.91	357.11
672.25	355.81
672.58	354.67
672.92	353.21
673.26	351.87
673.60	350.63
673.94	349.43
674.28	348.28
674.62	347.12
674.96	345.95
675.30	344.80
675.64	343.48
675.97	342.18
676.31	340.85
676.65	339.62
676.99	338.69
677.33	337.50
677.67	336.29
678.01	334.92
678.34	333.78
678.68	332.57
679.02	331.49
679.36	330.37
679.70	329.09
680.04	327.96
680.37	326.78
680.71	325.68
681.05	324.52
681.39	323.45
681.73	322.32
682.06	321.28
682.40	320.28
682.74	319.30
683.08	318.36
683.42	317.20
683.75	316.20
684.09	314.97
684.43	313.92
684.77	312.83
685.10	311.90
685.44	310.76
685.78	309.84
686.12	308.90
686.45	307.88
686.79	306.90
687.13	306.06
687.46	305.27
687.80	304.40
688.14	303.41
688.48	302.48
688.81	301.47
689.15	300.55
689.49	299.50
689.82	298.58
690.16	297.53
690.50	296.68
690.83	295.76
691.17	294.87
691.51	293.92
691.84	293.13
692.18	292.24
692.52	291.49
692.85	290.63
693.19	289.89
693.52	289.13
693.86	288.32
694.20	287.48
694.53	286.65
694.87	285.77
695.21	285.00
695.54	284.15
695.88	283.34
696.21	282.42
696.55	281.68
696.88	280.82
697.22	280.09
697.56	279.41
697.89	278.73
698.23	278.03
698.56	277.28
698.90	276.60
699.23	275.91
699.57	275.16
699.90	274.40
700.24	273.58
700.58	272.81
700.91	272.16
701.25	271.69
701.58	271.05
701.92	270.49
702.25	269.85
702.59	269.17
702.92	268.62
703.26	268.04
703.59	267.38
703.93	267.16
704.26	266.59
704.60	265.98
704.93	265.31
705.26	264.63
705.60	264.27
705.93	263.55
706.27	263.11
706.60	262.67
706.94	262.35
707.27	261.80
707.61	261.30
707.94	260.63
708.27	259.90
708.61	259.30
708.94	258.79
709.28	258.29
709.61	257.80
709.94	257.35
710.28	256.89
710.61	256.43
710.95	255.55
711.28	255.37
711.61	254.87
711.95	254.57
712.28	254.10
712.61	253.57
712.95	253.39
713.28	252.98
713.61	252.52
713.95	251.93
714.28	251.55
714.61	251.06
714.95	250.73
715.28	250.20
715.61	249.81
715.95	249.37
716.28	248.90
716.61	248.53
716.95	248.06
717.28	247.66
717.61	247.36
717.94	247.08
718.28	246.47
718.61	246.09
718.94	245.60
719.27	245.29
719.61	245.05
719.94	244.53
720.27	244.04
720.60	243.65
720.94	243.32
721.27	242.93
721.60	242.71
721.93	242.44
722.27	242.34
722.60	242.06
722.93	241.65
723.26	241.46
723.59	241.11
723.93	240.89
724.26	240.56
724.59	240.24
724.92	240.00
725.25	239.79
725.59	239.52
725.92	239.34
726.25	239.09
726.58	238.73
726.91	238.47
727.24	238.32
727.57	238.02
727.91	237.70
728.24	237.56
728.57	237.30
728.90	237.09
729.23	236.68
729.56	236.63
729.89	236.40
730.22	236.12
730.55	235.89
730.89	235.63
731.22	235.41
731.55	235.18
731.88	234.87
732.21	234.56
732.54	234.30
732.87	234.02
733.20	233.82
733.53	233.61
733.86	233.43
734.19	233.05
734.52	232.92
734.85	232.95
735.18	232.65
735.51	232.56
735.84	232.34
736.17	232.23
736.50	231.80
736.83	232.09
737.16	231.90
737.49	231.78
737.82	231.58
738.15	231.43
738.48	231.17
738.81	230.98
739.14	230.73
739.47	230.59
739.80	230.35
740.13	230.19
740.46	229.92
740.79	229.68
741.12	229.50
741.45	229.24
741.78	228.85
742.11	228.77
742.44	228.38
742.77	228.27
743.10	228.06
743.43	227.90
743.75	227.32
744.08	227.49
744.41	227.17
744.74	226.97
745.07	226.70
745.40	226.60
745.73	226.64
746.06	226.47
746.39	226.24
746.71	226.08
747.04	225.79
747.37	225.64
747.70	225.50
748.03	225.40
748.36	225.27
748.68	225.12
749.01	224.79
749.34	224.73
749.67	224.52
750.00	224.50
750.33	224.61
750.65	224.51
750.98	224.00
751.31	223.97
751.64	223.88
751.97	224.03
752.29	223.98
752.62	223.58
752.95	223.47
753.28	223.32
753.60	223.17
753.93	223.22
754.26	223.05
754.59	222.94
754.91	222.76
755.24	222.58
755.57	222.40
755.90	222.40
756.22	222.25
756.55	222.12
756.88	221.92
757.20	221.55
757.53	221.28
757.86	221.12
758.19	221.03
758.51	220.85
758.84	220.53
759.17	220.25
759.49	220.23
759.82	220.23
760.15	220.24
760.47	220.23
760.80	219.97
761.13	219.92
761.45	219.75
761.78	219.70
762.11	219.64
762.43	219.56
762.76	219.44
763.08	219.36
763.41	219.31
763.74	219.24
764.06	219.20
764.39	219.17
764.71	219.11
765.04	218.95
765.37	218.92
765.69	218.81
766.02	218.77
766.34	218.63
766.67	218.49
767.00	218.45
767.32	218.53
767.65	218.63
767.97	218.56
768.30	218.59
768.62	218.54
768.95	218.45
769.27	218.47
769.60	218.42
769.92	218.33
770.25	218.19
770.57	218.00
770.90	217.92
771.22	217.93
771.55	217.87
771.87	217.85
772.20	217.80
772.52	218.03
772.85	218.31
773.17	218.34
773.50	218.31
773.82	218.20
774.15	217.95
774.47	217.71
774.80	217.62
775.12	217.50
775.45	217.35
775.77	217.35
776.09	217.29
776.42	217.21
776.74	217.28
777.07	217.22
777.39	217.23
777.72	217.15
778.04	217.07
778.36	217.03
778.69	216.97
779.01	216.88
779.33	216.48
779.66	216.13
779.98	215.98
780.31	215.85
780.63	215.89
780.95	215.88
781.28	215.82
781.60	215.80
781.92	215.77
782.25	215.84
782.57	215.80
782.89	215.77
783.22	215.70
783.54	215.57
783.86	215.56
784.19	215.49
784.51	215.55
784.83	215.52
785.16	215.50
785.48	215.44
785.80	215.36
786.12	215.42
786.45	215.41
786.77	215.46
787.09	215.47
787.42	215.42
787.74	215.37
788.06	215.36
788.38	215.29
788.71	215.22
789.03	215.18
789.35	215.13
789.67	214.94
789.99	214.92
790.32	214.80
790.64	214.79
790.96	215.08
791.28	214.91
791.61	214.82
