SpectraSuite Data File
++++++++++++++++++++++++++++++++++++
Date: Mon Feb 25 16:58:13 EST 2013
User: group
Dark Spectrum Present: No
Reference Spectrum Present: No
Number of Sampled Component Spectra: 1
Spectrometers: USB2E7196
Integration Time (usec): 104000 (USB2E7196)
Spectra Averaged: 20 (USB2E7196)
Boxcar Smoothing: 10 (USB2E7196)
Correct for Electrical Dark: No (USB2E7196)
Strobe/Lamp Enabled: No (USB2E7196)
Correct for Detector Non-linearity: No (USB2E7196)
Correct for Stray Light: No (USB2E7196)
Number of Pixels in Processed Spectrum: 2048
>>>>>Begin Processed Spectral Data<<<<<
339.09	0.00
339.48	199.70
339.86	199.30
340.24	200.30
340.63	203.40
341.01	209.30
341.39	204.40
341.78	206.80
342.16	209.00
342.54	209.00
342.93	198.29
343.31	208.27
343.69	208.76
344.07	209.26
344.46	209.76
344.84	210.11
345.22	210.16
345.60	210.49
345.99	210.71
346.37	210.80
346.75	210.83
347.13	210.81
347.52	210.94
347.90	211.16
348.28	211.20
348.66	211.29
349.05	211.24
349.43	211.25
349.81	211.36
350.19	211.40
350.57	211.40
350.96	211.43
351.34	211.59
351.72	211.67
352.10	211.75
352.48	211.75
352.87	211.78
353.25	211.84
353.63	211.90
354.01	211.98
354.39	212.11
354.77	212.24
355.15	212.40
355.54	212.36
355.92	212.25
356.30	212.29
356.68	212.49
357.06	212.60
357.44	212.60
357.82	212.62
358.20	212.75
358.58	212.83
358.97	212.92
359.35	212.99
359.73	213.15
360.11	213.21
360.49	213.33
360.87	213.45
361.25	213.64
361.63	213.78
362.01	213.77
362.39	213.76
362.77	213.80
363.15	213.83
363.53	213.95
363.91	214.01
364.29	214.11
364.67	213.81
365.05	213.79
365.43	213.88
365.81	213.93
366.19	214.11
366.57	214.26
366.95	214.26
367.33	214.16
367.71	214.12
368.09	214.15
368.47	214.17
368.85	214.06
369.23	214.03
369.61	213.95
369.99	214.04
370.37	214.12
370.75	214.27
371.13	214.15
371.51	214.00
371.89	214.00
372.27	213.91
372.65	213.94
373.03	213.88
373.41	213.78
373.78	213.70
374.16	213.49
374.54	213.30
374.92	213.25
375.30	213.26
375.68	213.13
376.06	213.15
376.44	213.07
376.82	213.10
377.19	213.03
377.57	212.91
377.95	212.76
378.33	212.68
378.71	212.44
379.09	212.42
379.47	212.46
379.84	212.40
380.22	212.35
380.60	212.24
380.98	212.23
381.36	212.25
381.73	212.20
382.11	212.23
382.49	212.27
382.87	212.19
383.25	212.11
383.62	212.50
384.00	212.32
384.38	212.32
384.76	212.43
385.13	212.49
385.51	212.47
385.89	212.42
386.27	212.36
386.64	212.29
387.02	212.31
387.40	212.22
387.78	212.25
388.15	212.24
388.53	212.13
388.91	212.06
389.29	212.00
389.66	212.00
390.04	211.94
390.42	211.89
390.79	211.88
391.17	211.83
391.55	211.39
391.92	211.43
392.30	211.45
392.68	211.26
393.05	211.23
393.43	211.30
393.81	211.32
394.18	211.25
394.56	211.37
394.94	211.39
395.31	211.41
395.69	211.51
396.06	211.54
396.44	211.66
396.82	211.66
397.19	211.80
397.57	211.83
397.95	211.91
398.32	211.96
398.70	212.03
399.07	212.20
399.45	212.33
399.82	212.38
400.20	212.33
400.58	212.44
400.95	212.34
401.33	212.39
401.70	212.71
402.08	212.86
402.45	212.84
402.83	213.03
403.20	213.16
403.58	213.15
403.95	213.44
404.33	213.67
404.71	213.88
405.08	214.26
405.46	214.51
405.83	214.69
406.21	214.93
406.58	215.24
406.96	215.48
407.33	215.77
407.70	216.18
408.08	216.89
408.45	217.31
408.83	217.87
409.20	218.35
409.58	218.69
409.95	219.23
410.33	219.95
410.70	220.53
411.08	221.24
411.45	222.10
411.82	222.78
412.20	223.67
412.57	224.79
412.95	225.53
413.32	226.56
413.69	227.69
414.07	228.86
414.44	230.15
414.82	231.51
415.19	233.07
415.56	234.64
415.94	236.12
416.31	238.08
416.68	239.96
417.06	242.21
417.43	244.29
417.81	246.70
418.18	249.23
418.55	251.84
418.93	254.66
419.30	257.46
419.67	260.52
420.04	263.67
420.42	266.93
420.79	270.84
421.16	274.67
421.54	278.75
421.91	282.90
422.28	287.14
422.66	291.83
423.03	296.46
423.40	301.18
423.77	306.26
424.15	311.18
424.52	316.50
424.89	322.20
425.26	327.84
425.64	333.25
426.01	339.19
426.38	345.37
426.75	351.67
427.13	358.27
427.50	365.22
427.87	372.45
428.24	379.71
428.61	386.59
428.99	394.15
429.36	402.39
429.73	410.60
430.10	418.79
430.47	426.97
430.85	435.54
431.22	444.73
431.59	454.50
431.96	464.05
432.33	474.45
432.70	484.54
433.08	496.44
433.45	507.57
433.82	518.71
434.19	531.26
434.56	543.61
434.93	555.51
435.30	567.30
435.68	580.40
436.05	593.43
436.42	606.48
436.79	618.62
437.16	631.57
437.53	645.32
437.90	658.97
438.27	672.45
438.64	686.74
439.01	699.96
439.38	711.67
439.75	723.05
440.13	735.97
440.50	748.39
440.87	758.54
441.24	769.33
441.61	781.05
441.98	789.83
442.35	800.07
442.72	810.11
443.09	820.21
443.46	826.87
443.83	831.63
444.20	835.78
444.57	841.40
444.94	844.52
445.31	847.76
445.68	850.81
446.05	852.99
446.42	852.42
446.79	851.72
447.16	850.99
447.53	850.92
447.90	847.12
448.27	843.20
448.64	837.33
449.01	833.34
449.37	825.24
449.74	817.56
450.11	808.19
450.48	797.95
450.85	787.33
451.22	778.06
451.59	769.21
451.96	761.07
452.33	749.76
452.70	739.59
453.07	727.05
453.43	714.45
453.80	702.24
454.17	690.76
454.54	679.79
454.91	667.94
455.28	656.17
455.65	645.33
456.02	634.40
456.38	625.14
456.75	613.42
457.12	603.92
457.49	594.38
457.86	584.89
458.23	576.99
458.59	568.10
458.96	559.25
459.33	551.54
459.70	543.60
460.07	537.33
460.43	530.10
460.80	523.37
461.17	517.53
461.54	511.29
461.91	505.25
462.27	499.11
462.64	493.92
463.01	488.15
463.38	482.60
463.74	477.01
464.11	472.20
464.48	467.95
464.85	463.25
465.21	459.85
465.58	456.23
465.95	451.63
466.32	447.87
466.68	444.05
467.05	440.22
467.42	436.33
467.78	432.48
468.15	428.88
468.52	426.18
468.88	422.61
469.25	419.21
469.62	416.54
469.98	413.72
470.35	411.13
470.72	408.80
471.08	406.07
471.45	403.77
471.82	401.44
472.18	398.85
472.55	397.10
472.92	394.76
473.28	392.76
473.65	390.93
474.02	389.07
474.38	387.63
474.75	386.31
475.11	384.86
475.48	383.65
475.85	382.65
476.21	381.63
476.58	380.86
476.94	380.36
477.31	379.65
477.67	378.96
478.04	378.35
478.41	377.83
478.77	377.80
479.14	377.30
479.50	376.98
479.87	377.06
480.23	377.00
480.60	376.92
480.96	376.81
481.33	377.24
481.69	377.60
482.06	377.85
482.42	378.00
482.79	378.41
483.15	378.84
483.52	379.61
483.88	380.18
484.25	380.81
484.61	381.55
484.98	382.35
485.34	383.50
485.71	384.80
486.07	386.10
486.44	387.11
486.80	388.59
487.17	390.07
487.53	391.72
487.90	393.49
488.26	395.51
488.62	397.64
488.99	399.54
489.35	401.70
489.72	404.02
490.08	406.51
490.44	408.92
490.81	411.58
491.17	414.12
491.54	417.05
491.90	419.75
492.26	422.77
492.63	425.90
492.99	429.09
493.36	432.30
493.72	435.79
494.08	439.25
494.45	442.97
494.81	446.94
495.17	450.73
495.54	454.72
495.90	458.57
496.26	462.59
496.63	466.91
496.99	471.10
497.35	475.55
497.72	480.09
498.08	484.75
498.44	489.42
498.80	494.21
499.17	499.19
499.53	504.30
499.89	509.43
500.26	514.47
500.62	519.37
500.98	524.67
501.34	529.85
501.71	535.34
502.07	540.61
502.43	545.78
502.79	551.05
503.16	556.12
503.52	561.36
503.88	566.67
504.24	572.04
504.60	577.49
504.97	582.82
505.33	588.05
505.69	593.80
506.05	599.34
506.41	604.65
506.78	609.47
507.14	614.46
507.50	619.52
507.86	624.60
508.22	629.88
508.59	634.68
508.95	639.46
509.31	644.25
509.67	649.04
510.03	653.94
510.39	658.98
510.75	663.95
511.12	668.89
511.48	673.47
511.84	677.91
512.20	682.39
512.56	686.83
512.92	691.40
513.28	695.39
513.64	699.50
514.00	703.52
514.37	707.65
514.73	711.79
515.09	715.68
515.45	719.42
515.81	723.06
516.17	726.72
516.53	730.33
516.89	733.75
517.25	737.28
517.61	740.61
517.97	743.55
518.33	746.44
518.69	749.24
519.05	752.33
519.41	755.18
519.77	758.15
520.13	760.84
520.49	763.32
520.85	765.99
521.21	768.38
521.57	770.99
521.93	773.23
522.29	775.70
522.65	777.98
523.01	780.43
523.37	782.43
523.73	784.53
524.09	786.71
524.45	788.81
524.81	790.76
525.17	792.74
525.53	794.69
525.89	796.84
526.25	798.96
526.61	800.45
526.97	802.24
527.33	804.06
527.68	806.12
528.04	807.95
528.40	809.43
528.76	811.07
529.12	812.76
529.48	815.06
529.84	816.77
530.20	818.59
530.56	820.37
530.91	822.55
531.27	824.68
531.63	826.69
531.99	828.66
532.35	830.40
532.71	832.21
533.07	834.36
533.42	836.63
533.78	838.66
534.14	841.06
534.50	842.99
534.86	845.18
535.21	846.82
535.57	848.88
535.93	850.96
536.29	853.20
536.65	855.44
537.00	857.04
537.36	858.88
537.72	860.79
538.08	862.68
538.44	864.52
538.79	866.51
539.15	868.42
539.51	870.43
539.87	872.78
540.22	875.15
540.58	877.62
540.94	879.61
541.29	881.54
541.65	883.29
542.01	885.54
542.37	887.37
542.72	889.48
543.08	891.64
543.44	894.13
543.79	895.98
544.15	897.94
544.51	900.47
544.87	902.85
545.22	905.05
545.58	907.17
545.94	909.18
546.29	910.89
546.65	912.66
547.01	914.60
547.36	916.56
547.72	918.15
548.07	919.55
548.43	920.87
548.79	922.60
549.14	924.41
549.50	926.08
549.86	927.42
550.21	929.15
550.57	930.80
550.92	932.15
551.28	933.95
551.64	935.39
551.99	936.94
552.35	938.65
552.70	940.12
553.06	941.88
553.41	943.45
553.77	945.50
554.13	947.30
554.48	948.98
554.84	950.68
555.19	952.30
555.55	954.28
555.90	955.98
556.26	957.35
556.61	958.99
556.97	960.15
557.32	961.97
557.68	963.23
558.03	964.42
558.39	965.67
558.74	967.23
559.10	968.63
559.45	969.80
559.81	970.98
560.16	972.17
560.52	973.27
560.87	974.64
561.23	975.36
561.58	976.57
561.94	977.45
562.29	977.96
562.64	979.29
563.00	980.08
563.35	981.42
563.71	982.84
564.06	983.90
564.42	985.49
564.77	986.61
565.12	987.98
565.48	989.54
565.83	990.92
566.19	992.09
566.54	993.19
566.89	994.37
567.25	995.72
567.60	997.08
567.96	998.38
568.31	999.61
568.66	1000.65
569.02	1001.28
569.37	1001.64
569.72	1002.76
570.08	1003.27
570.43	1003.79
570.78	1004.15
571.14	1004.28
571.49	1004.35
571.84	1004.39
572.20	1004.49
572.55	1004.52
572.90	1003.98
573.26	1003.35
573.61	1002.76
573.96	1002.32
574.31	1001.61
574.67	1000.59
575.02	999.38
575.37	998.27
575.72	996.78
576.08	995.98
576.43	994.87
576.78	994.31
577.13	993.25
577.49	992.19
577.84	990.88
578.19	989.63
578.54	988.81
578.90	988.23
579.25	986.95
579.60	985.10
579.95	983.44
580.30	982.09
580.66	980.87
581.01	979.33
581.36	977.62
581.71	975.84
582.06	974.32
582.42	972.89
582.77	970.78
583.12	968.90
583.47	967.10
583.82	965.27
584.17	963.40
584.53	961.58
584.88	959.58
585.23	957.66
585.58	955.45
585.93	953.26
586.28	950.97
586.63	949.00
586.98	947.58
587.34	945.99
587.69	944.04
588.04	942.22
588.39	940.27
588.74	938.21
589.09	936.55
589.44	934.11
589.79	932.04
590.14	930.43
590.49	928.44
590.84	926.03
591.19	924.32
591.54	922.19
591.89	919.47
592.25	917.19
592.60	914.73
592.95	912.38
593.30	909.81
593.65	907.09
594.00	904.54
594.35	902.84
594.70	900.13
595.05	897.67
595.40	894.99
595.75	892.23
596.10	889.97
596.45	887.39
596.80	885.28
597.15	883.00
597.50	880.49
597.85	878.19
598.19	875.75
598.54	872.93
598.89	870.26
599.24	868.35
599.59	865.65
599.94	863.37
600.29	860.91
600.64	858.57
600.99	856.00
601.34	853.57
601.69	849.89
602.04	846.98
602.39	844.13
602.74	841.50
603.08	839.23
603.43	836.81
603.78	833.93
604.13	831.20
604.48	828.56
604.83	826.04
605.18	823.54
605.53	820.80
605.87	817.96
606.22	815.45
606.57	812.46
606.92	809.55
607.27	806.69
607.62	803.94
607.96	801.00
608.31	798.45
608.66	795.44
609.01	792.61
609.36	789.87
609.70	787.00
610.05	783.87
610.40	780.93
610.75	777.64
611.10	774.99
611.44	771.50
611.79	768.12
612.14	764.83
612.49	761.48
612.83	758.53
613.18	755.50
613.53	752.21
613.88	748.76
614.22	745.78
614.57	742.36
614.92	739.14
615.27	735.87
615.61	732.63
615.96	729.78
616.31	726.84
616.65	724.00
617.00	720.88
617.35	717.99
617.70	714.56
618.04	711.20
618.39	707.49
618.74	704.59
619.08	701.54
619.43	698.33
619.78	695.46
620.12	692.39
620.47	689.49
620.82	686.17
621.16	682.90
621.51	679.83
621.85	677.06
622.20	674.03
622.55	671.00
622.89	667.74
623.24	664.50
623.59	661.25
623.93	658.12
624.28	655.30
624.62	652.51
624.97	649.70
625.32	646.83
625.66	644.10
626.01	641.16
626.35	638.28
626.70	635.43
627.04	632.54
627.39	629.62
627.73	626.96
628.08	624.47
628.43	621.91
628.77	619.08
629.12	616.03
629.46	613.45
629.81	610.64
630.15	607.91
630.50	605.05
630.84	602.37
631.19	599.55
631.53	596.76
631.88	593.60
632.22	590.50
632.57	588.02
632.91	585.47
633.26	582.95
633.60	580.18
633.95	577.49
634.29	574.61
634.64	572.13
634.98	569.10
635.32	566.59
635.67	564.19
636.01	561.70
636.36	559.26
636.70	556.75
637.05	554.39
637.39	552.15
637.73	549.93
638.08	547.73
638.42	545.56
638.77	543.20
639.11	540.96
639.45	538.95
639.80	536.38
640.14	533.89
640.49	531.41
640.83	529.08
641.17	526.85
641.52	524.51
641.86	522.01
642.20	519.89
642.55	517.19
642.89	514.77
643.23	512.26
643.58	510.23
643.92	507.83
644.26	505.63
644.61	503.28
644.95	500.88
645.29	498.45
645.64	496.05
645.98	493.67
646.32	491.59
646.66	489.05
647.01	486.79
647.35	484.71
647.69	482.40
648.04	480.17
648.38	477.91
648.72	475.77
649.06	473.55
649.41	471.22
649.75	469.12
650.09	467.01
650.43	464.91
650.78	462.51
651.12	460.26
651.46	457.90
651.80	455.82
652.14	453.74
652.49	451.73
652.83	449.59
653.17	447.50
653.51	445.25
653.85	443.53
654.20	441.53
654.54	439.30
654.88	437.26
655.22	435.31
655.56	433.15
655.90	430.93
656.25	428.78
656.59	426.86
656.93	425.00
657.27	423.15
657.61	421.04
657.95	419.16
658.29	417.24
658.64	415.54
658.98	413.40
659.32	411.25
659.66	409.27
660.00	407.34
660.34	405.42
660.68	403.39
661.02	401.31
661.36	399.62
661.70	397.87
662.05	396.10
662.39	394.42
662.73	392.92
663.07	391.47
663.41	389.92
663.75	388.06
664.09	386.32
664.43	384.48
664.77	383.00
665.11	381.31
665.45	379.77
665.79	378.14
666.13	376.64
666.47	375.20
666.81	373.68
667.15	372.07
667.49	370.67
667.83	369.32
668.17	367.89
668.51	366.38
668.85	365.00
669.19	363.78
669.53	362.21
669.87	360.60
670.21	359.09
670.55	357.65
670.89	356.55
671.23	355.26
671.57	353.94
671.91	352.63
672.25	351.40
672.58	350.24
672.92	348.94
673.26	347.77
673.60	346.46
673.94	345.15
674.28	343.95
674.62	342.70
674.96	341.58
675.30	340.40
675.64	339.17
675.97	337.89
676.31	336.60
676.65	335.48
676.99	334.54
677.33	333.42
677.67	332.35
678.01	330.99
678.34	329.88
678.68	328.85
679.02	327.72
679.36	326.48
679.70	325.23
680.04	324.12
680.37	323.01
680.71	322.00
681.05	320.99
681.39	320.03
681.73	318.96
682.06	317.89
682.40	316.95
682.74	316.00
683.08	315.10
683.42	314.00
683.75	313.02
684.09	311.87
684.43	310.85
684.77	309.77
685.10	308.91
685.44	307.88
685.78	306.93
686.12	306.05
686.45	305.10
686.79	304.16
687.13	303.27
687.46	302.43
687.80	301.61
688.14	300.71
688.48	299.87
688.81	298.99
689.15	298.18
689.49	297.19
689.82	296.33
690.16	295.41
690.50	294.55
690.83	293.62
691.17	292.64
691.51	291.81
691.84	291.02
692.18	290.08
692.52	289.26
692.85	288.56
693.19	287.85
693.52	287.13
693.86	286.31
694.20	285.52
694.53	284.69
694.87	283.86
695.21	283.06
695.54	282.16
695.88	281.31
696.21	280.40
696.55	279.72
696.88	278.92
697.22	278.26
697.56	277.70
697.89	277.05
698.23	276.47
698.56	275.72
698.90	275.06
699.23	274.40
699.57	273.79
699.90	272.96
700.24	272.12
700.58	271.43
700.91	270.88
701.25	270.53
701.58	269.96
701.92	269.40
702.25	268.77
702.59	268.16
702.92	267.62
703.26	267.05
703.59	266.44
703.93	266.18
704.26	265.55
704.60	264.91
704.93	264.33
705.26	263.63
705.60	263.15
705.93	262.62
706.27	262.15
706.60	261.69
706.94	261.36
707.27	260.85
707.61	260.30
707.94	259.73
708.27	258.88
708.61	258.22
708.94	257.72
709.28	257.20
709.61	256.60
709.94	256.21
710.28	255.78
710.61	255.41
710.95	254.62
711.28	254.44
711.61	253.96
711.95	253.60
712.28	253.25
712.61	252.84
712.95	252.52
713.28	252.28
713.61	251.75
713.95	251.18
714.28	250.81
714.61	250.44
714.95	250.10
715.28	249.64
715.61	249.29
715.95	248.80
716.28	248.44
716.61	248.18
716.95	247.64
717.28	247.20
717.61	246.69
717.94	246.38
718.28	245.64
718.61	245.27
718.94	244.75
719.27	244.39
719.61	244.03
719.94	243.64
720.27	243.03
720.60	242.60
720.94	242.26
721.27	241.93
721.60	241.62
721.93	241.20
722.27	241.05
722.60	240.83
722.93	240.59
723.26	240.33
723.59	240.05
723.93	239.83
724.26	239.60
724.59	239.37
724.92	239.07
725.25	238.98
725.59	238.71
725.92	238.59
726.25	238.32
726.58	238.10
726.91	237.84
727.24	237.67
727.57	237.48
727.91	237.19
728.24	237.01
728.57	236.76
728.90	236.67
729.23	236.34
729.56	236.26
729.89	236.02
730.22	235.72
730.55	235.42
730.89	235.15
731.22	234.91
731.55	234.72
731.88	234.48
732.21	234.08
732.54	233.86
732.87	233.56
733.20	233.35
733.53	233.05
733.86	232.78
734.19	232.55
734.52	232.34
734.85	232.38
735.18	232.12
735.51	232.02
735.84	231.76
736.17	231.62
736.50	231.22
736.83	231.33
737.16	231.20
737.49	231.05
737.82	230.86
738.15	230.68
738.48	230.41
738.81	230.15
739.14	230.04
739.47	229.78
739.80	229.51
740.13	229.37
740.46	229.24
740.79	229.05
741.12	228.79
741.45	228.54
741.78	228.13
742.11	227.93
742.44	227.70
742.77	227.59
743.10	227.37
743.43	227.18
743.75	226.69
744.08	226.95
744.41	226.72
744.74	226.44
745.07	226.27
745.40	226.21
745.73	226.25
746.06	226.08
746.39	226.04
746.71	225.92
747.04	225.66
747.37	225.44
747.70	225.32
748.03	225.26
748.36	225.28
748.68	225.16
749.01	225.02
749.34	224.93
749.67	224.74
750.00	224.69
750.33	224.76
750.65	224.64
750.98	224.02
751.31	223.87
751.64	223.89
751.97	223.92
752.29	223.79
752.62	223.54
752.95	223.36
753.28	223.17
753.60	223.06
753.93	223.15
754.26	223.05
754.59	222.79
754.91	222.65
755.24	222.44
755.57	222.28
755.90	222.20
756.22	221.94
756.55	221.78
756.88	221.55
757.20	221.25
757.53	221.03
757.86	220.95
758.19	221.01
758.51	220.87
758.84	220.63
759.17	220.40
759.49	220.30
759.82	220.45
760.15	220.35
760.47	220.25
760.80	220.08
761.13	220.03
761.45	219.97
761.78	219.91
762.11	219.90
762.43	219.82
762.76	219.65
763.08	219.65
763.41	219.66
763.74	219.61
764.06	219.47
764.39	219.53
764.71	219.49
765.04	219.24
765.37	219.17
765.69	219.03
766.02	219.00
766.34	218.95
766.67	218.73
767.00	218.78
767.32	218.90
767.65	218.96
767.97	218.91
768.30	218.93
768.62	218.85
768.95	218.71
769.27	218.61
769.60	218.64
769.92	218.46
770.25	218.22
770.57	218.10
770.90	218.07
771.22	217.89
771.55	217.83
771.87	217.81
772.20	217.60
772.52	217.90
772.85	218.22
773.17	218.10
773.50	217.98
773.82	217.83
774.15	217.55
774.47	217.26
774.80	217.15
775.12	217.09
775.45	217.03
775.77	216.97
776.09	217.00
776.42	216.85
776.74	217.00
777.07	216.97
777.39	216.92
777.72	216.83
778.04	216.80
778.36	216.68
778.69	216.71
779.01	216.81
779.33	216.44
779.66	215.96
779.98	215.94
780.31	215.86
780.63	215.95
780.95	216.04
781.28	216.03
781.60	215.91
781.92	215.83
782.25	215.74
782.57	215.72
782.89	215.59
783.22	215.65
783.54	215.42
783.86	215.45
784.19	215.38
784.51	215.47
784.83	215.40
785.16	215.36
785.48	215.24
785.80	215.15
786.12	215.05
786.45	215.03
786.77	214.98
787.09	214.95
787.42	214.82
787.74	214.66
788.06	214.58
788.38	214.59
788.71	214.50
789.03	214.50
789.35	214.47
789.67	214.47
789.99	214.39
790.32	214.38
790.64	214.36
790.96	214.59
791.28	214.42
791.61	214.40
791.93	214.38
792.25	214.35
792.57	214.60
792.89	214.56
793.21	214.56
793.54	214.52
793.86	214.42
