SpectraSuite Data File
++++++++++++++++++++++++++++++++++++
Date: Mon Feb 25 17:04:24 EST 2013
User: group
Dark Spectrum Present: No
Reference Spectrum Present: No
Number of Sampled Component Spectra: 1
Spectrometers: USB2E7196
Integration Time (usec): 104000 (USB2E7196)
Spectra Averaged: 20 (USB2E7196)
Boxcar Smoothing: 10 (USB2E7196)
Correct for Electrical Dark: No (USB2E7196)
Strobe/Lamp Enabled: No (USB2E7196)
Correct for Detector Non-linearity: No (USB2E7196)
Correct for Stray Light: No (USB2E7196)
Number of Pixels in Processed Spectrum: 2048
>>>>>Begin Processed Spectral Data<<<<<
339.09	0.00
339.48	197.65
339.86	198.65
340.24	202.25
340.63	203.10
341.01	209.50
341.39	205.55
341.78	207.20
342.16	208.55
342.54	208.65
342.93	198.20
343.31	208.22
343.69	208.82
344.07	209.41
344.46	209.75
344.84	210.10
345.22	210.08
345.60	210.35
345.99	210.49
346.37	210.62
346.75	210.68
347.13	210.72
347.52	210.75
347.90	210.95
348.28	210.89
348.66	210.95
349.05	210.80
349.43	210.93
349.81	211.02
350.19	210.99
350.57	211.01
350.96	211.01
351.34	211.12
351.72	211.16
352.10	211.18
352.48	211.25
352.87	211.32
353.25	211.50
353.63	211.54
354.01	211.66
354.39	211.72
354.77	211.82
355.15	211.88
355.54	211.87
355.92	211.83
356.30	211.95
356.68	212.24
357.06	212.33
357.44	212.25
357.82	212.30
358.20	212.41
358.58	212.41
358.97	212.46
359.35	212.51
359.73	212.60
360.11	212.74
360.49	212.79
360.87	212.82
361.25	212.84
361.63	212.94
362.01	212.95
362.39	212.92
362.77	212.95
363.15	213.05
363.53	213.06
363.91	213.12
364.29	213.08
364.67	212.79
365.05	212.75
365.43	212.72
365.81	212.66
366.19	212.74
366.57	212.89
366.95	212.94
367.33	212.90
367.71	212.86
368.09	212.84
368.47	212.83
368.85	212.72
369.23	212.67
369.61	212.63
369.99	212.64
370.37	212.61
370.75	212.74
371.13	212.59
371.51	212.51
371.89	212.47
372.27	212.44
372.65	212.38
373.03	212.34
373.41	212.35
373.78	212.31
374.16	212.16
374.54	212.05
374.92	211.91
375.30	211.78
375.68	211.67
376.06	211.59
376.44	211.52
376.82	211.52
377.19	211.51
377.57	211.36
377.95	211.25
378.33	211.28
378.71	211.02
379.09	210.98
379.47	210.99
379.84	210.87
380.22	210.79
380.60	210.75
380.98	210.70
381.36	210.70
381.73	210.64
382.11	210.63
382.49	210.58
382.87	210.50
383.25	210.49
383.62	210.93
384.00	210.84
384.38	210.83
384.76	210.93
385.13	210.98
385.51	210.98
385.89	210.83
386.27	210.79
386.64	210.81
387.02	210.77
387.40	210.74
387.78	210.73
388.15	210.72
388.53	210.74
388.91	210.65
389.29	210.62
389.66	210.65
390.04	210.57
390.42	210.51
390.79	210.59
391.17	210.54
391.55	210.11
391.92	210.09
392.30	210.11
392.68	209.95
393.05	209.95
393.43	209.94
393.81	210.00
394.18	209.92
394.56	209.96
394.94	210.05
395.31	210.04
395.69	210.15
396.06	210.26
396.44	210.17
396.82	210.25
397.19	210.37
397.57	210.41
397.95	210.47
398.32	210.44
398.70	210.45
399.07	210.61
399.45	210.60
399.82	210.62
400.20	210.57
400.58	210.61
400.95	210.57
401.33	210.66
401.70	210.98
402.08	211.00
402.45	211.02
402.83	211.11
403.20	211.15
403.58	211.17
403.95	211.24
404.33	211.38
404.71	211.44
405.08	211.75
405.46	211.79
405.83	211.90
406.21	212.05
406.58	212.23
406.96	212.32
407.33	212.55
407.70	212.76
408.08	213.29
408.45	213.63
408.83	213.84
409.20	214.03
409.58	214.03
409.95	214.36
410.33	214.74
410.70	214.96
411.08	215.35
411.45	215.71
411.82	215.95
412.20	216.41
412.57	217.03
412.95	217.15
413.32	217.74
413.69	218.20
414.07	218.75
414.44	219.29
414.82	219.89
415.19	220.58
415.56	221.32
415.94	221.87
416.31	222.71
416.68	223.55
417.06	224.58
417.43	225.65
417.81	226.75
418.18	227.89
418.55	229.12
418.93	230.36
419.30	231.66
419.67	233.18
420.04	234.63
420.42	236.12
420.79	238.13
421.16	239.87
421.54	241.91
421.91	243.85
422.28	245.83
422.66	247.93
423.03	250.17
423.40	252.25
423.77	254.63
424.15	256.92
424.52	259.42
424.89	262.12
425.26	264.60
425.64	267.03
426.01	269.59
426.38	272.39
426.75	275.41
427.13	278.49
427.50	281.49
427.87	284.80
428.24	288.10
428.61	291.03
428.99	294.62
429.36	298.33
429.73	302.13
430.10	305.83
430.47	309.72
430.85	313.51
431.22	317.67
431.59	322.18
431.96	326.44
432.33	331.09
432.70	335.60
433.08	341.00
433.45	346.14
433.82	351.29
434.19	356.95
434.56	362.47
434.93	367.83
435.30	373.36
435.68	379.21
436.05	384.97
436.42	390.81
436.79	396.29
437.16	401.99
437.53	407.99
437.90	413.95
438.27	419.89
438.64	426.08
439.01	431.98
439.38	437.06
439.75	442.13
440.13	447.81
440.50	453.23
440.87	457.75
441.24	462.46
441.61	467.69
441.98	471.65
442.35	476.10
442.72	480.64
443.09	485.04
443.46	487.81
443.83	489.95
444.20	491.75
444.57	493.92
444.94	495.34
445.31	496.79
445.68	498.43
446.05	499.22
446.42	499.06
446.79	498.75
447.16	498.29
447.53	498.17
447.90	496.40
448.27	494.66
448.64	491.88
449.01	489.83
449.37	486.19
449.74	482.51
450.11	478.32
450.48	473.47
450.85	468.47
451.22	464.37
451.59	460.40
451.96	456.57
452.33	451.53
452.70	446.83
453.07	441.16
453.43	435.39
453.80	429.90
454.17	424.64
454.54	419.71
454.91	414.34
455.28	408.98
455.65	404.04
456.02	399.48
456.38	395.24
456.75	390.01
457.12	385.50
457.49	381.21
457.86	376.90
458.23	373.34
458.59	369.42
458.96	365.44
459.33	361.80
459.70	358.24
460.07	355.40
460.43	352.14
460.80	349.25
461.17	346.53
461.54	343.65
461.91	340.99
462.27	338.25
462.64	335.92
463.01	333.45
463.38	331.13
463.74	328.17
464.11	326.01
464.48	324.18
464.85	322.15
465.21	320.71
465.58	318.99
465.95	316.89
466.32	315.21
466.68	313.47
467.05	311.77
467.42	310.09
467.78	308.28
468.15	306.55
468.52	305.17
468.88	303.42
469.25	302.05
469.62	300.80
469.98	299.40
470.35	298.28
470.72	297.06
471.08	295.70
471.45	294.66
471.82	293.73
472.18	292.52
472.55	291.69
472.92	290.57
473.28	289.63
473.65	288.72
474.02	287.87
474.38	287.16
474.75	286.56
475.11	285.86
475.48	285.32
475.85	284.85
476.21	284.33
476.58	283.97
476.94	283.50
477.31	283.11
477.67	282.75
478.04	282.40
478.41	282.17
478.77	282.23
479.14	281.99
479.50	281.74
479.87	281.69
480.23	281.43
480.60	281.21
480.96	281.06
481.33	281.30
481.69	281.26
482.06	281.28
482.42	281.26
482.79	281.36
483.15	281.50
483.52	281.73
483.88	281.79
484.25	281.85
484.61	282.04
484.98	282.23
485.34	282.61
485.71	282.95
486.07	283.21
486.44	283.26
486.80	283.65
487.17	284.03
487.53	284.61
487.90	285.33
488.26	286.04
488.62	286.72
488.99	287.18
489.35	287.87
489.72	288.65
490.08	289.40
490.44	290.10
490.81	290.87
491.17	291.56
491.54	292.60
491.90	293.58
492.26	294.49
492.63	295.53
492.99	296.39
493.36	297.41
493.72	298.57
494.08	299.67
494.45	300.82
494.81	302.04
495.17	303.12
495.54	304.36
495.90	305.59
496.26	306.74
496.63	308.02
496.99	309.27
497.35	310.53
497.72	311.94
498.08	313.34
498.44	314.67
498.80	316.20
499.17	317.48
499.53	318.80
499.89	320.27
500.26	321.61
500.62	322.93
500.98	324.26
501.34	325.61
501.71	327.08
502.07	328.30
502.43	329.56
502.79	330.76
503.16	331.94
503.52	333.09
503.88	334.31
504.24	335.52
504.60	336.61
504.97	337.84
505.33	338.81
505.69	339.95
506.05	341.11
506.41	342.07
506.78	342.96
507.14	344.09
507.50	345.06
507.86	346.02
508.22	347.04
508.59	347.84
508.95	348.74
509.31	349.60
509.67	350.38
510.03	351.20
510.39	352.06
510.75	352.72
511.12	353.55
511.48	354.39
511.84	355.08
512.20	355.70
512.56	356.26
512.92	356.87
513.28	357.44
513.64	357.87
514.00	358.45
514.37	359.09
514.73	359.48
515.09	359.96
515.45	360.36
515.81	360.73
516.17	361.21
516.53	361.46
516.89	361.57
517.25	361.96
517.61	362.33
517.97	362.60
518.33	363.02
518.69	363.37
519.05	363.65
519.41	364.06
519.77	364.71
520.13	365.04
520.49	365.42
520.85	365.82
521.21	366.41
521.57	366.83
521.93	367.10
522.29	367.63
522.65	367.99
523.01	368.51
523.37	368.98
523.73	369.51
524.09	370.12
524.45	370.87
524.81	371.48
525.17	372.23
525.53	373.14
525.89	373.92
526.25	374.69
526.61	375.53
526.97	376.29
527.33	377.13
527.68	378.45
528.04	379.41
528.40	380.43
528.76	381.50
529.12	382.72
529.48	384.17
529.84	385.31
530.20	386.74
530.56	388.07
530.91	389.65
531.27	391.22
531.63	392.79
531.99	394.40
532.35	396.10
532.71	397.79
533.07	399.42
533.42	401.43
533.78	403.19
534.14	405.00
534.50	406.75
534.86	408.70
535.21	410.33
535.57	412.46
535.93	414.40
536.29	416.56
536.65	418.59
537.00	420.60
537.36	422.71
537.72	424.81
538.08	427.04
538.44	429.22
538.79	431.47
539.15	433.71
539.51	436.10
539.87	438.38
540.22	440.73
540.58	443.26
540.94	445.53
541.29	447.96
541.65	450.43
542.01	453.21
542.37	455.77
542.72	458.37
543.08	460.80
543.44	463.57
543.79	465.93
544.15	468.78
544.51	471.55
544.87	474.41
545.22	477.21
545.58	480.04
545.94	482.75
546.29	485.40
546.65	488.17
547.01	490.77
547.36	493.53
547.72	496.32
548.07	499.00
548.43	501.63
548.79	504.35
549.14	507.03
549.50	509.71
549.86	512.39
550.21	514.94
550.57	517.84
550.92	520.30
551.28	523.10
551.64	525.47
551.99	528.09
552.35	530.58
552.70	533.08
553.06	535.48
553.41	537.95
553.77	540.56
554.13	542.97
554.48	545.52
554.84	548.15
555.19	550.45
555.55	553.04
555.90	555.45
556.26	557.87
556.61	560.22
556.97	562.39
557.32	564.56
557.68	566.79
558.03	568.94
558.39	571.17
558.74	573.24
559.10	575.38
559.45	577.46
559.81	579.71
560.16	581.75
560.52	584.05
560.87	586.19
561.23	588.07
561.58	590.45
561.94	592.23
562.29	593.87
562.64	595.94
563.00	597.57
563.35	599.50
563.71	601.37
564.06	603.24
564.42	605.18
564.77	607.16
565.12	609.17
565.48	611.16
565.83	613.09
566.19	615.04
566.54	616.76
566.89	618.46
567.25	620.20
567.60	621.99
567.96	623.65
568.31	625.30
568.66	626.75
569.02	627.92
569.37	629.16
569.72	630.64
570.08	631.68
570.43	632.98
570.78	633.97
571.14	634.79
571.49	635.71
571.84	636.43
572.20	637.17
572.55	637.80
572.90	638.17
573.26	638.75
573.61	638.90
573.96	639.39
574.31	639.67
574.67	639.90
575.02	639.95
575.37	639.84
575.72	639.69
576.08	639.95
576.43	640.04
576.78	640.26
577.13	640.58
577.49	640.75
577.84	640.78
578.19	640.98
578.54	641.32
578.90	641.36
579.25	641.55
579.60	641.29
579.95	641.05
580.30	641.30
580.66	641.33
581.01	641.36
581.36	641.17
581.71	641.15
582.06	641.16
582.42	641.21
582.77	641.13
583.12	641.20
583.47	641.05
583.82	640.89
584.17	640.90
584.53	640.71
584.88	640.63
585.23	640.63
585.58	640.19
585.93	639.71
586.28	639.48
586.63	639.16
586.98	639.13
587.34	639.26
587.69	638.66
588.04	638.21
588.39	638.01
588.74	637.51
589.09	637.23
589.44	636.61
589.79	636.12
590.14	635.63
590.49	635.01
590.84	634.50
591.19	634.14
591.54	633.59
591.89	632.63
592.25	632.06
592.60	631.04
592.95	630.42
593.30	629.73
593.65	628.91
594.00	628.10
594.35	628.17
594.70	627.16
595.05	626.37
595.40	625.58
595.75	624.58
596.10	623.90
596.45	623.11
596.80	622.45
597.15	621.78
597.50	620.87
597.85	620.18
598.19	619.25
598.54	618.35
598.89	617.42
599.24	617.01
599.59	616.04
599.94	615.41
600.29	614.57
600.64	613.72
600.99	612.90
601.34	612.09
601.69	610.32
602.04	609.31
602.39	608.48
602.74	607.59
603.08	607.04
603.43	606.59
603.78	605.52
604.13	604.58
604.48	603.53
604.83	603.10
605.18	602.46
605.53	601.61
605.87	600.72
606.22	600.00
606.57	598.86
606.92	597.85
607.27	596.87
607.62	595.81
607.96	594.99
608.31	594.12
608.66	593.04
609.01	591.90
609.36	591.06
609.70	590.00
610.05	588.71
610.40	587.33
610.75	585.65
611.10	584.66
611.44	583.11
611.79	581.84
612.14	580.20
612.49	578.40
612.83	577.07
613.18	575.44
613.53	573.86
613.88	572.32
614.22	571.01
614.57	569.45
614.92	568.01
615.27	566.50
615.61	564.90
615.96	563.52
616.31	562.19
616.65	560.75
617.00	559.28
617.35	557.90
617.70	556.37
618.04	554.78
618.39	552.88
618.74	551.43
619.08	549.66
619.43	548.06
619.78	546.55
620.12	545.07
620.47	543.72
620.82	542.03
621.16	540.20
621.51	538.70
621.85	537.01
622.20	535.32
622.55	533.48
622.89	531.76
623.24	529.99
623.59	528.25
623.93	526.55
624.28	524.91
624.62	523.66
624.97	522.14
625.32	520.64
625.66	519.15
626.01	517.51
626.35	516.13
626.70	514.53
627.04	513.05
627.39	511.33
627.73	509.85
628.08	508.37
628.43	506.90
628.77	505.06
629.12	503.51
629.46	502.03
629.81	500.47
630.15	498.99
630.50	497.35
630.84	495.66
631.19	494.03
631.53	492.37
631.88	490.29
632.22	488.41
632.57	487.03
632.91	485.40
633.26	483.98
633.60	482.44
633.95	480.90
634.29	479.14
634.64	477.62
634.98	475.80
635.32	474.35
635.67	472.92
636.01	471.34
636.36	469.70
636.70	468.25
637.05	466.83
637.39	465.22
637.73	463.85
638.08	462.56
638.42	461.11
638.77	459.64
639.11	458.15
639.45	456.79
639.80	455.02
640.14	453.53
640.49	451.87
640.83	450.23
641.17	448.71
641.52	447.31
641.86	445.64
642.20	444.15
642.55	442.40
642.89	440.78
643.23	439.19
643.58	437.84
643.92	436.13
644.26	434.46
644.61	432.98
644.95	431.38
645.29	429.65
645.64	428.09
645.98	426.49
646.32	425.09
646.66	423.44
647.01	421.88
647.35	420.38
647.69	418.77
648.04	417.24
648.38	415.62
648.72	414.24
649.06	412.66
649.41	411.15
649.75	409.64
650.09	408.26
650.43	406.85
650.78	405.17
651.12	403.65
651.46	402.17
651.80	400.72
652.14	399.34
652.49	397.97
652.83	396.44
653.17	394.92
653.51	393.31
653.85	391.93
654.20	390.54
654.54	388.94
654.88	387.43
655.22	386.08
655.56	384.54
655.90	382.87
656.25	381.37
656.59	379.77
656.93	378.37
657.27	376.96
657.61	375.45
657.95	374.06
658.29	372.68
658.64	371.48
658.98	369.95
659.32	368.36
659.66	366.89
660.00	365.45
660.34	363.99
660.68	362.48
661.02	361.05
661.36	359.66
661.70	358.43
662.05	357.20
662.39	355.93
662.73	354.74
663.07	353.71
663.41	352.55
663.75	351.30
664.09	349.96
664.43	348.54
664.77	347.37
665.11	346.14
665.45	345.02
665.79	343.75
666.13	342.62
666.47	341.43
666.81	340.28
667.15	339.01
667.49	337.96
667.83	337.00
668.17	335.98
668.51	334.94
668.85	333.90
669.19	332.94
669.53	331.66
669.87	330.54
670.21	329.36
670.55	328.39
670.89	327.59
671.23	326.68
671.57	325.77
671.91	324.76
672.25	323.71
672.58	322.71
672.92	321.60
673.26	320.57
673.60	319.68
673.94	318.69
674.28	317.83
674.62	316.96
674.96	316.03
675.30	315.09
675.64	314.15
675.97	313.26
676.31	312.26
676.65	311.48
676.99	310.80
677.33	309.86
677.67	308.94
678.01	307.92
678.34	307.04
678.68	306.17
679.02	305.20
679.36	304.33
679.70	303.42
680.04	302.66
680.37	301.80
680.71	300.92
681.05	300.10
681.39	299.34
681.73	298.46
682.06	297.60
682.40	296.84
682.74	296.13
683.08	295.37
683.42	294.58
683.75	293.81
684.09	292.92
684.43	292.22
684.77	291.46
685.10	290.72
685.44	289.92
685.78	289.11
686.12	288.39
686.45	287.63
686.79	286.94
687.13	286.22
687.46	285.61
687.80	284.97
688.14	284.30
688.48	283.59
688.81	282.84
689.15	282.24
689.49	281.45
689.82	280.72
690.16	279.85
690.50	279.08
690.83	278.26
691.17	277.51
691.51	276.70
691.84	276.07
692.18	275.30
692.52	274.70
692.85	274.12
693.19	273.64
693.52	273.01
693.86	272.30
694.20	271.58
694.53	270.93
694.87	270.28
695.21	269.46
695.54	268.86
695.88	268.18
696.21	267.55
696.55	266.97
696.88	266.35
697.22	265.75
697.56	265.23
697.89	264.67
698.23	264.12
698.56	263.57
698.90	263.00
699.23	262.48
699.57	261.91
699.90	261.31
700.24	260.67
700.58	260.23
700.91	259.74
701.25	259.56
701.58	259.16
701.92	258.64
702.25	258.35
702.59	257.86
702.92	257.46
703.26	256.89
703.59	256.41
703.93	256.25
704.26	255.85
704.60	255.45
704.93	255.03
705.26	254.65
705.60	254.30
705.93	253.78
706.27	253.44
706.60	253.05
706.94	252.79
707.27	252.34
707.61	251.89
707.94	251.42
708.27	250.81
708.61	250.28
708.94	249.86
709.28	249.37
709.61	248.83
709.94	248.55
710.28	248.27
710.61	247.95
710.95	247.25
711.28	247.10
711.61	246.63
711.95	246.40
712.28	245.89
712.61	245.51
712.95	245.40
713.28	245.18
713.61	244.81
713.95	244.36
714.28	244.11
714.61	243.70
714.95	243.38
715.28	242.94
715.61	242.61
715.95	242.34
716.28	242.00
716.61	241.79
716.95	241.34
717.28	240.98
717.61	240.69
717.94	240.40
718.28	239.82
718.61	239.62
718.94	239.15
719.27	238.91
719.61	238.65
719.94	238.21
720.27	237.74
720.60	237.45
720.94	237.16
721.27	236.77
721.60	236.61
721.93	236.43
722.27	236.25
722.60	236.07
722.93	235.74
723.26	235.53
723.59	235.33
723.93	235.18
724.26	234.92
724.59	234.64
724.92	234.38
725.25	234.31
725.59	233.95
725.92	233.91
726.25	233.70
726.58	233.44
726.91	233.18
727.24	233.02
727.57	232.85
727.91	232.50
728.24	232.39
728.57	232.19
728.90	232.00
729.23	231.74
729.56	231.65
729.89	231.46
730.22	231.25
730.55	231.02
730.89	230.77
731.22	230.61
731.55	230.36
731.88	230.08
732.21	229.82
732.54	229.64
732.87	229.33
733.20	229.14
733.53	228.94
733.86	228.79
734.19	228.58
734.52	228.40
734.85	228.54
735.18	228.30
735.51	228.22
735.84	228.04
736.17	227.97
736.50	227.61
736.83	227.96
737.16	227.83
737.49	227.67
737.82	227.42
738.15	227.25
738.48	227.13
738.81	227.06
739.14	226.93
739.47	226.75
739.80	226.63
740.13	226.46
740.46	226.30
740.79	226.05
741.12	225.86
741.45	225.61
741.78	225.30
742.11	225.24
742.44	225.07
742.77	224.95
743.10	224.76
743.43	224.57
743.75	223.99
744.08	224.31
744.41	224.11
744.74	224.07
745.07	223.93
745.40	223.85
745.73	223.86
746.06	223.70
746.39	223.59
746.71	223.43
747.04	223.31
747.37	223.20
747.70	223.19
748.03	223.11
748.36	223.09
748.68	222.91
749.01	222.71
749.34	222.49
749.67	222.37
750.00	222.30
750.33	222.46
750.65	222.40
750.98	221.80
751.31	221.73
751.64	221.60
751.97	221.76
752.29	221.60
752.62	221.30
752.95	221.19
753.28	221.13
753.60	221.09
753.93	221.10
754.26	221.01
754.59	220.91
754.91	220.75
755.24	220.66
755.57	220.66
755.90	220.60
756.22	220.50
756.55	220.40
756.88	220.21
757.20	219.92
757.53	219.77
757.86	219.70
758.19	219.64
758.51	219.58
758.84	219.30
759.17	219.26
759.49	219.18
759.82	219.26
760.15	219.19
760.47	219.02
760.80	218.87
761.13	218.89
761.45	218.71
761.78	218.67
762.11	218.56
762.43	218.36
762.76	218.28
763.08	218.26
763.41	218.21
763.74	218.21
764.06	218.18
764.39	218.11
764.71	218.02
765.04	217.85
765.37	217.68
765.69	217.52
766.02	217.37
766.34	217.40
766.67	217.14
767.00	217.16
767.32	217.28
767.65	217.39
767.97	217.21
768.30	217.27
768.62	217.19
768.95	217.10
769.27	217.10
769.60	217.07
769.92	217.00
770.25	216.85
770.57	216.64
770.90	216.52
771.22	216.42
771.55	216.41
771.87	216.47
772.20	216.43
772.52	216.59
772.85	216.90
773.17	216.85
773.50	216.88
773.82	216.81
774.15	216.53
774.47	216.30
774.80	216.16
775.12	216.05
775.45	216.02
775.77	215.95
776.09	215.91
776.42	215.85
776.74	215.85
777.07	215.77
777.39	215.78
777.72	215.70
778.04	215.68
778.36	215.58
778.69	215.51
779.01	215.56
779.33	215.27
779.66	214.90
779.98	214.83
780.31	214.74
780.63	214.84
780.95	214.92
781.28	214.88
781.60	214.82
781.92	214.83
782.25	214.76
782.57	214.75
782.89	214.62
783.22	214.55
783.54	214.47
783.86	214.52
784.19	214.52
784.51	214.68
784.83	214.55
785.16	214.51
785.48	214.45
785.80	214.35
786.12	214.42
786.45	214.43
786.77	214.38
787.09	214.36
787.42	214.07
787.74	214.01
788.06	213.98
788.38	214.00
788.71	213.92
789.03	213.92
789.35	213.98
789.67	213.99
789.99	214.04
790.32	213.98
790.64	213.99
790.96	214.20
791.28	214.01
791.61	214.02
791.93	213.97
792.25	213.97
792.57	214.19
792.89	214.12
793.21	214.17
793.54	214.11
793.86	214.03
794.18	214.13
