SpectraSuite Data File
++++++++++++++++++++++++++++++++++++
Date: Mon Feb 25 17:10:30 EST 2013
User: group
Dark Spectrum Present: No
Reference Spectrum Present: No
Number of Sampled Component Spectra: 1
Spectrometers: USB2E7196
Integration Time (usec): 104000 (USB2E7196)
Spectra Averaged: 20 (USB2E7196)
Boxcar Smoothing: 10 (USB2E7196)
Correct for Electrical Dark: No (USB2E7196)
Strobe/Lamp Enabled: No (USB2E7196)
Correct for Detector Non-linearity: No (USB2E7196)
Correct for Stray Light: No (USB2E7196)
Number of Pixels in Processed Spectrum: 2048
>>>>>Begin Processed Spectral Data<<<<<
339.09	0.00
339.48	198.80
339.86	199.45
340.24	202.25
340.63	204.15
341.01	209.50
341.39	207.30
341.78	207.80
342.16	208.75
342.54	209.40
342.93	198.59
343.31	208.61
343.69	209.22
344.07	209.66
344.46	210.07
344.84	210.38
345.22	210.42
345.60	210.57
345.99	210.74
346.37	210.85
346.75	210.89
347.13	210.92
347.52	211.00
347.90	211.08
348.28	211.06
348.66	211.19
349.05	211.04
349.43	211.11
349.81	211.14
350.19	211.17
350.57	211.11
350.96	211.24
351.34	211.28
351.72	211.35
352.10	211.47
352.48	211.52
352.87	211.57
353.25	211.66
353.63	211.78
354.01	211.82
354.39	211.90
354.77	211.97
355.15	212.14
355.54	212.16
355.92	212.12
356.30	212.21
356.68	212.44
357.06	212.55
357.44	212.55
357.82	212.58
358.20	212.69
358.58	212.80
358.97	212.80
359.35	212.99
359.73	212.97
360.11	212.96
360.49	213.04
360.87	213.05
361.25	213.07
361.63	213.11
362.01	213.21
362.39	213.22
362.77	213.30
363.15	213.25
363.53	213.34
363.91	213.47
364.29	213.46
364.67	213.16
365.05	213.21
365.43	213.25
365.81	213.30
366.19	213.44
366.57	213.51
366.95	213.52
367.33	213.41
367.71	213.45
368.09	213.57
368.47	213.53
368.85	213.53
369.23	213.63
369.61	213.54
369.99	213.55
370.37	213.59
370.75	213.75
371.13	213.64
371.51	213.53
371.89	213.47
372.27	213.44
372.65	213.45
373.03	213.40
373.41	213.31
373.78	213.25
374.16	213.03
374.54	212.85
374.92	212.74
375.30	212.66
375.68	212.54
376.06	212.52
376.44	212.41
376.82	212.38
377.19	212.28
377.57	212.26
377.95	212.09
378.33	212.04
378.71	211.75
379.09	211.77
379.47	211.82
379.84	211.71
380.22	211.60
380.60	211.47
380.98	211.36
381.36	211.25
381.73	211.15
382.11	211.25
382.49	211.24
382.87	211.18
383.25	211.15
383.62	211.48
384.00	211.35
384.38	211.36
384.76	211.42
385.13	211.51
385.51	211.44
385.89	211.38
386.27	211.31
386.64	211.27
387.02	211.24
387.40	211.08
387.78	211.13
388.15	211.16
388.53	211.11
388.91	211.16
389.29	211.17
389.66	211.23
390.04	211.13
390.42	211.16
390.79	211.20
391.17	211.14
391.55	210.74
391.92	210.70
392.30	210.72
392.68	210.56
393.05	210.52
393.43	210.51
393.81	210.50
394.18	210.42
394.56	210.45
394.94	210.48
395.31	210.48
395.69	210.54
396.06	210.58
396.44	210.65
396.82	210.59
397.19	210.67
397.57	210.66
397.95	210.72
398.32	210.62
398.70	210.58
399.07	210.70
399.45	210.73
399.82	210.82
400.20	210.81
400.58	210.92
400.95	210.77
401.33	210.88
401.70	211.17
402.08	211.21
402.45	211.28
402.83	211.37
403.20	211.45
403.58	211.39
403.95	211.51
404.33	211.58
404.71	211.65
405.08	211.98
405.46	212.00
405.83	212.05
406.21	212.14
406.58	212.32
406.96	212.36
407.33	212.50
407.70	212.58
408.08	212.96
408.45	213.05
408.83	213.32
409.20	213.44
409.58	213.40
409.95	213.69
410.33	213.85
410.70	214.01
411.08	214.22
411.45	214.47
411.82	214.71
412.20	215.06
412.57	215.56
412.95	215.56
413.32	215.99
413.69	216.35
414.07	216.80
414.44	217.22
414.82	217.70
415.19	218.22
415.56	218.79
415.94	219.17
416.31	219.88
416.68	220.48
417.06	221.17
417.43	221.92
417.81	222.69
418.18	223.41
418.55	224.24
418.93	225.22
419.30	226.18
419.67	227.10
420.04	228.00
420.42	228.95
420.79	230.33
421.16	231.53
421.54	232.92
421.91	234.25
422.28	235.50
422.66	236.87
423.03	238.50
423.40	239.91
423.77	241.40
424.15	242.89
424.52	244.40
424.89	246.21
425.26	247.88
425.64	249.46
426.01	251.31
426.38	253.21
426.75	255.12
427.13	257.12
427.50	259.25
427.87	261.38
428.24	263.54
428.61	265.50
428.99	267.88
429.36	270.18
429.73	272.53
430.10	275.07
430.47	277.64
430.85	279.95
431.22	282.73
431.59	285.91
431.96	288.71
432.33	291.94
432.70	294.97
433.08	298.49
433.45	301.75
433.82	305.08
434.19	308.70
434.56	312.43
434.93	315.82
435.30	319.28
435.68	323.01
436.05	326.69
436.42	330.37
436.79	333.73
437.16	337.47
437.53	341.34
437.90	345.23
438.27	349.08
438.64	353.05
439.01	356.69
439.38	359.73
439.75	362.89
440.13	366.36
440.50	369.65
440.87	372.40
441.24	375.43
441.61	378.61
441.98	381.01
442.35	383.51
442.72	386.31
443.09	389.04
443.46	390.89
443.83	392.02
444.20	392.98
444.57	394.36
444.94	395.11
445.31	395.86
445.68	396.98
446.05	397.14
446.42	396.79
446.79	396.39
447.16	395.95
447.53	395.62
447.90	394.26
448.27	392.88
448.64	390.96
449.01	389.55
449.37	387.16
449.74	384.61
450.11	382.05
450.48	378.87
450.85	375.50
451.22	372.63
451.59	370.07
451.96	367.63
452.33	364.27
452.70	361.18
453.07	357.50
453.43	353.30
453.80	349.85
454.17	346.49
454.54	343.24
454.91	339.70
455.28	336.22
455.65	333.05
456.02	330.29
456.38	327.47
456.75	324.00
457.12	321.04
457.49	318.29
457.86	315.28
458.23	313.06
458.59	310.49
458.96	307.89
459.33	305.56
459.70	303.20
460.07	301.36
460.43	299.18
460.80	297.37
461.17	295.68
461.54	293.95
461.91	292.17
462.27	290.39
462.64	288.89
463.01	287.36
463.38	285.98
463.74	283.95
464.11	282.65
464.48	281.52
464.85	280.19
465.21	279.35
465.58	278.46
465.95	277.08
466.32	276.10
466.68	275.08
467.05	274.05
467.42	273.11
467.78	272.02
468.15	270.99
468.52	270.17
468.88	269.08
469.25	268.09
469.62	267.46
469.98	266.70
470.35	265.98
470.72	265.28
471.08	264.32
471.45	263.84
471.82	263.21
472.18	262.53
472.55	262.12
472.92	261.46
473.28	260.77
473.65	260.25
474.02	259.72
474.38	259.38
474.75	259.12
475.11	258.64
475.48	258.37
475.85	258.12
476.21	257.83
476.58	257.70
476.94	257.53
477.31	257.30
477.67	257.17
478.04	257.12
478.41	257.05
478.77	257.27
479.14	257.03
479.50	257.04
479.87	257.06
480.23	257.10
480.60	257.05
480.96	257.16
481.33	257.40
481.69	257.48
482.06	257.59
482.42	257.68
482.79	257.89
483.15	258.10
483.52	258.46
483.88	258.72
484.25	258.96
484.61	259.28
484.98	259.61
485.34	260.15
485.71	260.57
486.07	261.07
486.44	261.38
486.80	261.99
487.17	262.53
487.53	263.30
487.90	263.97
488.26	264.87
488.62	265.68
488.99	266.47
489.35	267.36
489.72	268.26
490.08	269.11
490.44	270.15
490.81	271.31
491.17	272.42
491.54	273.55
491.90	274.83
492.26	276.10
492.63	277.46
492.99	278.70
493.36	280.13
493.72	281.70
494.08	283.25
494.45	284.93
494.81	286.75
495.17	288.29
495.54	290.20
495.90	291.98
496.26	293.94
496.63	295.99
496.99	298.12
497.35	300.36
497.72	302.77
498.08	305.09
498.44	307.46
498.80	310.09
499.17	312.78
499.53	315.41
499.89	318.31
500.26	321.19
500.62	324.11
500.98	327.40
501.34	330.46
501.71	333.89
502.07	337.28
502.43	340.62
502.79	344.21
503.16	347.77
503.52	351.40
503.88	355.07
504.24	358.88
504.60	362.82
504.97	366.93
505.33	370.96
505.69	375.45
506.05	379.88
506.41	384.19
506.78	388.67
507.14	393.30
507.50	397.99
507.86	402.91
508.22	407.85
508.59	412.55
508.95	417.75
509.31	422.90
509.67	428.11
510.03	433.44
510.39	438.95
510.75	444.68
511.12	450.47
511.48	456.35
511.84	462.15
512.20	468.11
512.56	474.16
512.92	480.32
513.28	486.31
513.64	492.47
514.00	498.70
514.37	504.99
514.73	511.40
515.09	517.85
515.45	524.24
515.81	530.83
516.17	537.52
516.53	544.04
516.89	550.61
517.25	557.32
517.61	564.30
517.97	571.05
518.33	577.78
518.69	584.64
519.05	591.76
519.41	598.97
519.77	606.21
520.13	613.20
520.49	620.12
520.85	627.23
521.21	634.51
521.57	641.78
521.93	648.84
522.29	656.30
522.65	663.39
523.01	670.74
523.37	677.82
523.73	685.15
524.09	692.57
524.45	699.97
524.81	707.32
525.17	714.67
525.53	722.05
525.89	729.50
526.25	736.93
526.61	743.94
526.97	751.06
527.33	758.41
527.68	766.00
528.04	773.33
528.40	780.45
528.76	787.55
529.12	795.04
529.48	802.75
529.84	809.72
530.20	817.12
530.56	824.37
530.91	831.98
531.27	839.27
531.63	846.65
531.99	853.89
532.35	860.95
532.71	867.97
533.07	874.96
533.42	882.08
533.78	889.02
534.14	895.89
534.50	902.54
534.86	909.20
535.21	915.26
535.57	922.26
535.93	928.89
536.29	935.47
536.65	941.65
537.00	947.51
537.36	953.65
537.72	959.64
538.08	965.58
538.44	971.31
538.79	977.12
539.15	982.70
539.51	988.34
539.87	994.37
540.22	999.85
540.58	1005.73
540.94	1011.05
541.29	1016.09
541.65	1020.99
542.01	1026.29
542.37	1031.40
542.72	1036.55
543.08	1041.20
543.44	1046.35
543.79	1050.76
544.15	1055.29
544.51	1059.93
544.87	1064.84
545.22	1068.95
545.58	1073.02
545.94	1077.04
546.29	1080.65
546.65	1084.09
547.01	1087.48
547.36	1090.62
547.72	1093.85
548.07	1096.70
548.43	1099.57
548.79	1102.33
549.14	1105.43
549.50	1107.83
549.86	1109.98
550.21	1112.50
550.57	1114.83
550.92	1116.64
551.28	1118.65
551.64	1120.43
551.99	1122.55
552.35	1124.07
552.70	1125.89
553.06	1127.54
553.41	1129.21
553.77	1130.87
554.13	1132.32
554.48	1134.12
554.84	1135.55
555.19	1136.71
555.55	1137.97
555.90	1138.66
556.26	1139.60
556.61	1140.28
556.97	1141.01
557.32	1141.78
557.68	1142.04
558.03	1142.71
558.39	1143.14
558.74	1143.86
559.10	1144.58
559.45	1144.83
559.81	1145.38
560.16	1145.66
560.52	1146.01
560.87	1146.06
561.23	1145.95
561.58	1146.60
561.94	1146.25
562.29	1146.08
562.64	1145.97
563.00	1145.88
563.35	1146.05
563.71	1146.39
564.06	1146.49
564.42	1146.70
564.77	1146.85
565.12	1147.10
565.48	1146.94
565.83	1146.75
566.19	1146.66
566.54	1145.83
566.89	1145.22
567.25	1144.50
567.60	1143.93
567.96	1143.48
568.31	1143.05
568.66	1142.42
569.02	1141.05
569.37	1139.81
569.72	1138.84
570.08	1137.82
570.43	1136.39
570.78	1135.10
571.14	1133.16
571.49	1131.56
571.84	1130.17
572.20	1128.48
572.55	1126.83
572.90	1124.33
573.26	1122.33
573.61	1119.91
573.96	1118.09
574.31	1115.84
574.67	1113.43
575.02	1111.01
575.37	1108.34
575.72	1105.47
576.08	1103.31
576.43	1100.67
576.78	1098.27
577.13	1095.96
577.49	1093.55
577.84	1091.13
578.19	1088.80
578.54	1087.10
578.90	1085.16
579.25	1082.34
579.60	1079.37
579.95	1076.39
580.30	1074.39
580.66	1071.98
581.01	1069.38
581.36	1066.65
581.71	1064.04
582.06	1061.56
582.42	1059.16
582.77	1056.41
583.12	1053.92
583.47	1051.51
583.82	1049.36
584.17	1047.04
584.53	1044.82
584.88	1042.32
585.23	1039.82
585.58	1037.31
585.93	1034.47
586.28	1031.80
586.63	1029.53
586.98	1027.23
587.34	1025.30
587.69	1022.63
588.04	1020.17
588.39	1017.86
588.74	1015.24
589.09	1012.96
589.44	1010.31
589.79	1007.88
590.14	1005.49
590.49	1002.99
590.84	1000.17
591.19	997.87
591.54	995.22
591.89	991.81
592.25	989.06
592.60	986.24
592.95	983.16
593.30	980.10
593.65	976.89
594.00	973.81
594.35	972.05
594.70	968.93
595.05	966.55
595.40	963.70
595.75	960.71
596.10	958.42
596.45	955.78
596.80	953.36
597.15	950.75
597.50	947.96
597.85	945.53
598.19	942.52
598.54	939.76
598.89	937.15
599.24	935.09
599.59	932.43
599.94	930.22
600.29	927.71
600.64	925.22
600.99	922.60
601.34	920.17
601.69	916.56
602.04	913.85
602.39	911.00
602.74	908.53
603.08	906.39
603.43	904.15
603.78	901.72
604.13	899.22
604.48	896.68
604.83	894.53
605.18	892.25
605.53	890.12
605.87	887.37
606.22	885.10
606.57	882.42
606.92	880.00
607.27	877.26
607.62	874.87
607.96	872.63
608.31	870.44
608.66	867.73
609.01	865.22
609.36	862.76
609.70	859.93
610.05	857.18
610.40	854.42
610.75	851.21
611.10	848.58
611.44	845.21
611.79	842.05
612.14	838.51
612.49	834.86
612.83	831.61
613.18	828.34
613.53	825.00
613.88	821.43
614.22	818.20
614.57	814.89
614.92	811.51
615.27	808.05
615.61	804.70
615.96	801.51
616.31	798.25
616.65	795.29
617.00	792.13
617.35	788.87
617.70	785.40
618.04	781.91
618.39	778.06
618.74	774.96
619.08	771.55
619.43	768.64
619.78	765.40
620.12	762.19
620.47	759.22
620.82	755.60
621.16	752.42
621.51	749.35
621.85	745.98
622.20	742.60
622.55	739.10
622.89	735.74
623.24	732.44
623.59	728.98
623.93	725.52
624.28	722.18
624.62	719.18
624.97	715.96
625.32	713.01
625.66	710.03
626.01	706.81
626.35	703.90
626.70	700.83
627.04	698.23
627.39	695.28
627.73	692.15
628.08	689.48
628.43	686.33
628.77	683.00
629.12	680.01
629.46	677.36
629.81	674.51
630.15	671.53
630.50	668.45
630.84	665.43
631.19	662.30
631.53	659.57
631.88	656.17
632.22	653.05
632.57	650.14
632.91	647.12
633.26	644.23
633.60	641.20
633.95	638.19
634.29	635.04
634.64	632.21
634.98	629.15
635.32	626.26
635.67	623.70
636.01	621.08
636.36	618.15
636.70	615.45
637.05	612.80
637.39	610.04
637.73	607.65
638.08	605.29
638.42	602.79
638.77	600.07
639.11	597.63
639.45	594.97
639.80	592.11
640.14	589.29
640.49	586.55
640.83	583.92
641.17	581.25
641.52	578.53
641.86	575.46
642.20	573.03
642.55	570.22
642.89	567.45
643.23	564.70
643.58	562.42
643.92	559.46
644.26	556.84
644.61	554.24
644.95	551.42
645.29	548.57
645.64	545.84
645.98	543.20
646.32	540.54
646.66	537.92
647.01	535.38
647.35	532.96
647.69	530.28
648.04	527.66
648.38	525.14
648.72	522.57
649.06	520.03
649.41	517.31
649.75	514.71
650.09	512.17
650.43	509.58
650.78	506.67
651.12	503.96
651.46	501.33
651.80	498.79
652.14	496.38
652.49	494.00
652.83	491.46
653.17	488.69
653.51	486.00
653.85	483.64
654.20	481.14
654.54	478.49
654.88	476.10
655.22	473.67
655.56	471.12
655.90	468.61
656.25	466.37
656.59	463.91
656.93	461.54
657.27	459.29
657.61	456.67
657.95	454.42
658.29	452.30
658.64	450.07
658.98	447.69
659.32	445.10
659.66	442.65
660.00	440.26
660.34	438.11
660.68	435.78
661.02	433.53
661.36	431.47
661.70	429.39
662.05	427.19
662.39	425.23
662.73	423.38
663.07	421.48
663.41	419.27
663.75	417.24
664.09	415.19
664.43	413.03
664.77	411.18
665.11	409.28
665.45	407.36
665.79	405.42
666.13	403.44
666.47	401.68
666.81	399.79
667.15	398.00
667.49	396.36
667.83	394.76
668.17	392.91
668.51	391.09
668.85	389.49
669.19	388.11
669.53	386.22
669.87	384.37
670.21	382.62
670.55	381.09
670.89	379.65
671.23	378.15
671.57	376.56
671.91	375.12
672.25	373.47
672.58	371.96
672.92	370.33
673.26	368.93
673.60	367.50
673.94	366.13
674.28	364.75
674.62	363.29
674.96	361.86
675.30	360.46
675.64	358.95
675.97	357.41
676.31	355.92
676.65	354.60
676.99	353.33
677.33	351.91
677.67	350.50
678.01	349.03
678.34	347.73
678.68	346.40
679.02	344.95
679.36	343.60
679.70	342.21
680.04	340.88
680.37	339.54
680.71	338.27
681.05	337.06
681.39	335.73
681.73	334.36
682.06	333.11
682.40	331.94
682.74	330.84
683.08	329.75
683.42	328.48
683.75	327.25
684.09	325.97
684.43	324.78
684.77	323.53
685.10	322.31
685.44	321.04
685.78	319.89
686.12	318.86
686.45	317.81
686.79	316.68
687.13	315.77
687.46	314.73
687.80	313.63
688.14	312.39
688.48	311.38
688.81	310.21
689.15	309.25
689.49	308.12
689.82	306.97
690.16	305.78
690.50	304.67
690.83	303.65
691.17	302.53
691.51	301.52
691.84	300.60
692.18	299.65
692.52	298.71
692.85	297.87
693.19	296.98
693.52	296.00
693.86	294.92
694.20	293.96
694.53	293.02
694.87	292.08
695.21	291.13
695.54	290.06
695.88	289.20
696.21	288.20
696.55	287.34
696.88	286.49
697.22	285.60
697.56	284.78
697.89	283.95
698.23	283.26
698.56	282.40
698.90	281.72
699.23	280.85
699.57	280.03
699.90	279.11
700.24	278.20
700.58	277.41
700.91	276.81
701.25	276.22
701.58	275.53
701.92	274.77
702.25	274.09
702.59	273.50
702.92	272.84
703.26	272.10
703.59	271.44
703.93	271.09
704.26	270.53
704.60	269.88
704.93	269.17
705.26	268.38
705.60	267.79
705.93	266.97
706.27	266.45
706.60	265.95
706.94	265.54
707.27	264.84
707.61	264.21
707.94	263.57
708.27	262.78
708.61	262.10
708.94	261.61
709.28	261.17
709.61	260.48
709.94	259.93
710.28	259.41
710.61	258.95
710.95	258.03
711.28	257.74
711.61	257.23
711.95	256.79
712.28	256.37
712.61	255.90
712.95	255.68
713.28	255.30
713.61	254.77
713.95	254.13
714.28	253.81
714.61	253.33
714.95	252.91
715.28	252.39
715.61	251.87
715.95	251.48
716.28	250.97
716.61	250.60
716.95	250.15
717.28	249.77
717.61	249.24
717.94	248.92
718.28	248.21
718.61	247.85
718.94	247.41
719.27	247.00
719.61	246.73
719.94	246.28
720.27	245.72
720.60	245.32
720.94	244.96
721.27	244.55
721.60	244.40
721.93	244.06
722.27	243.82
722.60	243.60
722.93	243.17
723.26	242.80
723.59	242.50
723.93	242.24
724.26	241.97
724.59	241.64
724.92	241.40
725.25	241.23
725.59	240.85
725.92	240.63
726.25	240.38
726.58	240.02
726.91	239.67
727.24	239.47
727.57	239.19
727.91	238.90
728.24	238.68
728.57	238.28
728.90	237.99
729.23	237.65
729.56	237.52
729.89	237.26
730.22	236.97
730.55	236.65
730.89	236.36
731.22	236.05
731.55	235.80
731.88	235.52
732.21	235.18
732.54	234.97
732.87	234.73
733.20	234.47
733.53	234.25
733.86	234.06
734.19	233.79
734.52	233.62
734.85	233.62
735.18	233.36
735.51	233.30
735.84	233.11
736.17	232.99
736.50	232.64
736.83	232.85
737.16	232.65
737.49	232.53
737.82	232.35
738.15	232.18
738.48	232.03
738.81	231.78
739.14	231.56
739.47	231.35
739.80	231.13
740.13	230.94
740.46	230.67
740.79	230.40
741.12	230.19
741.45	229.92
741.78	229.52
742.11	229.40
742.44	229.07
742.77	228.96
743.10	228.74
743.43	228.52
743.75	227.94
744.08	228.24
744.41	227.99
744.74	227.70
745.07	227.55
745.40	227.40
745.73	227.37
746.06	227.23
746.39	227.01
746.71	226.75
747.04	226.60
747.37	226.45
747.70	226.28
748.03	226.09
748.36	226.02
748.68	225.85
749.01	225.62
749.34	225.48
749.67	225.25
750.00	225.18
750.33	225.34
750.65	225.26
750.98	224.73
751.31	224.65
751.64	224.60
751.97	224.52
752.29	224.42
752.62	224.16
752.95	223.99
753.28	223.89
753.60	223.79
753.93	223.71
754.26	223.50
754.59	223.31
754.91	223.16
755.24	223.04
755.57	222.96
755.90	222.89
756.22	222.74
756.55	222.68
756.88	222.39
757.20	222.01
757.53	221.78
757.86	221.63
758.19	221.48
758.51	221.39
758.84	221.14
759.17	220.95
759.49	220.83
759.82	220.90
760.15	220.80
760.47	220.69
760.80	220.48
761.13	220.54
761.45	220.45
761.78	220.42
762.11	220.30
762.43	220.17
762.76	219.96
763.08	219.91
763.41	219.85
763.74	219.86
764.06	219.79
764.39	219.67
764.71	219.54
765.04	219.47
765.37	219.31
765.69	219.25
766.02	219.19
766.34	219.05
766.67	218.83
767.00	218.85
767.32	219.02
767.65	219.17
767.97	218.99
768.30	218.95
768.62	218.81
768.95	218.65
769.27	218.52
769.60	218.58
769.92	218.47
770.25	218.31
770.57	218.14
770.90	218.04
771.22	217.99
771.55	217.90
771.87	217.83
772.20	217.72
772.52	217.89
772.85	218.19
773.17	218.19
773.50	218.03
773.82	217.87
774.15	217.54
774.47	217.20
774.80	217.16
775.12	217.06
775.45	216.97
775.77	217.02
776.09	217.08
776.42	217.00
776.74	217.06
777.07	216.95
777.39	216.92
777.72	216.85
778.04	216.80
778.36	216.78
778.69	216.71
779.01	216.70
779.33	216.36
779.66	216.00
779.98	215.91
780.31	215.92
780.63	215.92
780.95	215.95
781.28	215.92
781.60	215.85
781.92	215.80
782.25	215.78
782.57	215.65
782.89	215.51
783.22	215.43
783.54	215.27
783.86	215.26
784.19	215.18
784.51	215.29
784.83	215.17
785.16	215.15
785.48	215.04
785.80	215.04
786.12	215.10
786.45	215.03
786.77	215.06
787.09	214.97
787.42	214.88
787.74	214.80
788.06	214.80
788.38	214.75
788.71	214.73
789.03	214.73
789.35	214.80
789.67	214.73
789.99	214.70
790.32	214.62
790.64	214.69
790.96	214.95
791.28	214.78
