SpectraSuite Data File
++++++++++++++++++++++++++++++++++++
Date: Mon Feb 25 17:06:42 EST 2013
User: group
Dark Spectrum Present: No
Reference Spectrum Present: No
Number of Sampled Component Spectra: 1
Spectrometers: USB2E7196
Integration Time (usec): 104000 (USB2E7196)
Spectra Averaged: 20 (USB2E7196)
Boxcar Smoothing: 10 (USB2E7196)
Correct for Electrical Dark: No (USB2E7196)
Strobe/Lamp Enabled: No (USB2E7196)
Correct for Detector Non-linearity: No (USB2E7196)
Correct for Stray Light: No (USB2E7196)
Number of Pixels in Processed Spectrum: 2048
>>>>>Begin Processed Spectral Data<<<<<
339.09	0.00
339.48	197.50
339.86	200.25
340.24	201.65
340.63	201.90
341.01	210.10
341.39	206.05
341.78	207.15
342.16	211.55
342.54	208.90
342.93	198.35
343.31	208.39
343.69	208.99
344.07	209.45
344.46	209.92
344.84	210.30
345.22	210.32
345.60	210.53
345.99	210.72
346.37	210.71
346.75	210.75
347.13	210.77
347.52	210.77
347.90	210.92
348.28	210.90
348.66	210.92
349.05	210.81
349.43	210.78
349.81	210.87
350.19	210.86
350.57	210.93
350.96	211.02
351.34	211.03
351.72	211.07
352.10	211.12
352.48	211.14
352.87	211.17
353.25	211.24
353.63	211.26
354.01	211.32
354.39	211.33
354.77	211.45
355.15	211.63
355.54	211.65
355.92	211.55
356.30	211.64
356.68	211.98
357.06	212.12
357.44	212.22
357.82	212.27
358.20	212.41
358.58	212.45
358.97	212.54
359.35	212.65
359.73	212.79
360.11	212.81
360.49	212.82
360.87	212.95
361.25	213.05
361.63	213.20
362.01	213.20
362.39	213.25
362.77	213.41
363.15	213.42
363.53	213.51
363.91	213.59
364.29	213.59
364.67	213.29
365.05	213.33
365.43	213.37
365.81	213.48
366.19	213.51
366.57	213.67
366.95	213.65
367.33	213.63
367.71	213.61
368.09	213.77
368.47	213.81
368.85	213.77
369.23	213.78
369.61	213.69
369.99	213.82
370.37	213.82
370.75	213.82
371.13	213.76
371.51	213.66
371.89	213.75
372.27	213.80
372.65	213.74
373.03	213.71
373.41	213.58
373.78	213.47
374.16	213.32
374.54	213.21
374.92	213.18
375.30	213.18
375.68	213.11
376.06	213.02
376.44	213.00
376.82	212.98
377.19	213.00
377.57	212.95
377.95	212.81
378.33	212.75
378.71	212.47
379.09	212.47
379.47	212.47
379.84	212.27
380.22	212.12
380.60	212.03
380.98	211.94
381.36	211.96
381.73	211.89
382.11	211.97
382.49	211.86
382.87	211.68
383.25	211.62
383.62	211.94
384.00	211.78
384.38	211.66
384.76	211.73
385.13	211.75
385.51	211.68
385.89	211.53
386.27	211.53
386.64	211.60
387.02	211.52
387.40	211.45
387.78	211.42
388.15	211.40
388.53	211.40
388.91	211.42
389.29	211.32
389.66	211.34
390.04	211.19
390.42	211.21
390.79	211.20
391.17	211.11
391.55	210.70
391.92	210.70
392.30	210.67
392.68	210.49
393.05	210.38
393.43	210.37
393.81	210.40
394.18	210.30
394.56	210.33
394.94	210.34
395.31	210.32
395.69	210.44
396.06	210.50
396.44	210.54
396.82	210.43
397.19	210.56
397.57	210.50
397.95	210.56
398.32	210.51
398.70	210.56
399.07	210.63
399.45	210.58
399.82	210.65
400.20	210.66
400.58	210.71
400.95	210.62
401.33	210.69
401.70	210.90
402.08	210.98
402.45	210.93
402.83	211.05
403.20	211.09
403.58	210.97
403.95	211.05
404.33	211.08
404.71	211.24
405.08	211.51
405.46	211.55
405.83	211.65
406.21	211.68
406.58	211.82
406.96	211.87
407.33	212.04
407.70	212.17
408.08	212.61
408.45	212.76
408.83	212.95
409.20	213.11
409.58	213.10
409.95	213.36
410.33	213.59
410.70	213.70
411.08	214.05
411.45	214.42
411.82	214.72
412.20	215.08
412.57	215.52
412.95	215.60
413.32	216.10
413.69	216.47
414.07	216.97
414.44	217.44
414.82	217.98
415.19	218.65
415.56	219.21
415.94	219.67
416.31	220.46
416.68	221.21
417.06	222.08
417.43	223.00
417.81	223.82
418.18	224.80
418.55	225.81
418.93	226.80
419.30	227.88
419.67	228.97
420.04	230.15
420.42	231.37
420.79	232.98
421.16	234.47
421.54	236.16
421.91	237.74
422.28	239.37
422.66	241.15
423.03	243.00
423.40	244.75
423.77	246.55
424.15	248.33
424.52	250.31
424.89	252.39
425.26	254.48
425.64	256.55
426.01	258.60
426.38	260.80
426.75	263.17
427.13	265.47
427.50	268.03
427.87	270.69
428.24	273.26
428.61	275.58
428.99	278.42
429.36	281.22
429.73	284.15
430.10	287.14
430.47	290.21
430.85	293.24
431.22	296.58
431.59	300.24
431.96	303.70
432.33	307.46
432.70	311.19
433.08	315.37
433.45	319.38
433.82	323.55
434.19	328.06
434.56	332.59
434.93	336.92
435.30	341.21
435.68	345.88
436.05	350.59
436.42	355.30
436.79	359.60
437.16	364.20
437.53	368.97
437.90	373.68
438.27	378.41
438.64	383.22
439.01	387.79
439.38	391.67
439.75	395.63
440.13	400.16
440.50	404.34
440.87	407.91
441.24	411.48
441.61	415.50
441.98	418.55
442.35	421.95
442.72	425.51
443.09	429.01
443.46	431.06
443.83	432.51
444.20	433.87
444.57	435.59
444.94	436.64
445.31	437.80
445.68	439.19
446.05	439.60
446.42	439.39
446.79	439.14
447.16	438.81
447.53	438.68
447.90	437.12
448.27	435.65
448.64	433.41
449.01	431.98
449.37	429.07
449.74	426.30
450.11	423.03
450.48	419.19
450.85	415.06
451.22	411.83
451.59	408.69
451.96	405.57
452.33	401.57
452.70	397.85
453.07	393.23
453.43	388.34
453.80	384.19
454.17	380.00
454.54	375.88
454.91	371.65
455.28	367.33
455.65	363.40
456.02	359.87
456.38	356.41
456.75	352.25
457.12	348.59
457.49	345.13
457.86	341.57
458.23	338.76
458.59	335.74
458.96	332.53
459.33	329.68
459.70	326.93
460.07	324.66
460.43	322.13
460.80	319.81
461.17	317.76
461.54	315.43
461.91	313.29
462.27	311.24
462.64	309.40
463.01	307.43
463.38	305.57
463.74	303.13
464.11	301.46
464.48	299.93
464.85	298.38
465.21	297.21
465.58	295.91
465.95	294.22
466.32	292.83
466.68	291.46
467.05	290.14
467.42	288.76
467.78	287.27
468.15	285.95
468.52	284.97
468.88	283.60
469.25	282.44
469.62	281.45
469.98	280.43
470.35	279.46
470.72	278.53
471.08	277.39
471.45	276.64
471.82	275.94
472.18	275.04
472.55	274.44
472.92	273.43
473.28	272.67
473.65	272.04
474.02	271.39
474.38	270.95
474.75	270.49
475.11	269.98
475.48	269.57
475.85	269.09
476.21	268.63
476.58	268.28
476.94	267.92
477.31	267.65
477.67	267.25
478.04	267.02
478.41	266.90
478.77	267.18
479.14	266.87
479.50	266.70
479.87	266.50
480.23	266.32
480.60	266.29
480.96	266.19
481.33	266.37
481.69	266.40
482.06	266.38
482.42	266.42
482.79	266.50
483.15	266.50
483.52	266.84
483.88	267.00
484.25	267.16
484.61	267.33
484.98	267.43
485.34	267.81
485.71	268.17
486.07	268.46
486.44	268.42
486.80	268.91
487.17	269.25
487.53	269.92
487.90	270.50
488.26	271.22
488.62	271.85
488.99	272.27
489.35	272.86
489.72	273.55
490.08	274.20
490.44	274.79
490.81	275.62
491.17	276.22
491.54	277.02
491.90	277.92
492.26	278.79
492.63	279.89
492.99	280.70
493.36	281.61
493.72	282.58
494.08	283.62
494.45	284.69
494.81	285.92
495.17	286.94
495.54	288.15
495.90	289.21
496.26	290.50
496.63	291.73
496.99	292.94
497.35	294.16
497.72	295.53
498.08	296.90
498.44	298.27
498.80	299.74
499.17	301.13
499.53	302.52
499.89	304.13
500.26	305.62
500.62	307.31
500.98	309.07
501.34	310.62
501.71	312.32
502.07	313.85
502.43	315.25
502.79	316.83
503.16	318.38
503.52	319.90
503.88	321.36
504.24	323.02
504.60	324.77
504.97	326.49
505.33	328.08
505.69	329.95
506.05	331.73
506.41	333.35
506.78	335.05
507.14	336.72
507.50	338.41
507.86	340.20
508.22	341.87
508.59	343.39
508.95	345.17
509.31	347.04
509.67	348.83
510.03	350.76
510.39	352.55
510.75	354.24
511.12	356.06
511.48	357.89
511.84	359.62
512.20	361.36
512.56	363.18
512.92	364.91
513.28	366.67
513.64	368.53
514.00	370.50
514.37	372.42
514.73	374.40
515.09	376.21
515.45	377.89
515.81	379.74
516.17	381.61
516.53	383.40
516.89	385.02
517.25	386.86
517.61	388.75
517.97	390.60
518.33	392.60
518.69	394.65
519.05	396.70
519.41	398.90
519.77	401.17
520.13	403.22
520.49	405.22
520.85	407.29
521.21	409.32
521.57	411.46
521.93	413.55
522.29	415.66
522.65	417.94
523.01	420.28
523.37	422.33
523.73	424.67
524.09	427.18
524.45	429.58
524.81	432.00
525.17	434.46
525.53	437.10
525.89	439.67
526.25	442.30
526.61	444.73
526.97	447.16
527.33	449.69
527.68	452.65
528.04	455.34
528.40	457.95
528.76	460.74
529.12	463.51
529.48	466.45
529.84	469.34
530.20	472.20
530.56	475.07
530.91	478.30
531.27	481.20
531.63	484.09
531.99	487.15
532.35	490.10
532.71	492.96
533.07	496.07
533.42	499.43
533.78	502.41
534.14	505.52
534.50	508.55
534.86	511.82
535.21	514.53
535.57	517.96
535.93	521.04
536.29	524.33
536.65	527.52
537.00	530.49
537.36	533.52
537.72	536.47
538.08	539.67
538.44	542.85
538.79	546.16
539.15	549.40
539.51	552.47
539.87	555.87
540.22	559.17
540.58	562.46
540.94	565.26
541.29	568.39
541.65	571.62
542.01	574.88
542.37	577.92
542.72	581.10
543.08	584.07
543.44	587.43
543.79	590.10
544.15	593.14
544.51	596.34
544.87	599.69
545.22	602.86
545.58	605.79
545.94	608.66
546.29	611.46
546.65	614.30
547.01	617.30
547.36	620.18
547.72	623.06
548.07	625.62
548.43	628.38
548.79	631.10
549.14	633.61
549.50	636.26
549.86	638.69
550.21	641.12
550.57	643.62
550.92	645.92
551.28	648.48
551.64	650.78
551.99	653.14
552.35	655.12
552.70	657.33
553.06	659.57
553.41	661.73
553.77	664.20
554.13	666.41
554.48	668.79
554.84	670.86
555.19	672.82
555.55	675.04
555.90	676.93
556.26	678.68
556.61	680.57
556.97	682.26
557.32	684.01
557.68	685.84
558.03	687.66
558.39	689.34
558.74	691.15
559.10	692.75
559.45	694.29
559.81	696.03
560.16	697.58
560.52	699.23
560.87	700.83
561.23	701.92
561.58	703.66
561.94	704.73
562.29	705.94
562.64	707.25
563.00	708.36
563.35	709.72
563.71	711.25
564.06	712.49
564.42	713.85
564.77	715.26
565.12	716.65
565.48	718.09
565.83	719.30
566.19	720.46
566.54	721.50
566.89	722.62
567.25	723.81
567.60	724.94
567.96	726.20
568.31	727.20
568.66	728.15
569.02	728.44
569.37	728.98
569.72	729.49
570.08	730.05
570.43	730.43
570.78	730.73
571.14	730.89
571.49	731.06
571.84	731.40
572.20	731.45
572.55	731.43
572.90	730.99
573.26	730.90
573.61	730.49
573.96	730.35
574.31	730.21
574.67	729.65
575.02	729.03
575.37	727.90
575.72	727.15
576.08	726.78
576.43	726.28
576.78	725.87
577.13	725.61
577.49	725.18
577.84	724.61
578.19	724.30
578.54	724.03
578.90	723.88
579.25	723.18
579.60	722.48
579.95	721.77
580.30	721.50
580.66	721.15
581.01	720.80
581.36	720.08
581.71	719.22
582.06	718.72
582.42	718.36
582.77	717.95
583.12	717.43
583.47	716.85
583.82	716.35
584.17	715.61
584.53	715.09
584.88	714.34
585.23	713.84
585.58	713.07
585.93	712.17
586.28	711.37
586.63	710.65
586.98	709.94
587.34	709.34
587.69	708.24
588.04	707.35
588.39	706.50
588.74	705.66
589.09	705.09
589.44	704.10
589.79	703.09
590.14	702.34
590.49	701.33
590.84	700.33
591.19	699.58
591.54	698.76
591.89	697.32
592.25	696.54
592.60	695.32
592.95	694.19
593.30	693.00
593.65	691.68
594.00	690.38
594.35	690.21
594.70	688.91
595.05	687.85
595.40	686.58
595.75	685.19
596.10	684.13
596.45	682.91
596.80	682.00
597.15	681.02
597.50	679.65
597.85	678.57
598.19	677.29
598.54	676.05
598.89	674.90
599.24	674.13
599.59	672.87
599.94	672.10
600.29	670.92
600.64	669.78
600.99	668.52
601.34	667.60
601.69	665.40
602.04	664.24
602.39	663.12
602.74	662.01
603.08	661.14
603.43	660.32
603.78	659.05
604.13	657.80
604.48	656.45
604.83	655.64
605.18	654.74
605.53	653.63
605.87	652.26
606.22	651.09
606.57	649.78
606.92	648.39
607.27	646.87
607.62	645.64
607.96	644.49
608.31	643.52
608.66	642.21
609.01	640.84
609.36	639.41
609.70	637.80
610.05	636.31
610.40	634.79
610.75	633.04
611.10	631.66
611.44	629.79
611.79	628.12
612.14	626.23
612.49	624.20
612.83	622.41
613.18	620.63
613.53	618.85
613.88	616.95
614.22	615.14
614.57	613.38
614.92	611.59
615.27	609.74
615.61	607.75
615.96	605.99
616.31	604.48
616.65	603.02
617.00	601.43
617.35	599.61
617.70	597.68
618.04	595.65
618.39	593.59
618.74	591.99
619.08	590.11
619.43	588.32
619.78	586.56
620.12	584.82
620.47	582.97
620.82	580.92
621.16	578.85
621.51	577.11
621.85	575.16
622.20	573.05
622.55	570.97
622.89	568.96
623.24	566.98
623.59	564.79
623.93	562.86
624.28	560.94
624.62	559.31
624.97	557.67
625.32	555.84
625.66	554.08
626.01	552.13
626.35	550.35
626.70	548.27
627.04	546.59
627.39	544.61
627.73	542.92
628.08	541.24
628.43	539.40
628.77	537.54
629.12	535.77
629.46	534.26
629.81	532.58
630.15	530.79
630.50	528.89
630.84	526.92
631.19	524.78
631.53	522.94
631.88	520.74
632.22	518.64
632.57	516.98
632.91	515.15
633.26	513.35
633.60	511.60
633.95	509.95
634.29	508.00
634.64	506.38
634.98	504.41
635.32	502.63
635.67	501.19
636.01	499.41
636.36	497.45
636.70	495.75
637.05	493.88
637.39	492.13
637.73	490.52
638.08	489.20
638.42	487.81
638.77	486.17
639.11	484.51
639.45	482.68
639.80	480.78
640.14	478.94
640.49	477.04
640.83	475.20
641.17	473.50
641.52	471.61
641.86	469.58
642.20	468.07
642.55	465.98
642.89	463.98
643.23	462.02
643.58	460.48
643.92	458.55
644.26	456.92
644.61	455.41
644.95	453.48
645.29	451.52
645.64	449.65
645.98	447.73
646.32	445.96
646.66	444.32
647.01	442.53
647.35	440.89
647.69	439.14
648.04	437.45
648.38	435.67
648.72	434.05
649.06	432.44
649.41	430.54
649.75	428.99
650.09	427.37
650.43	425.72
650.78	423.84
651.12	422.07
651.46	420.25
651.80	418.47
652.14	416.83
652.49	415.25
652.83	413.41
653.17	411.61
653.51	409.83
653.85	408.19
654.20	406.60
654.54	404.76
654.88	403.13
655.22	401.54
655.56	399.73
655.90	398.04
656.25	396.32
656.59	394.68
656.93	393.08
657.27	391.48
657.61	389.90
657.95	388.38
658.29	386.87
658.64	385.41
658.98	383.71
659.32	382.09
659.66	380.49
660.00	378.99
660.34	377.47
660.68	375.94
661.02	374.43
661.36	372.89
661.70	371.46
662.05	370.04
662.39	368.65
662.73	367.44
663.07	366.21
663.41	364.88
663.75	363.43
664.09	362.03
664.43	360.52
664.77	359.17
665.11	357.76
665.45	356.35
665.79	355.02
666.13	353.63
666.47	352.28
666.81	350.97
667.15	349.64
667.49	348.56
667.83	347.45
668.17	346.15
668.51	345.00
668.85	343.89
669.19	342.82
669.53	341.46
669.87	340.22
670.21	338.81
670.55	337.67
670.89	336.75
671.23	335.76
671.57	334.82
671.91	333.66
672.25	332.48
672.58	331.50
672.92	330.34
673.26	329.43
673.60	328.44
673.94	327.35
674.28	326.37
674.62	325.34
674.96	324.33
675.30	323.28
675.64	322.25
675.97	321.22
676.31	320.12
676.65	319.17
676.99	318.33
677.33	317.39
677.67	316.30
678.01	315.12
678.34	314.08
678.68	312.96
679.02	311.95
679.36	311.09
679.70	310.05
680.04	309.13
680.37	308.06
680.71	307.12
681.05	306.26
681.39	305.42
681.73	304.51
682.06	303.64
682.40	302.84
682.74	301.93
683.08	301.17
683.42	300.30
683.75	299.58
684.09	298.53
684.43	297.67
684.77	296.82
685.10	296.01
685.44	295.09
685.78	294.33
686.12	293.58
686.45	292.73
686.79	291.86
687.13	291.13
687.46	290.39
687.80	289.74
688.14	288.84
688.48	288.03
688.81	287.21
689.15	286.43
689.49	285.65
689.82	284.87
690.16	283.93
690.50	283.18
690.83	282.35
691.17	281.58
691.51	280.87
691.84	280.24
692.18	279.53
692.52	278.88
692.85	278.29
693.19	277.73
693.52	277.05
693.86	276.47
694.20	275.78
694.53	275.11
694.87	274.39
695.21	273.77
695.54	273.08
695.88	272.30
696.21	271.59
696.55	270.86
696.88	270.26
697.22	269.58
697.56	268.92
697.89	268.18
698.23	267.60
698.56	266.90
698.90	266.32
699.23	265.72
699.57	265.09
699.90	264.45
700.24	263.80
700.58	263.23
700.91	262.59
701.25	262.24
701.58	261.86
701.92	261.28
702.25	260.64
702.59	260.13
702.92	259.76
703.26	259.29
703.59	258.87
703.93	258.63
704.26	258.21
704.60	257.84
704.93	257.39
705.26	256.83
705.60	256.54
705.93	256.02
706.27	255.63
706.60	255.31
706.94	254.94
707.27	254.43
707.61	253.95
707.94	253.60
708.27	252.92
708.61	252.32
708.94	251.90
709.28	251.52
709.61	251.05
709.94	250.64
710.28	250.17
710.61	249.74
710.95	249.06
711.28	248.81
711.61	248.35
711.95	248.10
712.28	247.77
712.61	247.31
712.95	247.07
713.28	246.86
713.61	246.45
713.95	245.98
714.28	245.67
714.61	245.30
714.95	244.84
715.28	244.42
715.61	244.11
715.95	243.80
716.28	243.50
716.61	243.21
716.95	242.76
717.28	242.51
717.61	242.24
717.94	241.97
718.28	241.47
718.61	241.13
718.94	240.76
719.27	240.40
719.61	240.05
719.94	239.66
720.27	239.18
720.60	238.81
720.94	238.54
721.27	238.28
721.60	238.04
721.93	237.78
722.27	237.75
722.60	237.56
722.93	237.24
723.26	237.00
723.59	236.74
723.93	236.56
724.26	236.31
724.59	236.02
724.92	235.77
725.25	235.65
725.59	235.37
725.92	235.08
726.25	234.93
726.58	234.74
726.91	234.53
727.24	234.33
727.57	234.19
727.91	233.88
728.24	233.67
728.57	233.51
728.90	233.38
729.23	233.00
729.56	232.93
729.89	232.75
730.22	232.53
730.55	232.25
730.89	232.05
731.22	231.71
731.55	231.50
731.88	231.28
732.21	231.00
732.54	230.76
732.87	230.60
733.20	230.33
733.53	230.14
733.86	230.00
734.19	229.67
734.52	229.44
734.85	229.51
735.18	229.31
735.51	229.20
735.84	229.01
736.17	228.96
736.50	228.54
736.83	228.77
737.16	228.64
737.49	228.56
737.82	228.34
738.15	228.33
738.48	228.17
738.81	228.01
739.14	227.82
739.47	227.73
739.80	227.60
740.13	227.49
740.46	227.25
740.79	226.90
741.12	226.78
741.45	226.63
741.78	226.27
742.11	226.17
742.44	225.89
742.77	225.77
743.10	225.55
743.43	225.36
743.75	224.79
744.08	225.08
744.41	224.89
744.74	224.79
745.07	224.52
745.40	224.40
745.73	224.33
746.06	224.21
746.39	224.05
746.71	223.87
747.04	223.70
747.37	223.58
747.70	223.63
748.03	223.55
748.36	223.43
748.68	223.27
749.01	223.03
749.34	222.93
749.67	222.80
750.00	222.69
750.33	222.86
750.65	222.77
750.98	222.20
751.31	222.09
751.64	221.92
751.97	222.06
752.29	221.92
752.62	221.70
752.95	221.58
753.28	221.44
753.60	221.34
753.93	221.35
754.26	221.31
754.59	221.11
754.91	220.90
755.24	220.80
755.57	220.72
755.90	220.61
756.22	220.46
756.55	220.33
756.88	220.20
757.20	219.85
757.53	219.67
757.86	219.59
758.19	219.60
758.51	219.58
758.84	219.29
759.17	219.19
759.49	219.13
759.82	219.23
760.15	219.20
760.47	219.07
760.80	218.85
761.13	218.78
761.45	218.70
761.78	218.71
762.11	218.63
762.43	218.56
762.76	218.45
763.08	218.49
763.41	218.41
763.74	218.33
764.06	218.27
764.39	218.21
764.71	218.06
765.04	217.82
765.37	217.70
765.69	217.66
766.02	217.66
766.34	217.56
766.67	217.32
767.00	217.39
767.32	217.53
767.65	217.74
767.97	217.67
768.30	217.61
768.62	217.49
768.95	217.40
769.27	217.30
769.60	217.34
769.92	217.23
770.25	217.15
770.57	217.01
770.90	217.00
771.22	216.94
771.55	216.94
771.87	217.00
772.20	216.88
772.52	217.13
772.85	217.42
773.17	217.43
773.50	217.38
773.82	217.18
774.15	216.94
774.47	216.62
774.80	216.54
775.12	216.49
775.45	216.47
775.77	216.42
776.09	216.47
776.42	216.39
776.74	216.45
777.07	216.40
777.39	216.43
777.72	216.32
778.04	216.29
778.36	216.18
778.69	216.06
779.01	216.02
779.33	215.66
779.66	215.25
779.98	215.20
780.31	215.11
780.63	215.25
780.95	215.31
781.28	215.30
781.60	215.31
781.92	215.27
782.25	215.23
782.57	215.25
782.89	215.11
783.22	215.06
783.54	214.89
783.86	214.92
784.19	214.79
784.51	214.85
784.83	214.79
785.16	214.78
785.48	214.82
785.80	214.85
786.12	214.78
786.45	214.68
786.77	214.65
787.09	214.68
787.42	214.49
787.74	214.42
788.06	214.44
788.38	214.30
788.71	214.28
789.03	214.24
789.35	214.20
789.67	214.19
789.99	214.12
790.32	214.07
790.64	213.99
790.96	214.28
791.28	214.16
791.61	214.20
791.93	214.15
792.25	214.08
792.57	214.28
792.89	214.23
793.21	214.25
793.54	214.22
793.86	214.11
794.18	214.12
