SpectraSuite Data File
++++++++++++++++++++++++++++++++++++
Date: Mon Feb 25 17:14:01 EST 2013
User: group
Dark Spectrum Present: No
Reference Spectrum Present: No
Number of Sampled Component Spectra: 1
Spectrometers: USB2E7196
Integration Time (usec): 104000 (USB2E7196)
Spectra Averaged: 20 (USB2E7196)
Boxcar Smoothing: 10 (USB2E7196)
Correct for Electrical Dark: No (USB2E7196)
Strobe/Lamp Enabled: No (USB2E7196)
Correct for Detector Non-linearity: No (USB2E7196)
Correct for Stray Light: No (USB2E7196)
Number of Pixels in Processed Spectrum: 2048
>>>>>Begin Processed Spectral Data<<<<<
339.09	0.00
339.48	198.40
339.86	199.45
340.24	201.30
340.63	202.45
341.01	207.90
341.39	204.65
341.78	207.45
342.16	209.25
342.54	209.15
342.93	197.79
343.31	207.75
343.69	208.31
344.07	208.80
344.46	209.22
344.84	209.61
345.22	209.73
345.60	210.00
345.99	210.14
346.37	210.27
346.75	210.25
347.13	210.35
347.52	210.39
347.90	210.64
348.28	210.66
348.66	210.82
349.05	210.73
349.43	210.89
349.81	210.99
350.19	211.05
350.57	211.11
350.96	211.23
351.34	211.36
351.72	211.38
352.10	211.46
352.48	211.50
352.87	211.58
353.25	211.68
353.63	211.70
354.01	211.85
354.39	211.93
354.77	212.10
355.15	212.25
355.54	212.23
355.92	212.19
356.30	212.30
356.68	212.66
357.06	212.85
357.44	212.89
357.82	212.96
358.20	213.17
358.58	213.25
358.97	213.37
359.35	213.58
359.73	213.85
360.11	213.97
360.49	214.10
360.87	214.17
361.25	214.27
361.63	214.57
362.01	214.64
362.39	214.66
362.77	214.74
363.15	214.87
363.53	215.00
363.91	215.10
364.29	215.12
364.67	214.78
365.05	214.79
365.43	214.82
365.81	214.89
366.19	214.96
366.57	215.09
366.95	215.04
367.33	214.95
367.71	214.87
368.09	214.97
368.47	215.02
368.85	215.01
369.23	215.06
369.61	214.86
369.99	214.91
370.37	214.92
370.75	215.02
371.13	214.86
371.51	214.76
371.89	214.76
372.27	214.73
372.65	214.70
373.03	214.69
373.41	214.61
373.78	214.59
374.16	214.33
374.54	214.20
374.92	214.16
375.30	214.07
375.68	214.03
376.06	213.92
376.44	213.87
376.82	213.83
377.19	213.73
377.57	213.69
377.95	213.58
378.33	213.49
378.71	213.25
379.09	213.14
379.47	213.12
379.84	212.98
380.22	212.90
380.60	212.80
380.98	212.62
381.36	212.54
381.73	212.40
382.11	212.43
382.49	212.35
382.87	212.22
383.25	212.15
383.62	212.45
384.00	212.30
384.38	212.17
384.76	212.18
385.13	212.25
385.51	212.17
385.89	212.03
386.27	211.99
386.64	212.02
387.02	212.13
387.40	212.07
387.78	212.10
388.15	212.00
388.53	211.94
388.91	211.95
389.29	211.98
389.66	212.01
390.04	211.95
390.42	212.06
390.79	212.04
391.17	212.00
391.55	211.54
391.92	211.57
392.30	211.60
392.68	211.45
393.05	211.43
393.43	211.46
393.81	211.47
394.18	211.40
394.56	211.34
394.94	211.30
395.31	211.24
395.69	211.31
396.06	211.40
396.44	211.43
396.82	211.41
397.19	211.52
397.57	211.52
397.95	211.53
398.32	211.38
398.70	211.42
399.07	211.55
399.45	211.61
399.82	211.57
400.20	211.55
400.58	211.68
400.95	211.51
401.33	211.59
401.70	211.86
402.08	211.93
402.45	211.99
402.83	212.10
403.20	212.24
403.58	212.26
403.95	212.44
404.33	212.52
404.71	212.58
405.08	212.80
405.46	212.87
405.83	213.05
406.21	213.11
406.58	213.24
406.96	213.25
407.33	213.39
407.70	213.55
408.08	213.97
408.45	214.19
408.83	214.47
409.20	214.59
409.58	214.57
409.95	214.77
410.33	214.95
410.70	215.10
411.08	215.36
411.45	215.61
411.82	215.77
412.20	216.22
412.57	216.75
412.95	216.78
413.32	217.16
413.69	217.45
414.07	217.94
414.44	218.40
414.82	218.94
415.19	219.53
415.56	220.09
415.94	220.50
416.31	221.13
416.68	221.87
417.06	222.67
417.43	223.46
417.81	224.39
418.18	225.35
418.55	226.25
418.93	227.25
419.30	228.20
419.67	229.39
420.04	230.38
420.42	231.48
420.79	233.11
421.16	234.51
421.54	236.22
421.91	237.73
422.28	239.24
422.66	240.89
423.03	242.63
423.40	244.38
423.77	246.18
424.15	247.86
424.52	249.65
424.89	251.72
425.26	253.69
425.64	255.49
426.01	257.51
426.38	259.75
426.75	262.04
427.13	264.30
427.50	266.63
427.87	269.15
428.24	271.55
428.61	273.69
428.99	276.42
429.36	278.96
429.73	281.67
430.10	284.49
430.47	287.24
430.85	289.92
431.22	292.91
431.59	296.28
431.96	299.47
432.33	302.90
432.70	306.33
433.08	310.15
433.45	313.96
433.82	317.57
434.19	321.48
434.56	325.53
434.93	329.32
435.30	333.09
435.68	337.15
436.05	341.42
436.42	345.52
436.79	349.29
437.16	353.32
437.53	357.62
437.90	361.73
438.27	365.89
438.64	370.18
439.01	374.18
439.38	377.54
439.75	380.87
440.13	384.76
440.50	388.31
440.87	391.33
441.24	394.39
441.61	397.77
441.98	400.26
442.35	402.91
442.72	405.90
443.09	408.89
443.46	410.54
443.83	411.48
444.20	412.48
444.57	413.74
444.94	414.44
445.31	415.12
445.68	416.13
446.05	416.29
446.42	415.84
446.79	415.33
447.16	414.75
447.53	414.40
447.90	412.79
448.27	411.15
448.64	408.94
449.01	407.13
449.37	404.40
449.74	401.66
450.11	398.59
450.48	394.99
450.85	391.14
451.22	388.04
451.59	385.22
451.96	382.32
452.33	378.60
452.70	375.09
453.07	370.87
453.43	366.37
453.80	362.59
454.17	358.83
454.54	355.11
454.91	351.18
455.28	347.45
455.65	343.92
456.02	340.83
456.38	337.76
456.75	334.23
457.12	331.16
457.49	328.20
457.86	325.11
458.23	322.72
458.59	320.01
458.96	317.29
459.33	314.73
459.70	312.24
460.07	310.18
460.43	307.90
460.80	305.91
461.17	304.17
461.54	302.19
461.91	300.28
462.27	298.42
462.64	296.87
463.01	295.13
463.38	293.55
463.74	291.44
464.11	290.01
464.48	288.68
464.85	287.25
465.21	286.21
465.58	285.12
465.95	283.60
466.32	282.51
466.68	281.40
467.05	280.30
467.42	279.26
467.78	278.17
468.15	277.14
468.52	276.43
468.88	275.36
469.25	274.39
469.62	273.76
469.98	273.02
470.35	272.22
470.72	271.46
471.08	270.50
471.45	269.90
471.82	269.27
472.18	268.58
472.55	268.05
472.92	267.36
473.28	266.85
473.65	266.37
474.02	265.91
474.38	265.60
474.75	265.37
475.11	264.99
475.48	264.77
475.85	264.54
476.21	264.19
476.58	264.08
476.94	264.04
477.31	263.89
477.67	263.76
478.04	263.80
478.41	263.92
478.77	264.34
479.14	264.38
479.50	264.51
479.87	264.66
480.23	264.85
480.60	265.03
480.96	265.23
481.33	265.72
481.69	266.01
482.06	266.33
482.42	266.60
482.79	267.08
483.15	267.49
483.52	268.11
483.88	268.69
484.25	269.21
484.61	269.78
484.98	270.41
485.34	271.34
485.71	272.20
486.07	273.12
486.44	273.79
486.80	274.72
487.17	275.74
487.53	277.04
487.90	278.33
488.26	279.85
488.62	281.37
488.99	282.75
489.35	284.35
489.72	285.94
490.08	287.71
490.44	289.48
490.81	291.44
491.17	293.40
491.54	295.52
491.90	297.71
492.26	300.10
492.63	302.56
492.99	305.02
493.36	307.72
493.72	310.50
494.08	313.38
494.45	316.49
494.81	319.85
495.17	323.11
495.54	326.66
495.90	330.13
496.26	333.80
496.63	337.66
496.99	341.62
497.35	345.87
497.72	350.27
498.08	354.82
498.44	359.59
498.80	364.70
499.17	369.74
499.53	375.04
499.89	380.51
500.26	386.04
500.62	391.76
500.98	397.83
501.34	404.02
501.71	410.62
502.07	417.29
502.43	424.12
502.79	431.12
503.16	438.47
503.52	446.02
503.88	453.61
504.24	461.53
504.60	469.65
504.97	478.17
505.33	486.63
505.69	495.67
506.05	504.83
506.41	514.01
506.78	523.46
507.14	533.07
507.50	542.99
507.86	553.13
508.22	563.59
508.59	573.96
508.95	584.83
509.31	595.70
509.67	606.97
510.03	618.37
510.39	630.19
510.75	641.87
511.12	653.92
511.48	666.32
511.84	678.82
512.20	691.33
512.56	704.14
512.92	717.30
513.28	730.42
513.64	743.61
514.00	756.81
514.37	770.33
514.73	784.15
515.09	797.97
515.45	811.99
515.81	826.01
516.17	840.17
516.53	854.27
516.89	868.81
517.25	883.28
517.61	897.83
517.97	912.44
518.33	926.95
518.69	941.41
519.05	956.19
519.41	971.14
519.77	986.64
520.13	1001.45
520.49	1016.21
520.85	1031.21
521.21	1046.42
521.57	1061.92
521.93	1076.83
522.29	1092.45
522.65	1107.79
523.01	1123.04
523.37	1138.07
523.73	1153.50
524.09	1168.76
524.45	1183.99
524.81	1199.18
525.17	1214.62
525.53	1229.75
525.89	1244.91
526.25	1260.26
526.61	1274.91
526.97	1289.44
527.33	1303.95
527.68	1318.90
528.04	1333.08
528.40	1346.98
528.76	1360.96
529.12	1375.32
529.48	1390.23
529.84	1403.98
530.20	1418.00
530.56	1431.92
530.91	1446.30
531.27	1460.31
531.63	1474.06
531.99	1487.34
532.35	1500.45
532.71	1513.24
533.07	1526.38
533.42	1539.45
533.78	1552.26
534.14	1564.93
534.50	1576.80
534.86	1588.69
535.21	1600.05
535.57	1612.60
535.93	1624.12
536.29	1635.79
536.65	1647.05
537.00	1657.30
537.36	1667.53
537.72	1677.59
538.08	1687.97
538.44	1698.20
538.79	1708.07
539.15	1717.97
539.51	1727.70
539.87	1737.72
540.22	1746.90
540.58	1756.52
540.94	1765.87
541.29	1774.16
541.65	1782.14
542.01	1790.55
542.37	1798.43
542.72	1806.40
543.08	1813.62
543.44	1821.81
543.79	1828.34
544.15	1834.97
544.51	1842.24
544.87	1849.51
545.22	1855.63
545.58	1861.50
545.94	1866.28
546.29	1870.90
546.65	1875.35
547.01	1879.73
547.36	1883.77
547.72	1888.18
548.07	1891.35
548.43	1893.83
548.79	1896.74
549.14	1899.97
549.50	1903.15
549.86	1905.63
550.21	1908.15
550.57	1910.84
550.92	1912.50
551.28	1914.55
551.64	1916.11
551.99	1917.70
552.35	1918.66
552.70	1920.25
553.06	1921.65
553.41	1922.92
553.77	1924.21
554.13	1925.20
554.48	1925.99
554.84	1927.04
555.19	1927.15
555.55	1927.38
555.90	1927.58
556.26	1927.60
556.61	1927.35
556.97	1926.41
557.32	1926.25
557.68	1925.10
558.03	1923.56
558.39	1922.47
558.74	1921.99
559.10	1921.33
559.45	1920.28
559.81	1919.64
560.16	1918.03
560.52	1916.68
560.87	1915.35
561.23	1913.21
561.58	1911.92
561.94	1909.71
562.29	1906.66
562.64	1904.75
563.00	1902.88
563.35	1901.39
563.71	1900.24
564.06	1898.70
564.42	1897.29
564.77	1895.90
565.12	1894.39
565.48	1893.07
565.83	1891.25
566.19	1889.37
566.54	1886.48
566.89	1883.51
567.25	1881.02
567.60	1878.65
567.96	1875.75
568.31	1873.10
568.66	1870.31
569.02	1866.60
569.37	1863.22
569.72	1860.47
570.08	1856.91
570.43	1853.17
570.78	1849.04
571.14	1844.35
571.49	1839.74
571.84	1835.87
572.20	1830.63
572.55	1826.50
572.90	1821.31
573.26	1816.22
573.61	1811.09
573.96	1806.38
574.31	1801.24
574.67	1795.34
575.02	1789.51
575.37	1783.67
575.72	1777.59
576.08	1772.60
576.43	1766.97
576.78	1761.84
577.13	1756.52
577.49	1751.16
577.84	1745.63
578.19	1740.55
578.54	1736.08
578.90	1731.56
579.25	1725.92
579.60	1720.47
579.95	1714.38
580.30	1709.19
580.66	1704.47
581.01	1698.79
581.36	1692.98
581.71	1687.36
582.06	1682.05
582.42	1677.05
582.77	1671.52
583.12	1665.98
583.47	1660.67
583.82	1655.77
584.17	1650.12
584.53	1644.95
584.88	1639.68
585.23	1634.23
585.58	1628.61
585.93	1622.59
586.28	1617.09
586.63	1611.56
586.98	1606.36
587.34	1601.44
587.69	1596.15
588.04	1590.31
588.39	1584.98
588.74	1579.19
589.09	1574.20
589.44	1568.46
589.79	1563.25
590.14	1558.20
590.49	1553.18
590.84	1547.65
591.19	1542.78
591.54	1537.79
591.89	1531.48
592.25	1526.11
592.60	1520.24
592.95	1514.45
593.30	1508.37
593.65	1502.18
594.00	1496.41
594.35	1491.73
594.70	1485.94
595.05	1480.54
595.40	1475.21
595.75	1469.23
596.10	1464.37
596.45	1459.07
596.80	1454.41
597.15	1449.36
597.50	1443.78
597.85	1438.48
598.19	1432.93
598.54	1427.35
598.89	1422.27
599.24	1417.95
599.59	1412.69
599.94	1408.37
600.29	1403.76
600.64	1399.08
600.99	1393.87
601.34	1389.08
601.69	1383.10
602.04	1377.82
602.39	1372.45
602.74	1367.42
603.08	1363.11
603.43	1358.75
603.78	1353.79
604.13	1348.79
604.48	1343.86
604.83	1339.79
605.18	1335.76
605.53	1330.88
605.87	1325.64
606.22	1320.95
606.57	1315.94
606.92	1311.24
607.27	1305.68
607.62	1300.55
607.96	1295.87
608.31	1291.55
608.66	1286.40
609.01	1281.40
609.36	1276.38
609.70	1271.11
610.05	1265.79
610.40	1260.45
610.75	1254.68
611.10	1249.60
611.44	1243.25
611.79	1237.24
612.14	1230.95
612.49	1224.28
612.83	1218.71
613.18	1212.79
613.53	1206.59
613.88	1200.08
614.22	1194.29
614.57	1188.47
614.92	1182.53
615.27	1176.35
615.61	1170.14
615.96	1164.52
616.31	1159.18
616.65	1154.10
617.00	1148.72
617.35	1142.81
617.70	1136.76
618.04	1130.43
618.39	1123.86
618.74	1118.51
619.08	1112.40
619.43	1106.70
619.78	1101.23
620.12	1095.52
620.47	1090.16
620.82	1084.17
621.16	1078.39
621.51	1072.29
621.85	1066.86
622.20	1061.04
622.55	1055.21
622.89	1049.41
623.24	1043.49
623.59	1037.15
623.93	1031.10
624.28	1025.39
624.62	1020.29
624.97	1014.95
625.32	1009.91
625.66	1004.94
626.01	999.50
626.35	994.60
626.70	989.35
627.04	984.20
627.39	979.04
627.73	973.73
628.08	968.90
628.43	963.59
628.77	958.35
629.12	952.97
629.46	948.20
629.81	943.38
630.15	938.45
630.50	933.39
630.84	928.35
631.19	923.33
631.53	918.38
631.88	912.75
632.22	907.44
632.57	902.50
632.91	897.31
633.26	892.48
633.60	887.50
633.95	882.85
634.29	877.69
634.64	872.91
634.98	867.97
635.32	863.29
635.67	858.88
636.01	854.23
636.36	849.25
636.70	844.51
637.05	839.81
637.39	835.18
637.73	830.92
638.08	826.91
638.42	822.56
638.77	818.25
639.11	813.97
639.45	809.59
639.80	804.90
640.14	800.22
640.49	795.77
640.83	791.28
641.17	786.57
641.52	782.14
641.86	777.38
642.20	772.88
642.55	767.92
642.89	763.34
643.23	758.64
643.58	754.80
643.92	750.03
644.26	745.59
644.61	741.33
644.95	736.81
645.29	732.10
645.64	727.40
645.98	722.70
646.32	718.30
646.66	713.88
647.01	709.59
647.35	705.61
647.69	700.90
648.04	696.70
648.38	692.50
648.72	688.23
649.06	684.02
649.41	679.81
649.75	675.79
650.09	671.79
650.43	667.84
650.78	663.14
651.12	659.02
651.46	654.83
651.80	650.67
652.14	646.50
652.49	642.43
652.83	638.45
653.17	634.21
653.51	630.18
653.85	626.27
654.20	622.35
654.54	618.27
654.88	614.54
655.22	610.41
655.56	606.41
655.90	602.56
656.25	598.47
656.59	594.55
656.93	590.87
657.27	587.16
657.61	583.04
657.95	579.45
658.29	575.80
658.64	572.23
658.98	568.40
659.32	564.56
659.66	561.02
660.00	557.27
660.34	553.69
660.68	549.90
661.02	546.16
661.36	542.59
661.70	539.08
662.05	535.77
662.39	532.63
662.73	529.25
663.07	526.09
663.41	523.05
663.75	519.75
664.09	516.39
664.43	513.00
664.77	510.07
665.11	506.92
665.45	503.88
665.79	500.81
666.13	497.80
666.47	494.93
666.81	491.82
667.15	488.86
667.49	486.26
667.83	483.78
668.17	481.03
668.51	478.25
668.85	475.63
669.19	472.97
669.53	470.11
669.87	467.37
670.21	464.48
670.55	461.78
670.89	459.63
671.23	457.21
671.57	454.67
671.91	452.13
672.25	449.63
672.58	447.18
672.92	444.53
673.26	442.22
673.60	439.97
673.94	437.72
674.28	435.55
674.62	433.17
674.96	430.70
675.30	428.50
675.64	426.27
675.97	424.09
676.31	421.86
676.65	419.73
676.99	417.88
677.33	415.86
677.67	413.79
678.01	411.32
678.34	409.23
678.68	407.21
679.02	405.15
679.36	403.23
679.70	401.26
680.04	399.38
680.37	397.37
680.71	395.24
681.05	393.26
681.39	391.42
681.73	389.53
682.06	387.82
682.40	385.96
682.74	384.12
683.08	382.22
683.42	380.30
683.75	378.57
684.09	376.74
684.43	374.98
684.77	373.19
685.10	371.56
685.44	369.68
685.78	367.92
686.12	366.33
686.45	364.74
686.79	363.06
687.13	361.54
687.46	359.96
687.80	358.45
688.14	356.90
688.48	355.31
688.81	353.64
689.15	352.01
689.49	350.43
689.82	348.87
690.16	347.20
690.50	345.67
690.83	344.01
691.17	342.33
691.51	340.69
691.84	339.24
692.18	337.73
692.52	336.32
692.85	335.00
693.19	333.68
693.52	332.15
693.86	330.61
694.20	329.19
694.53	327.79
694.87	326.40
695.21	324.93
695.54	323.45
695.88	322.02
696.21	320.59
696.55	319.36
696.88	318.09
697.22	316.91
697.56	315.73
697.89	314.59
698.23	313.43
698.56	312.29
698.90	311.19
699.23	309.89
699.57	308.75
699.90	307.52
700.24	306.31
700.58	305.22
700.91	304.29
701.25	303.41
701.58	302.44
701.92	301.48
702.25	300.55
702.59	299.56
702.92	298.59
703.26	297.60
703.59	296.61
703.93	295.95
704.26	295.00
704.60	294.07
704.93	293.04
705.26	292.05
705.60	291.20
705.93	290.11
706.27	289.35
706.60	288.61
706.94	287.88
707.27	286.92
707.61	286.00
707.94	284.99
708.27	283.84
708.61	282.83
708.94	281.93
709.28	281.10
709.61	280.28
709.94	279.47
710.28	278.64
710.61	277.85
710.95	276.75
711.28	276.15
711.61	275.28
711.95	274.66
712.28	273.86
712.61	273.11
712.95	272.53
713.28	271.95
713.61	271.06
713.95	270.27
714.28	269.63
714.61	268.93
714.95	268.25
715.28	267.62
715.61	266.89
715.95	266.24
716.28	265.50
716.61	264.81
716.95	264.15
717.28	263.59
717.61	263.04
717.94	262.50
718.28	261.71
718.61	261.13
718.94	260.40
719.27	259.81
719.61	259.26
719.94	258.70
720.27	257.95
720.60	257.43
720.94	256.91
721.27	256.38
721.60	255.97
721.93	255.45
722.27	255.06
722.60	254.67
722.93	254.15
723.26	253.76
723.59	253.27
723.93	252.87
724.26	252.46
724.59	251.82
724.92	251.40
725.25	250.99
725.59	250.67
725.92	250.38
726.25	250.02
726.58	249.65
726.91	249.22
727.24	248.92
727.57	248.55
727.91	248.08
728.24	247.82
728.57	247.36
728.90	247.12
729.23	246.71
729.56	246.53
729.89	246.08
730.22	245.70
730.55	245.34
730.89	244.96
731.22	244.65
731.55	244.36
731.88	244.07
732.21	243.63
732.54	243.21
732.87	242.82
733.20	242.43
733.53	242.09
733.86	241.79
734.19	241.35
734.52	241.16
734.85	241.16
735.18	240.73
735.51	240.50
735.84	240.20
736.17	239.98
736.50	239.49
736.83	239.65
737.16	239.31
737.49	239.08
737.82	238.75
738.15	238.47
738.48	238.20
738.81	237.87
739.14	237.55
739.47	237.33
739.80	237.03
740.13	236.84
740.46	236.48
740.79	236.20
741.12	235.97
741.45	235.51
741.78	235.00
742.11	234.83
742.44	234.46
742.77	234.20
743.10	233.76
743.43	233.49
743.75	232.93
744.08	233.17
744.41	232.90
744.74	232.68
745.07	232.36
745.40	232.25
745.73	232.18
746.06	232.04
746.39	231.70
746.71	231.52
747.04	231.24
747.37	231.03
747.70	230.86
748.03	230.74
748.36	230.67
748.68	230.44
749.01	230.11
749.34	230.00
749.67	229.78
750.00	229.74
750.33	229.81
750.65	229.59
750.98	228.97
751.31	228.77
751.64	228.59
751.97	228.52
752.29	228.27
752.62	227.87
752.95	227.59
753.28	227.44
753.60	227.31
753.93	227.23
754.26	227.09
754.59	226.79
754.91	226.56
755.24	226.31
755.57	226.17
755.90	226.03
756.22	225.80
756.55	225.61
756.88	225.32
757.20	224.89
757.53	224.59
757.86	224.36
758.19	224.18
758.51	224.03
758.84	223.69
759.17	223.51
759.49	223.40
759.82	223.46
760.15	223.29
760.47	223.07
760.80	222.85
761.13	222.78
761.45	222.64
761.78	222.44
762.11	222.26
762.43	222.08
762.76	221.91
763.08	221.86
763.41	221.68
763.74	221.68
764.06	221.64
764.39	221.55
764.71	221.46
765.04	221.33
765.37	221.23
765.69	221.20
766.02	221.04
766.34	220.87
766.67	220.67
767.00	220.71
767.32	220.79
767.65	220.87
767.97	220.72
768.30	220.67
768.62	220.64
768.95	220.56
769.27	220.45
769.60	220.43
769.92	220.27
770.25	220.25
770.57	220.02
770.90	219.82
771.22	219.72
771.55	219.65
771.87	219.55
772.20	219.38
772.52	219.55
772.85	219.92
773.17	219.89
773.50	219.82
773.82	219.65
774.15	219.42
774.47	219.20
774.80	219.15
775.12	219.01
775.45	218.89
775.77	218.82
776.09	218.74
776.42	218.61
776.74	218.60
777.07	218.41
777.39	218.38
777.72	218.40
778.04	218.36
778.36	218.24
778.69	218.23
779.01	218.20
779.33	217.84
779.66	217.35
779.98	217.28
780.31	217.12
780.63	217.21
780.95	217.20
781.28	217.12
781.60	216.91
781.92	216.90
782.25	216.86
782.57	216.82
782.89	216.79
783.22	216.71
783.54	216.57
783.86	216.54
784.19	216.45
784.51	216.42
784.83	216.37
785.16	216.38
785.48	216.31
785.80	216.22
786.12	216.17
786.45	216.10
786.77	216.05
787.09	216.06
787.42	215.87
787.74	215.85
