SpectraSuite Data File
++++++++++++++++++++++++++++++++++++
Date: Mon Feb 25 16:58:03 EST 2013
User: group
Dark Spectrum Present: No
Reference Spectrum Present: No
Number of Sampled Component Spectra: 1
Spectrometers: USB2E7196
Integration Time (usec): 104000 (USB2E7196)
Spectra Averaged: 20 (USB2E7196)
Boxcar Smoothing: 10 (USB2E7196)
Correct for Electrical Dark: No (USB2E7196)
Strobe/Lamp Enabled: No (USB2E7196)
Correct for Detector Non-linearity: No (USB2E7196)
Correct for Stray Light: No (USB2E7196)
Number of Pixels in Processed Spectrum: 2048
>>>>>Begin Processed Spectral Data<<<<<
339.09	0.00
339.48	198.75
339.86	199.80
340.24	202.10
340.63	202.60
341.01	208.85
341.39	205.05
341.78	206.75
342.16	207.90
342.54	209.80
342.93	197.85
343.31	207.78
343.69	208.30
344.07	208.79
344.46	209.23
344.84	209.63
345.22	209.74
345.60	209.97
345.99	210.14
346.37	210.26
346.75	210.23
347.13	210.32
347.52	210.42
347.90	210.63
348.28	210.64
348.66	210.71
349.05	210.63
349.43	210.71
349.81	210.83
350.19	210.95
350.57	210.97
350.96	211.09
351.34	211.24
351.72	211.35
352.10	211.44
352.48	211.47
352.87	211.51
353.25	211.56
353.63	211.67
354.01	211.71
354.39	211.85
354.77	212.01
355.15	212.26
355.54	212.29
355.92	212.17
356.30	212.32
356.68	212.63
357.06	212.75
357.44	212.74
357.82	212.77
358.20	212.84
358.58	213.01
358.97	213.11
359.35	213.25
359.73	213.41
360.11	213.43
360.49	213.41
360.87	213.48
361.25	213.62
361.63	213.81
362.01	213.91
362.39	213.95
362.77	214.05
363.15	214.03
363.53	214.13
363.91	214.30
364.29	214.32
364.67	213.99
365.05	214.00
365.43	214.08
365.81	214.13
366.19	214.24
366.57	214.32
366.95	214.33
367.33	214.24
367.71	214.26
368.09	214.32
368.47	214.40
368.85	214.35
369.23	214.36
369.61	214.34
369.99	214.45
370.37	214.50
370.75	214.62
371.13	214.49
371.51	214.41
371.89	214.29
372.27	214.28
372.65	214.34
373.03	214.35
373.41	214.30
373.78	214.25
374.16	214.03
374.54	213.96
374.92	213.91
375.30	213.93
375.68	213.76
376.06	213.79
376.44	213.70
376.82	213.71
377.19	213.61
377.57	213.39
377.95	213.23
378.33	213.15
378.71	212.93
379.09	212.96
379.47	212.97
379.84	212.92
380.22	212.85
380.60	212.71
380.98	212.60
381.36	212.51
381.73	212.37
382.11	212.46
382.49	212.42
382.87	212.30
383.25	212.17
383.62	212.53
384.00	212.37
384.38	212.33
384.76	212.38
385.13	212.48
385.51	212.50
385.89	212.43
386.27	212.33
386.64	212.25
387.02	212.15
387.40	212.10
387.78	212.04
388.15	212.00
388.53	211.98
388.91	211.96
389.29	211.96
389.66	212.03
390.04	211.90
390.42	211.93
390.79	211.93
391.17	211.91
391.55	211.53
391.92	211.59
392.30	211.61
392.68	211.52
393.05	211.49
393.43	211.50
393.81	211.54
394.18	211.54
394.56	211.64
394.94	211.69
395.31	211.68
395.69	211.84
396.06	211.89
396.44	211.89
396.82	211.93
397.19	212.14
397.57	212.07
397.95	212.19
398.32	212.09
398.70	212.13
399.07	212.29
399.45	212.30
399.82	212.29
400.20	212.31
400.58	212.37
400.95	212.29
401.33	212.42
401.70	212.74
402.08	212.86
402.45	212.87
402.83	213.09
403.20	213.24
403.58	213.29
403.95	213.47
404.33	213.71
404.71	213.89
405.08	214.26
405.46	214.51
405.83	214.72
406.21	214.94
406.58	215.23
406.96	215.58
407.33	215.95
407.70	216.31
408.08	217.06
408.45	217.54
408.83	218.12
409.20	218.53
409.58	218.88
409.95	219.49
410.33	220.24
410.70	220.80
411.08	221.53
411.45	222.32
411.82	223.14
412.20	224.02
412.57	225.10
412.95	225.73
413.32	226.85
413.69	228.00
414.07	229.30
414.44	230.58
414.82	231.90
415.19	233.48
415.56	235.15
415.94	236.67
416.31	238.57
416.68	240.44
417.06	242.64
417.43	244.75
417.81	247.07
418.18	249.52
418.55	252.14
418.93	254.92
419.30	257.85
419.67	260.98
420.04	264.15
420.42	267.50
420.79	271.51
421.16	275.54
421.54	279.65
421.91	283.89
422.28	288.30
422.66	292.90
423.03	297.55
423.40	302.34
423.77	307.54
424.15	312.73
424.52	318.21
424.89	324.16
425.26	329.92
425.64	335.55
426.01	341.63
426.38	348.04
426.75	354.55
427.13	361.39
427.50	368.38
427.87	375.83
428.24	383.26
428.61	390.20
428.99	397.89
429.36	406.22
429.73	414.51
430.10	422.81
430.47	431.45
430.85	440.31
431.22	449.73
431.59	459.65
431.96	469.28
432.33	479.80
432.70	490.10
433.08	502.29
433.45	513.71
433.82	525.06
434.19	537.78
434.56	550.27
434.93	562.33
435.30	574.50
435.68	587.96
436.05	601.34
436.42	614.82
436.79	627.05
437.16	640.26
437.53	654.22
437.90	668.25
438.27	681.90
438.64	696.23
439.01	709.63
439.38	721.64
439.75	733.33
440.13	746.66
440.50	759.40
440.87	769.98
441.24	780.78
441.61	792.90
441.98	802.02
442.35	812.45
442.72	822.87
443.09	832.96
443.46	839.40
443.83	844.09
444.20	848.27
444.57	853.94
444.94	857.44
445.31	861.04
445.68	864.25
446.05	866.28
446.42	865.99
446.79	865.40
447.16	864.87
447.53	864.65
447.90	860.58
448.27	856.56
448.64	850.24
449.01	846.20
449.37	837.87
449.74	830.08
450.11	820.71
450.48	810.10
450.85	799.30
451.22	790.07
451.59	781.23
451.96	772.87
452.33	761.54
452.70	750.93
453.07	738.09
453.43	725.18
453.80	712.92
454.17	701.04
454.54	689.75
454.91	677.50
455.28	665.55
455.65	654.41
456.02	643.12
456.38	633.72
456.75	621.90
457.12	612.19
457.49	602.35
457.86	592.66
458.23	584.65
458.59	575.72
458.96	566.73
459.33	558.67
459.70	550.55
460.07	544.07
460.43	536.72
460.80	529.98
461.17	524.06
461.54	517.55
461.91	511.52
462.27	505.41
462.64	500.12
463.01	494.36
463.38	488.90
463.74	483.25
464.11	478.25
464.48	473.79
464.85	469.01
465.21	465.43
465.58	461.57
465.95	456.84
466.32	453.03
466.68	449.26
467.05	445.47
467.42	441.68
467.78	437.69
468.15	433.98
468.52	430.97
468.88	427.31
469.25	424.07
469.62	421.40
469.98	418.48
470.35	415.77
470.72	413.23
471.08	410.41
471.45	408.07
471.82	405.74
472.18	403.25
472.55	401.33
472.92	399.02
473.28	397.10
473.65	395.15
474.02	393.32
474.38	391.78
474.75	390.45
475.11	388.89
475.48	387.76
475.85	386.78
476.21	385.70
476.58	384.68
476.94	383.97
477.31	383.19
477.67	382.43
478.04	381.85
478.41	381.40
478.77	381.33
479.14	380.90
479.50	380.73
479.87	380.78
480.23	380.75
480.60	380.73
480.96	380.72
481.33	381.29
481.69	381.53
482.06	381.76
482.42	381.95
482.79	382.33
483.15	382.87
483.52	383.76
483.88	384.44
484.25	385.25
484.61	386.07
484.98	386.82
485.34	388.00
485.71	389.19
486.07	390.60
486.44	391.63
486.80	393.16
487.17	394.75
487.53	396.55
487.90	398.41
488.26	400.42
488.62	402.50
488.99	404.42
489.35	406.52
489.72	408.88
490.08	411.38
490.44	414.01
490.81	416.64
491.17	419.00
491.54	421.91
491.90	424.89
492.26	428.00
492.63	431.18
492.99	434.41
493.36	437.82
493.72	441.34
494.08	445.04
494.45	448.88
494.81	452.73
495.17	456.59
495.54	460.68
495.90	464.87
496.26	469.00
496.63	473.43
496.99	478.01
497.35	482.65
497.72	487.35
498.08	492.00
498.44	496.90
498.80	502.22
499.17	507.41
499.53	512.55
499.89	517.92
500.26	523.26
500.62	528.31
500.98	533.67
501.34	539.05
501.71	544.65
502.07	550.02
502.43	555.48
502.79	560.88
503.16	566.30
503.52	571.85
503.88	577.26
504.24	582.67
504.60	588.20
504.97	593.75
505.33	599.31
505.69	605.22
506.05	610.87
506.41	616.30
506.78	621.64
507.14	627.04
507.50	632.36
507.86	637.68
508.22	643.18
508.59	648.36
508.95	653.61
509.31	658.87
509.67	664.00
510.03	669.06
510.39	674.35
510.75	679.68
511.12	684.60
511.48	689.83
511.84	694.93
512.20	699.65
512.56	704.40
512.92	709.15
513.28	713.51
513.64	717.89
514.00	722.21
514.37	726.45
514.73	730.80
515.09	735.05
515.45	739.08
515.81	743.11
516.17	746.91
516.53	750.51
516.89	754.02
517.25	757.52
517.61	761.17
517.97	764.43
518.33	767.37
518.69	770.59
519.05	773.57
519.41	776.55
519.77	780.03
520.13	782.99
520.49	785.64
520.85	788.46
521.21	791.47
521.57	794.33
521.93	796.60
522.29	799.14
522.65	801.58
523.01	804.15
523.37	806.44
523.73	808.96
524.09	811.27
524.45	813.50
524.81	816.07
525.17	818.49
525.53	820.67
525.89	823.00
526.25	825.13
526.61	826.99
526.97	828.79
527.33	830.50
527.68	832.72
528.04	834.81
528.40	836.58
528.76	838.42
529.12	840.22
529.48	842.88
529.84	844.98
530.20	846.91
530.56	849.08
530.91	851.28
531.27	853.44
531.63	855.58
531.99	857.64
532.35	859.67
532.71	861.29
533.07	863.66
533.42	866.09
533.78	868.28
534.14	870.72
534.50	872.77
534.86	875.04
535.21	876.80
535.57	879.12
535.93	881.28
536.29	883.39
536.65	885.70
537.00	887.39
537.36	889.10
537.72	891.08
538.08	892.94
538.44	894.90
538.79	896.99
539.15	899.10
539.51	901.22
539.87	903.18
540.22	905.49
540.58	907.98
540.94	909.78
541.29	911.70
541.65	913.35
542.01	915.68
542.37	917.72
542.72	919.92
543.08	921.72
543.44	924.23
543.79	925.95
544.15	927.85
544.51	930.09
544.87	932.38
545.22	934.50
545.58	936.56
545.94	938.21
546.29	939.79
546.65	941.52
547.01	943.38
547.36	945.47
547.72	947.30
548.07	948.50
548.43	950.15
548.79	951.65
549.14	953.41
549.50	955.08
549.86	956.33
550.21	957.84
550.57	959.80
550.92	961.04
551.28	962.78
551.64	964.29
551.99	965.90
552.35	967.36
552.70	968.92
553.06	970.55
553.41	972.14
553.77	974.15
554.13	975.87
554.48	977.56
554.84	979.29
555.19	981.03
555.55	982.80
555.90	984.24
556.26	985.69
556.61	986.99
556.97	988.16
557.32	989.80
557.68	991.11
558.03	992.06
558.39	993.12
558.74	994.32
559.10	995.66
559.45	996.98
559.81	998.30
560.16	999.25
560.52	1000.32
560.87	1001.87
561.23	1002.36
561.58	1003.55
561.94	1004.48
562.29	1004.93
562.64	1005.69
563.00	1006.36
563.35	1007.50
563.71	1009.22
564.06	1010.40
564.42	1011.62
564.77	1012.90
565.12	1014.12
565.48	1015.19
565.83	1016.52
566.19	1017.74
566.54	1018.43
566.89	1018.97
567.25	1019.98
567.60	1021.08
567.96	1022.28
568.31	1023.10
568.66	1024.06
569.02	1024.45
569.37	1024.77
569.72	1025.41
570.08	1025.70
570.43	1026.11
570.78	1026.25
571.14	1025.73
571.49	1025.79
571.84	1025.71
572.20	1025.38
572.55	1025.08
572.90	1024.78
573.26	1024.24
573.61	1023.58
573.96	1022.99
574.31	1022.30
574.67	1021.20
575.02	1019.84
575.37	1018.30
575.72	1016.76
576.08	1015.76
576.43	1014.59
576.78	1013.16
577.13	1012.05
577.49	1010.97
577.84	1009.55
578.19	1008.30
578.54	1007.57
578.90	1006.78
579.25	1005.42
579.60	1003.76
579.95	1002.11
580.30	1000.85
580.66	999.38
581.01	997.76
581.36	996.00
581.71	994.43
582.06	992.86
582.42	991.45
582.77	989.63
583.12	987.73
583.47	985.85
583.82	983.94
584.17	982.26
584.53	980.24
584.88	978.23
585.23	976.31
585.58	974.28
585.93	971.84
586.28	969.54
586.63	967.55
586.98	965.65
587.34	963.88
587.69	961.37
588.04	959.13
588.39	957.08
588.74	954.92
589.09	952.93
589.44	950.40
589.79	948.15
590.14	946.10
590.49	944.25
590.84	942.00
591.19	940.04
591.54	937.87
591.89	935.06
592.25	932.91
592.60	930.22
592.95	927.51
593.30	924.76
593.65	921.74
594.00	919.01
594.35	917.32
594.70	914.50
595.05	912.08
595.40	909.59
595.75	906.68
596.10	904.14
596.45	901.43
596.80	899.20
597.15	896.73
597.50	893.83
597.85	891.23
598.19	888.40
598.54	885.60
598.89	883.10
599.24	880.97
599.59	878.10
599.94	875.85
600.29	873.28
600.64	870.65
600.99	868.00
601.34	865.52
601.69	861.86
602.04	858.77
602.39	855.87
602.74	853.07
603.08	850.60
603.43	848.15
603.78	845.28
604.13	842.34
604.48	839.54
604.83	837.37
605.18	834.84
605.53	832.08
605.87	829.12
606.22	826.31
606.57	823.39
606.92	820.37
607.27	817.21
607.62	814.43
607.96	811.77
608.31	809.42
608.66	806.37
609.01	803.33
609.36	800.63
609.70	797.50
610.05	794.23
610.40	791.13
610.75	787.85
611.10	785.07
611.44	781.63
611.79	778.45
612.14	774.82
612.49	771.13
612.83	767.96
613.18	764.64
613.53	761.22
613.88	757.76
614.22	754.50
614.57	751.19
614.92	747.97
615.27	744.60
615.61	741.14
615.96	737.93
616.31	734.83
616.65	731.80
617.00	728.87
617.35	725.84
617.70	722.53
618.04	719.12
618.39	715.51
618.74	712.50
619.08	709.15
619.43	706.17
619.78	703.29
620.12	700.36
620.47	697.40
620.82	694.13
621.16	690.80
621.51	687.78
621.85	684.84
622.20	681.60
622.55	678.32
622.89	674.96
623.24	671.73
623.59	668.37
623.93	665.23
624.28	662.12
624.62	659.46
624.97	656.54
625.32	653.59
625.66	650.65
626.01	647.71
626.35	644.67
626.70	641.49
627.04	638.42
627.39	635.38
627.73	632.53
628.08	629.95
628.43	627.22
628.77	624.19
629.12	621.15
629.46	618.38
629.81	615.63
630.15	612.79
630.50	609.92
630.84	607.05
631.19	604.26
631.53	601.45
631.88	598.09
632.22	594.93
632.57	592.28
632.91	589.65
633.26	586.93
633.60	584.23
633.95	581.60
634.29	578.79
634.64	576.06
634.98	573.02
635.32	570.34
635.67	567.92
636.01	565.51
636.36	562.97
636.70	560.48
637.05	558.07
637.39	555.68
637.73	553.29
638.08	551.38
638.42	548.99
638.77	546.75
639.11	544.48
639.45	542.45
639.80	539.92
640.14	537.30
640.49	534.85
640.83	532.53
641.17	530.24
641.52	527.81
641.86	525.36
642.20	523.24
642.55	520.52
642.89	518.00
643.23	515.42
643.58	513.36
643.92	510.98
644.26	508.64
644.61	506.49
644.95	504.11
645.29	501.56
645.64	499.10
645.98	496.55
646.32	494.30
646.66	491.74
647.01	489.43
647.35	487.34
647.69	485.10
648.04	483.00
648.38	480.70
648.72	478.65
649.06	476.52
649.41	474.20
649.75	472.02
650.09	469.85
650.43	467.73
650.78	465.13
651.12	462.79
651.46	460.54
651.80	458.13
652.14	456.05
652.49	453.92
652.83	451.74
653.17	449.58
653.51	447.28
653.85	445.39
654.20	443.30
654.54	441.00
654.88	438.79
655.22	436.63
655.56	434.44
655.90	432.20
656.25	430.06
656.59	428.03
656.93	426.10
657.27	424.21
657.61	422.09
657.95	420.27
658.29	418.35
658.64	416.59
658.98	414.87
659.32	412.80
659.66	410.77
660.00	408.90
660.34	407.10
660.68	405.24
661.02	403.21
661.36	401.44
661.70	399.74
662.05	398.06
662.39	396.32
662.73	394.72
663.07	393.31
663.41	391.65
663.75	389.98
664.09	388.30
664.43	386.45
664.77	384.87
665.11	383.30
665.45	381.75
665.79	379.95
666.13	378.17
666.47	376.65
666.81	375.08
667.15	373.48
667.49	371.95
667.83	370.69
668.17	369.18
668.51	367.76
668.85	366.35
669.19	364.98
669.53	363.42
669.87	361.92
670.21	360.33
670.55	358.95
670.89	357.79
671.23	356.52
671.57	355.25
671.91	354.03
672.25	352.61
672.58	351.25
672.92	350.00
673.26	348.67
673.60	347.47
673.94	346.18
674.28	344.94
674.62	343.79
674.96	342.51
675.30	341.31
675.64	340.03
675.97	338.75
676.31	337.45
676.65	336.38
676.99	335.38
677.33	334.14
677.67	333.00
678.01	331.70
678.34	330.56
678.68	329.46
679.02	328.23
679.36	327.13
679.70	326.03
680.04	324.98
680.37	323.96
680.71	322.80
681.05	321.84
681.39	320.83
681.73	319.70
682.06	318.58
682.40	317.59
682.74	316.56
683.08	315.76
683.42	314.75
683.75	313.84
684.09	312.70
684.43	311.79
684.77	310.78
685.10	309.84
685.44	308.79
685.78	307.86
686.12	306.98
686.45	305.98
686.79	304.98
687.13	304.11
687.46	303.18
687.80	302.38
688.14	301.45
688.48	300.58
688.81	299.68
689.15	298.81
689.49	297.89
689.82	297.15
690.16	296.12
690.50	295.29
690.83	294.18
691.17	293.25
691.51	292.30
691.84	291.46
692.18	290.62
692.52	289.80
692.85	289.00
693.19	288.33
693.52	287.55
693.86	286.75
694.20	285.88
694.53	285.24
694.87	284.36
695.21	283.50
695.54	282.70
695.88	281.86
696.21	281.04
696.55	280.37
696.88	279.53
697.22	278.75
697.56	278.05
697.89	277.40
698.23	276.77
698.56	276.10
698.90	275.48
699.23	274.79
699.57	274.14
699.90	273.38
700.24	272.52
700.58	271.91
700.91	271.43
701.25	271.08
701.58	270.38
701.92	269.80
702.25	269.19
702.59	268.58
702.92	268.02
703.26	267.43
703.59	266.79
703.93	266.53
704.26	265.98
704.60	265.36
704.93	264.80
705.26	264.18
705.60	263.58
705.93	262.91
706.27	262.43
706.60	261.91
706.94	261.55
707.27	261.02
707.61	260.46
707.94	259.74
708.27	258.91
708.61	258.36
708.94	257.80
709.28	257.31
709.61	256.75
709.94	256.30
710.28	255.89
710.61	255.51
710.95	254.71
711.28	254.52
711.61	254.10
711.95	253.71
712.28	253.27
712.61	252.95
712.95	252.70
713.28	252.35
713.61	251.82
713.95	251.26
714.28	250.95
714.61	250.52
714.95	250.17
715.28	249.70
715.61	249.24
715.95	248.85
716.28	248.52
716.61	248.11
716.95	247.67
717.28	247.23
717.61	246.81
717.94	246.50
718.28	245.84
718.61	245.42
718.94	244.95
719.27	244.59
719.61	244.13
719.94	243.72
720.27	243.18
720.60	242.91
720.94	242.58
721.27	242.19
721.60	241.90
721.93	241.63
722.27	241.48
722.60	241.17
722.93	240.86
723.26	240.50
723.59	240.26
723.93	240.00
724.26	239.79
724.59	239.46
724.92	239.14
725.25	239.01
725.59	238.81
725.92	238.61
726.25	238.37
726.58	238.26
726.91	237.97
727.24	237.87
727.57	237.61
727.91	237.30
728.24	237.04
728.57	236.79
728.90	236.54
729.23	236.22
729.56	236.20
729.89	236.05
730.22	235.87
730.55	235.58
730.89	235.35
731.22	235.10
731.55	234.84
731.88	234.65
732.21	234.32
732.54	233.98
732.87	233.79
733.20	233.58
733.53	233.25
733.86	233.00
734.19	232.65
734.52	232.47
734.85	232.52
735.18	232.24
735.51	232.18
735.84	232.01
736.17	231.84
736.50	231.39
736.83	231.54
737.16	231.28
737.49	231.15
737.82	230.88
738.15	230.69
738.48	230.50
738.81	230.26
739.14	230.00
739.47	229.93
739.80	229.73
740.13	229.51
740.46	229.31
740.79	229.13
741.12	228.96
741.45	228.72
741.78	228.29
742.11	228.25
742.44	227.96
742.77	227.83
743.10	227.65
743.43	227.58
743.75	227.12
744.08	227.37
744.41	227.14
744.74	226.95
745.07	226.73
745.40	226.64
745.73	226.67
746.06	226.55
746.39	226.39
746.71	226.22
747.04	226.02
747.37	225.84
747.70	225.74
748.03	225.61
748.36	225.51
748.68	225.37
749.01	225.15
749.34	224.99
749.67	224.81
750.00	224.74
750.33	224.80
750.65	224.59
750.98	224.05
751.31	223.89
751.64	223.88
751.97	223.95
752.29	223.86
752.62	223.59
752.95	223.47
753.28	223.23
753.60	223.08
753.93	223.09
754.26	223.03
754.59	222.78
754.91	222.60
755.24	222.46
755.57	222.36
755.90	222.22
756.22	222.06
756.55	221.93
756.88	221.69
757.20	221.30
757.53	221.12
757.86	220.98
758.19	220.93
758.51	220.77
758.84	220.45
759.17	220.22
759.49	220.06
759.82	220.09
760.15	220.06
760.47	219.94
760.80	219.69
761.13	219.59
761.45	219.46
761.78	219.38
762.11	219.33
762.43	219.24
762.76	219.10
763.08	219.11
763.41	219.00
763.74	218.94
764.06	218.85
764.39	218.76
764.71	218.68
765.04	218.53
765.37	218.40
765.69	218.37
766.02	218.32
766.34	218.25
766.67	218.06
767.00	218.06
767.32	218.16
767.65	218.35
767.97	218.31
768.30	218.30
768.62	218.24
768.95	218.11
769.27	217.99
769.60	218.04
769.92	217.87
770.25	217.82
770.57	217.72
770.90	217.65
771.22	217.53
771.55	217.46
771.87	217.44
772.20	217.38
772.52	217.57
772.85	217.81
773.17	217.75
773.50	217.64
773.82	217.56
774.15	217.33
774.47	217.04
774.80	216.94
775.12	216.89
775.45	216.83
775.77	216.76
776.09	216.74
776.42	216.61
776.74	216.69
777.07	216.58
777.39	216.57
777.72	216.53
778.04	216.55
778.36	216.52
778.69	216.48
779.01	216.49
779.33	216.14
779.66	215.85
779.98	215.75
780.31	215.77
780.63	215.82
780.95	215.88
781.28	215.80
781.60	215.68
781.92	215.55
782.25	215.51
782.57	215.44
782.89	215.40
783.22	215.37
783.54	215.26
783.86	215.23
784.19	215.20
784.51	215.29
784.83	215.21
785.16	215.17
785.48	215.16
785.80	215.09
786.12	215.09
786.45	214.97
786.77	215.05
787.09	214.95
787.42	214.77
787.74	214.77
788.06	214.80
788.38	214.72
788.71	214.71
789.03	214.74
789.35	214.80
789.67	214.71
789.99	214.66
790.32	214.57
790.64	214.57
790.96	214.76
791.28	214.60
791.61	214.59
791.93	214.57
792.25	214.54
792.57	214.80
792.89	214.74
