SpectraSuite Data File
++++++++++++++++++++++++++++++++++++
Date: Mon Feb 25 16:59:07 EST 2013
User: group
Dark Spectrum Present: No
Reference Spectrum Present: No
Number of Sampled Component Spectra: 1
Spectrometers: USB2E7196
Integration Time (usec): 104000 (USB2E7196)
Spectra Averaged: 20 (USB2E7196)
Boxcar Smoothing: 10 (USB2E7196)
Correct for Electrical Dark: No (USB2E7196)
Strobe/Lamp Enabled: No (USB2E7196)
Correct for Detector Non-linearity: No (USB2E7196)
Correct for Stray Light: No (USB2E7196)
Number of Pixels in Processed Spectrum: 2048
>>>>>Begin Processed Spectral Data<<<<<
339.09	0.00
339.48	198.95
339.86	200.05
340.24	201.00
340.63	202.75
341.01	209.90
341.39	205.10
341.78	207.95
342.16	208.30
342.54	208.40
342.93	197.82
343.31	207.79
343.69	208.31
344.07	208.75
344.46	209.19
344.84	209.58
345.22	209.56
345.60	209.79
345.99	209.87
346.37	209.93
346.75	210.02
347.13	210.05
347.52	210.07
347.90	210.28
348.28	210.28
348.66	210.37
349.05	210.24
349.43	210.32
349.81	210.37
350.19	210.38
350.57	210.44
350.96	210.50
351.34	210.65
351.72	210.68
352.10	210.79
352.48	210.92
352.87	210.94
353.25	210.99
353.63	211.11
354.01	211.22
354.39	211.35
354.77	211.40
355.15	211.63
355.54	211.69
355.92	211.65
356.30	211.75
356.68	212.06
357.06	212.22
357.44	212.32
357.82	212.40
358.20	212.54
358.58	212.61
358.97	212.74
359.35	212.86
359.73	213.05
360.11	213.13
360.49	213.16
360.87	213.23
361.25	213.43
361.63	213.57
362.01	213.66
362.39	213.72
362.77	213.80
363.15	213.81
363.53	213.96
363.91	214.00
364.29	214.12
364.67	213.81
365.05	213.89
365.43	213.92
365.81	214.00
366.19	214.19
366.57	214.37
366.95	214.34
367.33	214.25
367.71	214.29
368.09	214.34
368.47	214.33
368.85	214.33
369.23	214.41
369.61	214.27
369.99	214.44
370.37	214.45
370.75	214.69
371.13	214.65
371.51	214.55
371.89	214.62
372.27	214.59
372.65	214.66
373.03	214.61
373.41	214.58
373.78	214.53
374.16	214.40
374.54	214.25
374.92	214.23
375.30	214.22
375.68	214.12
376.06	214.13
376.44	214.09
376.82	214.02
377.19	213.95
377.57	213.91
377.95	213.62
378.33	213.55
378.71	213.21
379.09	213.16
379.47	213.17
379.84	213.05
380.22	212.95
380.60	212.75
380.98	212.65
381.36	212.52
381.73	212.48
382.11	212.40
382.49	212.34
382.87	212.22
383.25	212.10
383.62	212.45
384.00	212.32
384.38	212.28
384.76	212.36
385.13	212.39
385.51	212.39
385.89	212.39
386.27	212.41
386.64	212.54
387.02	212.47
387.40	212.32
387.78	212.24
388.15	212.15
388.53	212.17
388.91	212.11
389.29	212.15
389.66	212.13
390.04	212.03
390.42	212.06
390.79	212.10
391.17	212.13
391.55	211.69
391.92	211.56
392.30	211.55
392.68	211.43
393.05	211.32
393.43	211.30
393.81	211.25
394.18	211.15
394.56	211.05
394.94	211.12
395.31	211.14
395.69	211.30
396.06	211.39
396.44	211.43
396.82	211.46
397.19	211.58
397.57	211.54
397.95	211.67
398.32	211.55
398.70	211.56
399.07	211.61
399.45	211.62
399.82	211.74
400.20	211.78
400.58	211.77
400.95	211.73
401.33	211.88
401.70	212.22
402.08	212.33
402.45	212.46
402.83	212.60
403.20	212.76
403.58	212.81
403.95	212.97
404.33	213.15
404.71	213.30
405.08	213.68
405.46	213.87
405.83	214.07
406.21	214.36
406.58	214.58
406.96	214.85
407.33	215.23
407.70	215.60
408.08	216.25
408.45	216.77
408.83	217.28
409.20	217.63
409.58	217.84
409.95	218.46
410.33	218.94
410.70	219.42
411.08	220.07
411.45	220.76
411.82	221.39
412.20	222.22
412.57	223.25
412.95	223.74
413.32	224.73
413.69	225.65
414.07	226.71
414.44	227.98
414.82	229.24
415.19	230.64
415.56	232.06
415.94	233.33
416.31	235.04
416.68	236.71
417.06	238.63
417.43	240.52
417.81	242.59
418.18	244.78
418.55	247.06
418.93	249.48
419.30	252.02
419.67	254.80
420.04	257.55
420.42	260.42
420.79	264.03
421.16	267.50
421.54	271.20
421.91	274.89
422.28	278.60
422.66	282.62
423.03	286.65
423.40	290.85
423.77	295.33
424.15	299.83
424.52	304.55
424.89	309.73
425.26	314.81
425.64	319.55
426.01	324.85
426.38	330.32
426.75	335.84
427.13	341.63
427.50	347.69
427.87	354.03
428.24	360.40
428.61	366.44
428.99	373.15
429.36	380.39
429.73	387.52
430.10	394.79
430.47	402.26
430.85	409.85
431.22	418.01
431.59	426.67
431.96	434.98
432.33	444.24
432.70	452.92
433.08	463.27
433.45	473.14
433.82	482.96
434.19	494.00
434.56	504.94
434.93	515.50
435.30	526.09
435.68	537.82
436.05	549.47
436.42	560.94
436.79	571.52
437.16	582.96
437.53	595.07
437.90	606.95
438.27	618.84
438.64	631.27
439.01	642.77
439.38	653.15
439.75	663.29
440.13	674.60
440.50	685.62
440.87	694.72
441.24	704.21
441.61	714.52
441.98	722.41
442.35	731.50
442.72	740.55
443.09	749.37
443.46	755.03
443.83	759.05
444.20	762.75
444.57	767.75
444.94	770.61
445.31	773.66
445.68	776.63
446.05	778.33
446.42	777.96
446.79	777.36
447.16	776.55
447.53	776.33
447.90	772.95
448.27	769.45
448.64	763.97
449.01	760.34
449.37	753.30
449.74	746.48
450.11	738.20
450.48	729.11
450.85	719.59
451.22	711.56
451.59	704.03
451.96	696.74
452.33	686.58
452.70	677.43
453.07	666.45
453.43	655.34
453.80	644.59
454.17	634.28
454.54	624.47
454.91	614.14
455.28	603.70
455.65	594.16
456.02	584.69
456.38	576.78
456.75	566.42
457.12	557.98
457.49	549.47
457.86	541.03
458.23	533.87
458.59	526.26
458.96	518.39
459.33	511.38
459.70	504.44
460.07	499.11
460.43	492.85
460.80	486.82
461.17	481.54
461.54	475.97
461.91	470.76
462.27	465.57
462.64	460.98
463.01	456.03
463.38	451.07
463.74	446.08
464.11	441.75
464.48	438.12
464.85	434.02
465.21	430.95
465.58	427.72
465.95	423.65
466.32	420.18
466.68	416.87
467.05	413.56
467.42	410.14
467.78	406.58
468.15	403.18
468.52	400.77
468.88	397.44
469.25	394.64
469.62	392.27
469.98	389.65
470.35	387.17
470.72	384.91
471.08	382.45
471.45	380.39
471.82	378.32
472.18	375.97
472.55	374.24
472.92	372.33
473.28	370.56
473.65	368.94
474.02	367.28
474.38	365.97
474.75	364.65
475.11	363.43
475.48	362.40
475.85	361.58
476.21	360.59
476.58	359.91
476.94	359.20
477.31	358.52
477.67	357.97
478.04	357.56
478.41	357.16
478.77	357.15
479.14	356.70
479.50	356.47
479.87	356.42
480.23	356.41
480.60	356.25
480.96	356.17
481.33	356.43
481.69	356.66
482.06	356.70
482.42	356.80
482.79	357.01
483.15	357.43
483.52	357.96
483.88	358.40
484.25	358.97
484.61	359.63
484.98	360.24
485.34	361.20
485.71	362.02
486.07	362.95
486.44	363.64
486.80	364.78
487.17	365.97
487.53	367.46
487.90	368.85
488.26	370.60
488.62	372.38
488.99	374.08
489.35	375.74
489.72	377.63
490.08	379.62
490.44	381.61
490.81	383.74
491.17	385.76
491.54	388.06
491.90	390.37
492.26	392.78
492.63	395.26
492.99	397.70
493.36	400.37
493.72	403.30
494.08	406.18
494.45	409.26
494.81	412.49
495.17	415.58
495.54	418.80
495.90	422.06
496.26	425.20
496.63	428.45
496.99	432.11
497.35	435.66
497.72	439.46
498.08	443.14
498.44	446.76
498.80	450.76
499.17	454.70
499.53	458.61
499.89	462.83
500.26	466.95
500.62	470.83
500.98	475.09
501.34	479.15
501.71	483.32
502.07	487.31
502.43	491.19
502.79	495.04
503.16	499.16
503.52	503.09
503.88	507.13
504.24	511.24
504.60	515.11
504.97	519.20
505.33	523.07
505.69	527.36
506.05	531.52
506.41	535.43
506.78	539.23
507.14	542.84
507.50	546.26
507.86	549.79
508.22	553.50
508.59	556.87
508.95	560.33
509.31	563.95
509.67	567.31
510.03	570.82
510.39	574.36
510.75	577.60
511.12	580.72
511.48	583.88
511.84	586.96
512.20	589.85
512.56	592.89
512.92	595.83
513.28	598.47
513.64	601.06
514.00	603.54
514.37	606.01
514.73	608.77
515.09	611.31
515.45	613.56
515.81	615.91
516.17	618.23
516.53	620.32
516.89	622.20
517.25	624.13
517.61	625.89
517.97	627.56
518.33	629.12
518.69	630.91
519.05	632.54
519.41	634.12
519.77	636.17
520.13	637.42
520.49	638.69
520.85	639.94
521.21	641.32
521.57	642.74
521.93	643.92
522.29	645.10
522.65	646.14
523.01	647.53
523.37	648.44
523.73	649.55
524.09	650.49
524.45	651.55
524.81	652.69
525.17	653.94
525.53	655.28
525.89	656.55
526.25	657.47
526.61	658.40
526.97	659.33
527.33	660.07
527.68	661.52
528.04	662.62
528.40	663.62
528.76	664.55
529.12	665.64
529.48	667.03
529.84	668.10
530.20	669.34
530.56	670.61
530.91	672.20
531.27	673.68
531.63	675.24
531.99	676.63
532.35	678.10
532.71	679.39
533.07	680.92
533.42	682.69
533.78	684.35
534.14	686.15
534.50	687.85
534.86	689.66
535.21	691.00
535.57	693.01
535.93	694.85
536.29	696.74
536.65	698.74
537.00	700.38
537.36	702.09
537.72	704.07
538.08	706.06
538.44	707.92
538.79	709.70
539.15	711.70
539.51	714.02
539.87	716.19
540.22	718.26
540.58	720.31
540.94	722.34
541.29	724.42
541.65	726.45
542.01	728.55
542.37	730.71
542.72	732.75
543.08	734.61
543.44	737.07
543.79	739.08
544.15	741.19
544.51	743.70
544.87	746.38
545.22	748.82
545.58	751.04
545.94	753.12
546.29	755.25
546.65	757.31
547.01	759.17
547.36	761.28
547.72	763.50
548.07	765.57
548.43	767.62
548.79	769.63
549.14	771.73
549.50	773.78
549.86	775.90
550.21	778.21
550.57	780.62
550.92	782.45
551.28	784.75
551.64	786.90
551.99	789.12
552.35	791.11
552.70	793.00
553.06	795.11
553.41	797.50
553.77	799.95
554.13	802.33
554.48	804.92
554.84	807.48
555.19	809.83
555.55	812.34
555.90	814.46
556.26	816.56
556.61	818.52
556.97	820.59
557.32	822.70
557.68	824.66
558.03	826.32
558.39	828.25
558.74	830.35
559.10	832.43
559.45	834.12
559.81	836.14
560.16	838.08
560.52	839.93
560.87	841.77
561.23	843.15
561.58	845.10
561.94	846.35
562.29	847.58
562.64	849.17
563.00	850.44
563.35	852.09
563.71	854.07
564.06	855.98
564.42	857.97
564.77	859.67
565.12	861.63
565.48	863.75
565.83	865.57
566.19	867.39
566.54	868.68
566.89	870.13
567.25	871.78
567.60	873.32
567.96	875.16
568.31	876.55
568.66	878.16
569.02	879.22
569.37	880.55
569.72	881.87
570.08	883.01
570.43	884.23
570.78	885.20
571.14	885.82
571.49	886.48
571.84	886.99
572.20	887.30
572.55	887.65
572.90	887.59
573.26	887.72
573.61	887.70
573.96	887.70
574.31	887.60
574.67	887.46
575.02	887.16
575.37	886.51
575.72	885.75
576.08	885.46
576.43	884.68
576.78	884.08
577.13	883.72
577.49	883.08
577.84	882.23
578.19	881.75
578.54	881.50
578.90	881.12
579.25	880.60
579.60	879.90
579.95	878.99
580.30	878.32
580.66	877.75
581.01	876.61
581.36	875.60
581.71	874.75
582.06	873.59
582.42	872.56
582.77	871.15
583.12	870.34
583.47	869.03
583.82	867.96
584.17	866.69
584.53	865.39
584.88	863.99
585.23	862.93
585.58	861.37
585.93	859.76
586.28	858.32
586.63	856.95
586.98	855.54
587.34	854.35
587.69	853.06
588.04	851.53
588.39	850.35
588.74	848.92
589.09	847.59
589.44	845.92
589.79	844.55
590.14	843.50
590.49	842.06
590.84	840.48
591.19	839.41
591.54	838.16
591.89	836.13
592.25	834.83
592.60	832.74
592.95	830.70
593.30	828.71
593.65	826.55
594.00	824.47
594.35	823.50
594.70	821.34
595.05	819.34
595.40	817.38
595.75	814.98
596.10	813.22
596.45	811.21
596.80	809.44
597.15	807.54
597.50	805.24
597.85	803.39
598.19	801.20
598.54	798.91
598.89	796.78
599.24	795.11
599.59	792.86
599.94	791.02
600.29	789.33
600.64	787.32
600.99	785.47
601.34	783.48
601.69	780.43
602.04	778.19
602.39	776.05
602.74	773.97
603.08	772.23
603.43	770.38
603.78	768.30
604.13	766.04
604.48	763.84
604.83	762.17
605.18	760.12
605.53	757.99
605.87	755.84
606.22	753.65
606.57	751.21
606.92	748.87
607.27	746.55
607.62	744.26
607.96	742.27
608.31	740.11
608.66	737.80
609.01	735.53
609.36	733.28
609.70	731.01
610.05	728.50
610.40	726.07
610.75	723.18
611.10	720.75
611.44	718.05
611.79	715.45
612.14	712.62
612.49	709.71
612.83	707.28
613.18	704.40
613.53	701.82
613.88	699.03
614.22	696.45
614.57	693.88
614.92	691.24
615.27	688.41
615.61	685.62
615.96	683.09
616.31	680.52
616.65	678.21
617.00	675.60
617.35	673.05
617.70	670.15
618.04	667.47
618.39	664.56
618.74	662.15
619.08	659.39
619.43	656.78
619.78	654.31
620.12	651.62
620.47	649.23
620.82	646.34
621.16	643.64
621.51	641.01
621.85	638.30
622.20	635.68
622.55	632.86
622.89	630.14
623.24	627.46
623.59	624.67
623.93	621.89
624.28	619.17
624.62	616.80
624.97	614.46
625.32	611.98
625.66	609.64
626.01	607.02
626.35	604.62
626.70	601.97
627.04	599.30
627.39	596.85
627.73	594.44
628.08	592.31
628.43	589.87
628.77	587.44
629.12	585.04
629.46	582.66
629.81	580.32
630.15	577.88
630.50	575.37
630.84	572.94
631.19	570.45
631.53	568.08
631.88	565.23
632.22	562.62
632.57	560.38
632.91	557.91
633.26	555.63
633.60	553.21
633.95	550.95
634.29	548.50
634.64	546.20
634.98	543.59
635.32	541.24
635.67	539.23
636.01	536.99
636.36	534.64
636.70	532.46
637.05	530.26
637.39	528.33
637.73	526.26
638.08	524.39
638.42	522.50
638.77	520.51
639.11	518.56
639.45	516.57
639.80	514.30
640.14	512.01
640.49	509.71
640.83	507.62
641.17	505.51
641.52	503.41
641.86	501.33
642.20	499.45
642.55	496.98
642.89	494.82
643.23	492.65
643.58	490.81
643.92	488.56
644.26	486.58
644.61	484.31
644.95	482.04
645.29	479.72
645.64	477.40
645.98	475.08
646.32	473.07
646.66	470.89
647.01	468.82
647.35	467.00
647.69	464.98
648.04	462.92
648.38	460.79
648.72	458.83
649.06	456.58
649.41	454.50
649.75	452.52
650.09	450.53
650.43	448.47
650.78	446.20
651.12	444.11
651.46	442.08
651.80	440.14
652.14	438.34
652.49	436.50
652.83	434.55
653.17	432.61
653.51	430.46
653.85	428.63
654.20	426.84
654.54	424.77
654.88	422.79
655.22	421.04
655.56	419.06
655.90	417.14
656.25	415.50
656.59	413.45
656.93	411.80
657.27	410.13
657.61	408.21
657.95	406.54
658.29	404.85
658.64	403.25
658.98	401.52
659.32	399.62
659.66	397.76
660.00	395.96
660.34	394.24
660.68	392.59
661.02	390.72
661.36	389.00
661.70	387.35
662.05	385.80
662.39	384.21
662.73	382.85
663.07	381.52
663.41	379.92
663.75	378.48
664.09	376.84
664.43	375.15
664.77	373.73
665.11	372.17
665.45	370.66
665.79	369.10
666.13	367.45
666.47	365.91
666.81	364.54
667.15	363.19
667.49	361.81
667.83	360.59
668.17	359.34
668.51	358.09
668.85	356.75
669.19	355.61
669.53	354.23
669.87	352.84
670.21	351.37
670.55	350.01
670.89	348.95
671.23	347.82
671.57	346.54
671.91	345.45
672.25	344.21
672.58	343.12
672.92	341.87
673.26	340.77
673.60	339.78
673.94	338.53
674.28	337.37
674.62	336.32
674.96	335.03
675.30	333.88
675.64	332.70
675.97	331.62
676.31	330.33
676.65	329.13
676.99	328.13
677.33	327.03
677.67	325.97
678.01	324.78
678.34	323.75
678.68	322.72
679.02	321.46
679.36	320.51
679.70	319.38
680.04	318.47
680.37	317.51
680.71	316.40
681.05	315.48
681.39	314.46
681.73	313.43
682.06	312.62
682.40	311.72
682.74	310.77
683.08	310.11
683.42	309.23
683.75	308.25
684.09	307.18
684.43	306.22
684.77	305.24
685.10	304.27
685.44	303.22
685.78	302.26
686.12	301.45
686.45	300.50
686.79	299.52
687.13	298.70
687.46	297.84
687.80	297.07
688.14	296.20
688.48	295.49
688.81	294.59
689.15	293.70
689.49	292.85
689.82	292.03
690.16	290.98
690.50	290.10
690.83	289.39
691.17	288.57
691.51	287.79
691.84	287.11
692.18	286.37
692.52	285.63
692.85	285.00
693.19	284.36
693.52	283.60
693.86	282.92
694.20	282.02
694.53	281.26
694.87	280.50
695.21	279.78
695.54	278.88
695.88	278.15
696.21	277.36
696.55	276.66
696.88	275.98
697.22	275.20
697.56	274.61
697.89	273.83
698.23	273.22
698.56	272.61
698.90	271.99
699.23	271.34
699.57	270.75
699.90	270.08
700.24	269.18
700.58	268.56
700.91	267.92
701.25	267.56
701.58	267.10
701.92	266.52
702.25	265.92
702.59	265.35
702.92	264.82
703.26	264.20
703.59	263.64
703.93	263.30
704.26	262.84
704.60	262.26
704.93	261.76
705.26	261.25
705.60	260.76
705.93	260.13
706.27	259.72
706.60	259.31
706.94	258.94
707.27	258.56
707.61	258.05
707.94	257.54
708.27	256.85
708.61	256.23
708.94	255.70
709.28	255.20
709.61	254.75
709.94	254.31
710.28	253.83
710.61	253.42
710.95	252.75
711.28	252.58
711.61	252.13
711.95	251.80
712.28	251.33
712.61	250.91
712.95	250.73
713.28	250.40
713.61	249.94
713.95	249.39
714.28	248.98
714.61	248.53
714.95	248.18
715.28	247.71
715.61	247.33
715.95	246.96
716.28	246.62
716.61	246.23
716.95	245.80
717.28	245.47
717.61	245.07
717.94	244.64
718.28	243.98
718.61	243.64
718.94	243.22
719.27	242.87
719.61	242.50
719.94	242.03
720.27	241.51
720.60	241.03
720.94	240.76
721.27	240.49
721.60	240.40
721.93	240.16
722.27	240.00
722.60	239.88
722.93	239.57
723.26	239.40
723.59	239.14
723.93	238.89
724.26	238.62
724.59	238.34
724.92	238.16
725.25	238.05
725.59	237.82
725.92	237.63
726.25	237.39
726.58	237.19
726.91	236.95
727.24	236.77
727.57	236.68
727.91	236.31
728.24	236.09
728.57	235.71
728.90	235.45
729.23	235.16
729.56	234.99
729.89	234.84
730.22	234.53
730.55	234.39
730.89	234.20
731.22	234.04
731.55	233.81
731.88	233.52
732.21	233.22
732.54	232.92
732.87	232.72
733.20	232.51
733.53	232.33
733.86	232.13
734.19	231.87
734.52	231.73
734.85	231.82
735.18	231.50
735.51	231.41
735.84	231.20
736.17	231.14
736.50	230.75
736.83	230.90
737.16	230.72
737.49	230.46
737.82	230.20
738.15	230.05
738.48	229.86
738.81	229.75
739.14	229.60
739.47	229.39
739.80	229.19
740.13	229.03
740.46	228.78
740.79	228.55
741.12	228.38
741.45	228.15
741.78	227.77
742.11	227.76
742.44	227.57
742.77	227.45
743.10	227.15
743.43	226.98
743.75	226.49
744.08	226.77
744.41	226.55
744.74	226.37
745.07	226.12
745.40	226.05
745.73	226.06
746.06	225.85
746.39	225.77
746.71	225.64
747.04	225.50
747.37	225.36
747.70	225.27
748.03	225.17
748.36	225.02
748.68	224.94
749.01	224.74
749.34	224.60
749.67	224.44
750.00	224.41
750.33	224.48
750.65	224.25
750.98	223.62
751.31	223.54
751.64	223.51
751.97	223.57
752.29	223.44
752.62	223.15
752.95	222.98
753.28	222.79
753.60	222.56
753.93	222.38
754.26	222.20
754.59	222.00
754.91	221.80
755.24	221.71
755.57	221.53
755.90	221.40
756.22	221.24
756.55	221.15
756.88	220.89
757.20	220.58
757.53	220.48
757.86	220.38
758.19	220.30
758.51	220.15
758.84	219.90
759.17	219.79
759.49	219.62
759.82	219.73
760.15	219.72
760.47	219.67
760.80	219.58
761.13	219.55
761.45	219.50
761.78	219.44
762.11	219.32
762.43	219.23
762.76	219.12
763.08	219.08
763.41	218.95
763.74	218.86
764.06	218.79
764.39	218.74
764.71	218.69
765.04	218.61
765.37	218.53
765.69	218.45
766.02	218.39
766.34	218.34
766.67	218.11
767.00	218.10
767.32	218.20
767.65	218.32
767.97	218.28
768.30	218.18
768.62	218.04
768.95	218.01
769.27	217.86
769.60	217.80
769.92	217.66
770.25	217.55
770.57	217.49
770.90	217.37
771.22	217.24
771.55	217.27
771.87	217.18
772.20	217.11
772.52	217.34
772.85	217.62
773.17	217.59
773.50	217.51
773.82	217.43
774.15	217.21
774.47	216.95
774.80	216.82
775.12	216.75
775.45	216.79
775.77	216.72
776.09	216.69
776.42	216.66
776.74	216.75
777.07	216.73
777.39	216.69
777.72	216.65
778.04	216.64
778.36	216.43
778.69	216.41
779.01	216.37
779.33	216.01
779.66	215.54
779.98	215.47
780.31	215.48
780.63	215.54
780.95	215.54
781.28	215.56
781.60	215.54
781.92	215.49
782.25	215.44
782.57	215.35
782.89	215.31
783.22	215.25
783.54	215.15
783.86	215.07
784.19	214.96
784.51	215.05
784.83	214.95
785.16	214.88
785.48	214.88
785.80	214.86
786.12	214.87
786.45	214.88
786.77	214.84
787.09	214.73
787.42	214.55
787.74	214.57
788.06	214.46
788.38	214.42
788.71	214.38
789.03	214.37
789.35	214.42
789.67	214.44
789.99	214.49
790.32	214.39
790.64	214.40
790.96	214.67
791.28	214.42
791.61	214.37
791.93	214.43
792.25	214.28
792.57	214.47
792.89	214.33
793.21	214.27
793.54	214.22
793.86	214.17
794.18	214.14
