SpectraSuite Data File
++++++++++++++++++++++++++++++++++++
Date: Mon Feb 25 16:55:52 EST 2013
User: group
Dark Spectrum Present: No
Reference Spectrum Present: No
Number of Sampled Component Spectra: 1
Spectrometers: USB2E7196
Integration Time (usec): 104000 (USB2E7196)
Spectra Averaged: 20 (USB2E7196)
Boxcar Smoothing: 10 (USB2E7196)
Correct for Electrical Dark: No (USB2E7196)
Strobe/Lamp Enabled: No (USB2E7196)
Correct for Detector Non-linearity: No (USB2E7196)
Correct for Stray Light: No (USB2E7196)
Number of Pixels in Processed Spectrum: 2048
>>>>>Begin Processed Spectral Data<<<<<
339.09	0.00
339.48	199.45
339.86	199.95
340.24	200.95
340.63	202.50
341.01	210.05
341.39	205.70
341.78	207.55
342.16	209.20
342.54	208.65
342.93	198.30
343.31	208.32
343.69	208.80
344.07	209.29
344.46	209.75
344.84	210.17
345.22	210.19
345.60	210.43
345.99	210.63
346.37	210.75
346.75	210.84
347.13	210.85
347.52	210.93
347.90	211.16
348.28	211.18
348.66	211.33
349.05	211.20
349.43	211.19
349.81	211.20
350.19	211.34
350.57	211.41
350.96	211.55
351.34	211.67
351.72	211.77
352.10	211.87
352.48	211.87
352.87	211.96
353.25	212.06
353.63	212.11
354.01	212.16
354.39	212.23
354.77	212.36
355.15	212.51
355.54	212.52
355.92	212.44
356.30	212.57
356.68	212.85
357.06	212.94
357.44	213.04
357.82	213.11
358.20	213.13
358.58	213.16
358.97	213.30
359.35	213.40
359.73	213.50
360.11	213.53
360.49	213.70
360.87	213.74
361.25	213.82
361.63	214.07
362.01	214.15
362.39	214.08
362.77	214.18
363.15	214.25
363.53	214.28
363.91	214.38
364.29	214.39
364.67	214.10
365.05	214.19
365.43	214.25
365.81	214.36
366.19	214.52
366.57	214.71
366.95	214.66
367.33	214.56
367.71	214.59
368.09	214.66
368.47	214.68
368.85	214.64
369.23	214.77
369.61	214.63
369.99	214.73
370.37	214.90
370.75	215.10
371.13	214.97
371.51	214.90
371.89	214.87
372.27	214.88
372.65	214.89
373.03	214.90
373.41	214.85
373.78	214.80
374.16	214.64
374.54	214.51
374.92	214.45
375.30	214.44
375.68	214.38
376.06	214.42
376.44	214.37
376.82	214.41
377.19	214.32
377.57	214.23
377.95	214.11
378.33	214.02
378.71	213.74
379.09	213.74
379.47	213.78
379.84	213.69
380.22	213.63
380.60	213.55
380.98	213.41
381.36	213.31
381.73	213.20
382.11	213.21
382.49	213.23
382.87	213.17
383.25	213.16
383.62	213.50
384.00	213.37
384.38	213.30
384.76	213.30
385.13	213.38
385.51	213.34
385.89	213.27
386.27	213.21
386.64	213.15
387.02	213.13
387.40	213.05
387.78	213.13
388.15	213.04
388.53	212.99
388.91	212.97
389.29	213.00
389.66	213.05
390.04	213.04
390.42	212.99
390.79	213.02
391.17	212.99
391.55	212.66
391.92	212.65
392.30	212.68
392.68	212.54
393.05	212.49
393.43	212.48
393.81	212.50
394.18	212.45
394.56	212.49
394.94	212.60
395.31	212.59
395.69	212.65
396.06	212.70
396.44	212.77
396.82	212.75
397.19	212.96
397.57	212.95
397.95	212.96
398.32	212.98
398.70	213.01
399.07	213.02
399.45	212.99
399.82	213.09
400.20	213.16
400.58	213.33
400.95	213.20
401.33	213.34
401.70	213.64
402.08	213.75
402.45	213.89
402.83	214.09
403.20	214.23
403.58	214.35
403.95	214.64
404.33	214.87
404.71	215.11
405.08	215.45
405.46	215.69
405.83	216.07
406.21	216.39
406.58	216.78
406.96	217.25
407.33	217.76
407.70	218.24
408.08	218.99
408.45	219.60
408.83	220.41
409.20	221.02
409.58	221.52
409.95	222.37
410.33	223.16
410.70	223.86
411.08	224.86
411.45	225.87
411.82	226.89
412.20	228.04
412.57	229.56
412.95	230.53
413.32	231.97
413.69	233.32
414.07	234.83
414.44	236.62
414.82	238.42
415.19	240.53
415.56	242.64
415.94	244.65
416.31	247.12
416.68	249.56
417.06	252.50
417.43	255.22
417.81	258.34
418.18	261.49
418.55	265.00
418.93	268.73
419.30	272.57
419.67	276.59
420.04	280.85
420.42	285.07
420.79	290.27
421.16	295.38
421.54	300.68
421.91	306.27
422.28	311.99
422.66	318.12
423.03	324.05
423.40	330.21
423.77	336.95
424.15	343.67
424.52	350.70
424.89	358.35
425.26	365.87
425.64	373.18
426.01	381.20
426.38	389.41
426.75	397.79
427.13	406.50
427.50	415.69
427.87	425.27
428.24	434.93
428.61	444.00
428.99	454.19
429.36	465.34
429.73	476.12
430.10	486.84
430.47	497.78
430.85	509.43
431.22	521.72
431.59	534.59
431.96	547.09
432.33	560.91
432.70	574.52
433.08	590.35
433.45	605.10
433.82	620.00
434.19	636.58
434.56	653.06
434.93	668.76
435.30	684.43
435.68	702.16
436.05	719.72
436.42	737.55
436.79	753.53
437.16	770.90
437.53	789.33
437.90	807.51
438.27	825.56
438.64	844.22
439.01	861.80
439.38	877.55
439.75	892.83
440.13	910.20
440.50	926.70
440.87	940.59
441.24	954.94
441.61	970.57
441.98	982.67
442.35	996.27
442.72	1010.20
443.09	1023.70
443.46	1032.05
443.83	1038.14
444.20	1043.47
444.57	1051.21
444.94	1055.50
445.31	1059.75
445.68	1064.05
446.05	1066.70
446.42	1066.35
446.79	1065.50
447.16	1064.75
447.53	1064.66
447.90	1059.45
448.27	1054.06
448.64	1045.79
449.01	1040.47
449.37	1029.73
449.74	1019.36
450.11	1006.70
450.48	992.77
450.85	978.56
451.22	966.60
451.59	955.15
451.96	944.14
452.33	928.97
452.70	915.28
453.07	898.86
453.43	882.14
453.80	866.27
454.17	850.68
454.54	835.95
454.91	820.07
455.28	804.55
455.65	790.10
456.02	775.35
456.38	763.25
456.75	747.66
457.12	734.93
457.49	722.25
457.86	709.96
458.23	699.31
458.59	687.66
458.96	675.91
459.33	665.37
459.70	654.81
460.07	646.35
460.43	636.67
460.80	627.53
461.17	619.57
461.54	611.02
461.91	603.14
462.27	595.25
462.64	588.38
463.01	580.76
463.38	573.48
463.74	566.35
464.11	559.84
464.48	554.18
464.85	548.15
465.21	543.34
465.58	538.38
465.95	532.50
466.32	527.66
466.68	522.64
467.05	517.74
467.42	512.71
467.78	507.56
468.15	502.61
468.52	499.05
468.88	494.29
469.25	490.02
469.62	486.55
469.98	482.77
470.35	479.27
470.72	475.90
471.08	472.30
471.45	469.17
471.82	466.00
472.18	462.68
472.55	460.18
472.92	457.35
473.28	454.78
473.65	452.23
474.02	449.71
474.38	447.84
474.75	446.20
475.11	444.51
475.48	443.09
475.85	441.95
476.21	440.67
476.58	439.60
476.94	438.92
477.31	437.94
477.67	437.14
478.04	436.48
478.41	436.18
478.77	436.19
479.14	435.81
479.50	435.88
479.87	436.05
480.23	436.15
480.60	436.09
480.96	436.21
481.33	437.07
481.69	437.69
482.06	438.01
482.42	438.37
482.79	438.89
483.15	439.90
483.52	441.06
483.88	442.07
484.25	443.34
484.61	444.61
484.98	446.17
485.34	447.89
485.71	449.86
486.07	451.62
486.44	453.35
486.80	455.62
487.17	457.94
487.53	460.61
487.90	463.37
488.26	466.54
488.62	469.67
488.99	472.63
489.35	475.80
489.72	479.45
490.08	483.14
490.44	487.08
490.81	491.07
491.17	495.13
491.54	499.63
491.90	504.01
492.26	508.62
492.63	513.29
492.99	518.19
493.36	523.16
493.72	528.69
494.08	534.08
494.45	539.80
494.81	545.91
495.17	551.85
495.54	558.23
495.90	564.58
496.26	571.16
496.63	577.88
496.99	584.99
497.35	592.29
497.72	599.65
498.08	607.13
498.44	614.61
498.80	622.65
499.17	630.93
499.53	639.30
499.89	648.04
500.26	656.36
500.62	664.72
500.98	673.73
501.34	682.61
501.71	691.85
502.07	701.07
502.43	710.19
502.79	719.40
503.16	728.87
503.52	738.55
503.88	747.99
504.24	757.71
504.60	767.35
504.97	776.95
505.33	786.73
505.69	796.81
506.05	807.18
506.41	817.28
506.78	826.94
507.14	836.65
507.50	846.50
507.86	856.76
508.22	866.95
508.59	876.81
508.95	886.71
509.31	896.65
509.67	906.72
510.03	916.70
510.39	927.07
510.75	937.03
511.12	946.78
511.48	956.66
511.84	966.57
512.20	976.30
512.56	986.20
512.92	996.21
513.28	1005.95
513.64	1015.36
514.00	1024.50
514.37	1033.82
514.73	1043.26
515.09	1052.50
515.45	1061.44
515.81	1070.38
516.17	1079.21
516.53	1088.06
516.89	1096.58
517.25	1104.79
517.61	1112.84
517.97	1120.57
518.33	1128.22
518.69	1135.82
519.05	1143.58
519.41	1151.12
519.77	1158.92
520.13	1166.16
520.49	1172.97
520.85	1180.03
521.21	1187.10
521.57	1194.15
521.93	1200.70
522.29	1207.61
522.65	1214.14
523.01	1220.65
523.37	1226.61
523.73	1232.57
524.09	1238.27
524.45	1244.17
524.81	1250.20
525.17	1256.38
525.53	1262.20
525.89	1267.99
526.25	1273.75
526.61	1278.94
526.97	1284.01
527.33	1288.91
527.68	1294.10
528.04	1299.15
528.40	1303.30
528.76	1307.49
529.12	1312.12
529.48	1317.07
529.84	1321.41
530.20	1325.48
530.56	1329.75
530.91	1334.60
531.27	1339.32
531.63	1343.91
531.99	1348.11
532.35	1351.55
532.71	1354.95
533.07	1359.16
533.42	1362.81
533.78	1366.57
534.14	1370.08
534.50	1373.04
534.86	1376.80
535.21	1379.72
535.57	1383.24
535.93	1386.59
536.29	1389.72
536.65	1392.48
537.00	1394.86
537.36	1397.14
537.72	1399.56
538.08	1401.88
538.44	1403.99
538.79	1406.20
539.15	1408.37
539.51	1410.60
539.87	1413.45
540.22	1415.94
540.58	1418.41
540.94	1420.72
541.29	1422.20
541.65	1423.80
542.01	1425.97
542.37	1427.28
542.72	1428.96
543.08	1430.23
543.44	1432.27
543.79	1433.31
544.15	1434.77
544.51	1436.61
544.87	1438.64
545.22	1439.98
545.58	1441.03
545.94	1441.76
546.29	1442.30
546.65	1442.75
547.01	1443.38
547.36	1443.75
547.72	1443.95
548.07	1443.53
548.43	1443.30
548.79	1443.28
549.14	1443.70
549.50	1443.80
549.86	1443.56
550.21	1443.49
550.57	1443.62
550.92	1442.92
551.28	1443.21
551.64	1442.87
551.99	1442.75
552.35	1441.88
552.70	1441.43
553.06	1441.26
553.41	1441.24
553.77	1441.12
554.13	1441.12
554.48	1440.85
554.84	1440.87
555.19	1440.71
555.55	1440.47
555.90	1439.91
556.26	1439.58
556.61	1438.59
556.97	1437.71
557.32	1437.35
557.68	1436.53
558.03	1435.47
558.39	1434.42
558.74	1433.53
559.10	1432.72
559.45	1431.51
559.81	1430.64
560.16	1429.48
560.52	1428.68
560.87	1427.57
561.23	1426.03
561.58	1424.85
561.94	1423.37
562.29	1421.41
562.64	1420.41
563.00	1419.13
563.35	1418.34
563.71	1417.73
564.06	1417.07
564.42	1416.44
564.77	1415.73
565.12	1414.98
565.48	1414.41
565.83	1413.76
566.19	1413.26
566.54	1412.04
566.89	1410.86
567.25	1410.28
567.60	1409.69
567.96	1408.93
568.31	1408.15
568.66	1407.16
569.02	1405.53
569.37	1403.81
569.72	1402.64
570.08	1400.93
570.43	1399.18
570.78	1397.38
571.14	1395.10
571.49	1393.08
571.84	1391.35
572.20	1388.67
572.55	1386.53
572.90	1383.67
573.26	1380.99
573.61	1377.99
573.96	1375.38
574.31	1372.44
574.67	1369.17
575.02	1365.91
575.37	1362.08
575.72	1358.24
576.08	1355.24
576.43	1351.85
576.78	1348.97
577.13	1345.87
577.49	1342.56
577.84	1339.50
578.19	1336.48
578.54	1333.83
578.90	1331.25
579.25	1327.77
579.60	1324.09
579.95	1319.97
580.30	1316.76
580.66	1313.82
581.01	1310.16
581.36	1306.40
581.71	1302.69
582.06	1299.00
582.42	1295.15
582.77	1291.37
583.12	1287.58
583.47	1283.89
583.82	1280.18
584.17	1276.38
584.53	1272.48
584.88	1268.24
585.23	1264.25
585.58	1259.86
585.93	1255.16
586.28	1250.88
586.63	1246.77
586.98	1243.19
587.34	1239.97
587.69	1235.40
588.04	1231.08
588.39	1227.17
588.74	1223.01
589.09	1219.15
589.44	1214.78
589.79	1210.86
590.14	1207.23
590.49	1203.58
590.84	1199.28
591.19	1195.68
591.54	1191.56
591.89	1186.92
592.25	1183.11
592.60	1178.57
592.95	1174.09
593.30	1169.36
593.65	1164.33
594.00	1159.60
594.35	1156.10
594.70	1151.29
595.05	1147.42
595.40	1142.93
595.75	1138.34
596.10	1134.29
596.45	1130.04
596.80	1126.08
597.15	1121.95
597.50	1117.32
597.85	1112.98
598.19	1108.54
598.54	1104.06
598.89	1099.93
599.24	1096.44
599.59	1092.10
599.94	1088.08
600.29	1084.08
600.64	1080.29
600.99	1076.13
601.34	1072.43
601.69	1067.05
602.04	1062.64
602.39	1058.05
602.74	1053.87
603.08	1050.08
603.43	1046.15
603.78	1041.67
604.13	1037.19
604.48	1032.95
604.83	1029.20
605.18	1025.30
605.53	1021.24
605.87	1016.70
606.22	1012.69
606.57	1007.97
606.92	1003.47
607.27	998.92
607.62	994.59
607.96	990.19
608.31	986.25
608.66	981.46
609.01	977.17
609.36	972.87
609.70	968.50
610.05	963.76
610.40	959.00
610.75	953.91
611.10	949.78
611.44	944.96
611.79	940.23
612.14	935.14
612.49	929.90
612.83	925.25
613.18	920.36
613.53	915.27
613.88	910.37
614.22	905.65
614.57	900.91
614.92	896.25
615.27	891.66
615.61	886.78
615.96	882.21
616.31	877.91
616.65	873.70
617.00	869.35
617.35	865.03
617.70	860.25
618.04	855.55
618.39	850.61
618.74	846.27
619.08	841.78
619.43	837.50
619.78	833.28
620.12	828.98
620.47	825.02
620.82	820.57
621.16	815.92
621.51	811.64
621.85	807.46
622.20	802.94
622.55	798.56
622.89	794.07
623.24	789.71
623.59	784.88
623.93	780.32
624.28	776.10
624.62	772.29
624.97	768.34
625.32	764.33
625.66	760.27
626.01	756.15
626.35	752.04
626.70	747.85
627.04	743.78
627.39	739.58
627.73	735.56
628.08	731.86
628.43	728.28
628.77	724.21
629.12	720.21
629.46	716.54
629.81	712.96
630.15	709.19
630.50	705.38
630.84	701.72
631.19	698.03
631.53	694.31
631.88	690.00
632.22	686.09
632.57	682.70
632.91	679.05
633.26	675.52
633.60	671.93
633.95	668.53
634.29	664.99
634.64	661.60
634.98	657.78
635.32	654.34
635.67	651.04
636.01	647.88
636.36	644.41
636.70	641.22
637.05	637.79
637.39	634.70
637.73	631.80
638.08	629.00
638.42	625.94
638.77	622.76
639.11	619.90
639.45	616.90
639.80	613.57
640.14	610.33
640.49	607.11
640.83	603.75
641.17	600.66
641.52	597.43
641.86	594.22
642.20	591.30
642.55	587.90
642.89	584.64
643.23	581.39
643.58	578.72
643.92	575.40
644.26	572.31
644.61	569.21
644.95	566.02
645.29	562.98
645.64	559.85
645.98	556.79
646.32	553.90
646.66	550.91
647.01	548.05
647.35	545.40
647.69	542.47
648.04	539.92
648.38	537.04
648.72	534.43
649.06	531.57
649.41	528.78
649.75	526.04
650.09	523.41
650.43	520.66
650.78	517.61
651.12	514.78
651.46	511.98
651.80	509.38
652.14	506.62
652.49	503.83
652.83	501.19
653.17	498.44
653.51	495.53
653.85	492.89
654.20	490.37
654.54	487.51
654.88	484.96
655.22	482.26
655.56	479.46
655.90	476.75
656.25	474.17
656.59	471.63
656.93	469.17
657.27	466.73
657.61	464.18
657.95	461.80
658.29	459.56
658.64	457.33
658.98	454.90
659.32	452.34
659.66	449.93
660.00	447.50
660.34	445.08
660.68	442.78
661.02	440.35
661.36	437.91
661.70	435.76
662.05	433.46
662.39	431.41
662.73	429.54
663.07	427.54
663.41	425.48
663.75	423.28
664.09	421.17
664.43	418.86
664.77	416.88
665.11	414.74
665.45	412.76
665.79	410.77
666.13	408.81
666.47	407.04
666.81	405.09
667.15	403.15
667.49	401.45
667.83	399.78
668.17	398.12
668.51	396.44
668.85	394.73
669.19	393.24
669.53	391.32
669.87	389.33
670.21	387.49
670.55	385.68
670.89	384.34
671.23	382.75
671.57	381.30
671.91	379.73
672.25	378.21
672.58	376.60
672.92	374.89
673.26	373.34
673.60	371.75
673.94	370.30
674.28	368.83
674.62	367.43
674.96	365.90
675.30	364.41
675.64	362.90
675.97	361.48
676.31	359.98
676.65	358.69
676.99	357.64
677.33	356.29
677.67	355.03
678.01	353.38
678.34	351.98
678.68	350.55
679.02	349.05
679.36	347.69
679.70	346.32
680.04	345.14
680.37	343.76
680.71	342.41
681.05	341.15
681.39	339.89
681.73	338.43
682.06	337.17
682.40	336.09
682.74	334.91
683.08	333.78
683.42	332.46
683.75	331.16
684.09	329.71
684.43	328.45
684.77	327.19
685.10	326.05
685.44	324.84
685.78	323.57
686.12	322.53
686.45	321.45
686.79	320.29
687.13	319.18
687.46	318.16
687.80	317.18
688.14	315.89
688.48	314.88
688.81	313.92
689.15	312.85
689.49	311.61
689.82	310.53
690.16	309.29
690.50	308.23
690.83	307.21
691.17	306.16
691.51	305.08
691.84	304.16
692.18	303.13
692.52	302.20
692.85	301.31
693.19	300.53
693.52	299.51
693.86	298.54
694.20	297.48
694.53	296.47
694.87	295.51
695.21	294.73
695.54	293.67
695.88	292.62
696.21	291.61
696.55	290.74
696.88	289.80
697.22	288.90
697.56	288.03
697.89	287.15
698.23	286.30
698.56	285.50
698.90	284.76
699.23	283.90
699.57	283.04
699.90	282.20
700.24	281.21
700.58	280.36
700.91	279.63
701.25	279.09
701.58	278.49
701.92	277.82
702.25	277.05
702.59	276.33
702.92	275.65
703.26	275.02
703.59	274.31
703.93	273.93
704.26	273.30
704.60	272.64
704.93	272.05
705.26	271.38
705.60	270.75
705.93	269.92
706.27	269.41
706.60	268.98
706.94	268.55
707.27	267.95
707.61	267.42
707.94	266.81
708.27	266.07
708.61	265.37
708.94	264.70
709.28	264.20
709.61	263.64
709.94	263.15
710.28	262.58
710.61	262.10
710.95	261.27
711.28	260.97
711.61	260.47
711.95	260.00
712.28	259.46
712.61	258.97
712.95	258.69
713.28	258.32
713.61	257.77
713.95	257.15
714.28	256.68
714.61	256.22
714.95	255.77
715.28	255.17
715.61	254.62
715.95	254.23
716.28	253.67
716.61	253.35
716.95	252.84
717.28	252.36
717.61	251.91
717.94	251.50
718.28	250.82
718.61	250.33
718.94	249.80
719.27	249.47
719.61	249.11
719.94	248.66
720.27	248.06
720.60	247.59
720.94	247.20
721.27	246.86
721.60	246.48
721.93	246.04
722.27	245.83
722.60	245.49
722.93	245.09
723.26	244.78
723.59	244.35
723.93	244.09
724.26	243.80
724.59	243.42
724.92	243.12
725.25	242.91
725.59	242.60
725.92	242.37
726.25	241.99
726.58	241.63
726.91	241.20
727.24	240.96
727.57	240.73
727.91	240.45
728.24	240.15
728.57	239.87
728.90	239.70
729.23	239.34
729.56	239.28
729.89	238.99
730.22	238.66
730.55	238.36
730.89	238.14
731.22	237.83
731.55	237.50
731.88	237.17
732.21	236.82
732.54	236.54
732.87	236.27
733.20	236.06
733.53	235.85
733.86	235.75
734.19	235.50
734.52	235.27
734.85	235.19
735.18	234.93
735.51	234.74
735.84	234.52
736.17	234.38
736.50	233.93
736.83	234.07
737.16	233.89
737.49	233.71
737.82	233.39
738.15	233.20
738.48	233.09
738.81	232.85
739.14	232.62
739.47	232.39
739.80	232.12
740.13	231.90
740.46	231.62
740.79	231.26
741.12	230.98
741.45	230.71
741.78	230.40
742.11	230.24
742.44	230.03
742.77	229.85
743.10	229.59
743.43	229.47
743.75	228.96
744.08	229.19
744.41	228.89
744.74	228.72
745.07	228.49
745.40	228.34
745.73	228.36
746.06	228.19
746.39	228.14
746.71	227.96
747.04	227.75
747.37	227.54
747.70	227.46
748.03	227.38
748.36	227.29
748.68	227.10
749.01	226.84
749.34	226.66
749.67	226.51
750.00	226.43
750.33	226.48
750.65	226.35
750.98	225.79
751.31	225.75
751.64	225.60
751.97	225.67
752.29	225.47
752.62	225.25
752.95	225.05
753.28	224.86
753.60	224.77
753.93	224.75
754.26	224.70
754.59	224.46
754.91	224.27
755.24	224.11
755.57	224.01
755.90	223.90
756.22	223.78
756.55	223.61
756.88	223.39
757.20	223.02
757.53	222.83
757.86	222.63
758.19	222.50
758.51	222.37
758.84	222.10
759.17	222.00
759.49	221.90
759.82	222.04
760.15	221.95
760.47	221.76
760.80	221.58
761.13	221.49
761.45	221.45
761.78	221.38
762.11	221.23
762.43	221.08
762.76	220.95
763.08	220.85
763.41	220.69
763.74	220.61
764.06	220.59
764.39	220.45
764.71	220.40
765.04	220.23
765.37	220.07
765.69	219.90
766.02	219.72
766.34	219.57
766.67	219.26
767.00	219.22
767.32	219.42
767.65	219.49
767.97	219.42
768.30	219.31
768.62	219.20
768.95	219.07
769.27	218.97
769.60	218.94
769.92	218.80
770.25	218.73
770.57	218.68
770.90	218.57
771.22	218.51
771.55	218.41
771.87	218.34
772.20	218.30
772.52	218.55
772.85	218.97
773.17	218.87
773.50	218.79
773.82	218.64
774.15	218.33
774.47	218.05
774.80	217.94
775.12	217.86
775.45	217.77
775.77	217.78
776.09	217.72
776.42	217.65
776.74	217.70
777.07	217.60
777.39	217.53
777.72	217.42
778.04	217.42
778.36	217.34
778.69	217.27
779.01	217.23
779.33	216.91
779.66	216.40
779.98	216.32
780.31	216.35
780.63	216.45
780.95	216.51
781.28	216.47
781.60	216.37
781.92	216.29
782.25	216.27
782.57	216.16
782.89	216.06
783.22	216.00
783.54	215.84
783.86	215.87
784.19	215.77
784.51	215.83
784.83	215.74
785.16	215.74
785.48	215.81
785.80	215.86
786.12	215.86
786.45	215.87
786.77	215.88
787.09	215.73
787.42	215.54
787.74	215.46
788.06	215.45
