SpectraSuite Data File
++++++++++++++++++++++++++++++++++++
Date: Mon Feb 25 17:14:08 EST 2013
User: group
Dark Spectrum Present: No
Reference Spectrum Present: No
Number of Sampled Component Spectra: 1
Spectrometers: USB2E7196
Integration Time (usec): 104000 (USB2E7196)
Spectra Averaged: 20 (USB2E7196)
Boxcar Smoothing: 10 (USB2E7196)
Correct for Electrical Dark: No (USB2E7196)
Strobe/Lamp Enabled: No (USB2E7196)
Correct for Detector Non-linearity: No (USB2E7196)
Correct for Stray Light: No (USB2E7196)
Number of Pixels in Processed Spectrum: 2048
>>>>>Begin Processed Spectral Data<<<<<
339.09	0.00
339.48	198.75
339.86	200.90
340.24	201.00
340.63	203.30
341.01	208.40
341.39	205.25
341.78	206.70
342.16	209.65
342.54	207.80
342.93	198.20
343.31	208.18
343.69	208.72
344.07	209.10
344.46	209.61
344.84	210.01
345.22	210.14
345.60	210.43
345.99	210.61
346.37	210.59
346.75	210.73
347.13	210.77
347.52	210.96
347.90	211.03
348.28	210.99
348.66	211.07
349.05	211.02
349.43	211.08
349.81	211.14
350.19	211.19
350.57	211.26
350.96	211.34
351.34	211.49
351.72	211.55
352.10	211.65
352.48	211.69
352.87	211.63
353.25	211.65
353.63	211.69
354.01	211.79
354.39	211.99
354.77	212.02
355.15	212.18
355.54	212.15
355.92	212.10
356.30	212.22
356.68	212.53
357.06	212.55
357.44	212.49
357.82	212.58
358.20	212.68
358.58	212.65
358.97	212.72
359.35	212.84
359.73	213.00
360.11	213.13
360.49	213.17
360.87	213.30
361.25	213.43
361.63	213.61
362.01	213.72
362.39	213.71
362.77	213.80
363.15	213.79
363.53	213.80
363.91	213.93
364.29	213.96
364.67	213.63
365.05	213.66
365.43	213.83
365.81	213.89
366.19	214.02
366.57	214.28
366.95	214.32
367.33	214.21
367.71	214.22
368.09	214.27
368.47	214.27
368.85	214.28
369.23	214.26
369.61	214.06
369.99	214.05
370.37	214.10
370.75	214.29
371.13	214.23
371.51	214.19
371.89	214.15
372.27	214.11
372.65	214.14
373.03	214.19
373.41	214.08
373.78	214.02
374.16	213.80
374.54	213.58
374.92	213.48
375.30	213.42
375.68	213.25
376.06	213.22
376.44	213.12
376.82	213.05
377.19	213.05
377.57	213.07
377.95	212.92
378.33	212.81
378.71	212.50
379.09	212.43
379.47	212.48
379.84	212.39
380.22	212.31
380.60	212.23
380.98	212.12
381.36	211.99
381.73	211.88
382.11	211.90
382.49	211.88
382.87	211.80
383.25	211.77
383.62	212.13
384.00	212.02
384.38	212.03
384.76	212.13
385.13	212.21
385.51	212.13
385.89	212.10
386.27	212.05
386.64	212.14
387.02	212.14
387.40	212.04
387.78	212.08
388.15	212.08
388.53	211.95
388.91	211.86
389.29	211.94
389.66	212.00
390.04	211.91
390.42	211.97
390.79	211.98
391.17	211.98
391.55	211.59
391.92	211.57
392.30	211.57
392.68	211.40
393.05	211.37
393.43	211.47
393.81	211.49
394.18	211.50
394.56	211.43
394.94	211.47
395.31	211.42
395.69	211.48
396.06	211.51
396.44	211.56
396.82	211.57
397.19	211.75
397.57	211.63
397.95	211.69
398.32	211.59
398.70	211.64
399.07	211.68
399.45	211.62
399.82	211.61
400.20	211.58
400.58	211.59
400.95	211.43
401.33	211.46
401.70	211.63
402.08	211.61
402.45	211.64
402.83	211.83
403.20	211.90
403.58	211.88
403.95	212.05
404.33	212.24
404.71	212.36
405.08	212.55
405.46	212.73
405.83	212.85
406.21	213.00
406.58	213.13
406.96	213.20
407.33	213.48
407.70	213.67
408.08	214.15
408.45	214.36
408.83	214.59
409.20	214.65
409.58	214.72
409.95	215.02
410.33	215.33
410.70	215.39
411.08	215.71
411.45	215.98
411.82	216.21
412.20	216.58
412.57	217.13
412.95	217.20
413.32	217.68
413.69	218.11
414.07	218.59
414.44	218.96
414.82	219.46
415.19	220.05
415.56	220.62
415.94	221.02
416.31	221.83
416.68	222.52
417.06	223.41
417.43	224.23
417.81	225.16
418.18	226.03
418.55	227.04
418.93	227.98
419.30	229.04
419.67	230.15
420.04	231.22
420.42	232.28
420.79	233.92
421.16	235.25
421.54	236.89
421.91	238.40
422.28	239.97
422.66	241.61
423.03	243.40
423.40	245.09
423.77	246.87
424.15	248.55
424.52	250.48
424.89	252.55
425.26	254.48
425.64	256.28
426.01	258.39
426.38	260.44
426.75	262.74
427.13	264.96
427.50	267.32
427.87	269.77
428.24	272.20
428.61	274.33
428.99	277.09
429.36	279.68
429.73	282.35
430.10	285.21
430.47	288.14
430.85	290.90
431.22	293.99
431.59	297.48
431.96	300.62
432.33	303.96
432.70	307.27
433.08	311.11
433.45	314.75
433.82	318.41
434.19	322.52
434.56	326.49
434.93	330.27
435.30	333.93
435.68	338.21
436.05	342.32
436.42	346.40
436.79	350.04
437.16	353.98
437.53	358.35
437.90	362.44
438.27	366.53
438.64	370.68
439.01	374.69
439.38	377.95
439.75	381.35
440.13	385.26
440.50	388.89
440.87	391.89
441.24	395.07
441.61	398.52
441.98	400.98
442.35	403.85
442.72	406.85
443.09	409.91
443.46	411.47
443.83	412.60
444.20	413.61
444.57	415.03
444.94	415.75
445.31	416.31
445.68	417.30
446.05	417.48
446.42	417.05
446.79	416.52
447.16	415.75
447.53	415.36
447.90	413.78
448.27	412.14
448.64	410.01
449.01	408.34
449.37	405.53
449.74	402.86
450.11	399.89
450.48	396.31
450.85	392.50
451.22	389.37
451.59	386.46
451.96	383.53
452.33	379.71
452.70	376.41
453.07	372.39
453.43	367.94
453.80	364.01
454.17	360.16
454.54	356.48
454.91	352.86
455.28	348.93
455.65	345.35
456.02	342.33
456.38	339.22
456.75	335.58
457.12	332.32
457.49	329.18
457.86	325.88
458.23	323.44
458.59	320.69
458.96	317.95
459.33	315.44
459.70	313.06
460.07	311.13
460.43	308.80
460.80	306.72
461.17	304.89
461.54	302.90
461.91	301.03
462.27	299.15
462.64	297.43
463.01	295.78
463.38	294.20
463.74	292.08
464.11	290.62
464.48	289.34
464.85	287.95
465.21	286.99
465.58	285.95
465.95	284.52
466.32	283.41
466.68	282.15
467.05	281.06
467.42	279.85
467.78	278.63
468.15	277.48
468.52	276.56
468.88	275.53
469.25	274.64
469.62	274.00
469.98	273.15
470.35	272.46
470.72	271.68
471.08	270.89
471.45	270.21
471.82	269.65
472.18	268.84
472.55	268.34
472.92	267.67
473.28	267.01
473.65	266.49
474.02	265.99
474.38	265.73
474.75	265.46
475.11	265.16
475.48	264.99
475.85	264.77
476.21	264.60
476.58	264.42
476.94	264.32
477.31	264.25
477.67	264.25
478.04	264.23
478.41	264.32
478.77	264.73
479.14	264.73
479.50	264.81
479.87	265.04
480.23	265.15
480.60	265.33
480.96	265.61
481.33	266.09
481.69	266.54
482.06	266.91
482.42	267.32
482.79	267.77
483.15	268.20
483.52	268.89
483.88	269.51
484.25	270.21
484.61	270.87
484.98	271.54
485.34	272.51
485.71	273.40
486.07	274.36
486.44	274.99
486.80	276.05
487.17	277.16
487.53	278.42
487.90	279.88
488.26	281.36
488.62	282.90
488.99	284.21
489.35	285.70
489.72	287.32
490.08	289.02
490.44	290.84
490.81	292.79
491.17	294.74
491.54	296.90
491.90	299.09
492.26	301.52
492.63	303.96
492.99	306.35
493.36	309.01
493.72	311.93
494.08	314.85
494.45	318.08
494.81	321.44
495.17	324.79
495.54	328.41
495.90	332.07
496.26	335.86
496.63	339.97
496.99	344.11
497.35	348.40
497.72	352.79
498.08	357.34
498.44	362.18
498.80	367.36
499.17	372.65
499.53	377.95
499.89	383.64
500.26	389.33
500.62	395.21
500.98	401.43
501.34	407.79
501.71	414.45
502.07	421.20
502.43	428.09
502.79	435.20
503.16	442.41
503.52	449.98
503.88	457.75
504.24	465.88
504.60	474.20
504.97	482.91
505.33	491.68
505.69	501.00
506.05	510.25
506.41	519.42
506.78	528.76
507.14	538.52
507.50	548.28
507.86	558.68
508.22	569.18
508.59	579.75
508.95	590.76
509.31	601.82
509.67	613.25
510.03	624.88
510.39	636.89
510.75	649.02
511.12	661.30
511.48	673.77
511.84	686.28
512.20	698.95
512.56	711.97
512.92	725.29
513.28	738.53
513.64	751.97
514.00	765.70
514.37	779.57
514.73	793.60
515.09	807.87
515.45	821.97
515.81	836.55
516.17	850.95
516.53	865.25
516.89	879.87
517.25	894.50
517.61	909.26
517.97	924.10
518.33	938.77
518.69	953.83
519.05	969.17
519.41	984.55
519.77	1000.16
520.13	1015.22
520.49	1030.20
520.85	1045.48
521.21	1061.28
521.57	1077.05
521.93	1092.26
522.29	1108.04
522.65	1123.64
523.01	1139.32
523.37	1154.30
523.73	1169.92
524.09	1185.30
524.45	1200.81
524.81	1216.18
525.17	1231.79
525.53	1246.82
525.89	1262.36
526.25	1277.33
526.61	1292.07
526.97	1306.84
527.33	1321.50
527.68	1336.73
528.04	1351.35
528.40	1365.70
528.76	1379.91
529.12	1394.29
529.48	1409.43
529.84	1423.45
530.20	1437.75
530.56	1451.71
530.91	1466.76
531.27	1480.99
531.63	1495.25
531.99	1508.89
532.35	1522.52
532.71	1535.51
533.07	1549.16
533.42	1562.30
533.78	1575.49
534.14	1588.29
534.50	1600.12
534.86	1612.47
535.21	1623.90
535.57	1636.55
535.93	1648.30
536.29	1659.68
536.65	1671.11
537.00	1681.53
537.36	1692.09
537.72	1702.26
538.08	1712.74
538.44	1722.44
538.79	1732.27
539.15	1741.94
539.51	1751.75
539.87	1761.36
540.22	1770.95
540.58	1780.78
540.94	1789.79
541.29	1798.11
541.65	1806.04
542.01	1814.59
542.37	1822.62
542.72	1830.89
543.08	1837.74
543.44	1845.90
543.79	1852.89
544.15	1859.30
544.51	1866.39
544.87	1873.77
545.22	1880.00
545.58	1885.80
545.94	1891.06
546.29	1895.93
546.65	1900.50
547.01	1905.07
547.36	1909.63
547.72	1913.77
548.07	1916.95
548.43	1920.26
548.79	1923.57
549.14	1927.03
549.50	1930.06
549.86	1932.63
550.21	1934.95
550.57	1937.78
550.92	1939.11
551.28	1940.91
551.64	1942.95
551.99	1944.90
552.35	1945.90
552.70	1947.49
553.06	1948.83
553.41	1950.35
553.77	1951.76
554.13	1952.65
554.48	1953.57
554.84	1954.38
555.19	1954.61
555.55	1954.78
555.90	1954.53
556.26	1954.21
556.61	1953.46
556.97	1952.73
557.32	1952.16
557.68	1951.02
558.03	1949.85
558.39	1948.98
558.74	1948.67
559.10	1947.61
559.45	1946.09
559.81	1945.31
560.16	1943.48
560.52	1942.47
560.87	1940.61
561.23	1938.21
561.58	1936.89
561.94	1934.90
562.29	1932.09
562.64	1929.92
563.00	1927.83
563.35	1926.31
563.71	1925.25
564.06	1923.91
564.42	1922.57
564.77	1920.89
565.12	1919.55
565.48	1917.77
565.83	1915.92
566.19	1913.74
566.54	1910.85
566.89	1907.93
567.25	1904.87
567.60	1902.49
567.96	1899.15
568.31	1896.50
568.66	1893.85
569.02	1890.27
569.37	1886.38
569.72	1883.35
570.08	1880.05
570.43	1876.35
570.78	1872.38
571.14	1867.74
571.49	1863.25
571.84	1859.46
572.20	1854.49
572.55	1850.09
572.90	1845.05
573.26	1839.64
573.61	1834.32
573.96	1829.67
574.31	1824.30
574.67	1818.75
575.02	1812.74
575.37	1807.20
575.72	1800.89
576.08	1795.72
576.43	1789.86
576.78	1784.79
577.13	1779.41
577.49	1774.00
577.84	1768.67
578.19	1763.27
578.54	1758.38
578.90	1753.72
579.25	1747.63
579.60	1741.95
579.95	1735.86
580.30	1730.72
580.66	1725.90
581.01	1720.16
581.36	1714.09
581.71	1708.64
582.06	1703.35
582.42	1698.32
582.77	1692.41
583.12	1686.97
583.47	1681.42
583.82	1676.46
584.17	1670.73
584.53	1665.53
584.88	1660.14
585.23	1654.30
585.58	1648.79
585.93	1642.78
586.28	1637.01
586.63	1631.46
586.98	1626.22
587.34	1621.13
587.69	1615.57
588.04	1609.90
588.39	1604.67
588.74	1599.06
589.09	1593.83
589.44	1588.07
589.79	1582.92
590.14	1577.92
590.49	1572.62
590.84	1566.89
591.19	1561.85
591.54	1556.59
591.89	1550.15
592.25	1544.26
592.60	1538.40
592.95	1532.31
593.30	1526.02
593.65	1519.77
594.00	1514.08
594.35	1509.76
594.70	1504.17
595.05	1498.66
595.40	1493.07
595.75	1486.93
596.10	1481.82
596.45	1476.45
596.80	1471.65
597.15	1466.37
597.50	1460.60
597.85	1455.60
598.19	1450.14
598.54	1444.73
598.89	1439.45
599.24	1434.73
599.59	1429.62
599.94	1425.35
600.29	1420.63
600.64	1415.97
600.99	1410.83
601.34	1405.98
601.69	1399.54
602.04	1393.89
602.39	1388.43
602.74	1383.62
603.08	1379.35
603.43	1375.02
603.78	1370.10
604.13	1364.83
604.48	1359.76
604.83	1355.90
605.18	1351.58
605.53	1346.75
605.87	1341.55
606.22	1336.79
606.57	1331.89
606.92	1327.13
607.27	1321.49
607.62	1316.57
607.96	1311.94
608.31	1307.41
608.66	1302.23
609.01	1297.11
609.36	1292.07
609.70	1286.56
610.05	1280.74
610.40	1275.12
610.75	1269.17
611.10	1264.16
611.44	1258.08
611.79	1251.78
612.14	1245.31
612.49	1238.48
612.83	1232.75
613.18	1226.67
613.53	1220.53
613.88	1214.26
614.22	1208.30
614.57	1202.35
614.92	1196.18
615.27	1189.84
615.61	1183.60
615.96	1177.74
616.31	1172.01
616.65	1166.70
617.00	1161.38
617.35	1155.79
617.70	1149.80
618.04	1143.66
618.39	1136.99
618.74	1131.30
619.08	1125.67
619.43	1119.75
619.78	1114.13
620.12	1108.38
620.47	1102.81
620.82	1096.70
621.16	1090.37
621.51	1084.22
621.85	1078.80
622.20	1072.74
622.55	1066.85
622.89	1061.04
623.24	1055.13
623.59	1049.13
623.93	1042.92
624.28	1037.30
624.62	1031.85
624.97	1026.33
625.32	1020.90
625.66	1015.58
626.01	1010.10
626.35	1005.01
626.70	999.73
627.04	994.80
627.39	989.46
627.73	984.02
628.08	979.24
628.43	974.13
628.77	968.89
629.12	963.27
629.46	958.87
629.81	954.03
630.15	949.09
630.50	943.83
630.84	938.66
631.19	933.58
631.53	928.27
631.88	922.64
632.22	917.22
632.57	912.43
632.91	907.33
633.26	902.33
633.60	897.08
633.95	892.22
634.29	886.96
634.64	882.07
634.98	876.98
635.32	871.87
635.67	867.48
636.01	863.03
636.36	858.10
636.70	853.00
637.05	848.17
637.39	843.40
637.73	839.12
638.08	835.19
638.42	831.03
638.77	826.62
639.11	822.13
639.45	817.79
639.80	812.86
640.14	808.08
640.49	803.54
640.83	798.93
641.17	794.30
641.52	789.60
641.86	784.94
642.20	780.50
642.55	775.73
642.89	770.94
643.23	766.08
643.58	761.99
643.92	757.25
644.26	752.59
644.61	748.11
644.95	743.38
645.29	738.52
645.64	733.70
645.98	729.16
646.32	724.96
646.66	720.49
647.01	716.15
647.35	712.04
647.69	707.33
648.04	702.98
648.38	698.57
648.72	694.35
649.06	690.03
649.41	685.69
649.75	681.64
650.09	677.66
650.43	673.37
650.78	668.73
651.12	664.39
651.46	660.36
651.80	656.24
652.14	652.08
652.49	647.94
652.83	643.86
653.17	639.56
653.51	635.37
653.85	631.30
654.20	627.13
654.54	622.95
654.88	619.18
655.22	615.11
655.56	611.07
655.90	606.92
656.25	602.81
656.59	598.90
656.93	594.90
657.27	590.99
657.61	586.99
657.95	583.28
658.29	579.61
658.64	575.86
658.98	571.89
659.32	568.11
659.66	564.55
660.00	560.80
660.34	557.09
660.68	553.18
661.02	549.53
661.36	546.17
661.70	542.77
662.05	539.30
662.39	536.17
662.73	532.97
663.07	530.07
663.41	527.06
663.75	523.77
664.09	520.39
664.43	516.93
664.77	513.93
665.11	510.72
665.45	507.67
665.79	504.63
666.13	501.66
666.47	498.47
666.81	495.35
667.15	492.28
667.49	489.57
667.83	487.03
668.17	484.20
668.51	481.42
668.85	478.68
669.19	476.22
669.53	473.34
669.87	470.56
670.21	467.80
670.55	465.11
670.89	462.78
671.23	460.52
671.57	458.10
671.91	455.66
672.25	453.07
672.58	450.60
672.92	448.00
673.26	445.66
673.60	443.47
673.94	441.06
674.28	438.77
674.62	436.49
674.96	434.10
675.30	431.89
675.64	429.64
675.97	427.37
676.31	425.01
676.65	422.81
676.99	420.82
677.33	418.50
677.67	416.31
678.01	414.05
678.34	411.92
678.68	409.92
679.02	407.64
679.36	405.73
679.70	403.71
680.04	401.80
680.37	399.71
680.71	397.78
681.05	395.95
681.39	394.10
681.73	392.15
682.06	390.28
682.40	388.51
682.74	386.59
683.08	384.80
683.42	382.84
683.75	381.01
684.09	379.09
684.43	377.29
684.77	375.41
685.10	373.52
685.44	371.56
685.78	369.69
686.12	368.09
686.45	366.45
686.79	364.76
687.13	363.11
687.46	361.48
687.80	359.91
688.14	358.10
688.48	356.40
688.81	354.68
689.15	353.12
689.49	351.45
689.82	349.85
690.16	348.09
690.50	346.52
690.83	345.04
691.17	343.36
691.51	341.75
691.84	340.27
692.18	338.83
692.52	337.48
692.85	336.23
693.19	334.90
693.52	333.36
693.86	331.82
694.20	330.43
694.53	329.11
694.87	327.57
695.21	326.23
695.54	324.89
695.88	323.50
696.21	322.00
696.55	320.65
696.88	319.36
697.22	317.96
697.56	316.79
697.89	315.46
698.23	314.29
698.56	313.04
698.90	311.96
699.23	310.65
699.57	309.40
699.90	308.03
700.24	306.75
700.58	305.60
700.91	304.47
701.25	303.60
701.58	302.48
701.92	301.45
702.25	300.35
702.59	299.24
702.92	298.31
703.26	297.36
703.59	296.34
703.93	295.70
704.26	294.87
704.60	293.91
704.93	292.92
705.26	291.94
705.60	291.09
705.93	289.93
706.27	289.18
706.60	288.35
706.94	287.73
707.27	286.82
707.61	285.92
707.94	285.13
708.27	283.97
708.61	283.05
708.94	282.22
709.28	281.45
709.61	280.70
709.94	279.86
710.28	279.09
710.61	278.42
710.95	277.25
711.28	276.77
711.61	276.02
711.95	275.38
712.28	274.68
712.61	274.01
712.95	273.54
713.28	272.95
713.61	272.25
713.95	271.35
714.28	270.64
714.61	269.97
714.95	269.25
715.28	268.56
715.61	267.90
715.95	267.24
716.28	266.54
716.61	265.87
716.95	265.14
717.28	264.51
717.61	263.80
717.94	263.30
718.28	262.44
718.61	261.80
718.94	261.18
719.27	260.50
719.61	259.90
719.94	259.25
720.27	258.48
720.60	257.86
720.94	257.33
721.27	256.80
721.60	256.34
721.93	255.85
722.27	255.53
722.60	255.07
722.93	254.54
723.26	254.10
723.59	253.52
723.93	253.17
724.26	252.70
724.59	252.30
724.92	251.85
725.25	251.51
725.59	251.10
725.92	250.66
726.25	250.30
726.58	249.92
726.91	249.49
727.24	249.18
727.57	248.82
727.91	248.40
728.24	248.04
728.57	247.64
728.90	247.30
729.23	246.75
729.56	246.59
729.89	246.21
730.22	245.85
730.55	245.59
730.89	245.27
731.22	244.92
731.55	244.56
731.88	244.14
732.21	243.65
732.54	243.25
732.87	242.94
733.20	242.61
733.53	242.19
733.86	241.92
734.19	241.41
734.52	241.14
734.85	241.09
735.18	240.80
735.51	240.56
735.84	240.24
736.17	240.01
736.50	239.56
736.83	239.68
737.16	239.38
737.49	239.08
737.82	238.67
738.15	238.48
738.48	238.21
738.81	237.91
739.14	237.65
739.47	237.33
739.80	237.02
740.13	236.79
740.46	236.55
740.79	236.19
741.12	235.96
741.45	235.60
741.78	235.12
742.11	234.96
742.44	234.64
742.77	234.44
743.10	234.13
743.43	233.82
743.75	233.22
744.08	233.37
744.41	233.12
744.74	232.87
745.07	232.51
745.40	232.36
745.73	232.28
746.06	232.14
746.39	232.00
746.71	231.71
747.04	231.40
747.37	231.10
747.70	230.94
748.03	230.80
748.36	230.71
748.68	230.56
749.01	230.21
749.34	230.03
749.67	229.84
750.00	229.66
750.33	229.64
750.65	229.51
750.98	228.87
751.31	228.67
751.64	228.54
751.97	228.53
752.29	228.28
752.62	228.01
752.95	227.76
753.28	227.53
753.60	227.39
753.93	227.35
754.26	227.26
754.59	227.04
754.91	226.86
755.24	226.64
755.57	226.37
755.90	226.21
756.22	226.01
756.55	225.69
756.88	225.46
757.20	225.06
757.53	224.76
757.86	224.59
758.19	224.43
758.51	224.29
758.84	223.90
759.17	223.67
759.49	223.44
759.82	223.45
760.15	223.30
760.47	223.15
760.80	222.92
761.13	222.77
761.45	222.56
761.78	222.33
762.11	222.21
762.43	222.02
762.76	221.87
763.08	221.74
763.41	221.74
763.74	221.67
764.06	221.56
764.39	221.51
764.71	221.38
765.04	221.27
765.37	221.13
765.69	221.07
766.02	220.97
766.34	220.85
766.67	220.65
767.00	220.74
767.32	220.79
767.65	220.82
767.97	220.79
768.30	220.75
768.62	220.75
768.95	220.50
769.27	220.46
769.60	220.46
769.92	220.39
770.25	220.19
770.57	219.97
770.90	219.89
771.22	219.78
771.55	219.79
771.87	219.73
772.20	219.57
772.52	219.77
772.85	220.04
773.17	220.01
773.50	219.88
773.82	219.69
774.15	219.39
774.47	219.14
774.80	218.98
775.12	218.93
775.45	218.82
775.77	218.84
776.09	218.83
776.42	218.67
776.74	218.67
777.07	218.66
777.39	218.67
777.72	218.67
778.04	218.65
778.36	218.57
778.69	218.52
779.01	218.52
779.33	218.18
779.66	217.80
779.98	217.71
780.31	217.65
780.63	217.70
780.95	217.76
781.28	217.68
781.60	217.56
781.92	217.50
782.25	217.43
782.57	217.37
782.89	217.31
783.22	217.30
783.54	217.15
783.86	217.10
784.19	217.03
784.51	217.05
784.83	216.93
785.16	216.85
785.48	216.73
785.80	216.71
786.12	216.64
786.45	216.59
786.77	216.54
787.09	216.53
787.42	216.36
787.74	216.33
