SpectraSuite Data File
++++++++++++++++++++++++++++++++++++
Date: Mon Feb 25 17:00:17 EST 2013
User: group
Dark Spectrum Present: No
Reference Spectrum Present: No
Number of Sampled Component Spectra: 1
Spectrometers: USB2E7196
Integration Time (usec): 104000 (USB2E7196)
Spectra Averaged: 20 (USB2E7196)
Boxcar Smoothing: 10 (USB2E7196)
Correct for Electrical Dark: No (USB2E7196)
Strobe/Lamp Enabled: No (USB2E7196)
Correct for Detector Non-linearity: No (USB2E7196)
Correct for Stray Light: No (USB2E7196)
Number of Pixels in Processed Spectrum: 2048
>>>>>Begin Processed Spectral Data<<<<<
339.09	0.00
339.48	199.25
339.86	200.85
340.24	202.10
340.63	203.15
341.01	209.75
341.39	207.15
341.78	208.20
342.16	209.60
342.54	210.25
342.93	198.77
343.31	208.80
343.69	209.35
344.07	209.84
344.46	210.33
344.84	210.75
345.22	210.78
345.60	210.98
345.99	211.14
346.37	211.20
346.75	211.23
347.13	211.27
347.52	211.30
347.90	211.46
348.28	211.50
348.66	211.58
349.05	211.44
349.43	211.40
349.81	211.50
350.19	211.51
350.57	211.54
350.96	211.56
351.34	211.65
351.72	211.73
352.10	211.76
352.48	211.77
352.87	211.76
353.25	211.85
353.63	211.91
354.01	212.00
354.39	212.12
354.77	212.24
355.15	212.38
355.54	212.35
355.92	212.26
356.30	212.28
356.68	212.58
357.06	212.70
357.44	212.68
357.82	212.65
358.20	212.73
358.58	212.76
358.97	212.85
359.35	212.92
359.73	212.91
360.11	212.95
360.49	212.93
360.87	212.97
361.25	213.08
361.63	213.14
362.01	213.11
362.39	213.08
362.77	213.13
363.15	213.13
363.53	213.23
363.91	213.25
364.29	213.25
364.67	212.94
365.05	212.87
365.43	212.93
365.81	213.02
366.19	213.15
366.57	213.29
366.95	213.23
367.33	213.11
367.71	213.10
368.09	213.14
368.47	213.15
368.85	213.09
369.23	213.05
369.61	212.87
369.99	212.96
370.37	212.94
370.75	213.05
371.13	212.91
371.51	212.74
371.89	212.76
372.27	212.78
372.65	212.76
373.03	212.73
373.41	212.72
373.78	212.65
374.16	212.45
374.54	212.32
374.92	212.32
375.30	212.36
375.68	212.30
376.06	212.27
376.44	212.21
376.82	212.15
377.19	212.10
377.57	212.14
377.95	211.95
378.33	211.90
378.71	211.55
379.09	211.60
379.47	211.66
379.84	211.60
380.22	211.49
380.60	211.42
380.98	211.36
381.36	211.34
381.73	211.22
382.11	211.33
382.49	211.30
382.87	211.26
383.25	211.11
383.62	211.49
384.00	211.39
384.38	211.39
384.76	211.57
385.13	211.64
385.51	211.58
385.89	211.57
386.27	211.58
386.64	211.67
387.02	211.60
387.40	211.52
387.78	211.52
388.15	211.57
388.53	211.47
388.91	211.47
389.29	211.38
389.66	211.44
390.04	211.30
390.42	211.32
390.79	211.32
391.17	211.35
391.55	210.96
391.92	210.99
392.30	211.05
392.68	210.88
393.05	210.84
393.43	210.88
393.81	210.85
394.18	210.76
394.56	210.75
394.94	210.82
395.31	210.83
395.69	210.94
396.06	211.01
396.44	211.17
396.82	211.19
397.19	211.39
397.57	211.33
397.95	211.44
398.32	211.38
398.70	211.42
399.07	211.48
399.45	211.55
399.82	211.56
400.20	211.57
400.58	211.68
400.95	211.58
401.33	211.71
401.70	212.02
402.08	212.18
402.45	212.27
402.83	212.46
403.20	212.65
403.58	212.70
403.95	212.86
404.33	212.99
404.71	213.15
405.08	213.39
405.46	213.59
405.83	213.80
406.21	213.97
406.58	214.20
406.96	214.43
407.33	214.61
407.70	214.97
408.08	215.45
408.45	215.82
408.83	216.26
409.20	216.57
409.58	216.78
409.95	217.23
410.33	217.66
410.70	218.03
411.08	218.55
411.45	219.08
411.82	219.59
412.20	220.27
412.57	221.12
412.95	221.62
413.32	222.57
413.69	223.32
414.07	224.28
414.44	225.29
414.82	226.38
415.19	227.62
415.56	228.83
415.94	229.97
416.31	231.35
416.68	232.79
417.06	234.46
417.43	236.07
417.81	237.88
418.18	239.74
418.55	241.74
418.93	243.80
419.30	246.04
419.67	248.42
420.04	250.80
420.42	253.31
420.79	256.43
421.16	259.36
421.54	262.64
421.91	265.88
422.28	269.17
422.66	272.65
423.03	276.26
423.40	279.86
423.77	283.72
424.15	287.66
424.52	291.78
424.89	296.24
425.26	300.57
425.64	304.65
426.01	309.23
426.38	313.97
426.75	318.85
427.13	323.91
427.50	329.20
427.87	334.60
428.24	340.11
428.61	345.38
428.99	351.21
429.36	357.33
429.73	363.51
430.10	369.78
430.47	376.23
430.85	382.70
431.22	389.67
431.59	397.22
431.96	404.32
432.33	412.27
432.70	420.01
433.08	429.04
433.45	437.60
433.82	446.21
434.19	455.75
434.56	465.16
434.93	474.05
435.30	483.16
435.68	493.39
436.05	503.37
436.42	513.32
436.79	522.58
437.16	532.47
437.53	542.84
437.90	553.15
438.27	563.41
438.64	574.10
439.01	584.17
439.38	593.10
439.75	602.00
440.13	611.83
440.50	621.09
440.87	628.88
441.24	637.08
441.61	646.01
441.98	652.84
442.35	660.62
442.72	668.71
443.09	676.25
443.46	680.92
443.83	684.42
444.20	687.35
444.57	691.52
444.94	693.81
445.31	696.39
445.68	698.80
446.05	700.09
446.42	699.91
446.79	699.57
447.16	698.86
447.53	698.56
447.90	695.56
448.27	692.59
448.64	687.96
449.01	684.76
449.37	678.70
449.74	672.73
450.11	665.53
450.48	657.48
450.85	649.29
451.22	642.57
451.59	636.06
451.96	629.90
452.33	621.20
452.70	613.56
453.07	604.02
453.43	594.43
453.80	585.32
454.17	576.40
454.54	567.73
454.91	558.67
455.28	549.77
455.65	541.56
456.02	533.50
456.38	526.52
456.75	517.66
457.12	510.25
457.49	503.06
457.86	496.01
458.23	490.00
458.59	483.32
458.96	476.50
459.33	470.45
459.70	464.43
460.07	459.64
460.43	454.13
460.80	449.07
461.17	444.48
461.54	439.76
461.91	435.22
462.27	430.68
462.64	426.73
463.01	422.44
463.38	418.27
463.74	413.70
464.11	410.04
464.48	406.84
464.85	403.25
465.21	400.56
465.58	397.67
465.95	394.17
466.32	391.30
466.68	388.46
467.05	385.55
467.42	382.70
467.78	379.63
468.15	376.77
468.52	374.61
468.88	371.81
469.25	369.18
469.62	367.19
469.98	365.09
470.35	363.14
470.72	361.23
471.08	359.02
471.45	357.31
471.82	355.45
472.18	353.40
472.55	351.93
472.92	349.98
473.28	348.34
473.65	346.80
474.02	345.41
474.38	344.15
474.75	343.12
475.11	341.97
475.48	341.20
475.85	340.49
476.21	339.54
476.58	338.92
476.94	338.44
477.31	337.71
477.67	337.04
478.04	336.46
478.41	336.09
478.77	336.04
479.14	335.65
479.50	335.48
479.87	335.57
480.23	335.44
480.60	335.36
480.96	335.31
481.33	335.53
481.69	335.60
482.06	335.66
482.42	335.64
482.79	335.74
483.15	335.97
483.52	336.41
483.88	336.91
484.25	337.34
484.61	337.82
484.98	338.25
485.34	338.99
485.71	339.87
486.07	340.61
486.44	341.06
486.80	341.97
487.17	342.85
487.53	343.86
487.90	345.00
488.26	346.37
488.62	347.81
488.99	349.04
489.35	350.41
489.72	351.89
490.08	353.49
490.44	355.06
490.81	356.74
491.17	358.23
491.54	359.97
491.90	361.66
492.26	363.54
492.63	365.68
492.99	367.71
493.36	369.70
493.72	371.97
494.08	374.38
494.45	376.76
494.81	379.24
495.17	381.65
495.54	384.27
495.90	386.64
496.26	388.94
496.63	391.58
496.99	394.30
497.35	397.08
497.72	399.82
498.08	402.64
498.44	405.46
498.80	408.55
499.17	411.58
499.53	414.66
499.89	417.75
500.26	420.72
500.62	423.59
500.98	426.62
501.34	429.50
501.71	432.42
502.07	435.36
502.43	438.23
502.79	441.06
503.16	444.01
503.52	447.08
503.88	450.10
504.24	452.96
504.60	455.81
504.97	458.69
505.33	461.45
505.69	464.48
506.05	467.16
506.41	469.86
506.78	472.10
507.14	474.42
507.50	476.74
507.86	479.07
508.22	481.34
508.59	483.52
508.95	485.72
509.31	488.09
509.67	490.20
510.03	492.33
510.39	494.43
510.75	496.17
511.12	497.99
511.48	499.69
511.84	501.32
512.20	502.87
512.56	504.47
512.92	506.17
513.28	507.53
513.64	508.98
514.00	510.19
514.37	511.70
514.73	513.10
515.09	514.33
515.45	515.52
515.81	516.67
516.17	517.69
516.53	518.62
516.89	519.29
517.25	520.03
517.61	520.89
517.97	521.44
518.33	522.13
518.69	522.65
519.05	523.30
519.41	524.00
519.77	524.79
520.13	525.17
520.49	525.40
520.85	525.66
521.21	526.09
521.57	526.51
521.93	526.78
522.29	527.25
522.65	527.52
523.01	527.92
523.37	528.25
523.73	528.55
524.09	528.84
524.45	529.07
524.81	529.40
525.17	529.65
525.53	530.13
525.89	530.54
526.25	531.18
526.61	531.36
526.97	531.65
527.33	531.97
527.68	532.78
528.04	533.53
528.40	533.99
528.76	534.43
529.12	535.10
529.48	536.00
529.84	536.64
530.20	537.61
530.56	538.34
530.91	539.41
531.27	540.56
531.63	541.54
531.99	542.61
532.35	543.81
532.71	544.94
533.07	546.34
533.42	547.94
533.78	549.14
534.14	550.77
534.50	552.07
534.86	553.69
535.21	554.87
535.57	556.39
535.93	558.05
536.29	559.93
536.65	561.59
537.00	563.13
537.36	564.64
537.72	566.11
538.08	567.85
538.44	569.44
538.79	571.24
539.15	573.05
539.51	575.09
539.87	577.17
540.22	579.24
540.58	581.36
540.94	583.34
541.29	585.44
541.65	587.24
542.01	589.61
542.37	591.75
542.72	593.98
543.08	596.09
543.44	598.59
543.79	600.53
544.15	603.04
544.51	605.64
544.87	608.50
545.22	611.10
545.58	613.46
545.94	615.95
546.29	618.22
546.65	620.75
547.01	623.09
547.36	625.43
547.72	627.89
548.07	630.26
548.43	632.37
548.79	634.75
549.14	637.47
549.50	639.90
549.86	642.34
550.21	644.93
550.57	647.60
550.92	649.95
551.28	652.57
551.64	654.96
551.99	657.43
552.35	659.68
552.70	662.25
553.06	664.93
553.41	667.29
553.77	670.17
554.13	672.83
554.48	675.59
554.84	678.30
555.19	680.82
555.55	683.56
555.90	686.13
556.26	688.51
556.61	690.75
556.97	692.99
557.32	695.30
557.68	697.43
558.03	699.61
558.39	701.92
558.74	704.20
559.10	706.51
559.45	708.69
559.81	710.94
560.16	713.04
560.52	715.19
560.87	717.45
561.23	719.22
561.58	721.46
561.94	723.29
562.29	725.07
562.64	727.04
563.00	728.81
563.35	730.87
563.71	733.05
564.06	735.24
564.42	737.45
564.77	739.54
565.12	741.88
565.48	744.17
565.83	745.92
566.19	748.18
566.54	749.80
566.89	751.47
567.25	753.68
567.60	755.58
567.96	757.61
568.31	759.66
568.66	761.41
569.02	762.61
569.37	764.16
569.72	765.70
570.08	767.15
570.43	768.33
570.78	769.54
571.14	770.53
571.49	771.57
571.84	772.56
572.20	773.33
572.55	774.07
572.90	774.43
573.26	775.03
573.61	775.40
573.96	776.15
574.31	776.55
574.67	776.51
575.02	776.46
575.37	776.42
575.72	775.95
576.08	776.12
576.43	776.08
576.78	775.90
577.13	775.85
577.49	775.79
577.84	775.71
578.19	775.52
578.54	775.70
578.90	775.71
579.25	775.47
579.60	774.88
579.95	774.23
580.30	774.03
580.66	774.02
581.01	773.52
581.36	772.70
581.71	772.11
582.06	771.70
582.42	771.41
582.77	770.53
583.12	770.11
583.47	769.38
583.82	768.93
584.17	768.42
584.53	767.89
584.88	767.03
585.23	766.28
585.58	765.67
585.93	764.71
586.28	763.81
586.63	763.08
586.98	762.70
587.34	762.37
587.69	761.44
588.04	760.62
588.39	759.84
588.74	759.04
589.09	758.37
589.44	757.26
589.79	756.28
590.14	755.60
590.49	754.64
590.84	753.65
591.19	752.89
591.54	751.96
591.89	750.32
592.25	749.40
592.60	748.22
592.95	746.90
593.30	745.52
593.65	744.05
594.00	742.42
594.35	741.99
594.70	740.26
595.05	739.01
595.40	737.38
595.75	735.90
596.10	734.47
596.45	733.01
596.80	731.79
597.15	730.40
597.50	728.69
597.85	727.41
598.19	725.84
598.54	724.18
598.89	722.56
599.24	721.57
599.59	719.87
599.94	718.38
600.29	716.88
600.64	715.34
600.99	713.80
601.34	712.43
601.69	709.76
602.04	708.12
602.39	706.27
602.74	704.86
603.08	703.45
603.43	702.50
603.78	700.75
604.13	698.88
604.48	697.35
604.83	696.22
605.18	694.74
605.53	693.16
605.87	691.42
606.22	689.98
606.57	688.17
606.92	686.48
607.27	684.66
607.62	682.85
607.96	681.35
608.31	679.90
608.66	678.16
609.01	676.53
609.36	674.81
609.70	673.19
610.05	671.17
610.40	669.14
610.75	666.76
611.10	665.27
611.44	663.10
611.79	660.79
612.14	658.56
612.49	656.16
612.83	654.20
613.18	652.00
613.53	649.62
613.88	647.41
614.22	645.28
614.57	643.17
614.92	641.16
615.27	638.69
615.61	636.31
615.96	634.17
616.31	631.98
616.65	629.98
617.00	627.68
617.35	625.55
617.70	623.17
618.04	620.80
618.39	618.17
618.74	616.27
619.08	614.03
619.43	611.64
619.78	609.54
620.12	607.29
620.47	605.24
620.82	602.84
621.16	600.35
621.51	598.18
621.85	595.95
622.20	593.54
622.55	591.39
622.89	589.01
623.24	586.49
623.59	584.11
623.93	581.85
624.28	579.69
624.62	577.80
624.97	575.83
625.32	573.70
625.66	571.63
626.01	569.42
626.35	567.30
626.70	565.13
627.04	563.10
627.39	560.88
627.73	558.76
628.08	556.96
628.43	554.85
628.77	552.75
629.12	550.55
629.46	548.63
629.81	546.49
630.15	544.48
630.50	542.56
630.84	540.27
631.19	538.14
631.53	536.08
631.88	533.54
632.22	531.33
632.57	529.46
632.91	527.32
633.26	525.16
633.60	523.11
633.95	521.13
634.29	518.88
634.64	516.97
634.98	514.86
635.32	512.94
635.67	511.31
636.01	509.31
636.36	507.32
636.70	505.50
637.05	503.62
637.39	501.75
637.73	500.10
638.08	498.55
638.42	496.67
638.77	494.93
639.11	493.12
639.45	491.19
639.80	489.12
640.14	487.19
640.49	485.39
640.83	483.50
641.17	481.72
641.52	479.89
641.86	477.83
642.20	476.09
642.55	473.99
642.89	471.88
643.23	469.95
643.58	468.36
643.92	466.26
644.26	464.40
644.61	462.60
644.95	460.50
645.29	458.57
645.64	456.64
645.98	454.63
646.32	453.04
646.66	451.10
647.01	449.27
647.35	447.53
647.69	445.61
648.04	443.95
648.38	442.14
648.72	440.34
649.06	438.58
649.41	436.72
649.75	434.85
650.09	433.22
650.43	431.43
650.78	429.42
651.12	427.57
651.46	425.73
651.80	424.07
652.14	422.43
652.49	420.78
652.83	419.13
653.17	417.26
653.51	415.24
653.85	413.75
654.20	412.14
654.54	410.35
654.88	408.59
655.22	406.87
655.56	404.98
655.90	403.30
656.25	401.59
656.59	399.78
656.93	398.32
657.27	396.71
657.61	394.98
657.95	393.40
658.29	391.86
658.64	390.46
658.98	388.75
659.32	386.90
659.66	385.17
660.00	383.39
660.34	381.93
660.68	380.38
661.02	378.68
661.36	376.95
661.70	375.35
662.05	373.84
662.39	372.36
662.73	371.13
663.07	369.88
663.41	368.52
663.75	367.13
664.09	365.57
664.43	363.97
664.77	362.60
665.11	361.18
665.45	359.81
665.79	358.43
666.13	356.99
666.47	355.70
666.81	354.46
667.15	353.15
667.49	351.96
667.83	350.81
668.17	349.46
668.51	348.36
668.85	347.25
669.19	346.33
669.53	344.97
669.87	343.57
670.21	342.11
670.55	340.84
670.89	339.87
671.23	338.70
671.57	337.69
671.91	336.62
672.25	335.51
672.58	334.49
672.92	333.21
673.26	332.20
673.60	331.12
673.94	330.01
674.28	329.11
674.62	328.13
674.96	327.09
675.30	326.22
675.64	325.16
675.97	324.13
676.31	323.08
676.65	322.13
676.99	321.32
677.33	320.39
677.67	319.40
678.01	318.18
678.34	317.23
678.68	316.36
679.02	315.33
679.36	314.45
679.70	313.43
680.04	312.58
680.37	311.65
680.71	310.71
681.05	309.84
681.39	308.85
681.73	307.77
682.06	306.80
682.40	305.77
682.74	304.91
683.08	304.13
683.42	303.15
683.75	302.38
684.09	301.39
684.43	300.51
684.77	299.67
685.10	298.90
685.44	298.17
685.78	297.25
686.12	296.52
686.45	295.60
686.79	294.82
687.13	294.11
687.46	293.35
687.80	292.76
688.14	291.99
688.48	291.30
688.81	290.59
689.15	289.94
689.49	289.12
689.82	288.33
690.16	287.39
690.50	286.55
690.83	285.76
691.17	284.94
691.51	284.13
691.84	283.48
692.18	282.79
692.52	281.98
692.85	281.32
693.19	280.68
693.52	279.93
693.86	279.17
694.20	278.34
694.53	277.60
694.87	276.82
695.21	276.03
695.54	275.24
695.88	274.46
696.21	273.64
696.55	273.08
696.88	272.47
697.22	271.90
697.56	271.38
697.89	270.66
698.23	270.11
698.56	269.55
698.90	268.87
699.23	268.23
699.57	267.65
699.90	266.93
700.24	266.25
700.58	265.73
700.91	265.17
701.25	264.84
701.58	264.33
701.92	263.88
702.25	263.38
702.59	262.90
702.92	262.36
703.26	261.82
703.59	261.30
703.93	261.00
704.26	260.47
704.60	259.92
704.93	259.44
705.26	258.89
705.60	258.42
705.93	257.84
706.27	257.46
706.60	257.07
706.94	256.73
707.27	256.22
707.61	255.72
707.94	255.18
708.27	254.49
708.61	253.95
708.94	253.35
709.28	252.89
709.61	252.33
709.94	251.93
710.28	251.47
710.61	251.00
710.95	250.26
711.28	250.13
711.61	249.69
711.95	249.37
712.28	248.99
712.61	248.59
712.95	248.42
713.28	248.12
713.61	247.62
713.95	247.19
714.28	246.83
714.61	246.47
714.95	246.14
715.28	245.75
715.61	245.43
715.95	245.13
716.28	244.82
716.61	244.50
716.95	244.10
717.28	243.77
717.61	243.47
717.94	243.11
718.28	242.53
718.61	242.16
718.94	241.80
719.27	241.46
719.61	241.16
719.94	240.75
720.27	240.29
720.60	240.04
720.94	239.64
721.27	239.40
721.60	239.12
721.93	238.84
722.27	238.67
722.60	238.46
722.93	238.15
723.26	237.84
723.59	237.57
723.93	237.39
724.26	237.18
724.59	236.92
724.92	236.80
725.25	236.63
725.59	236.44
725.92	236.27
726.25	236.05
726.58	235.82
726.91	235.61
727.24	235.35
727.57	235.07
727.91	234.83
728.24	234.59
728.57	234.37
728.90	234.21
729.23	233.81
729.56	233.60
729.89	233.41
730.22	233.14
730.55	232.95
730.89	232.69
731.22	232.51
731.55	232.32
731.88	232.13
732.21	231.85
732.54	231.56
732.87	231.37
733.20	231.13
733.53	230.95
733.86	230.79
734.19	230.57
734.52	230.49
734.85	230.58
735.18	230.37
735.51	230.30
735.84	230.09
736.17	230.11
736.50	229.80
736.83	230.02
737.16	229.85
737.49	229.70
737.82	229.56
738.15	229.39
738.48	229.23
738.81	228.98
739.14	228.74
739.47	228.60
739.80	228.34
740.13	228.29
740.46	228.05
740.79	227.80
741.12	227.68
741.45	227.44
741.78	227.14
742.11	227.09
742.44	226.88
742.77	226.78
743.10	226.47
743.43	226.31
743.75	225.85
744.08	226.17
744.41	225.95
744.74	225.79
745.07	225.57
745.40	225.50
745.73	225.54
746.06	225.34
746.39	225.30
746.71	225.18
747.04	225.00
747.37	224.94
747.70	224.87
748.03	224.74
748.36	224.63
748.68	224.45
749.01	224.19
749.34	224.00
749.67	223.89
750.00	223.90
750.33	224.01
750.65	223.90
750.98	223.38
751.31	223.29
751.64	223.10
751.97	223.20
752.29	223.07
752.62	222.77
752.95	222.74
753.28	222.54
753.60	222.41
753.93	222.38
754.26	222.22
754.59	222.05
754.91	221.90
755.24	221.72
755.57	221.64
755.90	221.59
756.22	221.48
756.55	221.35
756.88	221.16
757.20	220.89
757.53	220.66
757.86	220.58
758.19	220.53
758.51	220.43
758.84	220.18
759.17	220.00
759.49	219.95
759.82	220.09
760.15	220.09
760.47	219.97
760.80	219.70
761.13	219.64
761.45	219.54
761.78	219.38
762.11	219.37
762.43	219.21
762.76	219.07
763.08	219.04
763.41	218.97
763.74	218.89
764.06	218.80
764.39	218.78
764.71	218.58
765.04	218.53
765.37	218.44
765.69	218.36
766.02	218.28
766.34	218.18
766.67	217.81
767.00	217.76
767.32	217.90
767.65	218.07
767.97	218.02
768.30	217.94
768.62	217.90
768.95	217.80
769.27	217.73
769.60	217.77
769.92	217.61
770.25	217.44
770.57	217.35
770.90	217.25
771.22	217.10
771.55	217.17
771.87	217.07
772.20	217.01
772.52	217.22
772.85	217.53
773.17	217.47
773.50	217.46
773.82	217.29
774.15	217.04
774.47	216.77
774.80	216.62
775.12	216.58
775.45	216.51
775.77	216.47
776.09	216.47
776.42	216.36
776.74	216.44
777.07	216.38
777.39	216.31
777.72	216.27
778.04	216.32
778.36	216.15
778.69	216.03
779.01	216.02
779.33	215.60
779.66	215.23
779.98	215.13
780.31	215.09
780.63	215.14
780.95	215.14
781.28	215.03
781.60	214.99
781.92	214.94
782.25	214.94
782.57	214.85
782.89	214.80
783.22	214.77
783.54	214.62
783.86	214.57
784.19	214.54
784.51	214.60
784.83	214.51
785.16	214.49
785.48	214.46
785.80	214.47
786.12	214.55
786.45	214.54
786.77	214.47
787.09	214.42
787.42	214.32
787.74	214.28
788.06	214.32
788.38	214.31
788.71	214.26
789.03	214.20
789.35	214.26
789.67	214.15
789.99	214.12
790.32	214.06
790.64	214.12
790.96	214.41
791.28	214.26
791.61	214.17
791.93	214.05
792.25	214.05
792.57	214.25
792.89	214.17
793.21	214.15
793.54	214.17
793.86	214.10
794.18	214.18
