SpectraSuite Data File
++++++++++++++++++++++++++++++++++++
Date: Mon Feb 25 17:00:02 EST 2013
User: group
Dark Spectrum Present: No
Reference Spectrum Present: No
Number of Sampled Component Spectra: 1
Spectrometers: USB2E7196
Integration Time (usec): 104000 (USB2E7196)
Spectra Averaged: 20 (USB2E7196)
Boxcar Smoothing: 10 (USB2E7196)
Correct for Electrical Dark: No (USB2E7196)
Strobe/Lamp Enabled: No (USB2E7196)
Correct for Detector Non-linearity: No (USB2E7196)
Correct for Stray Light: No (USB2E7196)
Number of Pixels in Processed Spectrum: 2048
>>>>>Begin Processed Spectral Data<<<<<
339.09	0.00
339.48	197.25
339.86	199.75
340.24	200.30
340.63	202.05
341.01	209.65
341.39	205.45
341.78	206.80
342.16	209.45
342.54	208.20
342.93	198.13
343.31	208.13
343.69	208.71
344.07	209.20
344.46	209.71
344.84	210.07
345.22	210.10
345.60	210.42
345.99	210.59
346.37	210.67
346.75	210.78
347.13	210.81
347.52	210.88
347.90	210.98
348.28	211.01
348.66	211.04
349.05	210.86
349.43	210.93
349.81	210.92
350.19	210.95
350.57	210.98
350.96	211.04
351.34	211.17
351.72	211.24
352.10	211.35
352.48	211.30
352.87	211.40
353.25	211.43
353.63	211.44
354.01	211.52
354.39	211.59
354.77	211.68
355.15	211.88
355.54	211.92
355.92	211.95
356.30	211.97
356.68	212.27
357.06	212.35
357.44	212.31
357.82	212.37
358.20	212.43
358.58	212.53
358.97	212.57
359.35	212.65
359.73	212.86
360.11	212.85
360.49	212.94
360.87	212.97
361.25	213.13
361.63	213.22
362.01	213.30
362.39	213.31
362.77	213.34
363.15	213.36
363.53	213.40
363.91	213.42
364.29	213.57
364.67	213.32
365.05	213.33
365.43	213.37
365.81	213.45
366.19	213.72
366.57	213.79
366.95	213.79
367.33	213.71
367.71	213.68
368.09	213.81
368.47	213.89
368.85	213.90
369.23	213.96
369.61	213.84
369.99	213.90
370.37	214.03
370.75	214.17
371.13	214.07
371.51	214.03
371.89	214.08
372.27	214.02
372.65	214.04
373.03	214.02
373.41	214.03
373.78	213.99
374.16	213.65
374.54	213.54
374.92	213.52
375.30	213.56
375.68	213.36
376.06	213.25
376.44	213.14
376.82	213.19
377.19	213.10
377.57	213.09
377.95	212.95
378.33	212.75
378.71	212.56
379.09	212.55
379.47	212.50
379.84	212.37
380.22	212.30
380.60	212.13
380.98	212.11
381.36	211.99
381.73	211.87
382.11	211.95
382.49	211.93
382.87	211.80
383.25	211.70
383.62	212.10
384.00	211.99
384.38	212.01
384.76	212.02
385.13	212.14
385.51	212.06
385.89	211.96
386.27	212.00
386.64	211.94
387.02	211.83
387.40	211.78
387.78	211.74
388.15	211.67
388.53	211.61
388.91	211.62
389.29	211.55
389.66	211.58
390.04	211.48
390.42	211.42
390.79	211.52
391.17	211.45
391.55	211.05
391.92	211.07
392.30	211.09
392.68	210.95
393.05	210.85
393.43	210.91
393.81	210.93
394.18	210.79
394.56	210.77
394.94	210.87
395.31	210.83
395.69	211.01
396.06	211.11
396.44	211.18
396.82	211.06
397.19	211.28
397.57	211.21
397.95	211.32
398.32	211.31
398.70	211.28
399.07	211.40
399.45	211.37
399.82	211.36
400.20	211.37
400.58	211.40
400.95	211.25
401.33	211.35
401.70	211.70
402.08	211.87
402.45	211.98
402.83	212.14
403.20	212.28
403.58	212.29
403.95	212.43
404.33	212.61
404.71	212.85
405.08	213.18
405.46	213.36
405.83	213.49
406.21	213.65
406.58	213.84
406.96	214.09
407.33	214.42
407.70	214.74
408.08	215.21
408.45	215.56
408.83	216.05
409.20	216.35
409.58	216.51
409.95	216.94
410.33	217.44
410.70	217.83
411.08	218.42
411.45	218.98
411.82	219.60
412.20	220.31
412.57	221.20
412.95	221.65
413.32	222.56
413.69	223.46
414.07	224.45
414.44	225.55
414.82	226.60
415.19	227.73
415.56	228.97
415.94	230.18
416.31	231.72
416.68	233.22
417.06	234.93
417.43	236.54
417.81	238.39
418.18	240.34
418.55	242.37
418.93	244.61
419.30	246.96
419.67	249.40
420.04	251.87
420.42	254.42
420.79	257.65
421.16	260.77
421.54	263.99
421.91	267.34
422.28	270.69
422.66	274.31
423.03	278.10
423.40	281.84
423.77	285.84
424.15	289.84
424.52	294.08
424.89	298.69
425.26	303.26
425.64	307.57
426.01	312.28
426.38	317.22
426.75	322.23
427.13	327.40
427.50	332.77
427.87	338.56
428.24	344.26
428.61	349.69
428.99	355.69
429.36	362.22
429.73	368.64
430.10	375.12
430.47	381.75
430.85	388.53
431.22	395.83
431.59	403.56
431.96	411.01
432.33	419.17
432.70	427.31
433.08	436.66
433.45	445.44
433.82	454.25
434.19	464.15
434.56	473.78
434.93	483.08
435.30	492.47
435.68	502.69
436.05	512.93
436.42	523.15
436.79	532.55
437.16	542.87
437.53	553.60
437.90	564.35
438.27	574.94
438.64	585.81
439.01	596.33
439.38	605.68
439.75	614.68
440.13	624.97
440.50	634.53
440.87	642.58
441.24	651.01
441.61	660.42
441.98	667.45
442.35	675.40
442.72	683.57
443.09	691.48
443.46	696.61
443.83	700.27
444.20	703.59
444.57	708.10
444.94	710.36
445.31	713.08
445.68	715.59
446.05	717.12
446.42	716.97
446.79	716.12
447.16	715.42
447.53	715.30
447.90	712.06
448.27	708.98
448.64	704.19
449.01	700.98
449.37	694.34
449.74	688.35
450.11	681.35
450.48	673.11
450.85	664.70
451.22	657.38
451.59	650.51
451.96	643.97
452.33	635.10
452.70	627.00
453.07	617.05
453.43	607.05
453.80	597.51
454.17	588.40
454.54	579.78
454.91	570.39
455.28	561.09
455.65	552.58
456.02	544.13
456.38	536.85
456.75	527.66
457.12	520.12
457.49	512.53
457.86	504.85
458.23	498.56
458.59	491.62
458.96	484.80
459.33	478.77
459.70	472.52
460.07	467.39
460.43	461.88
460.80	456.59
461.17	451.95
461.54	447.01
461.91	442.25
462.27	437.51
462.64	433.51
463.01	428.99
463.38	424.70
463.74	420.09
464.11	416.26
464.48	412.90
464.85	409.28
465.21	406.36
465.58	403.39
465.95	399.79
466.32	396.76
466.68	393.78
467.05	390.71
467.42	387.71
467.78	384.53
468.15	381.54
468.52	379.34
468.88	376.47
469.25	373.86
469.62	371.86
469.98	369.56
470.35	367.50
470.72	365.56
471.08	363.31
471.45	361.50
471.82	359.61
472.18	357.55
472.55	356.07
472.92	354.24
473.28	352.64
473.65	351.13
474.02	349.58
474.38	348.26
474.75	347.26
475.11	346.10
475.48	345.32
475.85	344.49
476.21	343.61
476.58	342.91
476.94	342.42
477.31	341.79
477.67	341.23
478.04	340.54
478.41	340.10
478.77	340.19
479.14	339.65
479.50	339.48
479.87	339.44
480.23	339.30
480.60	339.15
480.96	339.09
481.33	339.29
481.69	339.52
482.06	339.68
482.42	339.69
482.79	339.85
483.15	340.10
483.52	340.49
483.88	340.88
484.25	341.26
484.61	341.71
484.98	342.17
485.34	342.99
485.71	343.92
486.07	344.83
486.44	345.29
486.80	346.43
487.17	347.46
487.53	348.69
487.90	349.94
488.26	351.48
488.62	352.96
488.99	354.20
489.35	355.62
489.72	357.18
490.08	358.79
490.44	360.41
490.81	362.21
491.17	363.88
491.54	365.82
491.90	367.70
492.26	369.71
492.63	371.71
492.99	373.77
493.36	375.86
493.72	378.09
494.08	380.52
494.45	382.97
494.81	385.42
495.17	387.99
495.54	390.66
495.90	393.15
496.26	395.77
496.63	398.78
496.99	401.62
497.35	404.48
497.72	407.50
498.08	410.49
498.44	413.47
498.80	416.81
499.17	420.02
499.53	423.24
499.89	426.47
500.26	429.74
500.62	432.92
500.98	436.31
501.34	439.52
501.71	442.82
502.07	446.00
502.43	449.20
502.79	452.23
503.16	455.32
503.52	458.45
503.88	461.59
504.24	464.48
504.60	467.58
504.97	470.67
505.33	473.71
505.69	476.90
506.05	479.83
506.41	482.58
506.78	485.26
507.14	487.97
507.50	490.62
507.86	493.19
508.22	495.83
508.59	498.23
508.95	500.81
509.31	503.30
509.67	505.60
510.03	507.79
510.39	510.25
510.75	512.36
511.12	514.49
511.48	516.34
511.84	518.47
512.20	520.28
512.56	522.22
512.92	524.07
513.28	525.76
513.64	527.51
514.00	529.14
514.37	530.76
514.73	532.44
515.09	533.90
515.45	535.37
515.81	536.66
516.17	537.92
516.53	539.03
516.89	539.98
517.25	541.08
517.61	542.20
517.97	542.93
518.33	543.84
518.69	544.72
519.05	545.74
519.41	546.40
519.77	547.47
520.13	547.97
520.49	548.49
520.85	549.05
521.21	549.67
521.57	550.30
521.93	550.63
522.29	551.09
522.65	551.55
523.01	552.02
523.37	552.47
523.73	552.94
524.09	553.31
524.45	553.66
524.81	554.18
525.17	554.77
525.53	555.45
525.89	555.98
526.25	556.44
526.61	556.76
526.97	557.15
527.33	557.62
527.68	558.51
528.04	559.18
528.40	559.75
528.76	560.32
529.12	561.07
529.48	561.97
529.84	562.71
530.20	563.65
530.56	564.62
530.91	565.64
531.27	566.78
531.63	567.92
531.99	569.18
532.35	570.26
532.71	571.42
533.07	572.66
533.42	574.32
533.78	575.80
534.14	577.33
534.50	578.86
534.86	580.46
535.21	581.68
535.57	583.33
535.93	584.92
536.29	586.74
536.65	588.41
537.00	590.15
537.36	591.88
537.72	593.52
538.08	595.43
538.44	597.25
538.79	599.10
539.15	601.01
539.51	602.97
539.87	605.08
540.22	607.12
540.58	609.43
540.94	611.41
541.29	613.40
541.65	615.33
542.01	617.52
542.37	619.58
542.72	621.84
543.08	624.00
543.44	626.42
543.79	628.41
544.15	630.75
544.51	633.22
544.87	635.90
545.22	638.46
545.58	640.59
545.94	642.81
546.29	645.14
546.65	647.45
547.01	649.80
547.36	652.17
547.72	654.56
548.07	656.74
548.43	658.82
548.79	661.16
549.14	663.69
549.50	666.22
549.86	668.72
550.21	671.41
550.57	674.07
550.92	676.50
551.28	679.17
551.64	681.50
551.99	683.96
552.35	686.27
552.70	688.63
553.06	691.38
553.41	694.03
553.77	696.71
554.13	699.40
554.48	702.08
554.84	704.81
555.19	707.43
555.55	710.09
555.90	712.53
556.26	715.00
556.61	717.34
556.97	719.52
557.32	721.74
557.68	723.60
558.03	725.61
558.39	727.60
558.74	729.76
559.10	732.17
559.45	734.33
559.81	736.48
560.16	738.55
560.52	740.48
560.87	742.49
561.23	744.27
561.58	746.54
561.94	748.32
562.29	750.01
562.64	751.80
563.00	753.61
563.35	755.66
563.71	757.87
564.06	759.92
564.42	762.10
564.77	764.17
565.12	766.49
565.48	768.75
565.83	770.93
566.19	772.93
566.54	774.54
566.89	776.06
567.25	777.77
567.60	779.73
567.96	781.85
568.31	783.90
568.66	785.82
569.02	786.93
569.37	788.20
569.72	789.66
570.08	791.02
570.43	792.33
570.78	793.62
571.14	794.36
571.49	795.23
571.84	796.07
572.20	796.77
572.55	797.37
572.90	797.66
573.26	798.20
573.61	798.61
573.96	799.10
574.31	799.48
574.67	799.64
575.02	799.37
575.37	799.23
575.72	798.64
576.08	798.33
576.43	798.10
576.78	798.06
577.13	798.00
577.49	797.89
577.84	797.50
578.19	797.21
578.54	797.27
578.90	797.48
579.25	797.19
579.60	796.72
579.95	796.16
580.30	795.67
580.66	795.20
581.01	794.67
581.36	793.93
581.71	793.44
582.06	793.11
582.42	792.88
582.77	792.08
583.12	791.51
583.47	790.88
583.82	790.30
584.17	789.53
584.53	788.85
584.88	787.87
585.23	787.14
585.58	786.13
585.93	785.13
586.28	784.11
586.63	783.22
586.98	782.42
587.34	781.87
587.69	781.02
588.04	780.03
588.39	779.28
588.74	778.21
589.09	777.28
589.44	775.81
589.79	774.73
590.14	773.68
590.49	772.63
590.84	771.48
591.19	770.57
591.54	769.61
591.89	767.94
592.25	767.04
592.60	765.42
592.95	764.04
593.30	762.36
593.65	760.54
594.00	758.84
594.35	758.23
594.70	756.40
595.05	755.21
595.40	753.57
595.75	751.76
596.10	750.50
596.45	748.89
596.80	747.77
597.15	746.17
597.50	744.53
597.85	743.06
598.19	741.46
598.54	739.78
598.89	738.13
599.24	736.98
599.59	735.17
599.94	734.04
600.29	732.39
600.64	730.93
600.99	729.37
601.34	727.82
601.69	725.08
602.04	723.38
602.39	721.48
602.74	719.92
603.08	718.50
603.43	716.96
603.78	715.22
604.13	713.30
604.48	711.47
604.83	710.06
605.18	708.54
605.53	706.75
605.87	704.95
606.22	703.17
606.57	701.28
606.92	699.29
607.27	697.12
607.62	695.49
607.96	693.64
608.31	691.94
608.66	690.09
609.01	688.22
609.36	686.30
609.70	684.30
610.05	682.20
610.40	679.98
610.75	677.72
611.10	675.79
611.44	673.53
611.79	671.50
612.14	669.00
612.49	666.47
612.83	664.25
613.18	661.83
613.53	659.61
613.88	657.23
614.22	655.09
614.57	652.92
614.92	650.65
615.27	648.39
615.61	646.03
615.96	644.02
616.31	641.90
616.65	639.95
617.00	637.56
617.35	635.28
617.70	632.98
618.04	630.61
618.39	628.04
618.74	625.78
619.08	623.31
619.43	621.06
619.78	619.00
620.12	616.96
620.47	614.83
620.82	612.27
621.16	609.70
621.51	607.43
621.85	605.09
622.20	602.58
622.55	600.21
622.89	597.70
623.24	595.14
623.59	592.71
623.93	590.31
624.28	588.16
624.62	586.29
624.97	584.02
625.32	581.69
625.66	579.49
626.01	577.17
626.35	575.05
626.70	572.75
627.04	570.49
627.39	568.09
627.73	565.87
628.08	564.05
628.43	562.04
628.77	559.85
629.12	557.54
629.46	555.53
629.81	553.45
630.15	551.33
630.50	549.13
630.84	546.92
631.19	544.59
631.53	542.38
631.88	539.82
632.22	537.60
632.57	535.76
632.91	533.69
633.26	531.73
633.60	529.49
633.95	527.54
634.29	525.25
634.64	523.14
634.98	520.93
635.32	518.75
635.67	516.78
636.01	514.70
636.36	512.68
636.70	510.74
637.05	508.80
637.39	506.93
637.73	505.13
638.08	503.64
638.42	501.98
638.77	500.25
639.11	498.39
639.45	496.47
639.80	494.30
640.14	492.36
640.49	490.39
640.83	488.46
641.17	486.56
641.52	484.69
641.86	482.82
642.20	481.25
642.55	479.13
642.89	477.24
643.23	475.31
643.58	473.75
643.92	471.65
644.26	469.74
644.61	467.85
644.95	465.83
645.29	463.50
645.64	461.50
645.98	459.41
646.32	457.52
646.66	455.49
647.01	453.62
647.35	451.84
647.69	449.89
648.04	448.15
648.38	446.22
648.72	444.40
649.06	442.34
649.41	440.22
649.75	438.46
650.09	436.60
650.43	434.79
650.78	432.68
651.12	430.95
651.46	429.06
651.80	427.31
652.14	425.52
652.49	423.82
652.83	422.06
653.17	420.25
653.51	418.41
653.85	417.00
654.20	415.30
654.54	413.38
654.88	411.56
655.22	409.78
655.56	407.86
655.90	406.07
656.25	404.45
656.59	402.68
656.93	400.98
657.27	399.34
657.61	397.56
657.95	395.94
658.29	394.26
658.64	392.69
658.98	391.05
659.32	389.39
659.66	387.69
660.00	385.94
660.34	384.28
660.68	382.62
661.02	380.78
661.36	379.15
661.70	377.71
662.05	376.25
662.39	374.85
662.73	373.68
663.07	372.36
663.41	370.97
663.75	369.57
664.09	368.16
664.43	366.60
664.77	365.29
665.11	363.74
665.45	362.38
665.79	360.97
666.13	359.52
666.47	358.18
666.81	356.94
667.15	355.54
667.49	354.37
667.83	353.25
668.17	352.02
668.51	350.77
668.85	349.62
669.19	348.58
669.53	347.21
669.87	345.82
670.21	344.51
670.55	343.27
670.89	342.26
671.23	341.00
671.57	339.91
671.91	338.65
672.25	337.66
672.58	336.56
672.92	335.48
673.26	334.34
673.60	333.30
673.94	332.04
674.28	330.93
674.62	329.95
674.96	328.76
675.30	327.74
675.64	326.69
675.97	325.55
676.31	324.45
676.65	323.43
676.99	322.61
677.33	321.55
677.67	320.60
678.01	319.38
678.34	318.40
678.68	317.43
679.02	316.45
679.36	315.41
679.70	314.28
680.04	313.27
680.37	312.35
680.71	311.31
681.05	310.53
681.39	309.68
681.73	308.60
682.06	307.75
682.40	306.75
682.74	305.92
683.08	305.10
683.42	304.15
683.75	303.35
684.09	302.25
684.43	301.41
684.77	300.46
685.10	299.70
685.44	298.81
685.78	297.88
686.12	297.11
686.45	296.30
686.79	295.58
687.13	294.88
687.46	294.04
687.80	293.35
688.14	292.53
688.48	291.82
688.81	291.04
689.15	290.24
689.49	289.48
689.82	288.67
690.16	287.74
690.50	286.80
690.83	285.91
691.17	285.15
691.51	284.40
691.84	283.66
692.18	282.93
692.52	282.23
692.85	281.62
693.19	281.03
693.52	280.25
693.86	279.53
694.20	278.78
694.53	278.14
694.87	277.37
695.21	276.64
695.54	275.87
695.88	275.15
696.21	274.41
696.55	273.79
696.88	273.09
697.22	272.46
697.56	271.97
697.89	271.34
698.23	270.64
698.56	269.93
698.90	269.34
699.23	268.64
699.57	268.11
699.90	267.41
700.24	266.62
700.58	266.03
700.91	265.58
701.25	265.13
701.58	264.62
701.92	264.13
702.25	263.60
702.59	263.05
702.92	262.58
703.26	262.05
703.59	261.56
703.93	261.35
704.26	260.91
704.60	260.42
704.93	259.92
705.26	259.43
705.60	258.95
705.93	258.44
706.27	258.15
706.60	257.75
706.94	257.48
707.27	256.99
707.61	256.59
707.94	255.92
708.27	255.19
708.61	254.63
708.94	254.10
709.28	253.71
709.61	253.28
709.94	252.80
710.28	252.43
710.61	252.02
710.95	251.27
711.28	251.01
711.61	250.61
711.95	250.29
712.28	249.90
712.61	249.54
712.95	249.30
713.28	248.94
713.61	248.47
713.95	247.91
714.28	247.60
714.61	247.20
714.95	246.86
715.28	246.52
715.61	246.12
715.95	245.80
716.28	245.28
716.61	244.88
716.95	244.45
717.28	244.08
717.61	243.70
717.94	243.42
718.28	242.88
718.61	242.49
718.94	242.11
719.27	241.76
719.61	241.47
719.94	241.04
720.27	240.60
720.60	240.23
720.94	239.97
721.27	239.73
721.60	239.50
721.93	239.23
722.27	239.09
722.60	238.89
722.93	238.60
723.26	238.45
723.59	238.13
723.93	237.96
724.26	237.70
724.59	237.39
724.92	237.14
725.25	236.94
725.59	236.71
725.92	236.44
726.25	236.22
726.58	235.99
726.91	235.74
727.24	235.53
727.57	235.33
727.91	235.06
728.24	234.85
728.57	234.50
728.90	234.38
729.23	234.08
729.56	234.04
729.89	233.76
730.22	233.55
730.55	233.35
730.89	233.15
731.22	232.92
731.55	232.70
731.88	232.43
732.21	232.18
732.54	231.90
732.87	231.72
733.20	231.53
733.53	231.35
733.86	231.10
734.19	230.85
734.52	230.71
734.85	230.72
735.18	230.51
735.51	230.46
735.84	230.17
736.17	230.00
736.50	229.62
736.83	229.85
737.16	229.64
737.49	229.55
737.82	229.34
738.15	229.20
738.48	229.05
738.81	228.91
739.14	228.72
739.47	228.59
739.80	228.44
740.13	228.25
740.46	227.93
740.79	227.80
741.12	227.52
741.45	227.29
741.78	226.95
742.11	226.82
742.44	226.55
742.77	226.53
743.10	226.40
743.43	226.22
743.75	225.78
744.08	226.11
744.41	225.88
744.74	225.70
745.07	225.57
745.40	225.44
745.73	225.46
746.06	225.37
746.39	225.32
746.71	225.10
747.04	224.98
747.37	224.90
747.70	224.79
748.03	224.72
748.36	224.76
748.68	224.70
749.01	224.41
749.34	224.27
749.67	224.10
750.00	223.92
750.33	224.00
750.65	223.85
750.98	223.24
751.31	223.12
751.64	223.04
751.97	222.97
752.29	222.85
752.62	222.57
752.95	222.33
753.28	222.19
753.60	222.10
753.93	222.06
754.26	221.93
754.59	221.67
754.91	221.62
755.24	221.35
755.57	221.19
755.90	221.14
756.22	221.05
756.55	220.77
756.88	220.53
757.20	220.22
757.53	220.00
757.86	219.89
758.19	219.82
758.51	219.69
758.84	219.44
759.17	219.35
759.49	219.30
759.82	219.39
760.15	219.23
760.47	219.19
760.80	218.95
761.13	219.02
761.45	218.98
761.78	218.86
762.11	218.82
762.43	218.70
762.76	218.57
763.08	218.50
763.41	218.59
763.74	218.63
764.06	218.61
764.39	218.56
764.71	218.50
765.04	218.45
765.37	218.42
765.69	218.37
766.02	218.24
766.34	218.11
766.67	217.96
767.00	217.98
767.32	218.05
767.65	218.24
767.97	218.05
768.30	218.04
768.62	217.96
768.95	217.86
769.27	217.79
769.60	217.76
769.92	217.62
770.25	217.46
770.57	217.39
770.90	217.31
771.22	217.33
771.55	217.22
771.87	217.05
772.20	216.91
772.52	217.16
772.85	217.59
773.17	217.53
773.50	217.50
773.82	217.41
774.15	217.14
774.47	216.88
774.80	216.80
775.12	216.71
775.45	216.61
775.77	216.50
776.09	216.55
776.42	216.57
776.74	216.65
777.07	216.69
777.39	216.67
777.72	216.54
778.04	216.46
778.36	216.41
778.69	216.50
779.01	216.50
779.33	216.17
779.66	215.72
779.98	215.70
780.31	215.63
780.63	215.72
780.95	215.85
781.28	215.78
781.60	215.71
781.92	215.65
782.25	215.67
782.57	215.68
782.89	215.53
783.22	215.41
783.54	215.29
783.86	215.16
784.19	215.05
784.51	215.15
784.83	215.10
785.16	215.10
785.48	215.08
785.80	215.01
786.12	215.03
786.45	214.99
786.77	214.93
787.09	214.89
787.42	214.80
787.74	214.76
788.06	214.77
788.38	214.80
788.71	214.78
789.03	214.73
789.35	214.74
789.67	214.71
789.99	214.62
790.32	214.58
790.64	214.64
790.96	214.98
791.28	214.85
791.61	214.73
791.93	214.72
792.25	214.69
792.57	214.93
792.89	214.74
793.21	214.69
793.54	214.63
793.86	214.49
794.18	214.42
