SpectraSuite Data File
++++++++++++++++++++++++++++++++++++
Date: Mon Feb 25 17:09:40 EST 2013
User: group
Dark Spectrum Present: No
Reference Spectrum Present: No
Number of Sampled Component Spectra: 1
Spectrometers: USB2E7196
Integration Time (usec): 104000 (USB2E7196)
Spectra Averaged: 20 (USB2E7196)
Boxcar Smoothing: 10 (USB2E7196)
Correct for Electrical Dark: No (USB2E7196)
Strobe/Lamp Enabled: No (USB2E7196)
Correct for Detector Non-linearity: No (USB2E7196)
Correct for Stray Light: No (USB2E7196)
Number of Pixels in Processed Spectrum: 2048
>>>>>Begin Processed Spectral Data<<<<<
339.09	0.00
339.48	198.70
339.86	200.20
340.24	202.05
340.63	202.65
341.01	209.70
341.39	205.65
341.78	206.75
342.16	209.85
342.54	208.40
342.93	198.37
343.31	208.45
343.69	208.98
344.07	209.46
344.46	209.93
344.84	210.35
345.22	210.40
345.60	210.70
345.99	210.94
346.37	210.97
346.75	211.03
347.13	211.02
347.52	211.18
347.90	211.29
348.28	211.37
348.66	211.44
349.05	211.36
349.43	211.43
349.81	211.50
350.19	211.50
350.57	211.51
350.96	211.54
351.34	211.58
351.72	211.70
352.10	211.76
352.48	211.78
352.87	211.84
353.25	211.85
353.63	211.89
354.01	211.88
354.39	211.94
354.77	212.10
355.15	212.32
355.54	212.28
355.92	212.33
356.30	212.32
356.68	212.63
357.06	212.80
357.44	212.85
357.82	212.85
358.20	212.91
358.58	212.97
358.97	213.11
359.35	213.23
359.73	213.26
360.11	213.28
360.49	213.31
360.87	213.33
361.25	213.50
361.63	213.69
362.01	213.81
362.39	213.87
362.77	213.85
363.15	213.83
363.53	213.85
363.91	213.83
364.29	213.88
364.67	213.55
365.05	213.53
365.43	213.53
365.81	213.66
366.19	213.77
366.57	213.87
366.95	213.84
367.33	213.76
367.71	213.86
368.09	213.99
368.47	213.98
368.85	213.94
369.23	213.90
369.61	213.70
369.99	213.75
370.37	213.71
370.75	213.87
371.13	213.78
371.51	213.73
371.89	213.72
372.27	213.78
372.65	213.77
373.03	213.72
373.41	213.63
373.78	213.56
374.16	213.36
374.54	213.28
374.92	213.21
375.30	213.19
375.68	213.00
376.06	212.89
376.44	212.80
376.82	212.74
377.19	212.72
377.57	212.65
377.95	212.49
378.33	212.45
378.71	212.21
379.09	212.16
379.47	212.15
379.84	212.02
380.22	211.87
380.60	211.71
380.98	211.63
381.36	211.61
381.73	211.48
382.11	211.53
382.49	211.50
382.87	211.35
383.25	211.24
383.62	211.64
384.00	211.54
384.38	211.54
384.76	211.62
385.13	211.64
385.51	211.61
385.89	211.53
386.27	211.55
386.64	211.53
387.02	211.43
387.40	211.41
387.78	211.36
388.15	211.33
388.53	211.35
388.91	211.33
389.29	211.25
389.66	211.22
390.04	211.12
390.42	211.12
390.79	211.18
391.17	211.20
391.55	210.76
391.92	210.76
392.30	210.74
392.68	210.61
393.05	210.63
393.43	210.61
393.81	210.58
394.18	210.46
394.56	210.45
394.94	210.55
395.31	210.48
395.69	210.65
396.06	210.67
396.44	210.66
396.82	210.57
397.19	210.74
397.57	210.75
397.95	210.78
398.32	210.68
398.70	210.66
399.07	210.71
399.45	210.73
399.82	210.76
400.20	210.70
400.58	210.70
400.95	210.57
401.33	210.70
401.70	211.00
402.08	211.03
402.45	211.09
402.83	211.19
403.20	211.29
403.58	211.31
403.95	211.42
404.33	211.51
404.71	211.67
405.08	211.85
405.46	211.97
405.83	212.10
406.21	212.17
406.58	212.31
406.96	212.37
407.33	212.47
407.70	212.63
408.08	213.04
408.45	213.23
408.83	213.47
409.20	213.44
409.58	213.37
409.95	213.65
410.33	213.88
410.70	213.96
411.08	214.14
411.45	214.32
411.82	214.55
412.20	214.89
412.57	215.30
412.95	215.37
413.32	215.69
413.69	216.01
414.07	216.42
414.44	216.78
414.82	217.25
415.19	217.75
415.56	218.20
415.94	218.56
416.31	219.18
416.68	219.76
417.06	220.57
417.43	221.35
417.81	222.10
418.18	222.92
418.55	223.80
418.93	224.70
419.30	225.66
419.67	226.70
420.04	227.71
420.42	228.71
420.79	230.18
421.16	231.43
421.54	232.91
421.91	234.21
422.28	235.62
422.66	237.04
423.03	238.75
423.40	240.27
423.77	241.89
424.15	243.47
424.52	245.13
424.89	246.89
425.26	248.68
425.64	250.34
426.01	252.14
426.38	254.06
426.75	256.11
427.13	258.08
427.50	260.10
427.87	262.35
428.24	264.56
428.61	266.49
428.99	268.96
429.36	271.32
429.73	273.83
430.10	276.30
430.47	278.91
430.85	281.35
431.22	284.08
431.59	287.22
431.96	290.14
432.33	293.40
432.70	296.49
433.08	299.97
433.45	303.39
433.82	306.81
434.19	310.58
434.56	314.21
434.93	317.79
435.30	321.35
435.68	325.26
436.05	329.12
436.42	332.90
436.79	336.35
437.16	340.05
437.53	343.98
437.90	348.00
438.27	351.98
438.64	356.00
439.01	359.90
439.38	363.08
439.75	366.26
440.13	369.86
440.50	373.33
440.87	376.18
441.24	379.15
441.61	382.38
441.98	384.78
442.35	387.59
442.72	390.47
443.09	393.31
443.46	395.01
443.83	396.24
444.20	397.22
444.57	398.65
444.94	399.50
445.31	400.39
445.68	401.37
446.05	401.59
446.42	401.32
446.79	401.02
447.16	400.55
447.53	400.38
447.90	398.92
448.27	397.60
448.64	395.75
449.01	394.44
449.37	391.88
449.74	389.49
450.11	386.87
450.48	383.48
450.85	380.11
451.22	377.29
451.59	374.52
451.96	372.02
452.33	368.58
452.70	365.32
453.07	361.52
453.43	357.45
453.80	353.75
454.17	350.13
454.54	346.70
454.91	343.18
455.28	339.59
455.65	336.27
456.02	333.39
456.38	330.59
456.75	327.06
457.12	324.14
457.49	321.28
457.86	318.24
458.23	316.05
458.59	313.49
458.96	310.89
459.33	308.53
459.70	306.25
460.07	304.32
460.43	302.27
460.80	300.28
461.17	298.70
461.54	296.89
461.91	295.09
462.27	293.27
462.64	291.66
463.01	290.01
463.38	288.60
463.74	286.55
464.11	284.94
464.48	283.76
464.85	282.43
465.21	281.48
465.58	280.37
465.95	279.00
466.32	277.85
466.68	276.67
467.05	275.63
467.42	274.50
467.78	273.42
468.15	272.31
468.52	271.59
468.88	270.35
469.25	269.45
469.62	268.85
469.98	267.99
470.35	267.19
470.72	266.51
471.08	265.62
471.45	264.98
471.82	264.60
472.18	263.75
472.55	263.29
472.92	262.51
473.28	261.93
473.65	261.34
474.02	260.81
474.38	260.40
474.75	259.98
475.11	259.53
475.48	259.23
475.85	258.92
476.21	258.56
476.58	258.30
476.94	258.15
477.31	257.88
477.67	257.68
478.04	257.57
478.41	257.47
478.77	257.74
479.14	257.56
479.50	257.39
479.87	257.41
480.23	257.37
480.60	257.33
480.96	257.35
481.33	257.54
481.69	257.59
482.06	257.67
482.42	257.81
482.79	258.01
483.15	258.13
483.52	258.48
483.88	258.59
484.25	258.78
484.61	259.01
484.98	259.32
485.34	259.82
485.71	260.30
486.07	260.72
486.44	260.82
486.80	261.38
487.17	261.81
487.53	262.49
487.90	263.19
488.26	264.05
488.62	264.78
488.99	265.38
489.35	266.16
489.72	267.03
490.08	267.92
490.44	268.73
490.81	269.75
491.17	270.64
491.54	271.85
491.90	273.02
492.26	274.13
492.63	275.26
492.99	276.43
493.36	277.65
493.72	279.05
494.08	280.55
494.45	282.07
494.81	283.64
495.17	285.14
495.54	286.77
495.90	288.23
496.26	289.89
496.63	291.68
496.99	293.59
497.35	295.41
497.72	297.40
498.08	299.50
498.44	301.66
498.80	303.90
499.17	306.07
499.53	308.38
499.89	310.83
500.26	313.38
500.62	315.85
500.98	318.52
501.34	321.06
501.71	323.82
502.07	326.50
502.43	329.32
502.79	332.10
503.16	334.99
503.52	338.05
503.88	341.15
504.24	344.47
504.60	347.70
504.97	351.11
505.33	354.40
505.69	358.02
506.05	361.58
506.41	365.13
506.78	368.76
507.14	372.45
507.50	376.14
507.86	380.04
508.22	384.08
508.59	388.12
508.95	392.34
509.31	396.61
509.67	400.91
510.03	405.20
510.39	409.72
510.75	414.28
511.12	418.89
511.48	423.57
511.84	428.23
512.20	432.89
512.56	437.60
512.92	442.46
513.28	447.33
513.64	452.23
514.00	457.35
514.37	462.51
514.73	467.73
515.09	473.04
515.45	478.14
515.81	483.37
516.17	488.61
516.53	493.88
516.89	499.04
517.25	504.39
517.61	510.03
517.97	515.44
518.33	520.94
518.69	526.60
519.05	532.30
519.41	537.86
519.77	543.91
520.13	549.60
520.49	555.22
520.85	561.03
521.21	566.90
521.57	572.58
521.93	578.22
522.29	584.21
522.65	590.10
523.01	596.05
523.37	601.88
523.73	607.73
524.09	613.61
524.45	619.48
524.81	625.48
525.17	631.49
525.53	637.66
525.89	643.64
526.25	649.66
526.61	655.42
526.97	661.36
527.33	667.22
527.68	673.54
528.04	679.54
528.40	685.22
528.76	691.05
529.12	697.26
529.48	703.53
529.84	709.39
530.20	715.39
530.56	721.55
530.91	727.83
531.27	734.08
531.63	740.06
531.99	746.29
532.35	752.15
532.71	758.03
533.07	763.92
533.42	770.23
533.78	776.27
534.14	782.22
534.50	787.83
534.86	793.58
535.21	798.95
535.57	804.88
535.93	810.56
536.29	816.30
536.65	821.71
537.00	827.05
537.36	832.34
537.72	837.54
538.08	842.66
538.44	847.83
538.79	852.89
539.15	857.96
539.51	862.91
539.87	868.10
540.22	872.95
540.58	878.16
540.94	882.77
541.29	887.07
541.65	891.54
542.01	896.23
542.37	900.89
542.72	905.29
543.08	909.45
543.44	914.11
543.79	918.02
544.15	922.08
544.51	926.25
544.87	930.53
545.22	934.21
545.58	938.03
545.94	941.34
546.29	944.80
546.65	948.17
547.01	951.56
547.36	954.78
547.72	958.12
548.07	960.76
548.43	963.52
548.79	966.15
549.14	968.68
549.50	971.34
549.86	973.29
550.21	975.88
550.57	978.49
550.92	980.37
551.28	982.50
551.64	984.78
551.99	986.82
552.35	988.43
552.70	990.51
553.06	992.14
553.41	994.06
553.77	995.79
554.13	997.45
554.48	999.18
554.84	1001.16
555.19	1002.39
555.55	1003.83
555.90	1004.70
556.26	1006.02
556.61	1007.35
556.97	1008.16
557.32	1009.07
557.68	1009.68
558.03	1010.06
558.39	1010.93
558.74	1011.80
559.10	1012.43
559.45	1013.15
559.81	1014.08
560.16	1014.75
560.52	1015.72
560.87	1016.20
561.23	1016.54
561.58	1017.29
561.94	1017.30
562.29	1016.78
562.64	1017.25
563.00	1017.36
563.35	1017.95
563.71	1018.45
564.06	1018.45
564.42	1019.10
564.77	1019.76
565.12	1020.47
565.48	1021.08
565.83	1021.27
566.19	1021.65
566.54	1021.37
566.89	1020.91
567.25	1020.86
567.60	1020.75
567.96	1020.21
568.31	1020.13
568.66	1019.99
569.02	1019.24
569.37	1018.59
569.72	1018.13
570.08	1017.24
570.43	1016.53
570.78	1015.59
571.14	1014.42
571.49	1013.56
571.84	1012.47
572.20	1010.96
572.55	1009.57
572.90	1007.92
573.26	1006.32
573.61	1004.53
573.96	1003.14
574.31	1001.52
574.67	999.37
575.02	996.99
575.37	995.07
575.72	992.67
576.08	990.79
576.43	988.68
576.78	986.87
577.13	985.31
577.49	983.45
577.84	981.54
578.19	980.02
578.54	978.63
578.90	977.04
579.25	975.11
579.60	973.23
579.95	971.08
580.30	969.29
580.66	967.86
581.01	965.90
581.36	963.73
581.71	961.63
582.06	959.91
582.42	958.36
582.77	956.45
583.12	954.66
583.47	952.77
583.82	951.15
584.17	949.20
584.53	947.32
584.88	945.14
585.23	943.08
585.58	940.81
585.93	938.39
586.28	936.39
586.63	934.42
586.98	932.65
587.34	930.97
587.69	929.05
588.04	926.93
588.39	925.10
588.74	922.96
589.09	921.30
589.44	919.12
589.79	917.18
590.14	915.23
590.49	913.16
590.84	911.04
591.19	909.15
591.54	907.17
591.89	904.41
592.25	902.52
592.60	900.19
592.95	897.64
593.30	895.11
593.65	892.51
594.00	890.16
594.35	888.84
594.70	886.21
595.05	883.77
595.40	881.20
595.75	878.54
596.10	876.50
596.45	874.27
596.80	872.29
597.15	870.13
597.50	867.73
597.85	865.66
598.19	863.22
598.54	860.84
598.89	858.34
599.24	856.77
599.59	854.62
599.94	852.73
600.29	850.95
600.64	848.99
600.99	846.84
601.34	844.64
601.69	841.36
602.04	839.17
602.39	837.03
602.74	834.95
603.08	833.28
603.43	831.56
603.78	829.50
604.13	827.20
604.48	825.15
604.83	823.54
605.18	821.74
605.53	819.72
605.87	817.47
606.22	815.71
606.57	813.48
606.92	811.29
607.27	809.02
607.62	806.73
607.96	804.75
608.31	802.85
608.66	800.53
609.01	798.17
609.36	796.02
609.70	793.57
610.05	791.13
610.40	788.65
610.75	785.89
611.10	783.50
611.44	780.70
611.79	777.90
612.14	774.86
612.49	771.59
612.83	768.87
613.18	765.99
613.53	762.99
613.88	759.87
614.22	757.04
614.57	754.10
614.92	751.20
615.27	748.19
615.61	745.26
615.96	742.53
616.31	739.84
616.65	737.08
617.00	734.50
617.35	731.93
617.70	728.89
618.04	725.97
618.39	722.69
618.74	720.04
619.08	717.18
619.43	714.26
619.78	711.55
620.12	708.66
620.47	705.89
620.82	703.03
621.16	700.09
621.51	697.23
621.85	694.62
622.20	691.76
622.55	688.95
622.89	685.79
623.24	682.89
623.59	680.01
623.93	677.17
624.28	674.34
624.62	671.60
624.97	669.02
625.32	666.30
625.66	663.90
626.01	661.13
626.35	658.33
626.70	655.70
627.04	653.33
627.39	650.68
627.73	648.19
628.08	645.79
628.43	643.27
628.77	640.59
629.12	637.65
629.46	635.22
629.81	632.60
630.15	630.19
630.50	627.37
630.84	624.75
631.19	622.05
631.53	619.28
631.88	616.21
632.22	613.27
632.57	610.80
632.91	607.94
633.26	605.46
633.60	602.92
633.95	600.38
634.29	597.67
634.64	595.23
634.98	592.54
635.32	589.95
635.67	587.46
636.01	584.88
636.36	582.53
636.70	580.18
637.05	577.75
637.39	575.42
637.73	573.27
638.08	571.06
638.42	568.86
638.77	566.61
639.11	564.33
639.45	561.93
639.80	559.22
640.14	556.71
640.49	554.21
640.83	551.75
641.17	549.42
641.52	546.94
641.86	544.36
642.20	542.13
642.55	539.27
642.89	536.78
643.23	534.29
643.58	531.95
643.92	529.34
644.26	526.80
644.61	524.30
644.95	521.83
645.29	519.19
645.64	516.64
645.98	514.12
646.32	511.71
646.66	509.26
647.01	506.98
647.35	504.81
647.69	502.38
648.04	500.15
648.38	497.76
648.72	495.51
649.06	493.18
649.41	490.59
649.75	488.39
650.09	486.09
650.43	483.82
650.78	481.35
651.12	478.93
651.46	476.66
651.80	474.38
652.14	472.11
652.49	469.94
652.83	467.68
653.17	465.33
653.51	463.05
653.85	460.93
654.20	458.66
654.54	456.28
654.88	453.98
655.22	451.70
655.56	449.37
655.90	447.07
656.25	444.85
656.59	442.74
656.93	440.77
657.27	438.80
657.61	436.52
657.95	434.54
658.29	432.50
658.64	430.50
658.98	428.40
659.32	426.22
659.66	424.19
660.00	422.03
660.34	419.97
660.68	417.94
661.02	415.89
661.36	413.98
661.70	412.07
662.05	410.19
662.39	408.44
662.73	406.71
663.07	405.00
663.41	403.24
663.75	401.37
664.09	399.53
664.43	397.48
664.77	395.80
665.11	393.83
665.45	392.08
665.79	390.43
666.13	388.67
666.47	387.03
666.81	385.35
667.15	383.59
667.49	382.07
667.83	380.61
668.17	379.02
668.51	377.49
668.85	376.05
669.19	374.73
669.53	373.04
669.87	371.30
670.21	369.76
670.55	368.13
670.89	366.88
671.23	365.42
671.57	364.09
671.91	362.62
672.25	361.27
672.58	359.93
672.92	358.37
673.26	357.06
673.60	355.74
673.94	354.32
674.28	353.18
674.62	351.95
674.96	350.60
675.30	349.42
675.64	348.15
675.97	346.80
676.31	345.38
676.65	344.14
676.99	343.15
677.33	341.75
677.67	340.64
678.01	339.15
678.34	337.94
678.68	336.73
679.02	335.51
679.36	334.32
679.70	333.04
680.04	331.92
680.37	330.67
680.71	329.41
681.05	328.35
681.39	327.13
681.73	325.88
682.06	324.70
682.40	323.56
682.74	322.51
683.08	321.51
683.42	320.30
683.75	319.23
684.09	317.93
684.43	316.85
684.77	315.60
685.10	314.59
685.44	313.44
685.78	312.32
686.12	311.36
686.45	310.34
686.79	309.31
687.13	308.31
687.46	307.37
687.80	306.44
688.14	305.38
688.48	304.38
688.81	303.42
689.15	302.47
689.49	301.44
689.82	300.38
690.16	299.25
690.50	298.31
690.83	297.35
691.17	296.38
691.51	295.45
691.84	294.71
692.18	293.78
692.52	292.97
692.85	292.16
693.19	291.40
693.52	290.53
693.86	289.61
694.20	288.74
694.53	287.89
694.87	287.07
695.21	286.13
695.54	285.20
695.88	284.28
696.21	283.42
696.55	282.64
696.88	281.83
697.22	280.99
697.56	280.33
697.89	279.57
698.23	278.91
698.56	278.20
698.90	277.40
699.23	276.57
699.57	275.83
699.90	275.05
700.24	274.15
700.58	273.50
700.91	272.91
701.25	272.44
701.58	271.84
701.92	271.15
702.25	270.55
702.59	270.10
702.92	269.49
703.26	268.88
703.59	268.20
703.93	267.90
704.26	267.34
704.60	266.76
704.93	266.11
705.26	265.45
705.60	264.85
705.93	264.23
706.27	263.79
706.60	263.28
706.94	262.89
707.27	262.33
707.61	261.72
707.94	261.14
708.27	260.31
708.61	259.73
708.94	259.22
709.28	258.67
709.61	258.05
709.94	257.54
710.28	257.01
710.61	256.59
710.95	255.79
711.28	255.62
711.61	255.04
711.95	254.69
712.28	254.16
712.61	253.67
712.95	253.36
713.28	253.08
713.61	252.61
713.95	252.04
714.28	251.66
714.61	251.27
714.95	250.79
715.28	250.44
715.61	249.99
715.95	249.58
716.28	249.16
716.61	248.76
716.95	248.31
717.28	247.90
717.61	247.51
717.94	247.15
718.28	246.53
718.61	246.14
718.94	245.68
719.27	245.35
719.61	245.06
719.94	244.66
720.27	244.07
720.60	243.60
720.94	243.31
721.27	243.03
721.60	242.77
721.93	242.36
722.27	242.09
722.60	241.75
722.93	241.37
723.26	241.12
723.59	240.71
723.93	240.53
724.26	240.23
724.59	239.87
724.92	239.56
725.25	239.30
725.59	239.00
725.92	238.74
726.25	238.44
726.58	238.16
726.91	237.85
727.24	237.72
727.57	237.55
727.91	237.22
728.24	236.92
728.57	236.56
728.90	236.47
729.23	236.12
729.56	236.05
729.89	235.76
730.22	235.53
730.55	235.37
730.89	235.10
731.22	234.81
731.55	234.53
731.88	234.25
732.21	233.97
732.54	233.79
732.87	233.57
733.20	233.43
733.53	233.13
733.86	233.00
734.19	232.74
734.52	232.54
734.85	232.59
735.18	232.36
735.51	232.25
735.84	232.05
736.17	231.93
736.50	231.48
736.83	231.70
737.16	231.53
737.49	231.31
737.82	231.04
738.15	230.99
738.48	230.87
738.81	230.72
739.14	230.44
739.47	230.22
739.80	230.00
740.13	229.85
740.46	229.68
740.79	229.44
741.12	229.20
741.45	228.96
741.78	228.50
742.11	228.38
742.44	228.15
742.77	227.98
743.10	227.80
743.43	227.64
743.75	227.14
744.08	227.35
744.41	227.18
744.74	227.06
745.07	226.80
745.40	226.64
745.73	226.55
746.06	226.41
746.39	226.30
746.71	226.13
747.04	225.87
747.37	225.73
747.70	225.64
748.03	225.51
748.36	225.48
748.68	225.38
749.01	225.16
749.34	224.92
749.67	224.74
750.00	224.63
750.33	224.80
750.65	224.71
750.98	224.10
751.31	223.94
751.64	223.87
751.97	223.98
752.29	223.80
752.62	223.50
752.95	223.40
753.28	223.24
753.60	223.12
753.93	223.11
754.26	223.03
754.59	222.73
754.91	222.56
755.24	222.41
755.57	222.34
755.90	222.17
756.22	222.13
756.55	221.92
756.88	221.80
757.20	221.41
757.53	221.13
757.86	221.00
758.19	220.94
758.51	220.79
758.84	220.43
759.17	220.36
759.49	220.37
759.82	220.41
760.15	220.20
760.47	220.13
760.80	219.90
761.13	219.87
761.45	219.85
761.78	219.81
762.11	219.73
762.43	219.57
762.76	219.43
763.08	219.33
763.41	219.35
763.74	219.25
764.06	219.12
764.39	219.08
764.71	219.04
765.04	218.94
765.37	218.84
765.69	218.72
766.02	218.69
766.34	218.56
766.67	218.34
767.00	218.45
767.32	218.55
767.65	218.66
767.97	218.50
768.30	218.37
768.62	218.24
768.95	218.12
769.27	218.05
769.60	218.14
769.92	217.98
770.25	217.86
770.57	217.71
770.90	217.67
771.22	217.57
771.55	217.50
771.87	217.50
772.20	217.43
772.52	217.64
772.85	217.89
773.17	217.92
773.50	217.91
773.82	217.75
774.15	217.55
774.47	217.30
774.80	217.24
775.12	217.24
775.45	217.22
775.77	217.25
776.09	217.20
776.42	217.13
776.74	217.25
777.07	217.17
777.39	217.16
777.72	217.12
778.04	217.14
778.36	217.03
778.69	216.92
779.01	216.88
779.33	216.58
779.66	216.18
779.98	216.00
780.31	215.89
780.63	216.02
780.95	216.04
781.28	215.99
781.60	215.90
781.92	215.80
782.25	215.73
782.57	215.55
782.89	215.50
783.22	215.44
783.54	215.30
783.86	215.25
784.19	215.14
784.51	215.12
784.83	215.00
785.16	215.03
785.48	215.02
785.80	214.96
786.12	214.92
786.45	214.90
786.77	214.97
787.09	214.96
787.42	214.76
787.74	214.70
788.06	214.70
788.38	214.64
788.71	214.59
789.03	214.57
789.35	214.61
789.67	214.53
789.99	214.50
790.32	214.41
790.64	214.50
790.96	214.74
791.28	214.65
791.61	214.70
791.93	214.60
792.25	214.49
792.57	214.73
792.89	214.62
793.21	214.60
