SpectraSuite Data File
++++++++++++++++++++++++++++++++++++
Date: Mon Feb 25 16:56:23 EST 2013
User: group
Dark Spectrum Present: No
Reference Spectrum Present: No
Number of Sampled Component Spectra: 1
Spectrometers: USB2E7196
Integration Time (usec): 104000 (USB2E7196)
Spectra Averaged: 20 (USB2E7196)
Boxcar Smoothing: 10 (USB2E7196)
Correct for Electrical Dark: No (USB2E7196)
Strobe/Lamp Enabled: No (USB2E7196)
Correct for Detector Non-linearity: No (USB2E7196)
Correct for Stray Light: No (USB2E7196)
Number of Pixels in Processed Spectrum: 2048
>>>>>Begin Processed Spectral Data<<<<<
339.09	0.00
339.48	198.45
339.86	198.55
340.24	201.45
340.63	203.05
341.01	209.50
341.39	205.80
341.78	207.10
342.16	208.60
342.54	209.15
342.93	198.08
343.31	208.06
343.69	208.56
344.07	209.07
344.46	209.52
344.84	209.95
345.22	210.08
345.60	210.36
345.99	210.62
346.37	210.76
346.75	210.83
347.13	210.95
347.52	211.05
347.90	211.25
348.28	211.26
348.66	211.44
349.05	211.40
349.43	211.47
349.81	211.62
350.19	211.67
350.57	211.77
350.96	211.88
351.34	212.07
351.72	212.24
352.10	212.43
352.48	212.43
352.87	212.50
353.25	212.50
353.63	212.52
354.01	212.50
354.39	212.60
354.77	212.70
355.15	212.88
355.54	212.91
355.92	212.80
356.30	212.89
356.68	213.19
357.06	213.32
357.44	213.42
357.82	213.38
358.20	213.49
358.58	213.50
358.97	213.57
359.35	213.63
359.73	213.77
360.11	213.81
360.49	213.94
360.87	213.96
361.25	214.05
361.63	214.27
362.01	214.36
362.39	214.34
362.77	214.46
363.15	214.51
363.53	214.53
363.91	214.60
364.29	214.68
364.67	214.36
365.05	214.30
365.43	214.40
365.81	214.50
366.19	214.70
366.57	214.87
366.95	214.83
367.33	214.83
367.71	214.78
368.09	214.85
368.47	214.91
368.85	214.91
369.23	214.98
369.61	214.85
369.99	214.95
370.37	215.03
370.75	215.15
371.13	215.04
371.51	214.93
371.89	214.92
372.27	214.95
372.65	214.93
373.03	214.95
373.41	214.80
373.78	214.79
374.16	214.49
374.54	214.34
374.92	214.28
375.30	214.18
375.68	214.08
376.06	214.04
376.44	213.90
376.82	213.84
377.19	213.79
377.57	213.76
377.95	213.61
378.33	213.47
378.71	213.21
379.09	213.19
379.47	213.25
379.84	213.23
380.22	213.08
380.60	212.98
380.98	212.86
381.36	212.82
381.73	212.72
382.11	212.78
382.49	212.76
382.87	212.69
383.25	212.61
383.62	212.99
384.00	212.85
384.38	212.80
384.76	212.87
385.13	212.94
385.51	212.85
385.89	212.73
386.27	212.72
386.64	212.75
387.02	212.63
387.40	212.52
387.78	212.47
388.15	212.45
388.53	212.38
388.91	212.37
389.29	212.36
389.66	212.33
390.04	212.24
390.42	212.25
390.79	212.29
391.17	212.31
391.55	211.93
391.92	211.92
392.30	211.97
392.68	211.89
393.05	211.90
393.43	211.93
393.81	212.07
394.18	212.06
394.56	212.06
394.94	212.28
395.31	212.32
395.69	212.42
396.06	212.46
396.44	212.50
396.82	212.55
397.19	212.79
397.57	212.83
397.95	213.02
398.32	212.92
398.70	213.00
399.07	213.15
399.45	213.13
399.82	213.22
400.20	213.26
400.58	213.36
400.95	213.25
401.33	213.39
401.70	213.70
402.08	213.81
402.45	213.96
402.83	214.10
403.20	214.31
403.58	214.43
403.95	214.71
404.33	215.04
404.71	215.30
405.08	215.71
405.46	215.97
405.83	216.26
406.21	216.66
406.58	216.98
406.96	217.36
407.33	217.84
407.70	218.38
408.08	219.21
408.45	219.75
408.83	220.45
409.20	221.02
409.58	221.42
409.95	222.26
410.33	223.05
410.70	223.78
411.08	224.72
411.45	225.74
411.82	226.67
412.20	227.80
412.57	229.15
412.95	230.01
413.32	231.43
413.69	232.86
414.07	234.38
414.44	236.15
414.82	237.88
415.19	239.86
415.56	241.87
415.94	243.85
416.31	246.28
416.68	248.65
417.06	251.50
417.43	254.19
417.81	257.09
418.18	260.14
418.55	263.51
418.93	266.94
419.30	270.53
419.67	274.39
420.04	278.45
420.42	282.60
420.79	287.62
421.16	292.54
421.54	297.56
421.91	302.87
422.28	308.33
422.66	314.18
423.03	320.04
423.40	326.00
423.77	332.48
424.15	338.98
424.52	345.86
424.89	353.28
425.26	360.53
425.64	367.54
426.01	375.33
426.38	383.42
426.75	391.53
427.13	399.89
427.50	408.79
427.87	418.01
428.24	427.34
428.61	436.27
428.99	446.02
429.36	456.70
429.73	467.17
430.10	477.66
430.47	488.40
430.85	499.48
431.22	511.41
431.59	523.74
431.96	535.79
432.33	549.12
432.70	562.02
433.08	577.39
433.45	591.83
433.82	606.03
434.19	621.85
434.56	637.81
434.93	653.25
435.30	668.60
435.68	685.62
436.05	702.53
436.42	719.25
436.79	734.75
437.16	751.49
437.53	769.24
437.90	786.71
438.27	804.37
438.64	822.57
439.01	839.57
439.38	855.00
439.75	869.83
440.13	886.82
440.50	902.95
440.87	916.14
441.24	929.94
441.61	945.26
441.98	956.98
442.35	970.42
442.72	983.92
443.09	996.82
443.46	1005.09
443.83	1011.18
444.20	1016.71
444.57	1024.11
444.94	1028.24
445.31	1032.70
445.68	1036.80
446.05	1039.14
446.42	1038.70
446.79	1037.82
447.16	1036.86
447.53	1036.81
447.90	1031.60
448.27	1026.33
448.64	1018.50
449.01	1013.12
449.37	1002.74
449.74	992.66
450.11	980.30
450.48	966.76
450.85	953.06
451.22	941.44
451.59	930.27
451.96	919.54
452.33	904.94
452.70	891.77
453.07	875.68
453.43	859.41
453.80	843.81
454.17	828.80
454.54	814.64
454.91	799.34
455.28	784.31
455.65	770.42
456.02	756.35
456.38	744.50
456.75	729.62
457.12	717.32
457.49	705.00
457.86	692.95
458.23	682.67
458.59	671.36
458.96	659.91
459.33	649.72
459.70	639.53
460.07	631.46
460.43	622.20
460.80	613.41
461.17	605.70
461.54	597.74
461.91	590.10
462.27	582.27
462.64	575.66
463.01	568.19
463.38	561.10
463.74	554.06
464.11	547.96
464.48	542.49
464.85	536.60
465.21	532.16
465.58	527.45
465.95	521.71
466.32	516.81
466.68	512.10
467.05	507.35
467.42	502.64
467.78	497.48
468.15	492.73
468.52	489.12
468.88	484.63
469.25	480.38
469.62	477.11
469.98	473.48
470.35	470.17
470.72	466.94
471.08	463.48
471.45	460.57
471.82	457.49
472.18	454.36
472.55	451.87
472.92	449.03
473.28	446.63
473.65	444.14
474.02	441.85
474.38	440.00
474.75	438.29
475.11	436.65
475.48	435.46
475.85	434.38
476.21	433.32
476.58	432.49
476.94	431.74
477.31	430.82
477.67	430.03
478.04	429.48
478.41	429.20
478.77	429.25
479.14	428.78
479.50	428.75
479.87	428.91
480.23	429.17
480.60	429.26
480.96	429.35
481.33	430.13
481.69	430.87
482.06	431.24
482.42	431.65
482.79	432.04
483.15	432.95
483.52	434.05
483.88	435.08
484.25	436.08
484.61	437.26
484.98	438.40
485.34	440.09
485.71	441.76
486.07	443.48
486.44	445.01
486.80	447.08
487.17	449.31
487.53	451.72
487.90	454.22
488.26	457.15
488.62	460.07
488.99	463.02
489.35	466.00
489.72	469.40
490.08	473.05
490.44	476.70
490.81	480.43
491.17	484.14
491.54	488.21
491.90	492.50
492.26	496.91
492.63	501.67
492.99	506.52
493.36	511.54
493.72	516.89
494.08	522.30
494.45	527.96
494.81	533.71
495.17	539.35
495.54	545.39
495.90	551.45
496.26	557.79
496.63	564.16
496.99	570.94
497.35	577.64
497.72	584.65
498.08	591.82
498.44	599.25
498.80	607.00
499.17	614.67
499.53	622.61
499.89	630.87
500.26	638.94
500.62	646.75
500.98	655.08
501.34	663.38
501.71	671.80
502.07	680.33
502.43	689.00
502.79	697.88
503.16	706.59
503.52	715.50
503.88	724.24
504.24	733.19
504.60	742.02
504.97	751.28
505.33	760.41
505.69	769.90
506.05	779.24
506.41	788.54
506.78	797.84
507.14	806.82
507.50	815.82
507.86	824.98
508.22	834.48
508.59	843.47
508.95	852.81
509.31	862.18
509.67	871.44
510.03	880.50
510.39	890.12
510.75	899.63
511.12	908.79
511.48	917.90
511.84	927.22
512.20	936.27
512.56	945.40
512.92	954.64
513.28	963.53
513.64	972.18
514.00	980.69
514.37	989.10
514.73	998.01
515.09	1006.72
515.45	1015.06
515.81	1023.18
516.17	1031.43
516.53	1039.24
516.89	1046.91
517.25	1054.56
517.61	1062.22
517.97	1069.16
518.33	1075.90
518.69	1082.98
519.05	1090.21
519.41	1097.00
519.77	1104.12
520.13	1110.56
520.49	1116.69
520.85	1123.09
521.21	1129.47
521.57	1135.76
521.93	1141.57
522.29	1147.78
522.65	1153.64
523.01	1159.45
523.37	1164.89
523.73	1170.28
524.09	1175.62
524.45	1180.98
524.81	1186.50
525.17	1191.93
525.53	1197.28
525.89	1202.61
526.25	1207.60
526.61	1212.00
526.97	1216.33
527.33	1220.69
527.68	1225.49
528.04	1229.91
528.40	1234.05
528.76	1238.13
529.12	1242.46
529.48	1246.98
529.84	1250.51
530.20	1254.25
530.56	1258.20
530.91	1262.64
531.27	1266.96
531.63	1270.91
531.99	1274.64
532.35	1278.03
532.71	1281.31
533.07	1284.97
533.42	1288.61
533.78	1292.09
534.14	1295.83
534.50	1299.29
534.86	1302.79
535.21	1305.41
535.57	1308.87
535.93	1311.66
536.29	1314.65
536.65	1317.33
537.00	1319.81
537.36	1322.18
537.72	1324.56
538.08	1326.80
538.44	1328.71
538.79	1330.99
539.15	1333.22
539.51	1335.46
539.87	1337.80
540.22	1339.98
540.58	1342.41
540.94	1344.49
541.29	1346.14
541.65	1347.31
542.01	1349.03
542.37	1350.49
542.72	1352.25
543.08	1353.45
543.44	1355.39
543.79	1356.24
544.15	1357.48
544.51	1359.42
544.87	1361.42
545.22	1362.87
545.58	1364.10
545.94	1365.11
546.29	1365.49
546.65	1366.06
547.01	1366.61
547.36	1367.05
547.72	1367.60
548.07	1367.70
548.43	1367.66
548.79	1367.82
549.14	1368.56
549.50	1368.56
549.86	1368.51
550.21	1368.68
550.57	1369.21
550.92	1368.94
551.28	1369.05
551.64	1368.79
551.99	1368.64
552.35	1368.16
552.70	1367.80
553.06	1367.76
553.41	1367.75
553.77	1368.05
554.13	1368.02
554.48	1368.32
554.84	1368.48
555.19	1368.33
555.55	1368.29
555.90	1367.99
556.26	1367.61
556.61	1367.00
556.97	1366.55
557.32	1366.35
557.68	1365.59
558.03	1364.37
558.39	1363.32
558.74	1362.78
559.10	1362.36
559.45	1361.57
559.81	1361.19
560.16	1360.34
560.52	1359.88
560.87	1359.28
561.23	1357.82
561.58	1357.10
561.94	1355.74
562.29	1354.34
562.64	1353.55
563.00	1352.25
563.35	1351.59
563.71	1351.35
564.06	1350.60
564.42	1350.20
564.77	1349.60
565.12	1349.43
565.48	1349.21
565.83	1348.80
566.19	1348.65
566.54	1347.65
566.89	1346.58
567.25	1345.88
567.60	1345.55
567.96	1344.74
568.31	1344.23
568.66	1343.71
569.02	1342.45
569.37	1341.30
569.72	1340.22
570.08	1339.02
570.43	1337.55
570.78	1336.08
571.14	1333.94
571.49	1332.36
571.84	1330.77
572.20	1328.62
572.55	1326.55
572.90	1324.04
573.26	1321.87
573.61	1319.01
573.96	1316.77
574.31	1313.93
574.67	1310.77
575.02	1307.28
575.37	1303.95
575.72	1300.20
576.08	1297.32
576.43	1294.23
576.78	1291.09
577.13	1288.02
577.49	1284.71
577.84	1281.68
578.19	1278.64
578.54	1276.19
578.90	1273.41
579.25	1270.20
579.60	1266.90
579.95	1263.15
580.30	1260.11
580.66	1256.82
581.01	1253.57
581.36	1250.03
581.71	1246.52
582.06	1243.21
582.42	1240.13
582.77	1236.62
583.12	1233.17
583.47	1229.46
583.82	1225.69
584.17	1222.03
584.53	1218.56
584.88	1214.78
585.23	1210.99
585.58	1207.04
585.93	1203.04
586.28	1199.39
586.63	1195.45
586.98	1191.91
587.34	1188.66
587.69	1184.72
588.04	1180.97
588.39	1177.45
588.74	1173.70
589.09	1170.55
589.44	1166.30
589.79	1162.83
590.14	1159.09
590.49	1155.33
590.84	1151.35
591.19	1148.40
591.54	1144.92
591.89	1140.45
592.25	1136.56
592.60	1132.48
592.95	1128.26
593.30	1123.55
593.65	1118.76
594.00	1114.36
594.35	1111.01
594.70	1106.40
595.05	1102.55
595.40	1098.42
595.75	1093.93
596.10	1089.95
596.45	1085.82
596.80	1082.27
597.15	1078.27
597.50	1073.88
597.85	1069.93
598.19	1065.82
598.54	1061.44
598.89	1057.39
599.24	1054.22
599.59	1050.10
599.94	1046.30
600.29	1042.39
600.64	1038.68
600.99	1034.89
601.34	1031.18
601.69	1026.15
602.04	1022.29
602.39	1017.99
602.74	1014.22
603.08	1010.48
603.43	1006.85
603.78	1002.50
604.13	998.30
604.48	994.06
604.83	990.82
605.18	987.14
605.53	983.24
605.87	978.86
606.22	974.90
606.57	970.39
606.92	966.41
607.27	962.27
607.62	958.50
607.96	954.56
608.31	950.62
608.66	946.24
609.01	942.00
609.36	937.81
609.70	933.49
610.05	928.74
610.40	924.40
610.75	919.83
611.10	915.95
611.44	911.30
611.79	906.68
612.14	902.04
612.49	897.01
612.83	892.43
613.18	887.95
613.53	883.28
613.88	878.51
614.22	873.99
614.57	869.42
614.92	864.62
615.27	860.15
615.61	855.54
615.96	851.32
616.31	847.38
616.65	843.27
617.00	839.02
617.35	835.04
617.70	830.67
618.04	825.98
618.39	821.23
618.74	817.17
619.08	812.85
619.43	808.61
619.78	804.89
620.12	800.91
620.47	796.87
620.82	792.55
621.16	788.36
621.51	784.24
621.85	780.32
622.20	776.27
622.55	772.05
622.89	767.85
623.24	763.64
623.59	759.05
623.93	754.90
624.28	751.05
624.62	747.24
624.97	743.32
625.32	739.52
625.66	735.72
626.01	731.73
626.35	728.18
626.70	724.09
627.04	720.06
627.39	716.16
627.73	712.40
628.08	708.98
628.43	705.37
628.77	701.62
629.12	697.51
629.46	693.91
629.81	690.25
630.15	686.72
630.50	683.05
630.84	679.54
631.19	675.96
631.53	672.34
631.88	668.32
632.22	664.58
632.57	661.20
632.91	657.80
633.26	654.45
633.60	650.68
633.95	647.40
634.29	643.97
634.64	640.94
634.98	637.46
635.32	634.08
635.67	631.33
636.01	628.11
636.36	625.00
636.70	622.00
637.05	618.86
637.39	615.81
637.73	612.96
638.08	610.31
638.42	607.46
638.77	604.63
639.11	601.88
639.45	599.00
639.80	595.75
640.14	592.47
640.49	589.43
640.83	586.66
641.17	583.74
641.52	580.75
641.86	577.46
642.20	574.74
642.55	571.47
642.89	568.14
643.23	565.27
643.58	562.61
643.92	559.38
644.26	556.51
644.61	553.64
644.95	550.68
645.29	547.64
645.64	544.64
645.98	541.54
646.32	538.72
646.66	535.85
647.01	533.15
647.35	530.69
647.69	527.86
648.04	525.10
648.38	522.38
648.72	519.65
649.06	516.93
649.41	514.02
649.75	511.48
650.09	508.91
650.43	506.21
650.78	503.38
651.12	500.90
651.46	498.39
651.80	496.02
652.14	493.60
652.49	491.10
652.83	488.53
653.17	485.85
653.51	483.25
653.85	480.92
654.20	478.65
654.54	476.06
654.88	473.60
655.22	471.17
655.56	468.47
655.90	466.07
656.25	463.62
656.59	461.28
656.93	459.09
657.27	456.85
657.61	454.36
657.95	452.09
658.29	449.77
658.64	447.53
658.98	445.02
659.32	442.69
659.66	440.33
660.00	437.96
660.34	435.78
660.68	433.50
661.02	431.10
661.36	428.69
661.70	426.51
662.05	424.46
662.39	422.50
662.73	420.69
663.07	418.79
663.41	416.80
663.75	414.79
664.09	412.70
664.43	410.43
664.77	408.56
665.11	406.58
665.45	404.63
665.79	402.75
666.13	400.93
666.47	398.82
666.81	397.08
667.15	395.25
667.49	393.63
667.83	392.04
668.17	390.38
668.51	388.90
668.85	387.32
669.19	385.82
669.53	383.98
669.87	382.19
670.21	380.42
670.55	378.78
670.89	377.33
671.23	375.85
671.57	374.53
671.91	373.01
672.25	371.57
672.58	370.08
672.92	368.50
673.26	366.97
673.60	365.70
673.94	364.01
674.28	362.61
674.62	361.22
674.96	359.81
675.30	358.41
675.64	356.89
675.97	355.46
676.31	353.93
676.65	352.55
676.99	351.37
677.33	350.04
677.67	348.76
678.01	347.33
678.34	346.03
678.68	344.67
679.02	343.28
679.36	342.02
679.70	340.74
680.04	339.43
680.37	338.25
680.71	337.01
681.05	336.00
681.39	334.82
681.73	333.48
682.06	332.28
682.40	331.24
682.74	330.13
683.08	329.08
683.42	327.87
683.75	326.88
684.09	325.55
684.43	324.41
684.77	323.23
685.10	322.14
685.44	320.89
685.78	319.69
686.12	318.67
686.45	317.52
686.79	316.41
687.13	315.49
687.46	314.35
687.80	313.35
688.14	312.26
688.48	311.27
688.81	310.28
689.15	309.27
689.49	308.12
689.82	307.08
690.16	305.84
690.50	304.80
690.83	303.69
691.17	302.62
691.51	301.66
691.84	300.76
692.18	299.75
692.52	298.80
692.85	298.01
693.19	297.23
693.52	296.31
693.86	295.43
694.20	294.47
694.53	293.68
694.87	292.67
695.21	291.73
695.54	290.84
695.88	289.90
696.21	288.95
696.55	288.07
696.88	287.26
697.22	286.48
697.56	285.75
697.89	284.88
698.23	284.17
698.56	283.26
698.90	282.51
699.23	281.73
699.57	281.00
699.90	280.10
700.24	279.24
700.58	278.48
700.91	277.72
701.25	277.13
701.58	276.38
701.92	275.77
702.25	274.99
702.59	274.26
702.92	273.60
703.26	272.90
703.59	272.21
703.93	271.78
704.26	271.10
704.60	270.48
704.93	269.83
705.26	269.12
705.60	268.60
705.93	267.84
706.27	267.30
706.60	266.79
706.94	266.41
707.27	265.70
707.61	265.06
707.94	264.47
708.27	263.77
708.61	263.02
708.94	262.39
709.28	261.88
709.61	261.35
709.94	260.83
710.28	260.26
710.61	259.84
710.95	259.02
711.28	258.77
711.61	258.20
711.95	257.79
712.28	257.42
712.61	256.89
712.95	256.62
713.28	256.30
713.61	255.70
713.95	255.11
714.28	254.78
714.61	254.30
714.95	253.82
715.28	253.30
715.61	252.95
715.95	252.52
716.28	252.06
716.61	251.59
716.95	251.14
717.28	250.70
717.61	250.18
717.94	249.77
718.28	249.14
718.61	248.76
718.94	248.33
719.27	247.89
719.61	247.49
719.94	247.05
720.27	246.44
720.60	246.13
720.94	245.80
721.27	245.38
721.60	245.15
721.93	244.88
722.27	244.61
722.60	244.37
722.93	244.02
723.26	243.82
723.59	243.45
723.93	243.18
724.26	242.91
724.59	242.63
724.92	242.30
725.25	242.08
725.59	241.76
725.92	241.51
726.25	241.25
726.58	241.01
726.91	240.70
727.24	240.50
727.57	240.16
727.91	239.81
728.24	239.61
728.57	239.29
728.90	239.05
729.23	238.67
729.56	238.58
729.89	238.27
730.22	237.88
730.55	237.58
730.89	237.28
731.22	237.08
731.55	236.83
731.88	236.61
732.21	236.23
732.54	235.89
732.87	235.56
733.20	235.23
733.53	235.02
733.86	234.78
734.19	234.48
734.52	234.32
734.85	234.31
735.18	234.00
735.51	233.85
735.84	233.57
736.17	233.45
736.50	232.99
736.83	233.25
737.16	233.11
737.49	232.97
737.82	232.73
738.15	232.50
738.48	232.28
738.81	232.03
739.14	231.76
739.47	231.61
739.80	231.45
740.13	231.32
740.46	230.96
740.79	230.64
741.12	230.48
741.45	230.24
741.78	229.87
742.11	229.74
742.44	229.48
742.77	229.39
743.10	229.13
743.43	228.96
743.75	228.33
744.08	228.52
744.41	228.25
744.74	228.09
745.07	227.83
745.40	227.74
745.73	227.79
746.06	227.66
746.39	227.47
746.71	227.21
747.04	226.98
747.37	226.85
747.70	226.82
748.03	226.68
748.36	226.53
748.68	226.31
749.01	226.07
749.34	225.87
749.67	225.74
750.00	225.67
750.33	225.65
750.65	225.57
750.98	224.97
751.31	224.87
751.64	224.70
751.97	224.71
752.29	224.58
752.62	224.30
752.95	224.20
753.28	224.07
753.60	223.97
753.93	224.01
754.26	223.95
754.59	223.69
754.91	223.55
755.24	223.43
755.57	223.26
755.90	223.14
756.22	223.04
756.55	222.80
756.88	222.56
757.20	222.28
757.53	222.00
757.86	221.96
758.19	221.91
758.51	221.75
758.84	221.49
759.17	221.30
759.49	221.13
759.82	221.21
760.15	221.12
760.47	220.95
760.80	220.73
761.13	220.67
761.45	220.58
761.78	220.42
762.11	220.37
762.43	220.24
762.76	220.19
763.08	220.15
763.41	220.11
763.74	220.18
764.06	220.08
764.39	220.04
764.71	219.96
765.04	219.82
765.37	219.79
765.69	219.69
766.02	219.54
766.34	219.47
766.67	219.22
767.00	219.21
767.32	219.43
767.65	219.54
767.97	219.43
768.30	219.35
768.62	219.32
768.95	219.13
769.27	219.03
769.60	218.97
769.92	218.84
770.25	218.69
770.57	218.44
770.90	218.37
771.22	218.32
771.55	218.18
771.87	218.19
772.20	218.12
772.52	218.40
772.85	218.75
773.17	218.73
773.50	218.67
773.82	218.54
774.15	218.26
774.47	217.86
774.80	217.76
775.12	217.73
775.45	217.63
775.77	217.61
776.09	217.70
776.42	217.62
776.74	217.66
777.07	217.60
777.39	217.55
777.72	217.53
778.04	217.46
778.36	217.42
778.69	217.31
779.01	217.26
779.33	216.90
779.66	216.47
779.98	216.34
780.31	216.33
780.63	216.40
780.95	216.45
781.28	216.48
781.60	216.46
781.92	216.34
782.25	216.26
782.57	216.22
782.89	216.15
783.22	216.07
783.54	215.94
783.86	215.87
784.19	215.85
784.51	215.85
784.83	215.81
785.16	215.76
785.48	215.73
785.80	215.67
786.12	215.64
786.45	215.63
786.77	215.67
787.09	215.55
787.42	215.43
787.74	215.43
788.06	215.47
788.38	215.42
