SpectraSuite Data File
++++++++++++++++++++++++++++++++++++
Date: Mon Feb 25 16:56:34 EST 2013
User: group
Dark Spectrum Present: No
Reference Spectrum Present: No
Number of Sampled Component Spectra: 1
Spectrometers: USB2E7196
Integration Time (usec): 104000 (USB2E7196)
Spectra Averaged: 20 (USB2E7196)
Boxcar Smoothing: 10 (USB2E7196)
Correct for Electrical Dark: No (USB2E7196)
Strobe/Lamp Enabled: No (USB2E7196)
Correct for Detector Non-linearity: No (USB2E7196)
Correct for Stray Light: No (USB2E7196)
Number of Pixels in Processed Spectrum: 2048
>>>>>Begin Processed Spectral Data<<<<<
339.09	0.00
339.48	197.15
339.86	200.45
340.24	201.10
340.63	201.85
341.01	210.15
341.39	204.40
341.78	208.00
342.16	208.90
342.54	209.90
342.93	198.25
343.31	208.30
343.69	208.94
344.07	209.38
344.46	209.87
344.84	210.30
345.22	210.29
345.60	210.66
345.99	210.83
346.37	210.96
346.75	211.06
347.13	211.11
347.52	211.11
347.90	211.32
348.28	211.32
348.66	211.42
349.05	211.41
349.43	211.48
349.81	211.60
350.19	211.70
350.57	211.75
350.96	211.92
351.34	212.03
351.72	212.15
352.10	212.29
352.48	212.35
352.87	212.44
353.25	212.56
353.63	212.61
354.01	212.67
354.39	212.78
354.77	212.82
355.15	213.07
355.54	213.13
355.92	213.07
356.30	213.10
356.68	213.38
357.06	213.46
357.44	213.49
357.82	213.54
358.20	213.65
358.58	213.69
358.97	213.70
359.35	213.75
359.73	213.85
360.11	213.85
360.49	213.93
360.87	213.96
361.25	214.02
361.63	214.25
362.01	214.34
362.39	214.37
362.77	214.44
363.15	214.41
363.53	214.46
363.91	214.55
364.29	214.60
364.67	214.26
365.05	214.32
365.43	214.39
365.81	214.46
366.19	214.55
366.57	214.68
366.95	214.68
367.33	214.60
367.71	214.58
368.09	214.76
368.47	214.76
368.85	214.76
369.23	214.88
369.61	214.67
369.99	214.80
370.37	214.77
370.75	214.94
371.13	214.89
371.51	214.83
371.89	214.83
372.27	214.87
372.65	214.93
373.03	214.87
373.41	214.79
373.78	214.69
374.16	214.47
374.54	214.33
374.92	214.36
375.30	214.35
375.68	214.22
376.06	214.13
376.44	214.06
376.82	214.02
377.19	213.92
377.57	213.86
377.95	213.61
378.33	213.51
378.71	213.23
379.09	213.28
379.47	213.26
379.84	213.17
380.22	213.08
380.60	212.94
380.98	212.84
381.36	212.85
381.73	212.77
382.11	212.86
382.49	212.85
382.87	212.69
383.25	212.70
383.62	213.10
384.00	212.99
384.38	212.94
384.76	212.95
385.13	213.06
385.51	213.06
385.89	213.02
386.27	213.03
386.64	213.07
387.02	212.94
387.40	212.88
387.78	212.92
388.15	212.91
388.53	212.89
388.91	212.83
389.29	212.73
389.66	212.74
390.04	212.63
390.42	212.64
390.79	212.59
391.17	212.51
391.55	212.09
391.92	212.05
392.30	212.06
392.68	212.00
393.05	211.92
393.43	211.93
393.81	212.01
394.18	211.88
394.56	211.86
394.94	211.89
395.31	211.87
395.69	211.94
396.06	211.98
396.44	212.03
396.82	212.04
397.19	212.31
397.57	212.27
397.95	212.31
398.32	212.31
398.70	212.45
399.07	212.58
399.45	212.56
399.82	212.62
400.20	212.62
400.58	212.68
400.95	212.57
401.33	212.68
401.70	212.99
402.08	213.22
402.45	213.35
402.83	213.55
403.20	213.73
403.58	213.83
403.95	214.13
404.33	214.41
404.71	214.64
405.08	214.98
405.46	215.29
405.83	215.63
406.21	215.89
406.58	216.26
406.96	216.64
407.33	217.20
407.70	217.75
408.08	218.55
408.45	219.20
408.83	219.93
409.20	220.50
409.58	221.00
409.95	221.75
410.33	222.54
410.70	223.25
411.08	224.16
411.45	225.15
411.82	226.03
412.20	227.14
412.57	228.49
412.95	229.48
413.32	230.87
413.69	232.24
414.07	233.71
414.44	235.33
414.82	237.01
415.19	238.78
415.56	240.74
415.94	242.68
416.31	245.04
416.68	247.32
417.06	249.97
417.43	252.50
417.81	255.43
418.18	258.51
418.55	261.84
418.93	265.26
419.30	268.82
419.67	272.61
420.04	276.56
420.42	280.73
420.79	285.54
421.16	290.41
421.54	295.46
421.91	300.73
422.28	306.11
422.66	311.80
423.03	317.65
423.40	323.54
423.77	329.93
424.15	336.36
424.52	343.04
424.89	350.40
425.26	357.48
425.64	364.30
426.01	371.71
426.38	379.60
426.75	387.70
427.13	395.97
427.50	404.59
427.87	413.68
428.24	422.85
428.61	431.60
428.99	440.97
429.36	451.41
429.73	461.70
430.10	471.92
430.47	482.45
430.85	493.37
431.22	504.90
431.59	517.05
431.96	528.69
432.33	541.91
432.70	554.66
433.08	569.82
433.45	584.00
433.82	598.23
434.19	613.80
434.56	628.99
434.93	643.84
435.30	658.94
435.68	675.70
436.05	692.18
436.42	708.66
436.79	723.95
437.16	740.36
437.53	757.69
437.90	775.03
438.27	791.96
438.64	809.66
439.01	826.31
439.38	841.33
439.75	855.91
440.13	872.30
440.50	887.77
440.87	900.38
441.24	913.92
441.61	928.76
441.98	940.27
442.35	953.59
442.72	966.78
443.09	979.29
443.46	987.62
443.83	993.45
444.20	998.65
444.57	1005.88
444.94	1009.69
445.31	1013.93
445.68	1017.80
446.05	1020.30
446.42	1020.01
446.79	1019.25
447.16	1018.38
447.53	1018.21
447.90	1013.27
448.27	1008.48
448.64	1001.05
449.01	995.96
449.37	985.83
449.74	975.98
450.11	963.98
450.48	950.96
450.85	937.71
451.22	925.99
451.59	915.10
451.96	904.78
452.33	890.49
452.70	877.79
453.07	862.05
453.43	846.27
453.80	831.10
454.17	816.34
454.54	802.49
454.91	787.50
455.28	772.68
455.65	759.09
456.02	745.17
456.38	733.64
456.75	718.81
457.12	706.62
457.49	694.62
457.86	682.92
458.23	672.73
458.59	661.65
458.96	650.50
459.33	640.72
459.70	630.73
460.07	622.85
460.43	613.69
460.80	605.15
461.17	597.52
461.54	589.71
461.91	582.24
462.27	574.71
462.64	568.26
463.01	561.26
463.38	554.18
463.74	547.31
464.11	541.32
464.48	536.18
464.85	530.45
465.21	526.00
465.58	521.22
465.95	515.63
466.32	510.99
466.68	506.25
467.05	501.42
467.42	496.75
467.78	491.82
468.15	487.25
468.52	483.80
468.88	479.35
469.25	475.28
469.62	472.13
469.98	468.43
470.35	464.99
470.72	461.75
471.08	458.39
471.45	455.42
471.82	452.35
472.18	449.09
472.55	446.65
472.92	443.86
473.28	441.46
473.65	439.14
474.02	436.75
474.38	434.90
474.75	433.30
475.11	431.57
475.48	430.23
475.85	429.02
476.21	427.86
476.58	426.98
476.94	426.33
477.31	425.33
477.67	424.59
478.04	423.99
478.41	423.71
478.77	423.76
479.14	423.36
479.50	423.31
479.87	423.50
480.23	423.66
480.60	423.58
480.96	423.66
481.33	424.24
481.69	424.86
482.06	425.31
482.42	425.65
482.79	426.20
483.15	427.05
483.52	428.25
483.88	429.28
484.25	430.23
484.61	431.46
484.98	432.65
485.34	434.33
485.71	436.19
486.07	437.86
486.44	439.37
486.80	441.45
487.17	443.48
487.53	445.81
487.90	448.34
488.26	451.18
488.62	454.27
488.99	457.12
489.35	459.95
489.72	463.16
490.08	466.60
490.44	470.02
490.81	473.58
491.17	477.09
491.54	480.80
491.90	485.04
492.26	489.17
492.63	493.64
492.99	498.11
493.36	502.78
493.72	507.81
494.08	512.92
494.45	518.26
494.81	524.05
495.17	529.63
495.54	535.46
495.90	541.36
496.26	547.21
496.63	553.48
496.99	560.11
497.35	566.69
497.72	573.39
498.08	580.45
498.44	587.46
498.80	594.88
499.17	602.53
499.53	609.95
499.89	617.86
500.26	625.52
500.62	633.22
500.98	641.17
501.34	649.20
501.71	657.61
502.07	666.06
502.43	674.19
502.79	682.45
503.16	690.84
503.52	699.40
503.88	707.95
504.24	716.53
504.60	725.28
504.97	734.10
505.33	742.89
505.69	752.16
506.05	761.37
506.41	770.24
506.78	778.94
507.14	787.63
507.50	796.20
507.86	805.04
508.22	814.02
508.59	822.82
508.95	831.65
509.31	840.41
509.67	849.05
510.03	857.96
510.39	867.02
510.75	875.93
511.12	884.68
511.48	893.54
511.84	902.23
512.20	910.70
512.56	919.31
512.92	927.92
513.28	936.01
513.64	944.24
514.00	952.45
514.37	960.65
514.73	969.15
515.09	977.30
515.45	985.35
515.81	992.96
516.17	1000.60
516.53	1008.23
516.89	1015.54
517.25	1022.72
517.61	1029.84
517.97	1036.49
518.33	1042.82
518.69	1049.31
519.05	1055.76
519.41	1062.29
519.77	1068.84
520.13	1074.72
520.49	1080.63
520.85	1086.49
521.21	1092.33
521.57	1098.21
521.93	1103.76
522.29	1109.31
522.65	1114.67
523.01	1120.02
523.37	1125.01
523.73	1130.26
524.09	1134.95
524.45	1139.65
524.81	1144.69
525.17	1149.63
525.53	1154.90
525.89	1159.94
526.25	1164.69
526.61	1168.80
526.97	1172.83
527.33	1176.93
527.68	1181.55
528.04	1185.69
528.40	1189.30
528.76	1193.07
529.12	1196.96
529.48	1201.22
529.84	1204.91
530.20	1208.77
530.56	1212.40
530.91	1216.76
531.27	1220.52
531.63	1224.28
531.99	1228.15
532.35	1231.46
532.71	1234.56
533.07	1237.87
533.42	1241.24
533.78	1244.65
534.14	1248.32
534.50	1251.24
534.86	1254.50
535.21	1257.03
535.57	1260.36
535.93	1263.71
536.29	1266.67
536.65	1269.41
537.00	1271.45
537.36	1273.55
537.72	1275.63
538.08	1277.92
538.44	1279.83
538.79	1282.05
539.15	1284.55
539.51	1286.67
539.87	1289.17
540.22	1291.56
540.58	1294.03
540.94	1296.18
541.29	1297.72
541.65	1298.98
542.01	1301.04
542.37	1302.43
542.72	1304.42
543.08	1305.57
543.44	1307.40
543.79	1308.51
544.15	1309.67
544.51	1311.74
544.87	1313.86
545.22	1315.47
545.58	1316.80
545.94	1317.86
546.29	1318.51
546.65	1318.86
547.01	1319.60
547.36	1320.10
547.72	1320.54
548.07	1320.45
548.43	1320.55
548.79	1320.72
549.14	1321.56
549.50	1321.87
549.86	1322.14
550.21	1322.16
550.57	1322.79
550.92	1322.63
551.28	1323.08
551.64	1323.27
551.99	1323.18
552.35	1322.67
552.70	1322.50
553.06	1322.62
553.41	1322.68
553.77	1323.09
554.13	1323.40
554.48	1323.63
554.84	1324.07
555.19	1323.94
555.55	1324.08
555.90	1323.93
556.26	1324.01
556.61	1323.60
556.97	1323.01
557.32	1322.88
557.68	1322.31
558.03	1321.50
558.39	1320.68
558.74	1320.09
559.10	1319.65
559.45	1319.08
559.81	1319.04
560.16	1318.40
560.52	1317.78
560.87	1317.41
561.23	1316.22
561.58	1315.65
561.94	1314.52
562.29	1313.06
562.64	1312.70
563.00	1311.88
563.35	1311.55
563.71	1311.24
564.06	1310.62
564.42	1310.59
564.77	1310.56
565.12	1310.73
565.48	1310.86
565.83	1310.50
566.19	1310.49
566.54	1309.64
566.89	1308.96
567.25	1308.48
567.60	1308.23
567.96	1307.68
568.31	1307.38
568.66	1307.09
569.02	1306.13
569.37	1304.95
569.72	1304.10
570.08	1302.82
570.43	1301.57
570.78	1300.20
571.14	1298.74
571.49	1297.08
571.84	1295.52
572.20	1293.32
572.55	1291.42
572.90	1288.99
573.26	1286.88
573.61	1284.42
573.96	1282.54
574.31	1279.90
574.67	1276.92
575.02	1273.80
575.37	1270.74
575.72	1267.11
576.08	1264.03
576.43	1260.76
576.78	1258.02
577.13	1255.66
577.49	1252.84
577.84	1249.85
578.19	1247.07
578.54	1244.50
578.90	1242.44
579.25	1239.41
579.60	1236.07
579.95	1232.54
580.30	1229.65
580.66	1227.01
581.01	1223.86
581.36	1220.47
581.71	1217.33
582.06	1214.33
582.42	1211.34
582.77	1207.95
583.12	1204.73
583.47	1201.51
583.82	1198.40
584.17	1195.02
584.53	1191.26
584.88	1187.64
585.23	1184.19
585.58	1180.55
585.93	1176.67
586.28	1172.68
586.63	1169.28
586.98	1165.87
587.34	1162.75
587.69	1158.97
588.04	1155.11
588.39	1151.66
588.74	1147.94
589.09	1144.43
589.44	1140.29
589.79	1137.02
590.14	1133.95
590.49	1130.50
590.84	1126.60
591.19	1123.46
591.54	1120.24
591.89	1116.01
592.25	1112.32
592.60	1108.35
592.95	1104.01
593.30	1099.67
593.65	1095.19
594.00	1090.74
594.35	1087.76
594.70	1083.59
595.05	1079.78
595.40	1075.85
595.75	1071.53
596.10	1067.69
596.45	1063.96
596.80	1060.55
597.15	1056.67
597.50	1052.31
597.85	1048.50
598.19	1044.72
598.54	1040.72
598.89	1036.67
599.24	1033.45
599.59	1029.53
599.94	1025.73
600.29	1022.06
600.64	1018.30
600.99	1014.49
601.34	1010.90
601.69	1006.15
602.04	1002.03
602.39	997.70
602.74	993.78
603.08	990.20
603.43	986.56
603.78	982.52
604.13	978.45
604.48	974.26
604.83	970.93
605.18	967.28
605.53	963.45
605.87	959.15
606.22	955.35
606.57	951.07
606.92	947.00
607.27	943.10
607.62	939.28
607.96	935.59
608.31	932.19
608.66	927.95
609.01	923.77
609.36	919.82
609.70	915.96
610.05	911.62
610.40	907.21
610.75	902.86
611.10	898.91
611.44	894.20
611.79	889.74
612.14	885.02
612.49	880.17
612.83	875.96
613.18	871.64
613.53	867.02
613.88	862.48
614.22	858.30
614.57	853.82
614.92	849.43
615.27	844.88
615.61	840.36
615.96	836.31
616.31	832.27
616.65	828.31
617.00	824.25
617.35	820.31
617.70	816.15
618.04	811.75
618.39	807.10
618.74	803.15
619.08	799.09
619.43	795.21
619.78	791.31
620.12	787.23
620.47	783.34
620.82	779.19
621.16	775.07
621.51	770.97
621.85	767.01
622.20	762.98
622.55	759.16
622.89	754.92
623.24	750.92
623.59	746.61
623.93	742.40
624.28	738.50
624.62	734.90
624.97	731.02
625.32	727.24
625.66	723.71
626.01	719.99
626.35	716.18
626.70	712.13
627.04	708.42
627.39	704.71
627.73	701.13
628.08	697.92
628.43	694.37
628.77	690.83
629.12	687.12
629.46	683.76
629.81	680.25
630.15	676.88
630.50	673.22
630.84	669.85
631.19	666.54
631.53	663.09
631.88	659.17
632.22	655.71
632.57	652.55
632.91	649.08
633.26	645.74
633.60	642.42
633.95	639.42
634.29	636.06
634.64	632.88
634.98	629.28
635.32	625.90
635.67	623.08
636.01	620.01
636.36	617.00
636.70	613.87
637.05	610.73
637.39	607.76
637.73	604.89
638.08	602.27
638.42	599.35
638.77	596.47
639.11	593.77
639.45	590.85
639.80	587.69
640.14	584.72
640.49	581.86
640.83	578.95
641.17	575.89
641.52	573.17
641.86	570.10
642.20	567.42
642.55	564.28
642.89	561.23
643.23	558.17
643.58	555.45
643.92	552.47
644.26	549.59
644.61	546.77
644.95	543.90
645.29	540.88
645.64	538.10
645.98	535.20
646.32	532.46
646.66	529.64
647.01	527.11
647.35	524.53
647.69	521.80
648.04	519.33
648.38	516.75
648.72	514.01
649.06	511.40
649.41	508.72
649.75	506.25
650.09	503.71
650.43	501.21
650.78	498.63
651.12	495.96
651.46	493.42
651.80	491.03
652.14	488.73
652.49	486.27
652.83	483.64
653.17	481.10
653.51	478.47
653.85	476.28
654.20	473.77
654.54	471.13
654.88	468.70
655.22	466.14
655.56	463.55
655.90	461.19
656.25	458.75
656.59	456.29
656.93	454.05
657.27	451.77
657.61	449.29
657.95	446.80
658.29	444.62
658.64	442.55
658.98	440.12
659.32	437.65
659.66	435.33
660.00	433.12
660.34	430.92
660.68	428.68
661.02	426.16
661.36	423.96
661.70	421.92
662.05	419.89
662.39	417.94
662.73	416.05
663.07	414.25
663.41	412.38
663.75	410.44
664.09	408.43
664.43	406.30
664.77	404.49
665.11	402.60
665.45	400.77
665.79	398.75
666.13	397.01
666.47	395.24
666.81	393.51
667.15	391.60
667.49	389.97
667.83	388.37
668.17	386.80
668.51	385.20
668.85	383.68
669.19	382.22
669.53	380.51
669.87	378.75
670.21	377.05
670.55	375.42
670.89	374.13
671.23	372.61
671.57	371.16
671.91	369.58
672.25	368.16
672.58	366.77
672.92	365.32
673.26	363.87
673.60	362.36
673.94	360.87
674.28	359.64
674.62	358.27
674.96	356.91
675.30	355.62
675.64	354.28
675.97	352.78
676.31	351.30
676.65	349.95
676.99	348.97
677.33	347.51
677.67	346.26
678.01	344.70
678.34	343.46
678.68	342.25
679.02	340.95
679.36	339.66
679.70	338.31
680.04	337.13
680.37	335.81
680.71	334.66
681.05	333.58
681.39	332.40
681.73	331.19
682.06	330.09
682.40	328.93
682.74	327.83
683.08	326.86
683.42	325.70
683.75	324.63
684.09	323.32
684.43	322.21
684.77	321.08
685.10	320.12
685.44	318.82
685.78	317.69
686.12	316.61
686.45	315.63
686.79	314.53
687.13	313.55
687.46	312.55
687.80	311.77
688.14	310.67
688.48	309.67
688.81	308.60
689.15	307.57
689.49	306.56
689.82	305.57
690.16	304.37
690.50	303.35
690.83	302.38
691.17	301.30
691.51	300.33
691.84	299.31
692.18	298.37
692.52	297.54
692.85	296.72
693.19	295.96
693.52	295.00
693.86	294.02
694.20	293.06
694.53	292.23
694.87	291.10
695.21	290.15
695.54	289.23
695.88	288.34
696.21	287.40
696.55	286.63
696.88	285.71
697.22	284.87
697.56	284.10
697.89	283.25
698.23	282.55
698.56	281.73
698.90	281.06
699.23	280.19
699.57	279.47
699.90	278.57
700.24	277.75
700.58	276.96
700.91	276.40
701.25	275.89
701.58	275.20
701.92	274.60
702.25	273.98
702.59	273.27
702.92	272.54
703.26	271.82
703.59	271.09
703.93	270.79
704.26	270.29
704.60	269.62
704.93	268.99
705.26	268.29
705.60	267.70
705.93	267.04
706.27	266.62
706.60	266.14
706.94	265.75
707.27	265.09
707.61	264.55
707.94	263.94
708.27	263.15
708.61	262.54
708.94	261.90
709.28	261.35
709.61	260.79
709.94	260.33
710.28	259.93
710.61	259.43
710.95	258.55
711.28	258.25
711.61	257.81
711.95	257.42
712.28	256.92
712.61	256.49
712.95	256.12
713.28	255.72
713.61	255.08
713.95	254.48
714.28	254.13
714.61	253.65
714.95	253.20
715.28	252.70
715.61	252.22
715.95	251.74
716.28	251.26
716.61	250.93
716.95	250.45
717.28	250.01
717.61	249.59
717.94	249.21
718.28	248.57
718.61	248.12
718.94	247.57
719.27	247.21
719.61	246.81
719.94	246.42
720.27	245.81
720.60	245.52
720.94	245.20
721.27	244.79
721.60	244.61
721.93	244.20
722.27	244.00
722.60	243.78
722.93	243.59
723.26	243.35
723.59	243.06
723.93	242.82
724.26	242.50
724.59	242.20
724.92	241.93
725.25	241.66
725.59	241.40
725.92	241.16
726.25	240.85
726.58	240.61
726.91	240.32
727.24	240.15
727.57	239.85
727.91	239.46
728.24	239.23
728.57	238.88
728.90	238.74
729.23	238.37
729.56	238.12
729.89	237.78
730.22	237.43
730.55	237.10
730.89	236.82
731.22	236.57
731.55	236.33
731.88	236.09
732.21	235.85
732.54	235.56
732.87	235.35
733.20	235.17
733.53	234.85
733.86	234.58
734.19	234.30
734.52	234.13
734.85	234.20
735.18	233.96
735.51	233.85
735.84	233.57
736.17	233.46
736.50	233.01
736.83	233.21
737.16	232.99
737.49	232.76
737.82	232.47
738.15	232.37
738.48	232.07
738.81	231.80
739.14	231.41
739.47	231.24
739.80	231.04
740.13	230.86
740.46	230.65
740.79	230.38
741.12	230.14
741.45	229.86
741.78	229.49
742.11	229.38
742.44	229.08
742.77	229.00
743.10	228.77
743.43	228.70
743.75	228.12
744.08	228.39
744.41	228.20
744.74	228.12
745.07	227.80
745.40	227.76
745.73	227.82
746.06	227.71
746.39	227.51
746.71	227.32
747.04	227.13
747.37	226.95
747.70	226.88
748.03	226.83
748.36	226.77
748.68	226.60
749.01	226.29
749.34	226.10
749.67	225.88
750.00	225.77
750.33	225.86
750.65	225.77
750.98	225.20
751.31	225.04
751.64	224.80
751.97	224.89
752.29	224.65
752.62	224.32
752.95	224.24
753.28	224.10
753.60	223.91
753.93	223.80
754.26	223.76
754.59	223.49
754.91	223.26
755.24	223.12
755.57	222.98
755.90	222.89
756.22	222.75
756.55	222.59
756.88	222.40
757.20	222.00
757.53	221.79
757.86	221.67
758.19	221.65
758.51	221.54
758.84	221.22
759.17	221.14
759.49	221.07
759.82	221.12
760.15	220.97
760.47	220.90
760.80	220.73
761.13	220.63
761.45	220.52
761.78	220.44
762.11	220.30
762.43	220.11
762.76	219.98
763.08	219.92
763.41	219.85
763.74	219.72
764.06	219.68
764.39	219.58
764.71	219.50
765.04	219.29
765.37	219.22
765.69	219.06
766.02	218.90
766.34	218.76
766.67	218.50
767.00	218.54
767.32	218.59
767.65	218.61
767.97	218.47
768.30	218.42
768.62	218.34
768.95	218.24
769.27	218.26
769.60	218.21
769.92	218.18
770.25	218.00
770.57	217.84
770.90	217.77
771.22	217.68
771.55	217.66
771.87	217.65
772.20	217.59
772.52	217.84
772.85	218.20
773.17	218.18
773.50	218.14
773.82	217.96
774.15	217.73
774.47	217.53
774.80	217.51
775.12	217.43
775.45	217.34
775.77	217.29
776.09	217.23
776.42	217.21
776.74	217.16
777.07	217.12
777.39	217.08
777.72	217.05
778.04	217.07
778.36	216.96
778.69	216.95
779.01	216.96
779.33	216.62
779.66	216.24
779.98	216.14
780.31	216.11
780.63	216.24
780.95	216.27
781.28	216.25
781.60	216.15
781.92	216.15
782.25	216.10
782.57	216.02
782.89	215.93
783.22	215.85
783.54	215.77
783.86	215.72
784.19	215.73
784.51	215.75
784.83	215.56
785.16	215.54
785.48	215.48
785.80	215.40
786.12	215.42
786.45	215.35
786.77	215.34
787.09	215.27
787.42	215.05
787.74	215.00
788.06	214.96
788.38	214.95
788.71	214.87
