SpectraSuite Data File
++++++++++++++++++++++++++++++++++++
Date: Mon Feb 25 17:06:33 EST 2013
User: group
Dark Spectrum Present: No
Reference Spectrum Present: No
Number of Sampled Component Spectra: 1
Spectrometers: USB2E7196
Integration Time (usec): 104000 (USB2E7196)
Spectra Averaged: 20 (USB2E7196)
Boxcar Smoothing: 10 (USB2E7196)
Correct for Electrical Dark: No (USB2E7196)
Strobe/Lamp Enabled: No (USB2E7196)
Correct for Detector Non-linearity: No (USB2E7196)
Correct for Stray Light: No (USB2E7196)
Number of Pixels in Processed Spectrum: 2048
>>>>>Begin Processed Spectral Data<<<<<
339.09	0.00
339.48	198.50
339.86	200.10
340.24	200.80
340.63	203.25
341.01	209.80
341.39	206.80
341.78	209.30
342.16	208.70
342.54	209.95
342.93	198.73
343.31	208.81
343.69	209.46
344.07	209.94
344.46	210.46
344.84	210.80
345.22	210.85
345.60	211.07
345.99	211.17
346.37	211.31
346.75	211.35
347.13	211.38
347.52	211.48
347.90	211.60
348.28	211.54
348.66	211.60
349.05	211.44
349.43	211.43
349.81	211.53
350.19	211.58
350.57	211.58
350.96	211.64
351.34	211.64
351.72	211.65
352.10	211.75
352.48	211.71
352.87	211.85
353.25	211.91
353.63	211.91
354.01	211.87
354.39	211.86
354.77	211.90
355.15	212.07
355.54	212.01
355.92	211.94
356.30	211.96
356.68	212.17
357.06	212.29
357.44	212.27
357.82	212.23
358.20	212.25
358.58	212.30
358.97	212.38
359.35	212.51
359.73	212.50
360.11	212.52
360.49	212.60
360.87	212.55
361.25	212.60
361.63	212.72
362.01	212.80
362.39	212.83
362.77	212.87
363.15	212.80
363.53	212.85
363.91	212.89
364.29	213.02
364.67	212.69
365.05	212.72
365.43	212.78
365.81	212.81
366.19	213.03
366.57	213.13
366.95	213.10
367.33	212.95
367.71	212.99
368.09	213.04
368.47	213.02
368.85	212.98
369.23	212.97
369.61	212.79
369.99	212.83
370.37	212.81
370.75	212.93
371.13	212.87
371.51	212.72
371.89	212.73
372.27	212.57
372.65	212.57
373.03	212.50
373.41	212.37
373.78	212.36
374.16	212.08
374.54	211.97
374.92	211.86
375.30	211.87
375.68	211.71
376.06	211.67
376.44	211.58
376.82	211.56
377.19	211.55
377.57	211.58
377.95	211.46
378.33	211.39
378.71	211.19
379.09	211.19
379.47	211.23
379.84	211.12
380.22	211.12
380.60	211.05
380.98	210.98
381.36	211.00
381.73	210.85
382.11	210.90
382.49	210.80
382.87	210.76
383.25	210.75
383.62	211.20
384.00	211.04
384.38	211.00
384.76	211.02
385.13	211.06
385.51	210.98
385.89	210.92
386.27	210.91
386.64	210.91
387.02	210.83
387.40	210.79
387.78	210.78
388.15	210.82
388.53	210.74
388.91	210.77
389.29	210.74
389.66	210.82
390.04	210.74
390.42	210.84
390.79	210.86
391.17	210.79
391.55	210.39
391.92	210.39
392.30	210.41
392.68	210.36
393.05	210.36
393.43	210.41
393.81	210.38
394.18	210.35
394.56	210.34
394.94	210.40
395.31	210.38
395.69	210.50
396.06	210.50
396.44	210.57
396.82	210.52
397.19	210.64
397.57	210.63
397.95	210.76
398.32	210.61
398.70	210.66
399.07	210.72
399.45	210.70
399.82	210.71
400.20	210.75
400.58	210.76
400.95	210.58
401.33	210.64
401.70	210.96
402.08	210.98
402.45	211.03
402.83	211.10
403.20	211.14
403.58	211.08
403.95	211.20
404.33	211.26
404.71	211.32
405.08	211.60
405.46	211.64
405.83	211.69
406.21	211.81
406.58	211.90
406.96	211.96
407.33	212.14
407.70	212.34
408.08	212.71
408.45	212.89
408.83	213.21
409.20	213.38
409.58	213.32
409.95	213.67
410.33	213.89
410.70	214.01
411.08	214.34
411.45	214.65
411.82	214.81
412.20	215.22
412.57	215.74
412.95	215.76
413.32	216.23
413.69	216.62
414.07	217.07
414.44	217.54
414.82	218.10
415.19	218.71
415.56	219.31
415.94	219.75
416.31	220.53
416.68	221.23
417.06	222.08
417.43	223.02
417.81	223.90
418.18	224.87
418.55	225.94
418.93	227.00
419.30	228.08
419.67	229.25
420.04	230.41
420.42	231.68
420.79	233.42
421.16	234.82
421.54	236.40
421.91	237.98
422.28	239.64
422.66	241.32
423.03	243.18
423.40	244.93
423.77	246.86
424.15	248.70
424.52	250.71
424.89	252.90
425.26	254.89
425.64	256.84
426.01	259.08
426.38	261.42
426.75	263.90
427.13	266.32
427.50	268.95
427.87	271.61
428.24	274.16
428.61	276.53
428.99	279.54
429.36	282.57
429.73	285.65
430.10	288.66
430.47	291.95
430.85	294.95
431.22	298.35
431.59	302.13
431.96	305.60
432.33	309.38
432.70	313.16
433.08	317.56
433.45	321.64
433.82	325.75
434.19	330.26
434.56	334.66
434.93	338.84
435.30	343.10
435.68	347.84
436.05	352.60
436.42	357.18
436.79	361.46
437.16	366.14
437.53	371.04
437.90	375.86
438.27	380.55
438.64	385.53
439.01	390.29
439.38	394.31
439.75	398.38
440.13	402.93
440.50	407.14
440.87	410.71
441.24	414.44
441.61	418.48
441.98	421.60
442.35	425.16
442.72	428.96
443.09	432.47
443.46	434.60
443.83	436.13
444.20	437.56
444.57	439.38
444.94	440.36
445.31	441.42
445.68	442.83
446.05	443.45
446.42	443.25
446.79	442.90
447.16	442.45
447.53	442.32
447.90	440.82
448.27	439.16
448.64	436.90
449.01	435.41
449.37	432.42
449.74	429.49
450.11	426.18
450.48	422.22
450.85	418.20
451.22	414.88
451.59	411.68
451.96	408.64
452.33	404.43
452.70	400.60
453.07	395.87
453.43	390.90
453.80	386.36
454.17	382.15
454.54	377.99
454.91	373.55
455.28	369.23
455.65	365.22
456.02	361.84
456.38	358.37
456.75	354.00
457.12	350.43
457.49	346.97
457.86	343.38
458.23	340.60
458.59	337.44
458.96	334.25
459.33	331.32
459.70	328.52
460.07	326.23
460.43	323.65
460.80	321.37
461.17	319.29
461.54	316.96
461.91	314.75
462.27	312.63
462.64	310.73
463.01	308.61
463.38	306.79
463.74	304.30
464.11	302.53
464.48	301.09
464.85	299.39
465.21	298.15
465.58	296.84
465.95	295.09
466.32	293.78
466.68	292.37
467.05	291.10
467.42	289.73
467.78	288.30
468.15	286.92
468.52	285.90
468.88	284.50
469.25	283.46
469.62	282.53
469.98	281.45
470.35	280.59
470.72	279.71
471.08	278.64
471.45	277.83
471.82	277.03
472.18	276.18
472.55	275.54
472.92	274.65
473.28	273.86
473.65	273.12
474.02	272.40
474.38	271.95
474.75	271.38
475.11	270.81
475.48	270.51
475.85	270.09
476.21	269.65
476.58	269.37
476.94	269.06
477.31	268.74
477.67	268.50
478.04	268.30
478.41	268.09
478.77	268.13
479.14	267.82
479.50	267.76
479.87	267.60
480.23	267.56
480.60	267.43
480.96	267.33
481.33	267.59
481.69	267.55
482.06	267.49
482.42	267.51
482.79	267.56
483.15	267.57
483.52	267.84
483.88	267.98
484.25	268.08
484.61	268.19
484.98	268.23
485.34	268.55
485.71	268.84
486.07	269.13
486.44	269.20
486.80	269.57
487.17	269.86
487.53	270.45
487.90	270.95
488.26	271.65
488.62	272.39
488.99	272.81
489.35	273.51
489.72	274.14
490.08	274.84
490.44	275.49
490.81	276.25
491.17	276.92
491.54	277.74
491.90	278.67
492.26	279.57
492.63	280.61
492.99	281.50
493.36	282.45
493.72	283.53
494.08	284.53
494.45	285.76
494.81	286.98
495.17	288.02
495.54	289.16
495.90	290.22
496.26	291.27
496.63	292.58
496.99	293.80
497.35	295.00
497.72	296.42
498.08	297.78
498.44	299.10
498.80	300.48
499.17	301.83
499.53	303.18
499.89	304.64
500.26	306.02
500.62	307.47
500.98	309.03
501.34	310.43
501.71	312.07
502.07	313.59
502.43	315.07
502.79	316.59
503.16	318.19
503.52	319.79
503.88	321.35
504.24	322.79
504.60	324.43
504.97	326.24
505.33	327.76
505.69	329.56
506.05	331.16
506.41	332.86
506.78	334.50
507.14	336.12
507.50	337.81
507.86	339.45
508.22	341.11
508.59	342.64
508.95	344.38
509.31	346.13
509.67	347.78
510.03	349.50
510.39	351.17
510.75	352.92
511.12	354.54
511.48	356.25
511.84	357.97
512.20	359.57
512.56	361.23
512.92	362.97
513.28	364.65
513.64	366.41
514.00	368.07
514.37	369.80
514.73	371.56
515.09	373.29
515.45	374.93
515.81	376.64
516.17	378.31
516.53	379.99
516.89	381.63
517.25	383.32
517.61	385.10
517.97	386.93
518.33	388.49
518.69	390.45
519.05	392.20
519.41	394.13
519.77	396.23
520.13	398.09
520.49	399.85
520.85	401.70
521.21	403.83
521.57	405.94
521.93	407.88
522.29	409.91
522.65	411.92
523.01	414.27
523.37	416.32
523.73	418.51
524.09	420.62
524.45	422.82
524.81	425.07
525.17	427.35
525.53	429.69
525.89	432.16
526.25	434.44
526.61	436.81
526.97	439.14
527.33	441.55
527.68	444.30
528.04	446.95
528.40	449.28
528.76	451.77
529.12	454.36
529.48	457.11
529.84	459.79
530.20	462.69
530.56	465.42
530.91	468.36
531.27	471.43
531.63	474.40
531.99	477.20
532.35	480.06
532.71	482.92
533.07	485.89
533.42	489.27
533.78	492.44
534.14	495.41
534.50	498.28
534.86	501.38
535.21	504.14
535.57	507.26
535.93	510.51
536.29	513.75
536.65	516.80
537.00	519.85
537.36	522.85
537.72	525.82
538.08	528.85
538.44	531.92
538.79	534.76
539.15	537.96
539.51	541.13
539.87	544.25
540.22	547.43
540.58	550.60
540.94	553.39
541.29	556.32
541.65	559.46
542.01	562.74
542.37	565.78
542.72	568.89
543.08	571.97
543.44	575.20
543.79	577.99
544.15	581.19
544.51	584.49
544.87	587.80
545.22	590.73
545.58	593.64
545.94	596.53
546.29	599.51
546.65	602.21
547.01	605.03
547.36	608.06
547.72	610.75
548.07	613.62
548.43	616.22
548.79	618.75
549.14	621.38
549.50	624.21
549.86	626.61
550.21	629.20
550.57	631.76
550.92	634.11
551.28	636.52
551.64	638.76
551.99	641.15
552.35	643.18
552.70	645.56
553.06	647.87
553.41	650.16
553.77	652.62
554.13	654.72
554.48	656.95
554.84	659.06
555.19	661.16
555.55	663.27
555.90	665.34
556.26	667.32
556.61	669.25
556.97	670.78
557.32	672.69
557.68	674.35
558.03	675.92
558.39	677.51
558.74	679.34
559.10	681.03
559.45	682.63
559.81	684.39
560.16	685.77
560.52	687.32
560.87	688.80
561.23	689.88
561.58	691.84
561.94	693.14
562.29	694.42
562.64	695.86
563.00	697.01
563.35	698.40
563.71	700.05
564.06	701.37
564.42	702.91
564.77	704.25
565.12	705.88
565.48	707.34
565.83	708.75
566.19	710.23
566.54	711.39
566.89	712.28
567.25	713.56
567.60	714.87
567.96	716.28
568.31	717.49
568.66	718.62
569.02	719.14
569.37	719.85
569.72	720.57
570.08	721.23
570.43	721.77
570.78	722.08
571.14	722.27
571.49	722.55
571.84	722.68
572.20	722.78
572.55	722.67
572.90	722.65
573.26	722.53
573.61	722.10
573.96	721.93
574.31	721.67
574.67	721.14
575.02	720.47
575.37	719.65
575.72	718.86
576.08	718.50
576.43	717.94
576.78	717.47
577.13	717.05
577.49	716.42
577.84	715.87
578.19	715.53
578.54	715.15
578.90	714.95
579.25	714.70
579.60	714.19
579.95	713.47
580.30	713.00
580.66	712.65
581.01	712.16
581.36	711.55
581.71	711.01
582.06	710.67
582.42	710.33
582.77	709.75
583.12	709.44
583.47	708.82
583.82	708.42
584.17	707.91
584.53	707.45
584.88	706.91
585.23	706.35
585.58	705.60
585.93	704.83
586.28	704.16
586.63	703.45
586.98	702.84
587.34	702.40
587.69	701.53
588.04	700.68
588.39	700.00
588.74	699.00
589.09	698.38
589.44	697.35
589.79	696.69
590.14	695.97
590.49	694.90
590.84	693.79
591.19	692.90
591.54	691.98
591.89	690.68
592.25	689.85
592.60	688.75
592.95	687.65
593.30	686.41
593.65	684.90
594.00	683.48
594.35	683.09
594.70	681.74
595.05	680.60
595.40	679.44
595.75	678.10
596.10	677.08
596.45	675.94
596.80	674.97
597.15	673.94
597.50	672.70
597.85	671.74
598.19	670.75
598.54	669.66
598.89	668.51
599.24	667.61
599.59	666.38
599.94	665.38
600.29	664.28
600.64	663.37
600.99	662.35
601.34	661.34
601.69	659.45
602.04	658.39
602.39	657.30
602.74	656.31
603.08	655.43
603.43	654.74
603.78	653.56
604.13	652.53
604.48	651.31
604.83	650.52
605.18	649.57
605.53	648.28
605.87	646.91
606.22	646.02
606.57	644.69
606.92	643.45
607.27	642.11
607.62	640.87
607.96	639.79
608.31	638.94
608.66	637.56
609.01	636.08
609.36	634.62
609.70	633.20
610.05	631.64
610.40	630.25
610.75	628.44
611.10	627.15
611.44	625.14
611.79	623.32
612.14	621.48
612.49	619.45
612.83	617.98
613.18	616.25
613.53	614.30
613.88	612.49
614.22	610.76
614.57	608.88
614.92	607.15
615.27	605.20
615.61	603.08
615.96	601.46
616.31	599.95
616.65	598.48
617.00	596.72
617.35	594.88
617.70	592.91
618.04	591.05
618.39	588.86
618.74	587.20
619.08	585.25
619.43	583.39
619.78	581.69
620.12	579.76
620.47	578.08
620.82	576.11
621.16	574.08
621.51	572.31
621.85	570.54
622.20	568.70
622.55	566.74
622.89	564.80
623.24	562.84
623.59	560.71
623.93	558.60
624.28	556.65
624.62	555.15
624.97	553.44
625.32	551.59
625.66	549.82
626.01	547.98
626.35	546.28
626.70	544.24
627.04	542.47
627.39	540.58
627.73	538.85
628.08	537.06
628.43	535.24
628.77	533.25
629.12	531.39
629.46	529.60
629.81	527.79
630.15	526.05
630.50	524.29
630.84	522.54
631.19	520.77
631.53	519.16
631.88	516.88
632.22	514.76
632.57	513.05
632.91	511.39
633.26	509.73
633.60	507.91
633.95	506.42
634.29	504.55
634.64	502.86
634.98	500.85
635.32	499.26
635.67	497.82
636.01	496.19
636.36	494.38
636.70	492.79
637.05	491.08
637.39	489.44
637.73	487.74
638.08	486.37
638.42	484.80
638.77	483.18
639.11	481.59
639.45	479.97
639.80	478.11
640.14	476.24
640.49	474.31
640.83	472.46
641.17	470.74
641.52	468.99
641.86	467.30
642.20	465.81
642.55	463.81
642.89	461.90
643.23	460.04
643.58	458.62
643.92	456.79
644.26	454.99
644.61	453.26
644.95	451.41
645.29	449.29
645.64	447.52
645.98	445.67
646.32	444.01
646.66	442.14
647.01	440.47
647.35	438.80
647.69	437.15
648.04	435.64
648.38	433.85
648.72	432.18
649.06	430.32
649.41	428.51
649.75	426.91
650.09	425.39
650.43	423.76
650.78	421.80
651.12	420.07
651.46	418.45
651.80	416.76
652.14	415.20
652.49	413.66
652.83	412.04
653.17	410.24
653.51	408.57
653.85	407.25
654.20	405.63
654.54	403.99
654.88	402.37
655.22	400.83
655.56	399.06
655.90	397.30
656.25	395.78
656.59	394.15
656.93	392.63
657.27	391.00
657.61	389.34
657.95	387.91
658.29	386.31
658.64	384.91
658.98	383.27
659.32	381.56
659.66	380.10
660.00	378.43
660.34	376.89
660.68	375.22
661.02	373.35
661.36	371.83
661.70	370.35
662.05	368.88
662.39	367.47
662.73	366.26
663.07	365.07
663.41	363.65
663.75	362.21
664.09	360.72
664.43	359.27
664.77	358.00
665.11	356.58
665.45	355.20
665.79	353.95
666.13	352.78
666.47	351.49
666.81	350.13
667.15	348.82
667.49	347.68
667.83	346.61
668.17	345.58
668.51	344.42
668.85	343.33
669.19	342.27
669.53	340.98
669.87	339.66
670.21	338.38
670.55	337.26
670.89	336.30
671.23	335.31
671.57	334.25
671.91	333.15
672.25	332.03
672.58	331.06
672.92	329.81
673.26	328.80
673.60	327.86
673.94	326.79
674.28	325.82
674.62	324.89
674.96	323.84
675.30	322.77
675.64	321.75
675.97	320.70
676.31	319.68
676.65	318.66
676.99	317.85
677.33	316.85
677.67	315.90
678.01	314.69
678.34	313.62
678.68	312.73
679.02	311.70
679.36	310.74
679.70	309.78
680.04	308.88
680.37	307.72
680.71	306.80
681.05	305.98
681.39	305.15
681.73	304.18
682.06	303.28
682.40	302.48
682.74	301.69
683.08	300.96
683.42	300.07
683.75	299.22
684.09	298.19
684.43	297.37
684.77	296.45
685.10	295.66
685.44	295.00
685.78	294.06
686.12	293.37
686.45	292.59
686.79	291.80
687.13	291.13
687.46	290.43
687.80	289.76
688.14	288.86
688.48	288.01
688.81	287.25
689.15	286.55
689.49	285.71
689.82	284.94
690.16	283.99
690.50	283.14
690.83	282.45
691.17	281.68
691.51	281.00
691.84	280.36
692.18	279.68
692.52	278.86
692.85	278.31
693.19	277.76
693.52	277.13
693.86	276.40
694.20	275.70
694.53	275.05
694.87	274.24
695.21	273.53
695.54	272.92
695.88	272.11
696.21	271.39
696.55	270.80
696.88	270.12
697.22	269.51
697.56	268.94
697.89	268.26
698.23	267.79
698.56	267.05
698.90	266.54
699.23	265.88
699.57	265.34
699.90	264.63
700.24	263.88
700.58	263.25
700.91	262.75
701.25	262.43
701.58	261.99
701.92	261.62
702.25	261.18
702.59	260.62
702.92	260.19
703.26	259.64
703.59	259.13
703.93	258.86
704.26	258.38
704.60	257.90
704.93	257.39
705.26	256.81
705.60	256.45
705.93	255.85
706.27	255.50
706.60	255.04
706.94	254.76
707.27	254.23
707.61	253.82
707.94	253.27
708.27	252.48
708.61	251.99
708.94	251.51
709.28	251.20
709.61	250.76
709.94	250.42
710.28	250.01
710.61	249.72
710.95	249.06
711.28	248.92
711.61	248.48
711.95	248.18
712.28	247.81
712.61	247.40
712.95	247.24
713.28	246.96
713.61	246.56
713.95	246.08
714.28	245.78
714.61	245.29
714.95	244.98
715.28	244.58
715.61	244.11
715.95	243.72
716.28	243.24
716.61	242.94
716.95	242.51
717.28	242.25
717.61	241.78
717.94	241.51
718.28	240.94
718.61	240.65
718.94	240.29
719.27	240.03
719.61	239.77
719.94	239.32
720.27	238.92
720.60	238.59
720.94	238.30
721.27	238.03
721.60	237.83
721.93	237.55
722.27	237.45
722.60	237.30
722.93	237.01
723.26	236.77
723.59	236.39
723.93	236.23
724.26	235.91
724.59	235.68
724.92	235.41
725.25	235.30
725.59	235.02
725.92	234.82
726.25	234.56
726.58	234.32
726.91	234.07
727.24	233.83
727.57	233.59
727.91	233.36
728.24	233.17
728.57	232.95
728.90	232.76
729.23	232.42
729.56	232.30
729.89	232.10
730.22	231.88
730.55	231.73
730.89	231.40
731.22	231.18
731.55	230.92
731.88	230.70
732.21	230.38
732.54	230.09
732.87	229.92
733.20	229.78
733.53	229.65
733.86	229.49
734.19	229.31
734.52	229.20
734.85	229.16
735.18	229.00
735.51	228.94
735.84	228.82
736.17	228.80
736.50	228.47
736.83	228.66
737.16	228.52
737.49	228.39
737.82	228.26
738.15	228.11
738.48	228.00
738.81	227.81
739.14	227.67
739.47	227.57
739.80	227.35
740.13	227.18
740.46	226.90
740.79	226.72
741.12	226.57
741.45	226.32
741.78	226.02
742.11	225.90
742.44	225.74
742.77	225.60
743.10	225.35
743.43	225.28
743.75	224.89
744.08	225.16
744.41	224.95
744.74	224.80
745.07	224.68
745.40	224.62
745.73	224.70
746.06	224.55
746.39	224.44
746.71	224.30
747.04	224.04
747.37	223.92
747.70	223.84
748.03	223.78
748.36	223.75
748.68	223.64
749.01	223.37
749.34	223.15
749.67	223.04
750.00	222.94
750.33	222.99
750.65	222.85
750.98	222.34
751.31	222.24
751.64	222.13
751.97	222.20
752.29	222.07
752.62	221.76
752.95	221.64
753.28	221.55
753.60	221.47
753.93	221.58
754.26	221.54
754.59	221.25
754.91	221.04
755.24	220.94
755.57	220.84
755.90	220.71
756.22	220.61
756.55	220.49
756.88	220.43
757.20	220.13
757.53	219.95
757.86	219.80
758.19	219.80
758.51	219.74
758.84	219.48
759.17	219.29
759.49	219.23
759.82	219.36
760.15	219.30
760.47	219.17
760.80	218.94
761.13	218.90
761.45	218.92
761.78	218.90
762.11	218.85
762.43	218.77
762.76	218.77
763.08	218.69
763.41	218.58
763.74	218.44
764.06	218.29
764.39	218.18
764.71	218.12
765.04	217.97
765.37	217.83
765.69	217.72
766.02	217.70
766.34	217.56
766.67	217.30
767.00	217.28
767.32	217.43
767.65	217.52
767.97	217.47
768.30	217.37
768.62	217.27
768.95	217.13
769.27	217.10
769.60	217.08
769.92	216.94
770.25	216.88
770.57	216.78
770.90	216.74
771.22	216.74
771.55	216.70
771.87	216.61
772.20	216.60
772.52	216.79
772.85	217.23
773.17	217.23
773.50	217.17
773.82	217.03
774.15	216.80
774.47	216.54
774.80	216.45
775.12	216.36
775.45	216.30
775.77	216.30
776.09	216.24
776.42	216.19
776.74	216.36
777.07	216.27
777.39	216.34
777.72	216.26
778.04	216.20
778.36	216.10
778.69	216.09
779.01	216.01
779.33	215.73
779.66	215.22
779.98	215.21
780.31	215.20
780.63	215.30
780.95	215.34
781.28	215.32
781.60	215.20
781.92	215.16
782.25	215.12
782.57	215.08
782.89	214.98
783.22	214.92
783.54	214.74
783.86	214.72
784.19	214.62
784.51	214.76
784.83	214.71
785.16	214.76
785.48	214.74
785.80	214.79
786.12	214.80
786.45	214.71
786.77	214.69
787.09	214.63
787.42	214.50
787.74	214.45
788.06	214.43
788.38	214.45
788.71	214.40
789.03	214.42
789.35	214.43
789.67	214.35
789.99	214.31
790.32	214.24
790.64	214.33
790.96	214.59
791.28	214.40
791.61	214.41
791.93	214.30
792.25	214.25
792.57	214.43
792.89	214.31
793.21	214.37
793.54	214.27
793.86	214.16
794.18	214.12
