SpectraSuite Data File
++++++++++++++++++++++++++++++++++++
Date: Mon Feb 25 17:18:59 EST 2013
User: group
Dark Spectrum Present: No
Reference Spectrum Present: No
Number of Sampled Component Spectra: 1
Spectrometers: USB2E7196
Integration Time (usec): 104000 (USB2E7196)
Spectra Averaged: 20 (USB2E7196)
Boxcar Smoothing: 10 (USB2E7196)
Correct for Electrical Dark: No (USB2E7196)
Strobe/Lamp Enabled: No (USB2E7196)
Correct for Detector Non-linearity: No (USB2E7196)
Correct for Stray Light: No (USB2E7196)
Number of Pixels in Processed Spectrum: 2048
>>>>>Begin Processed Spectral Data<<<<<
339.09	0.00
339.48	199.10
339.86	200.70
340.24	202.45
340.63	202.85
341.01	209.05
341.39	206.20
341.78	207.40
342.16	209.85
342.54	208.20
342.93	198.43
343.31	208.43
343.69	208.94
344.07	209.42
344.46	209.84
344.84	210.28
345.22	210.40
345.60	210.63
345.99	210.87
346.37	210.96
346.75	211.12
347.13	211.27
347.52	211.29
347.90	211.46
348.28	211.47
348.66	211.67
349.05	211.59
349.43	211.64
349.81	211.72
350.19	211.73
350.57	211.82
350.96	211.94
351.34	212.03
351.72	212.15
352.10	212.25
352.48	212.31
352.87	212.38
353.25	212.41
353.63	212.50
354.01	212.51
354.39	212.65
354.77	212.74
355.15	212.81
355.54	212.88
355.92	212.79
356.30	212.88
356.68	213.16
357.06	213.25
357.44	213.25
357.82	213.35
358.20	213.45
358.58	213.47
358.97	213.61
359.35	213.76
359.73	213.92
360.11	213.96
360.49	214.08
360.87	214.06
361.25	214.19
361.63	214.38
362.01	214.43
362.39	214.36
362.77	214.39
363.15	214.41
363.53	214.44
363.91	214.54
364.29	214.58
364.67	214.22
365.05	214.33
365.43	214.42
365.81	214.47
366.19	214.66
366.57	214.82
366.95	214.82
367.33	214.76
367.71	214.74
368.09	214.86
368.47	214.85
368.85	214.89
369.23	214.98
369.61	214.84
369.99	215.00
370.37	215.02
370.75	215.25
371.13	215.25
371.51	215.16
371.89	215.26
372.27	215.25
372.65	215.29
373.03	215.22
373.41	215.15
373.78	215.09
374.16	214.93
374.54	214.84
374.92	214.82
375.30	214.83
375.68	214.76
376.06	214.69
376.44	214.66
376.82	214.64
377.19	214.58
377.57	214.49
377.95	214.28
378.33	214.26
378.71	214.02
379.09	213.99
379.47	214.06
379.84	213.86
380.22	213.83
380.60	213.73
380.98	213.71
381.36	213.64
381.73	213.56
382.11	213.59
382.49	213.57
382.87	213.46
383.25	213.43
383.62	213.78
384.00	213.66
384.38	213.61
384.76	213.56
385.13	213.64
385.51	213.64
385.89	213.67
386.27	213.65
386.64	213.64
387.02	213.62
387.40	213.60
387.78	213.59
388.15	213.61
388.53	213.58
388.91	213.55
389.29	213.51
389.66	213.56
390.04	213.42
390.42	213.42
390.79	213.33
391.17	213.28
391.55	212.86
391.92	212.88
392.30	212.93
392.68	212.93
393.05	212.90
393.43	212.88
393.81	212.86
394.18	212.82
394.56	212.83
394.94	212.86
395.31	212.83
395.69	212.99
396.06	212.99
396.44	213.02
396.82	213.10
397.19	213.23
397.57	213.20
397.95	213.28
398.32	213.16
398.70	213.35
399.07	213.46
399.45	213.53
399.82	213.57
400.20	213.54
400.58	213.56
400.95	213.45
401.33	213.61
401.70	213.90
402.08	214.02
402.45	214.13
402.83	214.33
403.20	214.44
403.58	214.49
403.95	214.63
404.33	214.80
404.71	214.87
405.08	215.29
405.46	215.41
405.83	215.65
406.21	215.83
406.58	215.97
406.96	216.09
407.33	216.26
407.70	216.55
408.08	217.05
408.45	217.38
408.83	217.76
409.20	218.07
409.58	218.22
409.95	218.58
410.33	219.00
410.70	219.19
411.08	219.67
411.45	220.11
411.82	220.55
412.20	221.09
412.57	221.87
412.95	222.15
413.32	222.95
413.69	223.60
414.07	224.46
414.44	225.28
414.82	226.15
415.19	227.16
415.56	228.14
415.94	228.96
416.31	230.12
416.68	231.21
417.06	232.48
417.43	233.83
417.81	235.29
418.18	236.68
418.55	238.30
418.93	239.90
419.30	241.59
419.67	243.45
420.04	245.30
420.42	247.13
420.79	249.47
421.16	251.65
421.54	254.13
421.91	256.44
422.28	258.95
422.66	261.65
423.03	264.45
423.40	267.13
423.77	269.99
424.15	272.85
424.52	275.98
424.89	279.29
425.26	282.36
425.64	285.35
426.01	288.75
426.38	292.23
426.75	295.76
427.13	299.45
427.50	303.16
427.87	307.28
428.24	311.30
428.61	315.15
428.99	319.47
429.36	323.81
429.73	328.30
430.10	332.72
430.47	337.32
430.85	341.84
431.22	346.80
431.59	352.29
431.96	357.37
432.33	362.80
432.70	368.21
433.08	374.65
433.45	380.63
433.82	386.44
434.19	392.97
434.56	399.45
434.93	405.64
435.30	411.88
435.68	418.64
436.05	425.33
436.42	431.95
436.79	438.09
437.16	444.67
437.53	451.71
437.90	458.66
438.27	465.31
438.64	472.38
439.01	479.01
439.38	484.57
439.75	490.19
440.13	496.68
440.50	502.63
440.87	507.41
441.24	512.42
441.61	517.99
441.98	522.13
442.35	526.77
442.72	531.49
443.09	536.21
443.46	538.76
443.83	540.65
444.20	542.20
444.57	544.41
444.94	545.42
445.31	546.43
445.68	547.64
446.05	548.11
446.42	547.17
446.79	546.23
447.16	545.26
447.53	544.53
447.90	541.79
448.27	539.11
448.64	535.49
449.01	532.78
449.37	528.25
449.74	523.72
450.11	518.72
450.48	513.00
450.85	506.98
451.22	502.09
451.59	497.15
451.96	492.45
452.33	486.29
452.70	480.72
453.07	473.91
453.43	466.82
453.80	460.40
454.17	454.33
454.54	448.29
454.91	441.88
455.28	435.67
455.65	429.96
456.02	424.55
456.38	419.64
456.75	413.74
457.12	408.65
457.49	403.75
457.86	398.81
458.23	394.68
458.59	390.19
458.96	385.63
459.33	381.59
459.70	377.54
460.07	374.32
460.43	370.68
460.80	367.35
461.17	364.50
461.54	361.25
461.91	358.22
462.27	355.27
462.64	352.70
463.01	349.96
463.38	347.35
463.74	344.34
464.11	341.86
464.48	339.81
464.85	337.54
465.21	335.85
465.58	333.97
465.95	331.75
466.32	330.02
466.68	328.21
467.05	326.52
467.42	324.75
467.78	322.90
468.15	321.20
468.52	320.05
468.88	318.22
469.25	316.74
469.62	315.59
469.98	314.30
470.35	313.37
470.72	312.15
471.08	310.79
471.45	309.92
471.82	309.02
472.18	307.85
472.55	307.12
472.92	306.17
473.28	305.34
473.65	304.55
474.02	303.78
474.38	303.26
474.75	302.88
475.11	302.45
475.48	302.14
475.85	301.95
476.21	301.67
476.58	301.70
476.94	301.72
477.31	301.71
477.67	301.75
478.04	301.72
478.41	301.98
478.77	302.66
479.14	302.82
479.50	303.27
479.87	303.79
480.23	304.44
480.60	304.96
480.96	305.60
481.33	306.59
481.69	307.40
482.06	308.23
482.42	309.00
482.79	310.10
483.15	311.20
483.52	312.58
483.88	313.85
484.25	315.07
484.61	316.57
484.98	318.01
485.34	319.87
485.71	321.80
486.07	323.81
486.44	325.51
486.80	327.62
487.17	329.85
487.53	332.51
487.90	335.02
488.26	338.02
488.62	341.00
488.99	343.98
489.35	347.07
489.72	350.50
490.08	354.13
490.44	357.75
490.81	361.80
491.17	365.80
491.54	370.17
491.90	374.77
492.26	379.39
492.63	384.35
492.99	389.55
493.36	394.90
493.72	400.67
494.08	406.60
494.45	412.90
494.81	419.62
495.17	426.36
495.54	433.82
495.90	441.22
496.26	448.94
496.63	457.06
496.99	465.56
497.35	474.40
497.72	483.62
498.08	493.09
498.44	502.88
498.80	513.30
499.17	524.12
499.53	535.22
499.89	546.97
500.26	558.83
500.62	570.77
500.98	583.77
501.34	596.81
501.71	610.73
502.07	624.78
502.43	639.11
502.79	653.72
503.16	668.85
503.52	684.50
503.88	700.80
504.24	717.58
504.60	734.65
504.97	752.26
505.33	770.05
505.69	789.13
506.05	808.66
506.41	828.11
506.78	847.93
507.14	868.12
507.50	888.84
507.86	910.30
508.22	932.16
508.59	954.17
508.95	976.86
509.31	999.71
509.67	1023.40
510.03	1047.43
510.39	1072.44
510.75	1097.59
511.12	1122.99
511.48	1148.56
511.84	1174.60
512.20	1200.84
512.56	1227.90
512.92	1255.27
513.28	1283.03
513.64	1310.42
514.00	1338.18
514.37	1366.48
514.73	1395.41
515.09	1424.12
515.45	1453.00
515.81	1482.19
516.17	1511.40
516.53	1540.96
516.89	1570.55
517.25	1599.93
517.61	1629.75
517.97	1659.14
518.33	1688.31
518.69	1718.02
519.05	1747.92
519.41	1777.85
519.77	1808.47
520.13	1837.97
520.49	1867.55
520.85	1896.96
521.21	1926.98
521.57	1957.32
521.93	1986.41
522.29	2016.90
522.65	2047.20
523.01	2076.92
523.37	2106.10
523.73	2135.58
524.09	2165.01
524.45	2194.54
524.81	2223.97
525.17	2253.21
525.53	2282.53
525.89	2311.94
526.25	2340.62
526.61	2368.61
526.97	2397.08
527.33	2424.85
527.68	2453.11
528.04	2480.42
528.40	2506.81
528.76	2533.35
529.12	2560.36
529.48	2588.34
529.84	2614.25
530.20	2640.21
530.56	2666.35
530.91	2693.47
531.27	2719.79
531.63	2745.08
531.99	2770.15
532.35	2794.42
532.71	2818.65
533.07	2843.01
533.42	2866.02
533.78	2889.99
534.14	2913.12
534.50	2934.18
534.86	2955.97
535.21	2976.78
535.57	2999.04
535.93	3020.14
536.29	3040.35
536.65	3060.49
537.00	3079.31
537.36	3097.89
537.72	3115.98
538.08	3133.68
538.44	3150.97
538.79	3168.56
539.15	3186.26
539.51	3203.22
539.87	3221.04
540.22	3237.20
540.58	3254.26
540.94	3270.73
541.29	3284.50
541.65	3297.98
542.01	3312.66
542.37	3326.67
542.72	3340.50
543.08	3352.49
543.44	3366.22
543.79	3378.16
544.15	3388.94
544.51	3400.68
544.87	3412.81
545.22	3422.99
545.58	3432.90
545.94	3441.32
546.29	3448.87
546.65	3455.64
547.01	3462.56
547.36	3468.88
547.72	3475.44
548.07	3479.43
548.43	3484.11
548.79	3489.11
549.14	3494.32
549.50	3498.87
549.86	3502.03
550.21	3505.05
550.57	3508.95
550.92	3510.60
551.28	3512.81
551.64	3515.13
551.99	3517.27
552.35	3517.87
552.70	3519.28
553.06	3520.53
553.41	3521.72
553.77	3522.02
554.13	3522.41
554.48	3523.17
554.84	3523.39
555.19	3522.52
555.55	3521.46
555.90	3519.59
556.26	3518.05
556.61	3516.16
556.97	3513.20
557.32	3511.56
557.68	3508.47
558.03	3505.17
558.39	3502.22
558.74	3500.46
559.10	3497.79
559.45	3494.01
559.81	3490.85
560.16	3486.69
560.52	3483.10
560.87	3478.67
561.23	3473.76
561.58	3469.88
561.94	3464.09
562.29	3457.89
562.64	3453.26
563.00	3448.67
563.35	3444.85
563.71	3440.81
564.06	3436.31
564.42	3432.51
564.77	3428.25
565.12	3424.50
565.48	3419.98
565.83	3415.48
566.19	3410.59
566.54	3404.20
566.89	3398.15
567.25	3392.25
567.60	3386.76
567.96	3380.50
568.31	3374.95
568.66	3368.91
569.02	3361.70
569.37	3354.47
569.72	3348.14
570.08	3340.55
570.43	3332.84
570.78	3324.34
571.14	3315.47
571.49	3306.65
571.84	3298.60
572.20	3288.67
572.55	3279.71
572.90	3269.50
573.26	3259.11
573.61	3248.45
573.96	3238.79
574.31	3227.93
574.67	3216.29
575.02	3204.89
575.37	3193.46
575.72	3181.31
576.08	3170.94
576.43	3159.16
576.78	3148.72
577.13	3138.24
577.49	3127.22
577.84	3116.40
578.19	3106.05
578.54	3096.50
578.90	3087.30
579.25	3075.74
579.60	3063.93
579.95	3051.79
580.30	3041.45
580.66	3031.44
581.01	3019.69
581.36	3008.17
581.71	2997.20
582.06	2986.29
582.42	2975.72
582.77	2963.82
583.12	2952.95
583.47	2942.25
583.82	2932.41
584.17	2920.88
584.53	2909.52
584.88	2898.30
585.23	2886.96
585.58	2875.70
585.93	2863.79
586.28	2852.29
586.63	2840.83
586.98	2830.56
587.34	2820.54
587.69	2809.17
588.04	2797.74
588.39	2787.58
588.74	2775.99
589.09	2765.48
589.44	2754.69
589.79	2744.14
590.14	2734.15
590.49	2723.39
590.84	2712.28
591.19	2702.21
591.54	2691.63
591.89	2679.44
592.25	2668.42
592.60	2656.77
592.95	2645.00
593.30	2632.85
593.65	2620.08
594.00	2608.62
594.35	2598.75
594.70	2587.15
595.05	2576.60
595.40	2565.82
595.75	2554.03
596.10	2544.02
596.45	2533.65
596.80	2523.75
597.15	2513.70
597.50	2503.02
597.85	2492.80
598.19	2481.95
598.54	2470.79
598.89	2461.12
599.24	2452.15
599.59	2442.35
599.94	2433.81
600.29	2424.43
600.64	2415.13
600.99	2405.53
601.34	2396.48
601.69	2385.48
602.04	2375.25
602.39	2365.16
602.74	2355.06
603.08	2346.59
603.43	2337.88
603.78	2327.94
604.13	2318.18
604.48	2308.26
604.83	2300.46
605.18	2292.21
605.53	2282.98
605.87	2273.46
606.22	2264.37
606.57	2254.75
606.92	2245.16
607.27	2234.82
607.62	2225.12
607.96	2216.04
608.31	2207.57
608.66	2197.44
609.01	2187.24
609.36	2177.44
609.70	2166.93
610.05	2156.75
610.40	2146.15
610.75	2134.85
611.10	2125.16
611.44	2113.60
611.79	2102.59
612.14	2090.23
612.49	2077.50
612.83	2066.53
613.18	2054.97
613.53	2043.20
613.88	2031.07
614.22	2019.91
614.57	2008.62
614.92	1997.28
615.27	1985.63
615.61	1973.85
615.96	1963.26
616.31	1953.28
616.65	1943.48
617.00	1933.39
617.35	1922.65
617.70	1911.57
618.04	1900.28
618.39	1888.35
618.74	1877.87
619.08	1866.70
619.43	1855.97
619.78	1846.13
620.12	1835.73
620.47	1825.66
620.82	1814.38
621.16	1803.67
621.51	1792.90
621.85	1782.52
622.20	1771.53
622.55	1760.90
622.89	1750.03
623.24	1739.27
623.59	1727.77
623.93	1716.65
624.28	1705.71
624.62	1695.31
624.97	1685.08
625.32	1675.33
625.66	1665.80
626.01	1656.10
626.35	1646.43
626.70	1636.49
627.04	1626.84
627.39	1617.02
627.73	1607.16
628.08	1598.28
628.43	1588.60
628.77	1578.95
629.12	1568.93
629.46	1560.36
629.81	1551.00
630.15	1542.02
630.50	1532.57
630.84	1523.06
631.19	1513.46
631.53	1504.50
631.88	1494.58
632.22	1484.72
632.57	1475.45
632.91	1465.93
633.26	1456.23
633.60	1446.98
633.95	1438.05
634.29	1428.69
634.64	1419.64
634.98	1410.29
635.32	1401.27
635.67	1393.14
636.01	1384.69
636.36	1375.75
636.70	1366.89
637.05	1358.07
637.39	1349.37
637.73	1341.20
638.08	1333.83
638.42	1326.34
638.77	1318.04
639.11	1310.17
639.45	1302.12
639.80	1293.40
640.14	1284.66
640.49	1276.45
640.83	1268.03
641.17	1259.69
641.52	1251.23
641.86	1242.46
642.20	1234.17
642.55	1225.13
642.89	1216.41
643.23	1207.20
643.58	1199.23
643.92	1190.17
644.26	1181.80
644.61	1173.57
644.95	1164.75
645.29	1156.16
645.64	1147.21
645.98	1139.12
646.32	1131.05
646.66	1122.74
647.01	1114.99
647.35	1107.27
647.69	1098.74
648.04	1090.82
648.38	1082.52
648.72	1074.43
649.06	1066.35
649.41	1058.50
649.75	1050.82
650.09	1043.06
650.43	1035.57
650.78	1027.42
651.12	1019.75
651.46	1012.14
651.80	1004.48
652.14	997.00
652.49	989.13
652.83	981.44
653.17	972.87
653.51	965.01
653.85	957.49
654.20	949.82
654.54	941.99
654.88	934.74
655.22	927.05
655.56	919.53
655.90	912.13
656.25	904.75
656.59	897.25
656.93	890.15
657.27	882.95
657.61	875.61
657.95	868.85
658.29	861.95
658.64	855.09
658.98	848.01
659.32	841.00
659.66	834.17
660.00	827.23
660.34	820.66
660.68	813.88
661.02	807.11
661.36	800.69
661.70	794.31
662.05	788.29
662.39	782.51
662.73	776.69
663.07	770.93
663.41	765.17
663.75	759.24
664.09	753.15
664.43	746.93
664.77	741.33
665.11	735.35
665.45	729.71
665.79	724.01
666.13	718.46
666.47	712.85
666.81	707.36
667.15	701.88
667.49	696.99
667.83	691.91
668.17	686.85
668.51	681.84
668.85	677.00
669.19	672.16
669.53	666.87
669.87	661.82
670.21	656.81
670.55	651.80
670.89	647.34
671.23	642.94
671.57	638.57
671.91	633.99
672.25	629.53
672.58	624.93
672.92	620.52
673.26	616.31
673.60	612.20
673.94	607.91
674.28	603.87
674.62	599.61
674.96	595.50
675.30	591.55
675.64	587.31
675.97	583.09
676.31	579.06
676.65	575.20
676.99	571.67
677.33	567.62
677.67	563.79
678.01	559.82
678.34	555.95
678.68	552.21
679.02	548.27
679.36	544.61
679.70	540.99
680.04	537.28
680.37	533.51
680.71	529.79
681.05	526.45
681.39	522.92
681.73	519.58
682.06	516.39
682.40	513.12
682.74	509.85
683.08	506.58
683.42	503.11
683.75	499.92
684.09	496.58
684.43	493.49
684.77	490.28
685.10	487.07
685.44	483.79
685.78	480.66
686.12	477.82
686.45	474.77
686.79	471.81
687.13	469.00
687.46	466.06
687.80	463.27
688.14	460.23
688.48	457.48
688.81	454.40
689.15	451.38
689.49	448.42
689.82	445.57
690.16	442.57
690.50	439.72
690.83	436.85
691.17	433.83
691.51	430.94
691.84	428.35
692.18	425.72
692.52	423.22
692.85	420.85
693.19	418.41
693.52	415.87
693.86	413.34
694.20	410.87
694.53	408.43
694.87	405.93
695.21	403.52
695.54	400.99
695.88	398.54
696.21	396.10
696.55	393.84
696.88	391.56
697.22	389.42
697.56	387.37
697.89	385.15
698.23	383.06
698.56	381.01
698.90	378.92
699.23	376.90
699.57	374.79
699.90	372.56
700.24	370.37
700.58	368.32
700.91	366.39
701.25	364.67
701.58	362.92
701.92	361.08
702.25	359.23
702.59	357.42
702.92	355.70
703.26	353.96
703.59	352.18
703.93	350.76
704.26	349.03
704.60	347.28
704.93	345.67
705.26	344.01
705.60	342.50
705.93	340.88
706.27	339.19
706.60	337.68
706.94	336.47
707.27	334.89
707.61	333.38
707.94	331.83
708.27	329.99
708.61	328.36
708.94	326.83
709.28	325.29
709.61	323.91
709.94	322.52
710.28	321.08
710.61	319.71
710.95	318.05
711.28	316.97
711.61	315.65
711.95	314.37
712.28	313.12
712.61	311.87
712.95	310.70
713.28	309.63
713.61	308.40
713.95	306.93
714.28	305.86
714.61	304.68
714.95	303.54
715.28	302.35
715.61	301.25
715.95	300.07
716.28	299.02
716.61	297.86
716.95	296.73
717.28	295.78
717.61	294.73
717.94	293.75
718.28	292.55
718.61	291.57
718.94	290.64
719.27	289.65
719.61	288.66
719.94	287.77
720.27	286.73
720.60	285.84
720.94	285.00
721.27	284.15
721.60	283.38
721.93	282.58
722.27	281.91
722.60	281.08
722.93	280.35
723.26	279.54
723.59	278.77
723.93	278.08
724.26	277.29
724.59	276.52
724.92	275.80
725.25	275.22
725.59	274.55
725.92	273.85
726.25	273.15
726.58	272.51
726.91	271.82
727.24	271.16
727.57	270.45
727.91	269.71
728.24	269.06
728.57	268.41
728.90	267.80
729.23	267.15
729.56	266.75
729.89	266.09
730.22	265.44
730.55	264.89
730.89	264.30
731.22	263.72
731.55	263.20
731.88	262.66
732.21	261.93
732.54	261.24
732.87	260.63
733.20	260.08
733.53	259.45
733.86	258.90
734.19	258.39
734.52	257.95
734.85	257.76
735.18	257.26
735.51	256.84
735.84	256.35
736.17	255.87
736.50	255.05
736.83	255.04
737.16	254.70
737.49	254.23
737.82	253.71
738.15	253.22
738.48	252.79
738.81	252.28
739.14	251.82
739.47	251.48
739.80	251.05
740.13	250.61
740.46	250.10
740.79	249.59
741.12	249.08
741.45	248.58
741.78	247.92
742.11	247.55
742.44	247.04
742.77	246.62
743.10	246.19
743.43	245.90
743.75	245.15
744.08	245.12
744.41	244.71
744.74	244.35
745.07	243.94
745.40	243.59
745.73	243.39
746.06	243.07
746.39	242.63
746.71	242.23
747.04	241.86
747.37	241.56
747.70	241.27
748.03	240.99
748.36	240.71
748.68	240.39
749.01	239.89
749.34	239.57
749.67	239.28
750.00	239.04
750.33	238.95
750.65	238.65
750.98	237.88
751.31	237.65
751.64	237.36
751.97	237.22
752.29	236.84
752.62	236.36
752.95	236.03
753.28	235.77
753.60	235.46
753.93	235.32
754.26	235.01
754.59	234.64
754.91	234.33
755.24	234.06
755.57	233.83
755.90	233.61
756.22	233.29
756.55	232.97
756.88	232.59
757.20	232.03
757.53	231.69
757.86	231.46
758.19	231.16
758.51	230.90
758.84	230.44
759.17	230.23
759.49	229.99
759.82	229.89
760.15	229.63
760.47	229.43
760.80	229.06
761.13	228.93
761.45	228.73
761.78	228.51
762.11	228.29
762.43	228.03
762.76	227.85
763.08	227.71
763.41	227.53
763.74	227.36
764.06	227.21
764.39	227.00
764.71	226.79
765.04	226.60
765.37	226.30
765.69	226.21
766.02	226.00
766.34	225.87
766.67	225.61
767.00	225.51
767.32	225.57
767.65	225.60
767.97	225.38
768.30	225.20
768.62	225.15
768.95	224.97
769.27	224.75
769.60	224.60
769.92	224.35
770.25	224.10
770.57	223.97
770.90	223.82
771.22	223.67
771.55	223.49
771.87	223.38
772.20	223.29
772.52	223.46
772.85	223.75
773.17	223.59
773.50	223.40
773.82	223.21
774.15	222.84
774.47	222.45
774.80	222.36
775.12	222.24
775.45	222.01
775.77	221.89
776.09	221.85
776.42	221.70
776.74	221.77
777.07	221.64
777.39	221.52
777.72	221.42
778.04	221.36
778.36	221.28
778.69	221.17
779.01	221.15
779.33	220.70
779.66	220.14
779.98	220.03
780.31	219.95
780.63	220.01
780.95	220.04
781.28	220.03
781.60	219.88
781.92	219.74
782.25	219.75
782.57	219.65
782.89	219.53
783.22	219.47
783.54	219.35
783.86	219.34
784.19	219.24
784.51	219.29
784.83	219.21
785.16	219.18
785.48	219.09
