SpectraSuite Data File
++++++++++++++++++++++++++++++++++++
Date: Mon Feb 25 17:17:43 EST 2013
User: group
Dark Spectrum Present: No
Reference Spectrum Present: No
Number of Sampled Component Spectra: 1
Spectrometers: USB2E7196
Integration Time (usec): 104000 (USB2E7196)
Spectra Averaged: 20 (USB2E7196)
Boxcar Smoothing: 10 (USB2E7196)
Correct for Electrical Dark: No (USB2E7196)
Strobe/Lamp Enabled: No (USB2E7196)
Correct for Detector Non-linearity: No (USB2E7196)
Correct for Stray Light: No (USB2E7196)
Number of Pixels in Processed Spectrum: 2048
>>>>>Begin Processed Spectral Data<<<<<
339.09	0.00
339.48	198.40
339.86	200.25
340.24	200.50
340.63	203.40
341.01	209.45
341.39	205.50
341.78	206.45
342.16	208.80
342.54	208.65
342.93	198.10
343.31	208.12
343.69	208.68
344.07	209.12
344.46	209.69
344.84	210.05
345.22	210.16
345.60	210.47
345.99	210.75
346.37	210.85
346.75	210.95
347.13	211.10
347.52	211.20
347.90	211.43
348.28	211.45
348.66	211.57
349.05	211.57
349.43	211.75
349.81	211.81
350.19	211.88
350.57	212.05
350.96	212.16
351.34	212.26
351.72	212.38
352.10	212.53
352.48	212.54
352.87	212.68
353.25	212.74
353.63	212.80
354.01	212.79
354.39	212.89
354.77	213.03
355.15	213.26
355.54	213.25
355.92	213.27
356.30	213.36
356.68	213.65
357.06	213.75
357.44	213.74
357.82	213.83
358.20	213.98
358.58	214.02
358.97	214.11
359.35	214.26
359.73	214.44
360.11	214.52
360.49	214.58
360.87	214.57
361.25	214.69
361.63	214.83
362.01	214.98
362.39	215.04
362.77	215.08
363.15	215.02
363.53	215.06
363.91	215.08
364.29	215.07
364.67	214.80
365.05	214.76
365.43	214.77
365.81	214.93
366.19	215.03
366.57	215.15
366.95	215.15
367.33	215.06
367.71	215.00
368.09	215.04
368.47	215.02
368.85	215.11
369.23	215.14
369.61	215.00
369.99	215.09
370.37	215.09
370.75	215.20
371.13	215.13
371.51	215.05
371.89	215.07
372.27	215.11
372.65	215.11
373.03	215.09
373.41	215.05
373.78	214.87
374.16	214.71
374.54	214.53
374.92	214.43
375.30	214.40
375.68	214.30
376.06	214.17
376.44	214.13
376.82	214.00
377.19	213.91
377.57	213.85
377.95	213.67
378.33	213.61
378.71	213.35
379.09	213.40
379.47	213.35
379.84	213.22
380.22	213.05
380.60	212.91
380.98	212.87
381.36	212.79
381.73	212.72
382.11	212.72
382.49	212.72
382.87	212.61
383.25	212.55
383.62	212.90
384.00	212.90
384.38	212.89
384.76	212.96
385.13	213.05
385.51	213.05
385.89	212.98
386.27	212.96
386.64	213.07
387.02	212.89
387.40	212.89
387.78	212.88
388.15	212.91
388.53	212.81
388.91	212.75
389.29	212.77
389.66	212.82
390.04	212.72
390.42	212.72
390.79	212.75
391.17	212.74
391.55	212.41
391.92	212.38
392.30	212.40
392.68	212.27
393.05	212.22
393.43	212.24
393.81	212.24
394.18	212.18
394.56	212.09
394.94	212.23
395.31	212.19
395.69	212.27
396.06	212.36
396.44	212.46
396.82	212.42
397.19	212.58
397.57	212.51
397.95	212.58
398.32	212.54
398.70	212.56
399.07	212.71
399.45	212.65
399.82	212.73
400.20	212.65
400.58	212.69
400.95	212.60
401.33	212.63
401.70	212.89
402.08	213.02
402.45	213.08
402.83	213.20
403.20	213.34
403.58	213.38
403.95	213.50
404.33	213.58
404.71	213.86
405.08	214.17
405.46	214.34
405.83	214.52
406.21	214.65
406.58	214.81
406.96	214.94
407.33	215.14
407.70	215.34
408.08	215.88
408.45	216.19
408.83	216.54
409.20	216.78
409.58	216.92
409.95	217.20
410.33	217.53
410.70	217.79
411.08	218.16
411.45	218.63
411.82	219.00
412.20	219.58
412.57	220.15
412.95	220.35
413.32	221.02
413.69	221.59
414.07	222.24
414.44	223.00
414.82	223.74
415.19	224.53
415.56	225.34
415.94	226.05
416.31	226.97
416.68	227.94
417.06	229.07
417.43	230.20
417.81	231.49
418.18	232.81
418.55	234.08
418.93	235.53
419.30	236.97
419.67	238.51
420.04	240.16
420.42	241.76
420.79	243.88
421.16	245.68
421.54	247.80
421.91	249.88
422.28	251.99
422.66	254.18
423.03	256.68
423.40	258.98
423.77	261.43
424.15	263.99
424.52	266.60
424.89	269.55
425.26	272.22
425.64	274.76
426.01	277.54
426.38	280.58
426.75	283.67
427.13	286.82
427.50	290.25
427.87	293.54
428.24	297.02
428.61	300.17
428.99	303.95
429.36	307.75
429.73	311.61
430.10	315.60
430.47	319.59
430.85	323.50
431.22	327.89
431.59	332.62
431.96	337.06
432.33	341.86
432.70	346.52
433.08	352.08
433.45	357.29
433.82	362.53
434.19	368.27
434.56	373.95
434.93	379.30
435.30	384.48
435.68	390.36
436.05	396.20
436.42	401.87
436.79	407.01
437.16	412.63
437.53	418.62
437.90	424.51
438.27	430.34
438.64	436.30
439.01	441.92
439.38	446.81
439.75	451.56
440.13	456.97
440.50	462.05
440.87	466.36
441.24	470.65
441.61	475.45
441.98	479.05
442.35	482.93
442.72	487.11
443.09	491.23
443.46	493.68
443.83	495.35
444.20	496.80
444.57	498.84
444.94	499.78
445.31	500.68
445.68	501.71
446.05	502.02
446.42	501.34
446.79	500.55
447.16	499.60
447.53	499.00
447.90	496.81
448.27	494.45
448.64	491.25
449.01	489.01
449.37	485.04
449.74	481.09
450.11	476.79
450.48	471.74
450.85	466.45
451.22	461.88
451.59	457.48
451.96	453.51
452.33	448.23
452.70	443.34
453.07	437.64
453.43	431.51
453.80	425.90
454.17	420.74
454.54	415.69
454.91	410.27
455.28	405.01
455.65	400.04
456.02	395.61
456.38	391.25
456.75	386.13
457.12	381.70
457.49	377.42
457.86	373.02
458.23	369.55
458.59	365.77
458.96	362.06
459.33	358.68
459.70	355.09
460.07	352.32
460.43	349.08
460.80	346.11
461.17	343.62
461.54	340.91
461.91	338.25
462.27	335.52
462.64	333.22
463.01	330.69
463.38	328.46
463.74	325.60
464.11	323.56
464.48	321.63
464.85	319.66
465.21	318.17
465.58	316.64
465.95	314.61
466.32	313.03
466.68	311.34
467.05	309.77
467.42	308.20
467.78	306.53
468.15	305.14
468.52	304.07
468.88	302.58
469.25	301.36
469.62	300.35
469.98	299.32
470.35	298.34
470.72	297.37
471.08	296.23
471.45	295.48
471.82	294.69
472.18	293.82
472.55	293.25
472.92	292.44
473.28	291.75
473.65	291.15
474.02	290.54
474.38	290.24
474.75	289.92
475.11	289.60
475.48	289.43
475.85	289.29
476.21	289.09
476.58	289.00
476.94	288.90
477.31	288.84
477.67	288.85
478.04	288.90
478.41	289.13
478.77	289.63
479.14	289.82
479.50	290.14
479.87	290.61
480.23	291.02
480.60	291.39
480.96	291.86
481.33	292.56
481.69	293.22
482.06	293.76
482.42	294.49
482.79	295.26
483.15	296.18
483.52	297.23
483.88	298.28
484.25	299.40
484.61	300.57
484.98	301.82
485.34	303.29
485.71	304.93
486.07	306.51
486.44	307.91
486.80	309.69
487.17	311.53
487.53	313.64
487.90	316.01
488.26	318.51
488.62	321.04
488.99	323.58
489.35	326.22
489.72	329.11
490.08	332.14
490.44	335.30
490.81	338.54
491.17	341.95
491.54	345.69
491.90	349.58
492.26	353.62
492.63	357.76
492.99	362.11
493.36	366.76
493.72	371.67
494.08	376.81
494.45	382.18
494.81	387.68
495.17	393.40
495.54	399.36
495.90	405.61
496.26	412.15
496.63	418.85
496.99	425.98
497.35	433.32
497.72	440.90
498.08	448.82
498.44	457.18
498.80	465.88
499.17	474.79
499.53	483.96
499.89	493.67
500.26	503.70
500.62	513.72
500.98	524.44
501.34	535.50
501.71	547.00
502.07	558.70
502.43	570.78
502.79	582.95
503.16	595.85
503.52	608.98
503.88	622.62
504.24	636.68
504.60	651.05
504.97	666.02
505.33	681.09
505.69	697.18
506.05	713.31
506.41	729.76
506.78	746.50
507.14	763.65
507.50	781.16
507.86	799.30
508.22	818.00
508.59	836.53
508.95	855.69
509.31	874.95
509.67	894.87
510.03	915.23
510.39	936.30
510.75	957.16
511.12	978.58
511.48	1000.22
511.84	1022.32
512.20	1044.42
512.56	1067.20
512.92	1090.48
513.28	1113.36
513.64	1136.65
514.00	1160.37
514.37	1184.24
514.73	1208.47
515.09	1233.18
515.45	1257.43
515.81	1281.94
516.17	1306.81
516.53	1332.09
516.89	1357.42
517.25	1382.64
517.61	1408.11
517.97	1433.04
518.33	1458.44
518.69	1483.97
519.05	1509.61
519.41	1535.33
519.77	1561.60
520.13	1586.93
520.49	1612.11
520.85	1638.00
521.21	1663.86
521.57	1689.85
521.93	1715.14
522.29	1741.77
522.65	1767.48
523.01	1793.54
523.37	1818.71
523.73	1844.15
524.09	1869.25
524.45	1894.80
524.81	1920.24
525.17	1945.49
525.53	1970.99
525.89	1996.22
526.25	2021.05
526.61	2045.34
526.97	2069.43
527.33	2093.45
527.68	2118.02
528.04	2141.81
528.40	2164.76
528.76	2187.63
529.12	2210.97
529.48	2234.79
529.84	2257.02
530.20	2279.35
530.56	2301.67
530.91	2325.01
531.27	2347.95
531.63	2369.81
531.99	2391.26
532.35	2412.42
532.71	2433.11
533.07	2454.21
533.42	2474.67
533.78	2495.29
534.14	2515.30
534.50	2534.35
534.86	2553.84
535.21	2571.55
535.57	2590.83
535.93	2609.21
536.29	2627.40
536.65	2644.95
537.00	2661.32
537.36	2677.46
537.72	2693.49
538.08	2709.17
538.44	2724.35
538.79	2739.74
539.15	2755.10
539.51	2770.05
539.87	2785.14
540.22	2799.83
540.58	2814.83
540.94	2828.69
541.29	2841.14
541.65	2853.38
542.01	2866.15
542.37	2878.00
542.72	2890.58
543.08	2901.72
543.44	2913.80
543.79	2924.26
544.15	2933.43
544.51	2944.14
544.87	2954.47
545.22	2963.84
545.58	2972.72
545.94	2980.35
546.29	2987.11
546.65	2993.44
547.01	2999.81
547.36	3005.83
547.72	3011.39
548.07	3015.61
548.43	3019.88
548.79	3024.00
549.14	3028.28
549.50	3032.26
549.86	3035.11
550.21	3038.03
550.57	3041.26
550.92	3042.44
551.28	3043.93
551.64	3046.68
551.99	3048.85
552.35	3049.93
552.70	3051.17
553.06	3051.90
553.41	3053.36
553.77	3053.85
554.13	3054.35
554.48	3054.84
554.84	3054.99
555.19	3054.40
555.55	3053.18
555.90	3051.70
556.26	3050.58
556.61	3048.90
556.97	3046.57
557.32	3045.08
557.68	3042.10
558.03	3039.00
558.39	3037.03
558.74	3036.15
559.10	3033.80
559.45	3030.71
559.81	3028.46
560.16	3024.71
560.52	3022.12
560.87	3018.30
561.23	3014.25
561.58	3010.97
561.94	3006.24
562.29	3001.17
562.64	2997.09
563.00	2993.32
563.35	2990.23
563.71	2987.19
564.06	2983.51
564.42	2980.28
564.77	2976.87
565.12	2973.87
565.48	2970.10
565.83	2966.40
566.19	2962.07
566.54	2956.32
566.89	2950.59
567.25	2945.44
567.60	2941.22
567.96	2935.63
568.31	2930.69
568.66	2925.06
569.02	2918.93
569.37	2912.51
569.72	2907.29
570.08	2900.94
570.43	2894.46
570.78	2886.98
571.14	2879.34
571.49	2871.90
571.84	2865.05
572.20	2856.60
572.55	2848.89
572.90	2840.25
573.26	2830.94
573.61	2821.83
573.96	2813.60
574.31	2804.23
574.67	2794.38
575.02	2783.94
575.37	2774.35
575.72	2763.86
576.08	2755.35
576.43	2745.22
576.78	2736.32
577.13	2726.78
577.49	2717.76
577.84	2708.30
578.19	2699.90
578.54	2691.32
578.90	2683.12
579.25	2673.39
579.60	2663.47
579.95	2652.92
580.30	2643.95
580.66	2635.55
581.01	2625.89
581.36	2615.99
581.71	2606.91
582.06	2597.78
582.42	2588.78
582.77	2578.49
583.12	2569.29
583.47	2559.97
583.82	2551.42
584.17	2542.06
584.53	2532.54
584.88	2522.75
585.23	2513.04
585.58	2503.26
585.93	2493.11
586.28	2483.51
586.63	2473.63
586.98	2464.74
587.34	2456.50
587.69	2447.13
588.04	2437.70
588.39	2428.40
588.74	2418.94
589.09	2410.25
589.44	2400.46
589.79	2391.91
590.14	2383.53
590.49	2374.08
590.84	2364.59
591.19	2356.10
591.54	2347.07
591.89	2336.38
592.25	2327.13
592.60	2317.38
592.95	2307.08
593.30	2296.63
593.65	2286.02
594.00	2276.27
594.35	2268.07
594.70	2258.24
595.05	2248.97
595.40	2239.21
595.75	2229.18
596.10	2220.51
596.45	2211.10
596.80	2202.55
597.15	2193.61
597.50	2184.35
597.85	2175.85
598.19	2166.43
598.54	2157.08
598.89	2148.30
599.24	2141.19
599.59	2132.84
599.94	2125.28
600.29	2117.55
600.64	2109.84
600.99	2101.23
601.34	2093.31
601.69	2083.44
602.04	2074.60
602.39	2066.25
602.74	2057.87
603.08	2050.83
603.43	2043.35
603.78	2035.43
604.13	2027.41
604.48	2019.00
604.83	2012.00
605.18	2005.08
605.53	1996.98
605.87	1988.75
606.22	1981.05
606.57	1972.71
606.92	1964.37
607.27	1955.42
607.62	1946.90
607.96	1939.16
608.31	1932.12
608.66	1923.50
609.01	1915.24
609.36	1906.87
609.70	1897.35
610.05	1888.62
610.40	1879.69
610.75	1870.41
611.10	1862.35
611.44	1852.55
611.79	1843.13
612.14	1832.70
612.49	1822.09
612.83	1813.20
613.18	1802.95
613.53	1793.06
613.88	1782.57
614.22	1773.17
614.57	1763.38
614.92	1753.62
615.27	1743.45
615.61	1733.30
615.96	1724.38
616.31	1715.35
616.65	1706.98
617.00	1698.63
617.35	1689.38
617.70	1679.35
618.04	1669.15
618.39	1658.24
618.74	1649.31
619.08	1639.48
619.43	1630.34
619.78	1621.44
620.12	1611.95
620.47	1603.36
620.82	1593.75
621.16	1584.46
621.51	1574.85
621.85	1566.01
622.20	1556.65
622.55	1547.60
622.89	1538.38
623.24	1528.79
623.59	1518.88
623.93	1509.05
624.28	1499.84
624.62	1491.02
624.97	1482.31
625.32	1473.91
625.66	1465.70
626.01	1456.73
626.35	1448.73
626.70	1440.16
627.04	1432.04
627.39	1423.75
627.73	1415.25
628.08	1407.20
628.43	1398.89
628.77	1390.63
629.12	1382.12
629.46	1374.48
629.81	1366.32
630.15	1358.15
630.50	1350.10
630.84	1342.10
631.19	1333.99
631.53	1325.75
631.88	1316.94
632.22	1308.44
632.57	1300.68
632.91	1292.31
633.26	1284.31
633.60	1276.24
633.95	1268.67
634.29	1260.30
634.64	1252.67
634.98	1244.62
635.32	1237.07
635.67	1229.89
636.01	1222.35
636.36	1214.44
636.70	1206.69
637.05	1199.00
637.39	1191.78
637.73	1184.48
638.08	1177.88
638.42	1171.30
638.77	1164.26
639.11	1157.19
639.45	1150.38
639.80	1142.54
640.14	1135.01
640.49	1127.75
640.83	1120.36
641.17	1112.95
641.52	1105.78
641.86	1098.20
642.20	1091.07
642.55	1083.36
642.89	1075.90
643.23	1068.27
643.58	1061.86
643.92	1054.39
644.26	1047.43
644.61	1040.06
644.95	1032.73
645.29	1025.48
645.64	1017.77
645.98	1010.29
646.32	1003.77
646.66	996.50
647.01	989.63
647.35	983.34
647.69	976.10
648.04	969.25
648.38	962.31
648.72	955.44
649.06	948.40
649.41	941.58
649.75	934.72
650.09	928.14
650.43	921.63
650.78	914.26
651.12	907.50
651.46	900.65
651.80	894.24
652.14	887.65
652.49	880.87
652.83	874.17
653.17	867.47
653.51	860.50
653.85	854.18
654.20	847.69
654.54	840.90
654.88	834.65
655.22	828.23
655.56	821.90
655.90	815.29
656.25	809.04
656.59	802.72
656.93	796.76
657.27	790.77
657.61	784.27
657.95	778.35
658.29	772.54
658.64	767.05
658.98	760.99
659.32	754.91
659.66	749.14
660.00	743.32
660.34	737.69
660.68	731.63
661.02	725.81
661.36	720.33
661.70	714.94
662.05	709.78
662.39	704.85
662.73	699.65
663.07	694.83
663.41	689.86
663.75	684.75
664.09	679.46
664.43	674.02
664.77	669.30
665.11	664.27
665.45	659.42
665.79	654.35
666.13	649.57
666.47	644.79
666.81	640.09
667.15	635.34
667.49	630.93
667.83	627.09
668.17	622.68
668.51	618.44
668.85	614.05
669.19	609.73
669.53	605.30
669.87	601.09
670.21	596.77
670.55	592.52
670.89	588.93
671.23	585.20
671.57	581.39
671.91	577.47
672.25	573.72
672.58	569.80
672.92	565.93
673.26	562.33
673.60	558.85
673.94	555.04
674.28	551.56
674.62	548.20
674.96	544.46
675.30	541.04
675.64	537.52
675.97	534.22
676.31	530.90
676.65	527.50
676.99	524.25
677.33	520.82
677.67	517.50
678.01	513.75
678.34	510.59
678.68	507.38
679.02	504.19
679.36	500.95
679.70	497.77
680.04	494.60
680.37	491.35
680.71	488.19
681.05	485.31
681.39	482.33
681.73	479.23
682.06	476.45
682.40	473.65
682.74	470.73
683.08	467.94
683.42	464.90
683.75	462.08
684.09	459.03
684.43	456.25
684.77	453.38
685.10	450.81
685.44	447.91
685.78	445.06
686.12	442.43
686.45	439.94
686.79	437.35
687.13	434.89
687.46	432.32
687.80	429.89
688.14	427.21
688.48	424.85
688.81	422.24
689.15	419.62
689.49	417.00
689.82	414.66
690.16	411.98
690.50	409.46
690.83	407.00
691.17	404.58
691.51	402.28
691.84	400.10
692.18	397.79
692.52	395.68
692.85	393.72
693.19	391.68
693.52	389.40
693.86	387.28
694.20	385.22
694.53	383.19
694.87	381.03
695.21	378.99
695.54	376.76
695.88	374.67
696.21	372.62
696.55	370.75
696.88	368.69
697.22	366.69
697.56	364.99
697.89	363.09
698.23	361.36
698.56	359.49
698.90	357.74
699.23	355.84
699.57	353.91
699.90	352.02
700.24	350.06
700.58	348.33
700.91	346.69
701.25	345.16
701.58	343.49
701.92	341.92
702.25	340.32
702.59	338.72
702.92	337.11
703.26	335.67
703.59	334.10
703.93	332.90
704.26	331.52
704.60	330.01
704.93	328.55
705.26	327.00
705.60	325.64
705.93	324.16
706.27	322.88
706.60	321.56
706.94	320.47
707.27	319.16
707.61	317.85
707.94	316.42
708.27	314.89
708.61	313.55
708.94	312.21
709.28	311.04
709.61	309.92
709.94	308.90
710.28	307.76
710.61	306.68
710.95	305.23
711.28	304.26
711.61	303.11
711.95	302.03
712.28	300.95
712.61	299.92
712.95	299.03
713.28	298.16
713.61	297.14
713.95	296.03
714.28	295.15
714.61	294.21
714.95	293.25
715.28	292.23
715.61	291.25
715.95	290.35
716.28	289.30
716.61	288.31
716.95	287.26
717.28	286.25
717.61	285.29
717.94	284.40
718.28	283.35
718.61	282.50
718.94	281.60
719.27	280.76
719.61	279.94
719.94	279.07
720.27	278.05
720.60	277.20
720.94	276.30
721.27	275.55
721.60	274.81
721.93	274.14
722.27	273.60
722.60	272.99
722.93	272.23
723.26	271.68
723.59	270.92
723.93	270.30
724.26	269.62
724.59	268.94
724.92	268.33
725.25	267.74
725.59	267.15
725.92	266.66
726.25	266.10
726.58	265.53
726.91	264.90
727.24	264.37
727.57	263.83
727.91	263.16
728.24	262.52
728.57	261.93
728.90	261.38
729.23	260.66
729.56	260.22
729.89	259.64
730.22	259.10
730.55	258.62
730.89	258.13
731.22	257.66
731.55	257.13
731.88	256.70
732.21	256.12
732.54	255.53
732.87	255.00
733.20	254.39
733.53	253.83
733.86	253.37
734.19	252.88
734.52	252.38
734.85	252.29
735.18	251.80
735.51	251.45
735.84	250.94
736.17	250.58
736.50	249.99
736.83	250.04
737.16	249.50
737.49	249.07
737.82	248.63
738.15	248.22
738.48	247.83
738.81	247.32
739.14	246.87
739.47	246.54
739.80	246.10
740.13	245.83
740.46	245.42
740.79	244.94
741.12	244.53
741.45	244.15
741.78	243.49
742.11	243.19
742.44	242.74
742.77	242.41
743.10	242.05
743.43	241.63
743.75	240.90
744.08	240.97
744.41	240.58
744.74	240.15
745.07	239.74
745.40	239.53
745.73	239.44
746.06	239.15
746.39	238.88
746.71	238.58
747.04	238.24
747.37	237.94
747.70	237.78
748.03	237.53
748.36	237.30
748.68	237.02
749.01	236.65
749.34	236.35
749.67	236.08
750.00	235.86
750.33	235.93
750.65	235.61
750.98	234.96
751.31	234.74
751.64	234.55
751.97	234.55
752.29	234.19
752.62	233.66
752.95	233.47
753.28	233.18
753.60	232.89
753.93	232.72
754.26	232.56
754.59	232.17
754.91	231.85
755.24	231.63
755.57	231.45
755.90	231.28
756.22	231.02
756.55	230.80
756.88	230.46
757.20	229.96
757.53	229.66
757.86	229.45
758.19	229.19
758.51	229.04
758.84	228.60
759.17	228.43
759.49	228.36
759.82	228.28
760.15	228.06
760.47	227.88
760.80	227.58
761.13	227.38
761.45	227.16
761.78	227.01
762.11	226.78
762.43	226.62
762.76	226.39
763.08	226.28
763.41	226.13
763.74	226.04
764.06	225.90
764.39	225.78
764.71	225.62
765.04	225.46
765.37	225.30
765.69	225.18
766.02	225.03
766.34	224.83
766.67	224.55
767.00	224.47
767.32	224.51
767.65	224.55
767.97	224.37
768.30	224.23
768.62	224.09
768.95	223.92
769.27	223.73
769.60	223.70
769.92	223.51
770.25	223.30
770.57	222.97
770.90	222.83
771.22	222.66
771.55	222.59
771.87	222.52
772.20	222.26
772.52	222.39
772.85	222.65
773.17	222.49
773.50	222.35
773.82	222.15
774.15	221.83
774.47	221.56
774.80	221.45
775.12	221.35
775.45	221.20
775.77	221.14
776.09	221.01
776.42	220.85
776.74	220.90
777.07	220.79
777.39	220.81
777.72	220.67
778.04	220.55
778.36	220.38
778.69	220.29
779.01	220.27
779.33	219.87
779.66	219.42
779.98	219.34
780.31	219.24
780.63	219.35
780.95	219.37
781.28	219.22
781.60	219.07
781.92	219.00
782.25	218.90
782.57	218.82
782.89	218.67
783.22	218.61
783.54	218.44
783.86	218.36
784.19	218.25
784.51	218.29
784.83	218.27
785.16	218.19
785.48	218.14
785.80	218.01
786.12	218.02
