SpectraSuite Data File
++++++++++++++++++++++++++++++++++++
Date: Mon Feb 25 17:15:58 EST 2013
User: group
Dark Spectrum Present: No
Reference Spectrum Present: No
Number of Sampled Component Spectra: 1
Spectrometers: USB2E7196
Integration Time (usec): 104000 (USB2E7196)
Spectra Averaged: 20 (USB2E7196)
Boxcar Smoothing: 10 (USB2E7196)
Correct for Electrical Dark: No (USB2E7196)
Strobe/Lamp Enabled: No (USB2E7196)
Correct for Detector Non-linearity: No (USB2E7196)
Correct for Stray Light: No (USB2E7196)
Number of Pixels in Processed Spectrum: 2048
>>>>>Begin Processed Spectral Data<<<<<
339.09	0.00
339.48	199.05
339.86	201.10
340.24	201.25
340.63	203.20
341.01	212.20
341.39	206.50
341.78	207.10
342.16	209.50
342.54	209.80
342.93	198.60
343.31	208.68
343.69	209.18
344.07	209.57
344.46	210.01
344.84	210.37
345.22	210.24
345.60	210.48
345.99	210.64
346.37	210.71
346.75	210.81
347.13	210.79
347.52	210.83
347.90	211.00
348.28	211.05
348.66	211.15
349.05	211.12
349.43	211.17
349.81	211.25
350.19	211.32
350.57	211.35
350.96	211.36
351.34	211.29
351.72	211.37
352.10	211.46
352.48	211.51
352.87	211.57
353.25	211.63
353.63	211.62
354.01	211.71
354.39	211.75
354.77	211.76
355.15	211.88
355.54	211.83
355.92	211.70
356.30	211.78
356.68	212.00
357.06	212.02
357.44	212.05
357.82	212.07
358.20	212.14
358.58	212.25
358.97	212.35
359.35	212.54
359.73	212.69
360.11	212.73
360.49	212.75
360.87	212.73
361.25	212.88
361.63	213.05
362.01	213.16
362.39	213.23
362.77	213.35
363.15	213.35
363.53	213.43
363.91	213.53
364.29	213.57
364.67	213.35
365.05	213.44
365.43	213.51
365.81	213.58
366.19	213.75
366.57	213.95
366.95	214.03
367.33	213.96
367.71	213.93
368.09	214.09
368.47	214.07
368.85	214.11
369.23	214.17
369.61	214.04
369.99	214.11
370.37	214.16
370.75	214.24
371.13	214.21
371.51	214.10
371.89	214.12
372.27	214.13
372.65	214.13
373.03	214.09
373.41	214.05
373.78	214.02
374.16	213.80
374.54	213.61
374.92	213.46
375.30	213.48
375.68	213.40
376.06	213.37
376.44	213.43
376.82	213.43
377.19	213.40
377.57	213.42
377.95	213.31
378.33	213.26
378.71	213.05
379.09	213.12
379.47	213.20
379.84	213.07
380.22	212.99
380.60	212.89
380.98	212.89
381.36	212.80
381.73	212.76
382.11	212.85
382.49	212.83
382.87	212.80
383.25	212.75
383.62	213.16
384.00	213.05
384.38	213.00
384.76	213.04
385.13	213.14
385.51	213.08
385.89	212.95
386.27	212.94
386.64	212.91
387.02	212.78
387.40	212.71
387.78	212.75
388.15	212.71
388.53	212.68
388.91	212.65
389.29	212.65
389.66	212.69
390.04	212.57
390.42	212.59
390.79	212.58
391.17	212.54
391.55	212.12
391.92	212.05
392.30	212.05
392.68	211.95
393.05	211.84
393.43	211.75
393.81	211.77
394.18	211.60
394.56	211.67
394.94	211.72
395.31	211.67
395.69	211.72
396.06	211.77
396.44	211.84
396.82	211.79
397.19	211.99
397.57	211.89
397.95	211.98
398.32	211.90
398.70	211.95
399.07	211.99
399.45	212.01
399.82	212.04
400.20	212.07
400.58	212.07
400.95	211.99
401.33	212.09
401.70	212.34
402.08	212.50
402.45	212.49
402.83	212.60
403.20	212.69
403.58	212.73
403.95	212.77
404.33	212.89
404.71	212.97
405.08	213.12
405.46	213.24
405.83	213.29
406.21	213.39
406.58	213.53
406.96	213.66
407.33	213.83
407.70	214.06
408.08	214.42
408.45	214.66
408.83	214.97
409.20	215.20
409.58	215.24
409.95	215.54
410.33	215.81
410.70	215.95
411.08	216.32
411.45	216.66
411.82	217.02
412.20	217.37
412.57	217.96
412.95	218.09
413.32	218.61
413.69	219.11
414.07	219.66
414.44	220.27
414.82	220.87
415.19	221.55
415.56	222.23
415.94	222.77
416.31	223.63
416.68	224.41
417.06	225.31
417.43	226.33
417.81	227.35
418.18	228.41
418.55	229.61
418.93	230.76
419.30	231.98
419.67	233.29
420.04	234.70
420.42	235.98
420.79	237.87
421.16	239.47
421.54	241.34
421.91	243.18
422.28	244.89
422.66	246.72
423.03	248.81
423.40	250.73
423.77	252.95
424.15	255.04
424.52	257.26
424.89	259.69
425.26	261.86
425.64	264.06
426.01	266.41
426.38	268.88
426.75	271.56
427.13	274.13
427.50	276.82
427.87	279.64
428.24	282.53
428.61	285.13
428.99	288.16
429.36	291.31
429.73	294.49
430.10	297.67
430.47	301.17
430.85	304.47
431.22	308.11
431.59	312.06
431.96	315.75
432.33	319.75
432.70	323.57
433.08	328.19
433.45	332.47
433.82	336.87
434.19	341.68
434.56	346.33
434.93	350.79
435.30	355.32
435.68	360.16
436.05	364.94
436.42	369.73
436.79	374.20
437.16	378.85
437.53	383.72
437.90	388.80
438.27	393.56
438.64	398.46
439.01	403.11
439.38	407.05
439.75	411.01
440.13	415.55
440.50	419.79
440.87	423.35
441.24	426.95
441.61	430.90
441.98	433.74
442.35	437.06
442.72	440.48
443.09	443.86
443.46	445.85
443.83	447.10
444.20	448.30
444.57	449.93
444.94	450.61
445.31	451.43
445.68	452.42
446.05	452.71
446.42	452.06
446.79	451.35
447.16	450.55
447.53	449.90
447.90	447.98
448.27	446.06
448.64	443.36
449.01	441.46
449.37	438.07
449.74	434.93
450.11	431.39
450.48	427.19
450.85	422.79
451.22	419.10
451.59	415.74
451.96	412.24
452.33	407.78
452.70	403.83
453.07	399.04
453.43	393.78
453.80	389.09
454.17	384.81
454.54	380.68
454.91	376.21
455.28	371.90
455.65	367.76
456.02	364.18
456.38	360.66
456.75	356.30
457.12	352.66
457.49	349.05
457.86	345.30
458.23	342.37
458.59	339.16
458.96	335.96
459.33	333.01
459.70	330.18
460.07	328.01
460.43	325.42
460.80	323.02
461.17	320.97
461.54	318.63
461.91	316.29
462.27	314.03
462.64	312.05
463.01	310.00
463.38	308.14
463.74	305.74
464.11	303.90
464.48	302.48
464.85	300.86
465.21	299.69
465.58	298.37
465.95	296.83
466.32	295.58
466.68	294.31
467.05	293.10
467.42	291.79
467.78	290.27
468.15	288.96
468.52	288.03
468.88	286.73
469.25	285.65
469.62	284.93
469.98	284.09
470.35	283.33
470.72	282.48
471.08	281.49
471.45	280.83
471.82	280.23
472.18	279.41
472.55	278.97
472.92	278.26
473.28	277.69
473.65	277.16
474.02	276.64
474.38	276.24
474.75	275.92
475.11	275.58
475.48	275.39
475.85	275.25
476.21	274.98
476.58	274.92
476.94	274.94
477.31	274.92
477.67	274.80
478.04	274.80
478.41	274.93
478.77	275.37
479.14	275.46
479.50	275.80
479.87	276.15
480.23	276.35
480.60	276.60
480.96	276.92
481.33	277.54
481.69	278.00
482.06	278.46
482.42	279.00
482.79	279.69
483.15	280.43
483.52	281.22
483.88	282.05
484.25	282.80
484.61	283.74
484.98	284.59
485.34	285.78
485.71	287.00
486.07	288.33
486.44	289.39
486.80	290.70
487.17	292.12
487.53	293.70
487.90	295.48
488.26	297.46
488.62	299.50
488.99	301.34
489.35	303.34
489.72	305.64
490.08	307.85
490.44	310.14
490.81	312.74
491.17	315.33
491.54	318.13
491.90	321.17
492.26	324.26
492.63	327.53
492.99	330.89
493.36	334.41
493.72	338.24
494.08	342.14
494.45	346.41
494.81	350.68
495.17	355.05
495.54	359.80
495.90	364.55
496.26	369.53
496.63	374.79
496.99	380.35
497.35	386.13
497.72	392.08
498.08	398.30
498.44	404.67
498.80	411.69
499.17	418.79
499.53	425.94
499.89	433.42
500.26	441.12
500.62	449.06
500.98	457.45
501.34	465.77
501.71	474.61
502.07	483.65
502.43	492.99
502.79	502.58
503.16	512.37
503.52	522.60
503.88	533.05
504.24	543.89
504.60	554.94
504.97	566.37
505.33	577.89
505.69	590.23
506.05	602.82
506.41	615.28
506.78	628.02
507.14	641.10
507.50	654.61
507.86	668.58
508.22	682.81
508.59	697.10
508.95	712.13
509.31	727.25
509.67	742.61
510.03	758.13
510.39	774.45
510.75	790.85
511.12	807.26
511.48	824.12
511.84	841.16
512.20	858.50
512.56	876.03
512.92	894.27
513.28	912.18
513.64	930.16
514.00	948.61
514.37	967.07
514.73	986.42
515.09	1005.62
515.45	1024.83
515.81	1044.03
516.17	1063.45
516.53	1082.89
516.89	1102.50
517.25	1122.10
517.61	1142.18
517.97	1161.83
518.33	1181.62
518.69	1201.91
519.05	1222.09
519.41	1242.43
519.77	1263.23
520.13	1283.38
520.49	1303.24
520.85	1323.49
521.21	1343.93
521.57	1364.65
521.93	1384.97
522.29	1405.55
522.65	1425.78
523.01	1445.80
523.37	1465.61
523.73	1485.75
524.09	1505.92
524.45	1526.09
524.81	1546.34
525.17	1566.61
525.53	1586.79
525.89	1606.84
526.25	1626.50
526.61	1645.55
526.97	1664.85
527.33	1683.47
527.68	1702.98
528.04	1721.99
528.40	1740.40
528.76	1759.00
529.12	1777.50
529.48	1796.67
529.84	1815.05
530.20	1833.40
530.56	1851.75
530.91	1870.88
531.27	1889.56
531.63	1907.05
531.99	1924.70
532.35	1941.93
532.71	1958.32
533.07	1975.22
533.42	1991.77
533.78	2008.46
534.14	2025.12
534.50	2040.58
534.86	2056.76
535.21	2071.35
535.57	2086.98
535.93	2102.05
536.29	2116.93
536.65	2131.38
537.00	2144.82
537.36	2157.70
537.72	2170.73
538.08	2183.84
538.44	2196.34
538.79	2208.76
539.15	2221.78
539.51	2233.75
539.87	2246.37
540.22	2258.51
540.58	2270.80
540.94	2282.63
541.29	2293.07
541.65	2302.95
542.01	2313.61
542.37	2323.22
542.72	2333.68
543.08	2342.85
543.44	2352.55
543.79	2360.68
544.15	2368.75
544.51	2377.29
544.87	2386.20
545.22	2393.96
545.58	2401.06
545.94	2407.29
546.29	2412.92
546.65	2418.37
547.01	2424.13
547.36	2429.20
547.72	2434.26
548.07	2437.57
548.43	2440.85
548.79	2444.32
549.14	2448.14
549.50	2451.43
549.86	2454.14
550.21	2456.48
550.57	2459.57
550.92	2461.29
551.28	2463.09
551.64	2464.98
551.99	2466.92
552.35	2467.63
552.70	2469.00
553.06	2470.04
553.41	2471.31
553.77	2472.06
554.13	2472.50
554.48	2473.26
554.84	2473.66
555.19	2473.40
555.55	2473.34
555.90	2472.52
556.26	2471.86
556.61	2470.89
556.97	2469.19
557.32	2468.15
557.68	2466.32
558.03	2463.98
558.39	2462.31
558.74	2461.77
559.10	2460.27
559.45	2457.88
559.81	2456.39
560.16	2453.71
560.52	2451.66
560.87	2448.95
561.23	2445.89
561.58	2443.66
561.94	2440.01
562.29	2436.16
562.64	2433.23
563.00	2430.08
563.35	2427.91
563.71	2425.81
564.06	2423.29
564.42	2421.12
564.77	2418.60
565.12	2416.25
565.48	2413.34
565.83	2410.34
566.19	2407.36
566.54	2402.94
566.89	2399.13
567.25	2395.59
567.60	2392.16
567.96	2387.75
568.31	2383.69
568.66	2379.52
569.02	2374.34
569.37	2369.25
569.72	2364.71
570.08	2359.46
570.43	2354.63
570.78	2348.90
571.14	2342.82
571.49	2337.17
571.84	2331.83
572.20	2324.96
572.55	2319.24
572.90	2312.61
573.26	2305.79
573.61	2298.25
573.96	2291.85
574.31	2284.63
574.67	2276.66
575.02	2268.52
575.37	2261.33
575.72	2253.22
576.08	2246.39
576.43	2238.62
576.78	2231.62
577.13	2224.55
577.49	2217.59
577.84	2209.97
578.19	2202.88
578.54	2196.28
578.90	2189.25
579.25	2181.49
579.60	2173.92
579.95	2165.35
580.30	2158.45
580.66	2151.67
581.01	2144.41
581.36	2136.56
581.71	2128.86
582.06	2121.42
582.42	2114.20
582.77	2106.13
583.12	2098.80
583.47	2091.77
583.82	2085.30
584.17	2077.79
584.53	2070.40
584.88	2062.80
585.23	2055.42
585.58	2047.72
585.93	2039.64
586.28	2032.20
586.63	2024.56
586.98	2017.62
587.34	2011.16
587.69	2003.68
588.04	1996.27
588.39	1988.70
588.74	1981.09
589.09	1974.66
589.44	1967.00
589.79	1960.34
590.14	1953.70
590.49	1946.71
590.84	1939.05
591.19	1932.21
591.54	1925.21
591.89	1917.09
592.25	1909.78
592.60	1902.03
592.95	1894.34
593.30	1886.06
593.65	1877.97
594.00	1870.04
594.35	1863.92
594.70	1856.03
595.05	1848.98
595.40	1841.29
595.75	1833.33
596.10	1826.58
596.45	1819.29
596.80	1812.90
597.15	1805.88
597.50	1798.51
597.85	1791.36
598.19	1783.97
598.54	1776.73
598.89	1769.93
599.24	1763.84
599.59	1757.13
599.94	1751.14
600.29	1744.96
600.64	1738.97
600.99	1732.02
601.34	1726.04
601.69	1718.14
602.04	1711.33
602.39	1704.30
602.74	1697.92
603.08	1692.27
603.43	1686.34
603.78	1679.66
604.13	1673.05
604.48	1666.50
604.83	1660.91
605.18	1655.67
605.53	1649.46
605.87	1642.46
606.22	1636.22
606.57	1629.80
606.92	1623.21
607.27	1616.33
607.62	1609.63
607.96	1603.05
608.31	1597.51
608.66	1590.44
609.01	1583.49
609.36	1576.76
609.70	1569.64
610.05	1562.25
610.40	1555.24
610.75	1547.89
611.10	1541.50
611.44	1533.55
611.79	1525.58
612.14	1517.55
612.49	1508.91
612.83	1501.44
613.18	1493.77
613.53	1485.66
613.88	1477.16
614.22	1469.56
614.57	1461.66
614.92	1453.84
615.27	1446.09
615.61	1437.71
615.96	1430.36
616.31	1423.38
616.65	1416.49
617.00	1409.66
617.35	1402.27
617.70	1394.43
618.04	1386.25
618.39	1377.55
618.74	1370.46
619.08	1363.17
619.43	1355.87
619.78	1348.61
620.12	1341.19
620.47	1333.98
620.82	1326.25
621.16	1318.73
621.51	1311.16
621.85	1303.69
622.20	1296.10
622.55	1288.62
622.89	1281.30
623.24	1273.81
623.59	1265.91
623.93	1258.19
624.28	1250.50
624.62	1243.65
624.97	1236.43
625.32	1229.64
625.66	1223.01
626.01	1215.95
626.35	1209.12
626.70	1202.03
627.04	1195.71
627.39	1189.11
627.73	1182.26
628.08	1176.11
628.43	1169.21
628.77	1162.44
629.12	1155.75
629.46	1149.73
629.81	1143.28
630.15	1136.70
630.50	1129.92
630.84	1123.24
631.19	1116.43
631.53	1109.92
631.88	1102.85
632.22	1096.11
632.57	1089.70
632.91	1083.02
633.26	1076.62
633.60	1070.02
633.95	1063.87
634.29	1057.25
634.64	1050.86
634.98	1044.54
635.32	1038.25
635.67	1032.78
636.01	1026.59
636.36	1020.35
636.70	1014.25
637.05	1008.31
637.39	1002.58
637.73	997.27
638.08	992.16
638.42	987.07
638.77	981.56
639.11	975.98
639.45	970.45
639.80	964.39
640.14	958.50
640.49	952.59
640.83	946.96
641.17	941.06
641.52	935.22
641.86	929.07
642.20	923.30
642.55	917.17
642.89	911.19
643.23	905.28
643.58	899.98
643.92	893.73
644.26	887.91
644.61	882.02
644.95	875.78
645.29	869.68
645.64	863.62
645.98	857.77
646.32	852.21
646.66	846.65
647.01	841.39
647.35	836.09
647.69	830.26
648.04	824.80
648.38	819.13
648.72	813.55
649.06	808.17
649.41	802.57
649.75	797.25
650.09	791.79
650.43	786.51
650.78	780.61
651.12	775.18
651.46	769.79
651.80	764.63
652.14	759.61
652.49	754.49
652.83	749.07
653.17	743.29
653.51	737.85
653.85	732.59
654.20	727.20
654.54	721.96
654.88	717.05
655.22	711.89
655.56	706.75
655.90	701.69
656.25	696.65
656.59	691.72
656.93	687.00
657.27	682.21
657.61	677.18
657.95	672.50
658.29	667.93
658.64	663.38
658.98	658.43
659.32	653.41
659.66	648.67
660.00	644.06
660.34	639.75
660.68	635.07
661.02	630.36
661.36	626.03
661.70	621.67
662.05	617.52
662.39	613.61
662.73	609.56
663.07	605.63
663.41	601.63
663.75	597.66
664.09	593.19
664.43	588.90
664.77	585.01
665.11	581.12
665.45	577.24
665.79	573.33
666.13	569.43
666.47	565.75
666.81	562.04
667.15	558.22
667.49	554.79
667.83	551.43
668.17	548.04
668.51	544.67
668.85	541.28
669.19	538.03
669.53	534.34
669.87	530.80
670.21	527.21
670.55	523.87
670.89	520.74
671.23	517.90
671.57	514.91
671.91	511.71
672.25	508.58
672.58	505.41
672.92	502.30
673.26	499.47
673.60	496.50
673.94	493.45
674.28	490.59
674.62	487.64
674.96	484.75
675.30	481.88
675.64	478.80
675.97	475.88
676.31	472.95
676.65	470.23
676.99	467.90
677.33	465.31
677.67	462.61
678.01	459.81
678.34	457.07
678.68	454.46
679.02	451.80
679.36	449.18
679.70	446.75
680.04	444.24
680.37	441.53
680.71	438.93
681.05	436.70
681.39	434.21
681.73	431.76
682.06	429.44
682.40	427.18
682.74	424.97
683.08	422.81
683.42	420.41
683.75	418.19
684.09	415.71
684.43	413.40
684.77	411.06
685.10	408.85
685.44	406.59
685.78	404.37
686.12	402.41
686.45	400.38
686.79	398.25
687.13	396.34
687.46	394.56
687.80	392.67
688.14	390.46
688.48	388.66
688.81	386.55
689.15	384.58
689.49	382.46
689.82	380.43
690.16	378.13
690.50	376.06
690.83	374.05
691.17	372.05
691.51	370.03
691.84	368.23
692.18	366.29
692.52	364.53
692.85	362.87
693.19	361.07
693.52	359.40
693.86	357.54
694.20	355.70
694.53	353.83
694.87	352.03
695.21	350.33
695.54	348.53
695.88	346.84
696.21	345.09
696.55	343.55
696.88	341.96
697.22	340.48
697.56	339.06
697.89	337.49
698.23	335.91
698.56	334.46
698.90	333.07
699.23	331.55
699.57	330.01
699.90	328.48
700.24	326.92
700.58	325.30
700.91	323.98
701.25	322.77
701.58	321.46
701.92	320.17
702.25	318.79
702.59	317.46
702.92	316.16
703.26	314.95
703.59	313.78
703.93	312.83
704.26	311.72
704.60	310.54
704.93	309.34
705.26	308.16
705.60	307.09
705.93	305.77
706.27	304.83
706.60	303.94
706.94	302.97
707.27	301.94
707.61	300.97
707.94	299.83
708.27	298.59
708.61	297.49
708.94	296.53
709.28	295.52
709.61	294.43
709.94	293.51
710.28	292.52
710.61	291.54
710.95	290.26
711.28	289.43
711.61	288.41
711.95	287.53
712.28	286.76
712.61	285.75
712.95	285.15
713.28	284.43
713.61	283.41
713.95	282.49
714.28	281.70
714.61	280.84
714.95	280.02
715.28	279.07
715.61	278.26
715.95	277.49
716.28	276.73
716.61	276.06
716.95	275.21
717.28	274.40
717.61	273.62
717.94	272.89
718.28	271.94
718.61	271.19
718.94	270.45
719.27	269.71
719.61	269.20
719.94	268.35
720.27	267.38
720.60	266.67
720.94	266.00
721.27	265.32
721.60	264.67
721.93	264.14
722.27	263.74
722.60	263.32
722.93	262.59
723.26	262.07
723.59	261.45
723.93	260.98
724.26	260.47
724.59	259.93
724.92	259.51
725.25	259.11
725.59	258.62
725.92	258.16
726.25	257.58
726.58	257.03
726.91	256.57
727.24	256.24
727.57	255.80
727.91	255.15
728.24	254.73
728.57	254.29
728.90	253.88
729.23	253.29
729.56	252.92
729.89	252.56
730.22	251.97
730.55	251.51
730.89	251.08
731.22	250.60
731.55	250.20
731.88	249.74
732.21	249.29
732.54	248.87
732.87	248.44
733.20	248.00
733.53	247.56
733.86	247.22
734.19	246.69
734.52	246.37
734.85	246.31
735.18	245.82
735.51	245.54
735.84	245.09
736.17	244.80
736.50	244.27
736.83	244.28
737.16	244.00
737.49	243.74
737.82	243.35
738.15	243.01
738.48	242.61
738.81	242.27
739.14	241.85
739.47	241.50
739.80	241.23
740.13	241.05
740.46	240.67
740.79	240.29
741.12	239.99
741.45	239.62
741.78	239.14
742.11	238.93
742.44	238.50
742.77	238.28
743.10	237.98
743.43	237.55
743.75	236.95
744.08	237.15
744.41	236.74
744.74	236.50
745.07	236.24
745.40	236.02
745.73	235.83
746.06	235.54
746.39	235.28
746.71	235.00
747.04	234.68
747.37	234.41
747.70	234.21
748.03	233.97
748.36	233.72
748.68	233.48
749.01	233.19
749.34	233.01
749.67	232.74
750.00	232.48
750.33	232.58
750.65	232.27
750.98	231.57
751.31	231.38
751.64	231.09
751.97	231.06
752.29	230.82
752.62	230.47
752.95	230.28
753.28	230.04
753.60	229.78
753.93	229.65
754.26	229.45
754.59	229.07
754.91	228.86
755.24	228.71
755.57	228.54
755.90	228.33
756.22	228.05
756.55	227.86
756.88	227.66
757.20	227.21
757.53	226.94
757.86	226.67
758.19	226.51
758.51	226.40
758.84	225.93
759.17	225.72
759.49	225.55
759.82	225.51
760.15	225.40
760.47	225.18
760.80	224.91
761.13	224.81
761.45	224.66
761.78	224.44
762.11	224.25
762.43	223.99
762.76	223.80
763.08	223.74
763.41	223.55
763.74	223.44
764.06	223.28
764.39	223.23
764.71	223.08
765.04	223.02
765.37	222.78
765.69	222.71
766.02	222.60
766.34	222.43
766.67	222.20
767.00	222.13
767.32	222.23
767.65	222.26
767.97	222.17
768.30	222.09
768.62	222.10
768.95	221.96
769.27	221.90
769.60	221.85
769.92	221.64
770.25	221.46
770.57	221.23
770.90	221.11
771.22	220.97
771.55	221.00
771.87	220.83
772.20	220.79
772.52	221.00
772.85	221.30
773.17	221.31
773.50	221.17
773.82	221.00
774.15	220.70
774.47	220.37
774.80	220.19
775.12	220.07
775.45	219.92
775.77	219.89
776.09	219.82
776.42	219.70
776.74	219.71
777.07	219.63
777.39	219.60
777.72	219.56
778.04	219.54
778.36	219.28
778.69	219.20
779.01	219.14
779.33	218.76
779.66	218.29
779.98	218.14
780.31	218.13
780.63	218.25
780.95	218.28
781.28	218.25
781.60	218.18
781.92	218.20
782.25	218.17
782.57	217.98
782.89	217.94
783.22	217.88
783.54	217.74
783.86	217.71
784.19	217.64
784.51	217.65
784.83	217.43
785.16	217.47
785.48	217.43
785.80	217.33
786.12	217.31
786.45	217.25
786.77	217.22
