SpectraSuite Data File
++++++++++++++++++++++++++++++++++++
Date: Mon Feb 25 16:58:11 EST 2013
User: group
Dark Spectrum Present: No
Reference Spectrum Present: No
Number of Sampled Component Spectra: 1
Spectrometers: USB2E7196
Integration Time (usec): 104000 (USB2E7196)
Spectra Averaged: 20 (USB2E7196)
Boxcar Smoothing: 10 (USB2E7196)
Correct for Electrical Dark: No (USB2E7196)
Strobe/Lamp Enabled: No (USB2E7196)
Correct for Detector Non-linearity: No (USB2E7196)
Correct for Stray Light: No (USB2E7196)
Number of Pixels in Processed Spectrum: 2048
>>>>>Begin Processed Spectral Data<<<<<
339.09	0.00
339.48	198.40
339.86	199.40
340.24	200.45
340.63	202.60
341.01	209.45
341.39	205.05
341.78	206.85
342.16	209.85
342.54	208.80
342.93	198.43
343.31	208.39
343.69	208.95
344.07	209.46
344.46	210.03
344.84	210.44
345.22	210.53
345.60	210.80
345.99	210.99
346.37	211.04
346.75	211.16
347.13	211.14
347.52	211.17
347.90	211.33
348.28	211.33
348.66	211.48
349.05	211.38
349.43	211.47
349.81	211.48
350.19	211.47
350.57	211.45
350.96	211.55
351.34	211.67
351.72	211.75
352.10	211.79
352.48	211.83
352.87	211.85
353.25	211.86
353.63	211.92
354.01	211.97
354.39	212.04
354.77	212.06
355.15	212.24
355.54	212.33
355.92	212.27
356.30	212.28
356.68	212.48
357.06	212.52
357.44	212.49
357.82	212.56
358.20	212.70
358.58	212.79
358.97	212.76
359.35	212.89
359.73	212.98
360.11	213.10
360.49	213.07
360.87	213.15
361.25	213.32
361.63	213.47
362.01	213.55
362.39	213.61
362.77	213.63
363.15	213.68
363.53	213.64
363.91	213.66
364.29	213.67
364.67	213.41
365.05	213.45
365.43	213.57
365.81	213.59
366.19	213.72
366.57	213.81
366.95	213.84
367.33	213.78
367.71	213.79
368.09	213.84
368.47	213.84
368.85	213.81
369.23	213.85
369.61	213.69
369.99	213.71
370.37	213.68
370.75	213.81
371.13	213.70
371.51	213.64
371.89	213.64
372.27	213.69
372.65	213.65
373.03	213.57
373.41	213.53
373.78	213.47
374.16	213.25
374.54	213.16
374.92	213.10
375.30	213.01
375.68	212.91
376.06	212.83
376.44	212.78
376.82	212.74
377.19	212.59
377.57	212.61
377.95	212.50
378.33	212.45
378.71	212.22
379.09	212.19
379.47	212.22
379.84	212.15
380.22	212.10
380.60	211.95
380.98	211.91
381.36	211.76
381.73	211.68
382.11	211.71
382.49	211.66
382.87	211.63
383.25	211.62
383.62	211.91
384.00	211.82
384.38	211.86
384.76	211.91
385.13	212.07
385.51	212.02
385.89	211.97
386.27	212.00
386.64	212.10
387.02	212.09
387.40	212.02
387.78	212.03
388.15	212.05
388.53	212.11
388.91	212.16
389.29	212.24
389.66	212.22
390.04	212.14
390.42	212.19
390.79	212.07
391.17	212.14
391.55	211.76
391.92	211.80
392.30	211.78
392.68	211.70
393.05	211.65
393.43	211.65
393.81	211.65
394.18	211.60
394.56	211.61
394.94	211.69
395.31	211.66
395.69	211.68
396.06	211.69
396.44	211.74
396.82	211.66
397.19	211.83
397.57	211.92
397.95	212.01
398.32	211.95
398.70	212.13
399.07	212.20
399.45	212.27
399.82	212.27
400.20	212.25
400.58	212.36
400.95	212.22
401.33	212.41
401.70	212.82
402.08	212.94
402.45	213.03
402.83	213.21
403.20	213.32
403.58	213.46
403.95	213.68
404.33	213.88
404.71	214.09
405.08	214.42
405.46	214.65
405.83	214.91
406.21	215.18
406.58	215.39
406.96	215.71
407.33	216.06
407.70	216.49
408.08	217.19
408.45	217.56
408.83	218.11
409.20	218.47
409.58	218.73
409.95	219.34
410.33	219.92
410.70	220.40
411.08	221.17
411.45	221.95
411.82	222.66
412.20	223.53
412.57	224.69
412.95	225.33
413.32	226.40
413.69	227.55
414.07	228.80
414.44	230.21
414.82	231.60
415.19	233.16
415.56	234.70
415.94	236.27
416.31	238.25
416.68	240.13
417.06	242.29
417.43	244.42
417.81	246.77
418.18	249.23
418.55	251.80
418.93	254.56
419.30	257.43
419.67	260.44
420.04	263.61
420.42	266.75
420.79	270.71
421.16	274.59
421.54	278.62
421.91	282.68
422.28	286.95
422.66	291.51
423.03	296.15
423.40	300.90
423.77	305.98
424.15	311.11
424.52	316.44
424.89	322.33
425.26	327.95
425.64	333.42
426.01	339.44
426.38	345.81
426.75	352.19
427.13	358.71
427.50	365.66
427.87	372.82
428.24	380.17
428.61	387.00
428.99	394.71
429.36	402.95
429.73	411.27
430.10	419.56
430.47	427.91
430.85	436.58
431.22	445.82
431.59	455.59
431.96	465.01
432.33	475.40
432.70	485.44
433.08	497.37
433.45	508.52
433.82	519.75
434.19	532.31
434.56	544.70
434.93	556.74
435.30	568.60
435.68	581.87
436.05	595.04
436.42	608.28
436.79	620.26
437.16	633.32
437.53	647.09
437.90	660.66
438.27	674.16
438.64	688.44
439.01	701.67
439.38	713.47
439.75	725.09
440.13	738.26
440.50	750.72
440.87	760.99
441.24	771.95
441.61	783.81
441.98	792.81
442.35	803.30
442.72	813.74
443.09	823.83
443.46	830.43
443.83	834.98
444.20	839.12
444.57	844.90
444.94	848.02
445.31	851.22
445.68	854.50
446.05	856.46
446.42	856.15
446.79	855.60
447.16	854.83
447.53	854.35
447.90	850.53
448.27	846.58
448.64	840.69
449.01	836.35
449.37	828.24
449.74	820.48
450.11	810.82
450.48	800.30
450.85	789.65
451.22	780.56
451.59	772.10
451.96	763.85
452.33	752.40
452.70	742.31
453.07	729.86
453.43	717.24
453.80	705.06
454.17	693.23
454.54	682.02
454.91	670.02
455.28	658.48
455.65	647.52
456.02	636.67
456.38	627.46
456.75	615.81
457.12	606.01
457.49	596.28
457.86	586.83
458.23	578.78
458.59	569.88
458.96	560.94
459.33	552.93
459.70	544.88
460.07	538.57
460.43	531.40
460.80	524.72
461.17	518.69
461.54	512.42
461.91	506.43
462.27	500.50
462.64	495.40
463.01	489.55
463.38	483.93
463.74	478.26
464.11	473.28
464.48	469.12
464.85	464.61
465.21	461.15
465.58	457.46
465.95	452.91
466.32	449.16
466.68	445.41
467.05	441.61
467.42	437.91
467.78	434.03
468.15	430.07
468.52	427.25
468.88	423.63
469.25	420.47
469.62	417.86
469.98	415.00
470.35	412.30
470.72	409.79
471.08	407.12
471.45	404.84
471.82	402.55
472.18	399.95
472.55	398.02
472.92	395.69
473.28	393.69
473.65	391.75
474.02	389.92
474.38	388.37
474.75	387.16
475.11	385.70
475.48	384.62
475.85	383.61
476.21	382.49
476.58	381.61
476.94	380.97
477.31	380.12
477.67	379.28
478.04	378.75
478.41	378.44
478.77	378.40
479.14	377.91
479.50	377.70
479.87	377.68
480.23	377.72
480.60	377.67
480.96	377.65
481.33	378.19
481.69	378.58
482.06	378.82
482.42	378.92
482.79	379.37
483.15	379.88
483.52	380.68
483.88	381.38
484.25	382.10
484.61	382.82
484.98	383.67
485.34	384.93
485.71	386.19
486.07	387.36
486.44	388.32
486.80	389.77
487.17	391.30
487.53	393.02
487.90	394.91
488.26	396.88
488.62	399.04
488.99	400.88
489.35	402.95
489.72	405.20
490.08	407.67
490.44	410.03
490.81	412.57
491.17	415.07
491.54	417.83
491.90	420.69
492.26	423.73
492.63	426.93
492.99	429.98
493.36	433.30
493.72	436.84
494.08	440.30
494.45	444.04
494.81	447.77
495.17	451.57
495.54	455.56
495.90	459.48
496.26	463.45
496.63	467.85
496.99	472.14
497.35	476.51
497.72	481.10
498.08	485.78
498.44	490.55
498.80	495.62
499.17	500.77
499.53	505.85
499.89	511.12
500.26	516.32
500.62	521.36
500.98	526.70
501.34	531.77
501.71	537.18
502.07	542.57
502.43	547.98
502.79	553.29
503.16	558.57
503.52	564.04
503.88	569.45
504.24	574.78
504.60	580.30
504.97	585.83
505.33	591.17
505.69	596.63
506.05	602.07
506.41	607.34
506.78	612.30
507.14	617.43
507.50	622.45
507.86	627.50
508.22	632.80
508.59	637.71
508.95	642.90
509.31	647.86
509.67	652.70
510.03	657.49
510.39	662.52
510.75	667.40
511.12	672.00
511.48	676.72
511.84	681.39
512.20	685.76
512.56	690.50
512.92	695.05
513.28	699.58
513.64	703.71
514.00	707.88
514.37	712.06
514.73	716.30
515.09	720.33
515.45	724.17
515.81	727.98
516.17	731.57
516.53	734.99
516.89	738.56
517.25	741.89
517.61	745.14
517.97	748.27
518.33	751.17
518.69	754.44
519.05	757.37
519.41	760.11
519.77	763.33
520.13	765.85
520.49	768.38
520.85	771.02
521.21	773.65
521.57	776.24
521.93	778.50
522.29	780.85
522.65	783.09
523.01	785.26
523.37	787.30
523.73	789.44
524.09	791.66
524.45	793.78
524.81	796.00
525.17	798.24
525.53	800.37
525.89	802.64
526.25	804.72
526.61	806.38
526.97	808.39
527.33	810.05
527.68	812.15
528.04	814.01
528.40	815.51
528.76	817.25
529.12	819.15
529.48	821.45
529.84	823.24
530.20	825.22
530.56	827.14
530.91	829.34
531.27	831.62
531.63	833.47
531.99	835.33
532.35	837.18
532.71	839.10
533.07	841.22
533.42	843.33
533.78	845.28
534.14	847.69
534.50	849.54
534.86	851.79
535.21	853.46
535.57	855.64
535.93	857.84
536.29	859.84
536.65	861.84
537.00	863.62
537.36	865.44
537.72	867.30
538.08	869.20
538.44	870.95
538.79	872.87
539.15	875.15
539.51	877.23
539.87	879.63
540.22	881.75
540.58	883.97
540.94	885.99
541.29	887.98
541.65	889.66
542.01	891.87
542.37	893.80
542.72	896.10
543.08	898.11
543.44	900.40
543.79	902.37
544.15	904.40
544.51	906.71
544.87	908.99
545.22	911.23
545.58	913.45
545.94	915.39
546.29	916.99
546.65	918.55
547.01	920.47
547.36	922.20
547.72	924.10
548.07	925.73
548.43	927.15
548.79	928.60
549.14	930.66
549.50	932.39
549.86	933.80
550.21	935.50
550.57	937.31
550.92	938.72
551.28	940.46
551.64	942.10
551.99	943.78
552.35	945.35
552.70	946.73
553.06	948.51
553.41	950.36
553.77	952.33
554.13	954.50
554.48	956.30
554.84	958.13
555.19	959.79
555.55	961.74
555.90	963.29
556.26	964.79
556.61	965.75
556.97	966.89
557.32	968.68
557.68	969.75
558.03	970.93
558.39	972.06
558.74	973.46
559.10	974.74
559.45	975.94
559.81	977.36
560.16	978.46
560.52	979.58
560.87	980.86
561.23	981.91
561.58	983.14
561.94	984.10
562.29	984.58
562.64	985.56
563.00	986.15
563.35	987.34
563.71	988.91
564.06	990.33
564.42	991.90
564.77	993.20
565.12	994.79
565.48	996.25
565.83	997.64
566.19	999.02
566.54	999.85
566.89	1000.91
567.25	1002.22
567.60	1003.63
567.96	1004.66
568.31	1005.75
568.66	1006.55
569.02	1006.88
569.37	1007.32
569.72	1008.27
570.08	1008.71
570.43	1009.21
570.78	1009.62
571.14	1009.71
571.49	1009.75
571.84	1009.78
572.20	1009.47
572.55	1009.27
572.90	1008.55
573.26	1007.92
573.61	1007.23
573.96	1006.85
574.31	1005.98
574.67	1004.80
575.02	1003.62
575.37	1002.35
575.72	1000.83
576.08	999.67
576.43	998.46
576.78	997.44
577.13	996.39
577.49	995.37
577.84	994.10
578.19	993.07
578.54	992.15
578.90	991.55
579.25	990.22
579.60	988.76
579.95	986.95
580.30	985.72
580.66	984.56
581.01	983.00
581.36	981.31
581.71	979.69
582.06	978.15
582.42	976.60
582.77	974.78
583.12	973.04
583.47	971.51
583.82	970.00
584.17	968.13
584.53	966.50
584.88	964.50
585.23	962.74
585.58	960.75
585.93	958.60
586.28	956.42
586.63	954.57
586.98	952.74
587.34	951.18
587.69	949.00
588.04	947.00
588.39	944.98
588.74	942.75
589.09	940.92
589.44	938.49
589.79	936.30
590.14	934.47
590.49	932.45
590.84	930.16
591.19	928.19
591.54	926.05
591.89	923.40
592.25	921.50
592.60	918.89
592.95	916.26
593.30	913.60
593.65	910.75
594.00	907.70
594.35	906.10
594.70	903.22
595.05	901.11
595.40	898.30
595.75	895.54
596.10	893.27
596.45	890.76
596.80	888.67
597.15	886.25
597.50	883.57
597.85	881.00
598.19	878.29
598.54	875.54
598.89	873.00
599.24	870.83
599.59	867.92
599.94	865.52
600.29	862.97
600.64	860.29
600.99	857.77
601.34	855.70
601.69	851.99
602.04	849.35
602.39	846.30
602.74	843.83
603.08	841.44
603.43	839.16
603.78	836.15
604.13	833.28
604.48	830.84
604.83	828.54
605.18	826.19
605.53	823.60
605.87	820.74
606.22	818.11
606.57	814.91
606.92	811.94
607.27	809.11
607.62	806.46
607.96	804.05
608.31	801.42
608.66	798.59
609.01	795.76
609.36	792.87
609.70	789.90
610.05	786.89
610.40	783.94
610.75	780.56
611.10	778.04
611.44	774.73
611.79	771.30
612.14	768.01
612.49	764.46
612.83	761.30
613.18	758.02
613.53	754.83
613.88	751.57
614.22	748.61
614.57	745.33
614.92	742.14
615.27	738.62
615.61	735.22
615.96	731.84
616.31	728.72
616.65	726.11
617.00	723.24
617.35	720.22
617.70	716.87
618.04	713.37
618.39	709.66
618.74	706.70
619.08	703.52
619.43	700.37
619.78	697.45
620.12	694.48
620.47	691.61
620.82	688.19
621.16	684.95
621.51	681.84
621.85	678.80
622.20	675.42
622.55	672.25
622.89	669.17
623.24	666.04
623.59	662.77
623.93	659.30
624.28	656.09
624.62	653.28
624.97	650.38
625.32	647.69
625.66	645.05
626.01	642.18
626.35	639.39
626.70	636.32
627.04	633.56
627.39	630.61
627.73	627.62
628.08	625.08
628.43	622.40
628.77	619.44
629.12	616.51
629.46	614.02
629.81	611.44
630.15	608.77
630.50	605.98
630.84	603.22
631.19	600.43
631.53	597.90
631.88	594.80
632.22	592.00
632.57	589.46
632.91	586.56
633.26	583.73
633.60	580.86
633.95	578.31
634.29	575.37
634.64	572.85
634.98	570.11
635.32	567.49
635.67	565.01
636.01	562.52
636.36	559.91
636.70	557.39
637.05	554.87
637.39	552.51
637.73	550.30
638.08	548.39
638.42	546.21
638.77	543.71
639.11	541.40
639.45	539.05
639.80	536.36
640.14	533.86
640.49	531.63
640.83	529.37
641.17	527.07
641.52	524.79
641.86	522.40
642.20	520.19
642.55	517.50
642.89	514.91
643.23	512.60
643.58	510.58
643.92	507.99
644.26	505.77
644.61	503.50
644.95	500.96
645.29	498.36
645.64	495.96
645.98	493.69
646.32	491.32
646.66	488.88
647.01	486.75
647.35	484.71
647.69	482.24
648.04	480.07
648.38	477.74
648.72	475.53
649.06	473.12
649.41	470.77
649.75	468.76
650.09	466.78
650.43	464.57
650.78	462.18
651.12	460.11
651.46	457.82
651.80	455.62
652.14	453.62
652.49	451.65
652.83	449.59
653.17	447.33
653.51	445.31
653.85	443.44
654.20	441.35
654.54	439.14
654.88	437.15
655.22	435.13
655.56	433.03
655.90	431.00
656.25	429.02
656.59	427.17
656.93	425.26
657.27	423.41
657.61	421.25
657.95	419.35
658.29	417.51
658.64	415.73
658.98	413.70
659.32	411.62
659.66	409.62
660.00	407.63
660.34	405.75
660.68	403.80
661.02	401.88
661.36	400.06
661.70	398.32
662.05	396.53
662.39	394.80
662.73	393.30
663.07	391.78
663.41	390.15
663.75	388.51
664.09	386.92
664.43	385.10
664.77	383.55
665.11	381.93
665.45	380.25
665.79	378.68
666.13	377.13
666.47	375.64
666.81	374.05
667.15	372.45
667.49	371.08
667.83	369.72
668.17	368.21
668.51	366.82
668.85	365.48
669.19	364.24
669.53	362.70
669.87	361.20
670.21	359.68
670.55	358.34
670.89	357.14
671.23	355.82
671.57	354.56
671.91	353.35
672.25	352.00
672.58	350.88
672.92	349.52
673.26	348.32
673.60	347.06
673.94	345.90
674.28	344.76
674.62	343.68
674.96	342.42
675.30	341.21
675.64	339.98
675.97	338.75
676.31	337.55
676.65	336.47
676.99	335.46
677.33	334.24
677.67	333.09
678.01	331.66
678.34	330.45
678.68	329.28
679.02	328.07
679.36	327.00
679.70	325.81
680.04	324.72
680.37	323.66
680.71	322.64
681.05	321.59
681.39	320.51
681.73	319.30
682.06	318.31
682.40	317.43
682.74	316.50
683.08	315.53
683.42	314.43
683.75	313.37
684.09	312.28
684.43	311.26
684.77	310.20
685.10	309.29
685.44	308.20
685.78	307.24
686.12	306.37
686.45	305.45
686.79	304.43
687.13	303.56
687.46	302.63
687.80	301.78
688.14	300.75
688.48	299.88
688.81	298.96
689.15	298.02
689.49	297.01
689.82	296.14
690.16	295.22
690.50	294.40
690.83	293.51
691.17	292.51
691.51	291.65
691.84	290.85
692.18	290.03
692.52	289.35
692.85	288.67
693.19	287.94
693.52	287.05
693.86	286.28
694.20	285.49
694.53	284.71
694.87	283.87
695.21	283.15
695.54	282.25
695.88	281.40
696.21	280.56
696.55	279.83
696.88	279.05
697.22	278.26
697.56	277.52
697.89	276.78
698.23	276.18
698.56	275.50
698.90	274.92
699.23	274.21
699.57	273.49
699.90	272.75
700.24	271.89
700.58	271.24
700.91	270.68
701.25	270.25
701.58	269.62
701.92	269.08
702.25	268.46
702.59	267.94
702.92	267.43
703.26	266.92
703.59	266.26
703.93	265.98
704.26	265.40
704.60	264.79
704.93	264.17
705.26	263.54
705.60	263.05
705.93	262.41
706.27	261.96
706.60	261.56
706.94	261.20
707.27	260.69
707.61	260.20
707.94	259.64
708.27	258.87
708.61	258.25
708.94	257.70
709.28	257.19
709.61	256.68
709.94	256.21
710.28	255.78
710.61	255.39
710.95	254.60
711.28	254.35
711.61	253.95
711.95	253.70
712.28	253.27
712.61	252.79
712.95	252.51
713.28	252.15
713.61	251.67
713.95	251.14
714.28	250.75
714.61	250.30
714.95	249.84
715.28	249.34
715.61	248.98
715.95	248.60
716.28	248.15
716.61	247.81
716.95	247.39
717.28	246.94
717.61	246.56
717.94	246.20
718.28	245.60
718.61	245.25
718.94	244.78
719.27	244.43
719.61	244.19
719.94	243.85
720.27	243.36
720.60	242.91
720.94	242.56
721.27	242.30
721.60	242.01
721.93	241.66
722.27	241.52
722.60	241.23
722.93	240.88
723.26	240.69
723.59	240.32
723.93	240.13
724.26	239.85
724.59	239.55
724.92	239.31
725.25	239.22
725.59	238.93
725.92	238.77
726.25	238.58
726.58	238.27
726.91	237.90
727.24	237.70
727.57	237.50
727.91	237.21
728.24	237.04
728.57	236.82
728.90	236.71
729.23	236.37
729.56	236.37
729.89	236.12
730.22	235.84
730.55	235.58
730.89	235.30
731.22	235.09
731.55	234.88
731.88	234.66
732.21	234.30
732.54	234.03
732.87	233.70
733.20	233.44
733.53	233.20
733.86	233.09
734.19	232.80
734.52	232.60
734.85	232.59
735.18	232.24
735.51	232.14
735.84	231.89
736.17	231.74
736.50	231.27
736.83	231.51
737.16	231.33
737.49	231.14
737.82	230.85
738.15	230.67
738.48	230.45
738.81	230.20
739.14	229.97
739.47	229.80
739.80	229.63
740.13	229.47
740.46	229.24
740.79	228.91
741.12	228.70
741.45	228.49
741.78	228.11
742.11	228.07
742.44	227.78
742.77	227.67
743.10	227.51
743.43	227.40
743.75	226.86
744.08	227.05
744.41	226.91
744.74	226.77
745.07	226.54
745.40	226.46
745.73	226.42
746.06	226.34
746.39	226.21
746.71	226.03
747.04	225.80
747.37	225.66
747.70	225.57
748.03	225.52
748.36	225.43
748.68	225.30
749.01	225.03
749.34	224.89
749.67	224.63
750.00	224.48
750.33	224.60
750.65	224.43
750.98	223.97
751.31	223.80
751.64	223.66
751.97	223.79
752.29	223.60
752.62	223.33
752.95	223.18
753.28	223.02
753.60	222.90
753.93	222.95
754.26	222.78
754.59	222.62
754.91	222.40
755.24	222.23
755.57	222.13
755.90	222.01
756.22	221.91
756.55	221.80
756.88	221.66
757.20	221.28
757.53	221.12
757.86	221.00
758.19	220.90
758.51	220.83
758.84	220.49
759.17	220.40
759.49	220.34
759.82	220.41
760.15	220.34
760.47	220.26
760.80	220.00
761.13	220.00
761.45	219.87
761.78	219.84
762.11	219.71
762.43	219.60
762.76	219.48
763.08	219.41
763.41	219.37
763.74	219.22
764.06	219.14
764.39	219.07
764.71	218.94
765.04	218.82
765.37	218.68
765.69	218.65
766.02	218.56
766.34	218.43
766.67	218.18
767.00	218.07
767.32	218.21
767.65	218.31
767.97	218.23
768.30	218.15
768.62	218.07
768.95	217.96
769.27	217.87
769.60	217.92
769.92	217.78
770.25	217.66
770.57	217.56
770.90	217.46
771.22	217.33
771.55	217.27
771.87	217.26
772.20	217.25
772.52	217.44
772.85	217.74
773.17	217.69
773.50	217.66
773.82	217.61
774.15	217.39
774.47	217.16
774.80	217.09
775.12	217.06
775.45	216.95
775.77	216.99
776.09	216.94
776.42	216.77
776.74	216.83
777.07	216.76
777.39	216.73
777.72	216.65
778.04	216.70
778.36	216.63
778.69	216.55
779.01	216.48
779.33	216.17
779.66	215.79
779.98	215.76
780.31	215.75
780.63	215.76
780.95	215.72
781.28	215.58
781.60	215.56
781.92	215.48
782.25	215.45
782.57	215.40
782.89	215.33
783.22	215.31
783.54	215.22
783.86	215.23
784.19	215.15
784.51	215.23
784.83	215.10
785.16	215.10
785.48	215.05
785.80	215.05
786.12	215.07
786.45	215.06
786.77	215.02
787.09	214.88
787.42	214.72
787.74	214.70
788.06	214.75
788.38	214.61
788.71	214.57
789.03	214.61
789.35	214.57
789.67	214.46
789.99	214.45
790.32	214.31
790.64	214.36
790.96	214.57
791.28	214.44
791.61	214.36
791.93	214.31
792.25	214.30
792.57	214.51
792.89	214.37
793.21	214.27
793.54	214.21
793.86	214.13
