SpectraSuite Data File
++++++++++++++++++++++++++++++++++++
Date: Mon Feb 25 17:13:52 EST 2013
User: group
Dark Spectrum Present: No
Reference Spectrum Present: No
Number of Sampled Component Spectra: 1
Spectrometers: USB2E7196
Integration Time (usec): 104000 (USB2E7196)
Spectra Averaged: 20 (USB2E7196)
Boxcar Smoothing: 10 (USB2E7196)
Correct for Electrical Dark: No (USB2E7196)
Strobe/Lamp Enabled: No (USB2E7196)
Correct for Detector Non-linearity: No (USB2E7196)
Correct for Stray Light: No (USB2E7196)
Number of Pixels in Processed Spectrum: 2048
>>>>>Begin Processed Spectral Data<<<<<
339.09	0.00
339.48	197.60
339.86	200.10
340.24	202.30
340.63	203.65
341.01	208.30
341.39	205.05
341.78	206.80
342.16	209.40
342.54	207.00
342.93	198.20
343.31	208.25
343.69	208.84
344.07	209.33
344.46	209.84
344.84	210.26
345.22	210.37
345.60	210.70
345.99	210.95
346.37	211.03
346.75	211.24
347.13	211.39
347.52	211.46
347.90	211.63
348.28	211.63
348.66	211.82
349.05	211.72
349.43	211.79
349.81	211.89
350.19	212.02
350.57	212.08
350.96	212.22
351.34	212.27
351.72	212.40
352.10	212.52
352.48	212.50
352.87	212.46
353.25	212.59
353.63	212.59
354.01	212.58
354.39	212.78
354.77	212.89
355.15	213.03
355.54	213.08
355.92	213.07
356.30	213.18
356.68	213.36
357.06	213.46
357.44	213.53
357.82	213.58
358.20	213.59
358.58	213.58
358.97	213.63
359.35	213.85
359.73	213.95
360.11	213.93
360.49	214.02
360.87	214.09
361.25	214.15
361.63	214.34
362.01	214.43
362.39	214.32
362.77	214.35
363.15	214.31
363.53	214.35
363.91	214.40
364.29	214.33
364.67	214.07
365.05	214.03
365.43	214.00
365.81	214.02
366.19	214.15
366.57	214.27
366.95	214.31
367.33	214.15
367.71	214.19
368.09	214.30
368.47	214.25
368.85	214.26
369.23	214.28
369.61	214.05
369.99	214.14
370.37	214.20
370.75	214.32
371.13	214.16
371.51	214.02
371.89	213.96
372.27	214.06
372.65	214.01
373.03	214.04
373.41	214.00
373.78	213.88
374.16	213.72
374.54	213.59
374.92	213.50
375.30	213.42
375.68	213.23
376.06	213.14
376.44	213.10
376.82	213.09
377.19	212.98
377.57	213.03
377.95	212.83
378.33	212.75
378.71	212.47
379.09	212.55
379.47	212.59
379.84	212.54
380.22	212.37
380.60	212.25
380.98	212.16
381.36	212.11
381.73	212.07
382.11	212.10
382.49	212.02
382.87	211.89
383.25	211.84
383.62	212.21
384.00	212.09
384.38	212.05
384.76	212.06
385.13	212.22
385.51	212.14
385.89	212.12
386.27	212.10
386.64	212.16
387.02	212.11
387.40	212.00
387.78	211.97
388.15	212.01
388.53	211.95
388.91	211.92
389.29	211.86
389.66	211.95
390.04	211.84
390.42	211.93
390.79	212.03
391.17	212.05
391.55	211.64
391.92	211.64
392.30	211.61
392.68	211.54
393.05	211.52
393.43	211.55
393.81	211.55
394.18	211.50
394.56	211.45
394.94	211.50
395.31	211.55
395.69	211.71
396.06	211.75
396.44	211.86
396.82	211.85
397.19	212.10
397.57	212.00
397.95	212.08
398.32	212.00
398.70	211.95
399.07	212.02
399.45	212.07
399.82	212.14
400.20	212.14
400.58	212.09
400.95	211.92
401.33	211.98
401.70	212.22
402.08	212.33
402.45	212.39
402.83	212.51
403.20	212.59
403.58	212.58
403.95	212.61
404.33	212.65
404.71	212.75
405.08	212.95
405.46	213.05
405.83	213.13
406.21	213.18
406.58	213.31
406.96	213.37
407.33	213.48
407.70	213.55
408.08	214.04
408.45	214.25
408.83	214.50
409.20	214.63
409.58	214.63
409.95	214.80
410.33	215.05
410.70	215.11
411.08	215.33
411.45	215.53
411.82	215.81
412.20	216.21
412.57	216.73
412.95	216.73
413.32	217.22
413.69	217.63
414.07	218.04
414.44	218.55
414.82	219.07
415.19	219.65
415.56	220.26
415.94	220.63
416.31	221.38
416.68	222.02
417.06	222.83
417.43	223.72
417.81	224.59
418.18	225.50
418.55	226.51
418.93	227.54
419.30	228.59
419.67	229.71
420.04	230.82
420.42	231.83
420.79	233.55
421.16	234.82
421.54	236.39
421.91	237.95
422.28	239.50
422.66	241.07
423.03	242.86
423.40	244.53
423.77	246.27
424.15	247.90
424.52	249.71
424.89	251.70
425.26	253.59
425.64	255.38
426.01	257.35
426.38	259.43
426.75	261.61
427.13	263.84
427.50	266.12
427.87	268.45
428.24	270.83
428.61	272.84
428.99	275.55
429.36	278.09
429.73	280.75
430.10	283.48
430.47	286.36
430.85	289.07
431.22	292.09
431.59	295.39
431.96	298.49
432.33	301.85
432.70	305.06
433.08	308.76
433.45	312.35
433.82	315.95
434.19	320.06
434.56	324.06
434.93	327.82
435.30	331.55
435.68	335.72
436.05	339.85
436.42	343.85
436.79	347.48
437.16	351.39
437.53	355.56
437.90	359.51
438.27	363.50
438.64	367.58
439.01	371.59
439.38	375.01
439.75	378.39
440.13	382.33
440.50	385.97
440.87	389.03
441.24	392.12
441.61	395.44
441.98	397.80
442.35	400.58
442.72	403.38
443.09	406.27
443.46	407.93
443.83	409.00
444.20	409.97
444.57	411.27
444.94	412.00
445.31	412.74
445.68	413.76
446.05	413.99
446.42	413.67
446.79	413.09
447.16	412.44
447.53	412.07
447.90	410.44
448.27	408.88
448.64	406.66
449.01	405.07
449.37	402.42
449.74	399.66
450.11	396.69
450.48	393.20
450.85	389.48
451.22	386.40
451.59	383.57
451.96	380.77
452.33	377.09
452.70	373.71
453.07	369.65
453.43	365.35
453.80	361.48
454.17	357.71
454.54	354.10
454.91	350.23
455.28	346.42
455.65	342.87
456.02	339.82
456.38	336.78
456.75	333.15
457.12	329.88
457.49	326.91
457.86	323.73
458.23	321.33
458.59	318.58
458.96	315.85
459.33	313.28
459.70	310.98
460.07	309.10
460.43	306.83
460.80	304.75
461.17	302.96
461.54	300.99
461.91	299.16
462.27	297.30
462.64	295.76
463.01	294.06
463.38	292.63
463.74	290.50
464.11	289.03
464.48	287.71
464.85	286.40
465.21	285.39
465.58	284.30
465.95	282.79
466.32	281.77
466.68	280.61
467.05	279.61
467.42	278.38
467.78	277.16
468.15	276.12
468.52	275.31
468.88	274.20
469.25	273.23
469.62	272.45
469.98	271.69
470.35	270.95
470.72	270.31
471.08	269.35
471.45	268.78
471.82	268.34
472.18	267.75
472.55	267.27
472.92	266.61
473.28	266.11
473.65	265.72
474.02	265.25
474.38	265.00
474.75	264.79
475.11	264.49
475.48	264.30
475.85	264.13
476.21	263.94
476.58	263.70
476.94	263.71
477.31	263.70
477.67	263.54
478.04	263.51
478.41	263.58
478.77	263.98
479.14	263.97
479.50	263.93
479.87	264.08
480.23	264.25
480.60	264.47
480.96	264.62
481.33	265.05
481.69	265.40
482.06	265.67
482.42	265.98
482.79	266.31
483.15	266.81
483.52	267.40
483.88	267.91
484.25	268.65
484.61	269.21
484.98	269.84
485.34	270.78
485.71	271.69
486.07	272.58
486.44	273.13
486.80	274.19
487.17	275.23
487.53	276.48
487.90	277.74
488.26	279.10
488.62	280.53
488.99	281.90
489.35	283.39
489.72	284.95
490.08	286.48
490.44	288.29
490.81	290.16
491.17	292.05
491.54	294.21
491.90	296.27
492.26	298.58
492.63	300.90
492.99	303.24
493.36	305.84
493.72	308.60
494.08	311.53
494.45	314.54
494.81	317.79
495.17	321.01
495.54	324.44
495.90	327.88
496.26	331.59
496.63	335.34
496.99	339.30
497.35	343.47
497.72	347.87
498.08	352.35
498.44	356.87
498.80	361.84
499.17	366.89
499.53	372.02
499.89	377.52
500.26	382.94
500.62	388.63
500.98	394.66
501.34	400.75
501.71	407.21
502.07	413.74
502.43	420.30
502.79	427.05
503.16	434.11
503.52	441.61
503.88	449.04
504.24	456.86
504.60	464.72
504.97	472.86
505.33	481.17
505.69	490.10
506.05	499.00
506.41	507.84
506.78	516.67
507.14	526.01
507.50	535.36
507.86	545.37
508.22	555.43
508.59	565.39
508.95	575.65
509.31	586.31
509.67	597.19
510.03	608.36
510.39	619.93
510.75	631.55
511.12	643.15
511.48	655.07
511.84	667.19
512.20	679.52
512.56	692.13
512.92	704.99
513.28	717.65
513.64	730.58
514.00	743.66
514.37	757.00
514.73	770.48
515.09	784.22
515.45	797.96
515.81	811.81
516.17	825.57
516.53	839.70
516.89	853.60
517.25	867.56
517.61	881.94
517.97	896.06
518.33	910.05
518.69	924.41
519.05	938.96
519.41	953.46
519.77	968.28
520.13	982.63
520.49	996.95
520.85	1011.49
521.21	1026.27
521.57	1041.17
521.93	1055.67
522.29	1070.82
522.65	1085.65
523.01	1100.27
523.37	1114.79
523.73	1129.79
524.09	1144.40
524.45	1159.21
524.81	1173.90
525.17	1188.60
525.53	1203.26
525.89	1218.15
526.25	1232.90
526.61	1246.91
526.97	1261.33
527.33	1275.38
527.68	1290.07
528.04	1304.01
528.40	1317.68
528.76	1331.48
529.12	1345.43
529.48	1360.07
529.84	1373.61
530.20	1387.34
530.56	1400.92
530.91	1415.07
531.27	1429.07
531.63	1442.47
531.99	1455.64
532.35	1468.58
532.71	1481.13
533.07	1494.13
533.42	1506.81
533.78	1519.30
534.14	1531.84
534.50	1543.24
534.86	1555.33
535.21	1566.30
535.57	1578.28
535.93	1589.75
536.29	1601.01
536.65	1611.95
537.00	1621.96
537.36	1632.08
537.72	1641.87
538.08	1652.02
538.44	1661.64
538.79	1671.00
539.15	1680.61
539.51	1689.98
539.87	1700.10
540.22	1709.10
540.58	1718.65
540.94	1727.52
541.29	1735.51
541.65	1743.45
542.01	1752.08
542.37	1759.84
542.72	1768.06
543.08	1774.91
543.44	1782.78
543.79	1789.43
544.15	1795.84
544.51	1803.15
544.87	1810.20
545.22	1816.57
545.58	1822.29
545.94	1827.36
546.29	1832.20
546.65	1836.66
547.01	1841.14
547.36	1845.09
547.72	1849.31
548.07	1852.45
548.43	1855.72
548.79	1859.00
549.14	1862.39
549.50	1865.39
549.86	1867.66
550.21	1869.92
550.57	1872.67
550.92	1874.03
551.28	1875.99
551.64	1877.93
551.99	1879.43
552.35	1880.66
552.70	1881.87
553.06	1883.48
553.41	1884.80
553.77	1885.88
554.13	1887.04
554.48	1888.33
554.84	1889.16
555.19	1889.57
555.55	1889.62
555.90	1889.31
556.26	1889.24
556.61	1889.03
556.97	1888.22
557.32	1888.23
557.68	1887.32
558.03	1886.44
558.39	1885.98
558.74	1885.53
559.10	1884.94
559.45	1883.70
559.81	1882.70
560.16	1881.45
560.52	1879.94
560.87	1878.40
561.23	1876.43
561.58	1875.26
561.94	1872.89
562.29	1870.22
562.64	1868.39
563.00	1866.70
563.35	1865.31
563.71	1864.01
564.06	1862.22
564.42	1860.61
564.77	1858.73
565.12	1857.13
565.48	1855.36
565.83	1853.40
566.19	1851.42
566.54	1848.59
566.89	1845.90
567.25	1843.53
567.60	1840.94
567.96	1838.11
568.31	1835.62
568.66	1833.01
569.02	1829.29
569.37	1825.84
569.72	1822.92
570.08	1819.52
570.43	1815.62
570.78	1811.66
571.14	1807.31
571.49	1802.97
571.84	1799.38
572.20	1794.81
572.55	1790.70
572.90	1786.18
573.26	1781.06
573.61	1776.13
573.96	1771.48
574.31	1766.39
574.67	1760.79
575.02	1755.32
575.37	1749.95
575.72	1744.00
576.08	1739.06
576.43	1733.65
576.78	1728.50
577.13	1723.58
577.49	1718.43
577.84	1713.37
578.19	1708.68
578.54	1704.15
578.90	1699.54
579.25	1693.93
579.60	1688.74
579.95	1682.85
580.30	1677.78
580.66	1673.12
581.01	1667.61
581.36	1661.80
581.71	1656.32
582.06	1651.26
582.42	1646.06
582.77	1640.52
583.12	1635.22
583.47	1629.98
583.82	1625.21
584.17	1620.24
584.53	1615.15
584.88	1609.90
585.23	1604.39
585.58	1598.87
585.93	1593.08
586.28	1587.89
586.63	1582.30
586.98	1576.99
587.34	1572.24
587.69	1566.72
588.04	1561.34
588.39	1556.20
588.74	1550.86
589.09	1546.20
589.44	1540.73
589.79	1535.98
590.14	1531.05
590.49	1525.87
590.84	1520.49
591.19	1515.51
591.54	1510.35
591.89	1503.96
592.25	1498.75
592.60	1493.22
592.95	1487.23
593.30	1481.27
593.65	1475.09
594.00	1469.70
594.35	1465.59
594.70	1459.93
595.05	1454.72
595.40	1449.19
595.75	1443.36
596.10	1438.61
596.45	1433.46
596.80	1428.60
597.15	1423.49
597.50	1418.05
597.85	1413.38
598.19	1407.93
598.54	1402.70
598.89	1397.50
599.24	1393.57
599.59	1388.82
599.94	1384.45
600.29	1380.09
600.64	1375.49
600.99	1370.53
601.34	1365.75
601.69	1359.77
602.04	1354.71
602.39	1349.63
602.74	1345.04
603.08	1341.06
603.43	1336.96
603.78	1332.17
604.13	1327.55
604.48	1322.89
604.83	1319.21
605.18	1315.22
605.53	1310.65
605.87	1305.59
606.22	1301.15
606.57	1296.05
606.92	1290.85
607.27	1285.99
607.62	1281.00
607.96	1276.65
608.31	1272.54
608.66	1267.50
609.01	1262.34
609.36	1257.47
609.70	1252.31
610.05	1246.89
610.40	1241.46
610.75	1235.43
611.10	1230.45
611.44	1224.16
611.79	1218.21
612.14	1211.84
612.49	1205.24
612.83	1199.73
613.18	1193.74
613.53	1187.81
613.88	1181.60
614.22	1175.95
614.57	1169.98
614.92	1164.04
615.27	1157.88
615.61	1151.75
615.96	1146.31
616.31	1140.82
616.65	1135.56
617.00	1130.05
617.35	1124.59
617.70	1118.68
618.04	1112.82
618.39	1106.45
618.74	1101.26
619.08	1095.55
619.43	1090.01
619.78	1084.52
620.12	1078.85
620.47	1073.55
620.82	1067.42
621.16	1061.86
621.51	1056.05
621.85	1050.41
622.20	1044.96
622.55	1039.34
622.89	1033.65
623.24	1027.74
623.59	1021.86
623.93	1016.03
624.28	1010.61
624.62	1005.29
624.97	1000.01
625.32	995.04
625.66	989.87
626.01	984.55
626.35	979.65
626.70	974.33
627.04	969.45
627.39	964.37
627.73	959.40
628.08	954.95
628.43	949.67
628.77	944.82
629.12	939.70
629.46	935.05
629.81	930.18
630.15	925.25
630.50	920.28
630.84	915.43
631.19	910.41
631.53	905.46
631.88	900.01
632.22	894.65
632.57	889.99
632.91	885.13
633.26	880.08
633.60	874.95
633.95	870.24
634.29	865.22
634.64	860.51
634.98	855.50
635.32	850.77
635.67	846.53
636.01	841.91
636.36	837.25
636.70	832.63
637.05	828.07
637.39	823.66
637.73	819.65
638.08	815.60
638.42	811.60
638.77	807.29
639.11	803.18
639.45	799.07
639.80	794.06
640.14	789.48
640.49	785.09
640.83	780.79
641.17	776.35
641.52	771.92
641.86	767.26
642.20	762.95
642.55	758.08
642.89	753.57
643.23	748.83
643.58	744.77
643.92	740.03
644.26	735.69
644.61	731.37
644.95	726.80
645.29	722.41
645.64	717.81
645.98	713.41
646.32	709.10
646.66	704.74
647.01	700.72
647.35	696.63
647.69	692.30
648.04	687.98
648.38	683.93
648.72	679.88
649.06	675.78
649.41	671.75
649.75	667.84
650.09	663.77
650.43	659.76
650.78	655.26
651.12	651.13
651.46	647.08
651.80	643.18
652.14	639.20
652.49	635.06
652.83	630.94
653.17	626.84
653.51	622.78
653.85	619.04
654.20	615.01
654.54	611.00
654.88	607.16
655.22	603.46
655.56	599.35
655.90	595.30
656.25	591.46
656.59	587.58
656.93	583.85
657.27	580.23
657.61	576.27
657.95	572.78
658.29	569.22
658.64	565.67
658.98	561.74
659.32	557.96
659.66	554.29
660.00	550.81
660.34	547.23
660.68	543.57
661.02	540.04
661.36	536.68
661.70	533.42
662.05	530.15
662.39	526.95
662.73	523.93
663.07	520.99
663.41	517.90
663.75	514.73
664.09	511.50
664.43	508.20
664.77	505.40
665.11	502.21
665.45	499.20
665.79	496.13
666.13	493.34
666.47	490.37
666.81	487.49
667.15	484.60
667.49	481.92
667.83	479.40
668.17	476.62
668.51	473.95
668.85	471.34
669.19	468.87
669.53	466.05
669.87	463.32
670.21	460.50
670.55	457.80
670.89	455.56
671.23	453.23
671.57	450.85
671.91	448.32
672.25	445.99
672.58	443.68
672.92	441.30
673.26	438.98
673.60	436.92
673.94	434.66
674.28	432.25
674.62	430.09
674.96	427.75
675.30	425.54
675.64	423.20
675.97	421.06
676.31	418.85
676.65	416.86
676.99	414.96
677.33	412.96
677.67	410.98
678.01	408.64
678.34	406.56
678.68	404.51
679.02	402.48
679.36	400.41
679.70	398.34
680.04	396.29
680.37	394.37
680.71	392.31
681.05	390.48
681.39	388.82
681.73	386.87
682.06	385.18
682.40	383.38
682.74	381.72
683.08	379.95
683.42	378.02
683.75	376.28
684.09	374.47
684.43	372.73
684.77	370.93
685.10	369.17
685.44	367.31
685.78	365.56
686.12	363.97
686.45	362.43
686.79	360.79
687.13	359.38
687.46	357.70
687.80	356.21
688.14	354.46
688.48	352.80
688.81	351.14
689.15	349.59
689.49	348.03
689.82	346.36
690.16	344.55
690.50	343.00
690.83	341.36
691.17	339.70
691.51	338.06
691.84	336.71
692.18	335.32
692.52	334.07
692.85	332.82
693.19	331.56
693.52	330.09
693.86	328.71
694.20	327.28
694.53	326.02
694.87	324.60
695.21	323.32
695.54	321.95
695.88	320.70
696.21	319.24
696.55	317.97
696.88	316.75
697.22	315.63
697.56	314.58
697.89	313.41
698.23	312.34
698.56	311.38
698.90	310.31
699.23	309.13
699.57	307.93
699.90	306.70
700.24	305.43
700.58	304.34
700.91	303.31
701.25	302.42
701.58	301.39
701.92	300.27
702.25	299.30
702.59	298.27
702.92	297.28
703.26	296.32
703.59	295.35
703.93	294.69
704.26	293.65
704.60	292.61
704.93	291.65
705.26	290.60
705.60	289.64
705.93	288.54
706.27	287.80
706.60	287.03
706.94	286.28
707.27	285.35
707.61	284.48
707.94	283.59
708.27	282.50
708.61	281.52
708.94	280.82
709.28	279.93
709.61	279.10
709.94	278.31
710.28	277.51
710.61	276.78
710.95	275.71
711.28	275.12
711.61	274.40
711.95	273.65
712.28	272.89
712.61	272.09
712.95	271.63
713.28	271.01
713.61	270.30
713.95	269.53
714.28	268.89
714.61	268.17
714.95	267.52
715.28	266.86
715.61	266.23
715.95	265.62
716.28	264.99
716.61	264.38
716.95	263.72
717.28	263.14
717.61	262.52
717.94	261.98
718.28	261.28
718.61	260.67
718.94	260.18
719.27	259.61
719.61	259.17
719.94	258.46
720.27	257.70
720.60	257.06
720.94	256.55
721.27	256.05
721.60	255.63
721.93	255.05
722.27	254.69
722.60	254.24
722.93	253.65
723.26	253.17
723.59	252.71
723.93	252.37
724.26	251.99
724.59	251.48
724.92	251.05
725.25	250.81
725.59	250.41
725.92	250.05
726.25	249.63
726.58	249.20
726.91	248.83
727.24	248.47
727.57	248.15
727.91	247.69
728.24	247.43
728.57	247.03
728.90	246.76
729.23	246.26
729.56	246.09
729.89	245.78
730.22	245.48
730.55	245.12
730.89	244.64
731.22	244.29
731.55	244.01
731.88	243.67
732.21	243.17
732.54	242.79
732.87	242.42
733.20	242.23
733.53	241.92
733.86	241.60
734.19	241.26
734.52	240.98
734.85	240.94
735.18	240.50
735.51	240.31
735.84	240.03
736.17	239.85
736.50	239.37
736.83	239.40
737.16	239.11
737.49	238.80
737.82	238.57
738.15	238.34
738.48	238.00
738.81	237.64
739.14	237.31
739.47	237.05
739.80	236.76
740.13	236.43
740.46	236.07
740.79	235.79
741.12	235.54
741.45	235.17
741.78	234.75
742.11	234.62
742.44	234.26
742.77	234.00
743.10	233.70
743.43	233.40
743.75	232.90
744.08	233.10
744.41	232.93
744.74	232.69
745.07	232.34
745.40	232.20
745.73	232.25
746.06	232.06
746.39	231.83
746.71	231.58
747.04	231.36
747.37	231.12
747.70	230.93
748.03	230.74
748.36	230.61
748.68	230.35
749.01	229.94
749.34	229.78
749.67	229.69
750.00	229.55
750.33	229.67
750.65	229.41
750.98	228.78
751.31	228.54
751.64	228.30
751.97	228.21
752.29	227.94
752.62	227.49
752.95	227.26
753.28	227.01
753.60	226.86
753.93	226.75
754.26	226.64
754.59	226.30
754.91	226.09
755.24	225.92
755.57	225.73
755.90	225.71
756.22	225.54
756.55	225.24
756.88	224.97
757.20	224.55
757.53	224.37
757.86	224.16
758.19	224.03
758.51	223.91
758.84	223.74
759.17	223.56
759.49	223.46
759.82	223.47
760.15	223.48
760.47	223.32
760.80	223.04
761.13	222.91
761.45	222.89
761.78	222.74
762.11	222.56
762.43	222.43
762.76	222.24
763.08	222.15
763.41	222.03
763.74	221.93
764.06	221.80
764.39	221.68
764.71	221.55
765.04	221.48
765.37	221.27
765.69	221.11
766.02	221.03
766.34	220.89
766.67	220.67
767.00	220.57
767.32	220.62
767.65	220.77
767.97	220.68
768.30	220.56
768.62	220.53
768.95	220.46
769.27	220.38
769.60	220.31
769.92	220.13
770.25	220.05
770.57	219.87
770.90	219.78
771.22	219.67
771.55	219.64
771.87	219.45
772.20	219.46
772.52	219.74
772.85	220.03
773.17	220.00
773.50	219.89
773.82	219.74
774.15	219.47
774.47	219.24
774.80	219.11
775.12	219.05
775.45	218.89
775.77	218.81
776.09	218.72
776.42	218.68
776.74	218.77
777.07	218.63
777.39	218.61
777.72	218.60
778.04	218.56
778.36	218.49
778.69	218.41
779.01	218.32
779.33	217.89
779.66	217.44
779.98	217.31
780.31	217.22
780.63	217.29
780.95	217.33
781.28	217.21
781.60	217.15
781.92	217.08
782.25	217.15
782.57	217.13
782.89	217.05
783.22	216.95
783.54	216.77
783.86	216.80
784.19	216.70
784.51	216.73
784.83	216.60
785.16	216.53
785.48	216.58
785.80	216.55
786.12	216.51
786.45	216.50
786.77	216.49
787.09	216.46
787.42	216.29
787.74	216.25
788.06	216.26
