SpectraSuite Data File
++++++++++++++++++++++++++++++++++++
Date: Mon Feb 25 17:07:06 EST 2013
User: group
Dark Spectrum Present: No
Reference Spectrum Present: No
Number of Sampled Component Spectra: 1
Spectrometers: USB2E7196
Integration Time (usec): 104000 (USB2E7196)
Spectra Averaged: 20 (USB2E7196)
Boxcar Smoothing: 10 (USB2E7196)
Correct for Electrical Dark: No (USB2E7196)
Strobe/Lamp Enabled: No (USB2E7196)
Correct for Detector Non-linearity: No (USB2E7196)
Correct for Stray Light: No (USB2E7196)
Number of Pixels in Processed Spectrum: 2048
>>>>>Begin Processed Spectral Data<<<<<
339.09	0.00
339.48	198.50
339.86	201.65
340.24	202.65
340.63	202.65
341.01	209.10
341.39	206.75
341.78	207.90
342.16	209.95
342.54	209.95
342.93	198.96
343.31	209.03
343.69	209.59
344.07	210.01
344.46	210.40
344.84	210.82
345.22	210.92
345.60	211.12
345.99	211.24
346.37	211.30
346.75	211.32
347.13	211.37
347.52	211.41
347.90	211.50
348.28	211.53
348.66	211.55
349.05	211.39
349.43	211.45
349.81	211.54
350.19	211.56
350.57	211.56
350.96	211.54
351.34	211.53
351.72	211.55
352.10	211.64
352.48	211.71
352.87	211.69
353.25	211.71
353.63	211.74
354.01	211.81
354.39	211.92
354.77	211.97
355.15	212.17
355.54	212.18
355.92	212.15
356.30	212.15
356.68	212.40
357.06	212.47
357.44	212.44
357.82	212.44
358.20	212.49
358.58	212.43
358.97	212.57
359.35	212.75
359.73	212.91
360.11	212.90
360.49	212.97
360.87	213.02
361.25	213.10
361.63	213.28
362.01	213.33
362.39	213.24
362.77	213.33
363.15	213.23
363.53	213.23
363.91	213.22
364.29	213.19
364.67	212.99
365.05	213.05
365.43	213.10
365.81	213.14
366.19	213.29
366.57	213.50
366.95	213.38
367.33	213.24
367.71	213.21
368.09	213.26
368.47	213.18
368.85	213.21
369.23	213.25
369.61	213.08
369.99	213.25
370.37	213.33
370.75	213.37
371.13	213.28
371.51	213.20
371.89	213.15
372.27	213.21
372.65	213.09
373.03	213.01
373.41	212.93
373.78	212.84
374.16	212.64
374.54	212.52
374.92	212.51
375.30	212.49
375.68	212.35
376.06	212.33
376.44	212.26
376.82	212.17
377.19	212.07
377.57	211.95
377.95	211.68
378.33	211.53
378.71	211.29
379.09	211.32
379.47	211.41
379.84	211.35
380.22	211.22
380.60	211.20
380.98	211.12
381.36	211.11
381.73	210.98
382.11	211.04
382.49	210.96
382.87	210.86
383.25	210.77
383.62	211.22
384.00	211.06
384.38	211.03
384.76	211.09
385.13	211.22
385.51	211.27
385.89	211.22
386.27	211.22
386.64	211.31
387.02	211.25
387.40	211.15
387.78	211.17
388.15	211.13
388.53	211.02
388.91	211.09
389.29	211.04
389.66	211.13
390.04	211.02
390.42	211.04
390.79	211.05
391.17	211.07
391.55	210.60
391.92	210.64
392.30	210.68
392.68	210.54
393.05	210.47
393.43	210.45
393.81	210.43
394.18	210.39
394.56	210.37
394.94	210.42
395.31	210.35
395.69	210.49
396.06	210.60
396.44	210.70
396.82	210.55
397.19	210.65
397.57	210.63
397.95	210.68
398.32	210.59
398.70	210.73
399.07	210.79
399.45	210.80
399.82	210.78
400.20	210.69
400.58	210.68
400.95	210.57
401.33	210.61
401.70	210.87
402.08	210.92
402.45	210.99
402.83	211.12
403.20	211.20
403.58	211.12
403.95	211.19
404.33	211.26
404.71	211.40
405.08	211.68
405.46	211.79
405.83	211.91
406.21	212.03
406.58	212.07
406.96	212.11
407.33	212.32
407.70	212.53
408.08	213.04
408.45	213.36
408.83	213.54
409.20	213.75
409.58	213.78
409.95	214.07
410.33	214.29
410.70	214.44
411.08	214.70
411.45	214.99
411.82	215.21
412.20	215.60
412.57	216.05
412.95	216.11
413.32	216.53
413.69	216.86
414.07	217.30
414.44	217.84
414.82	218.34
415.19	218.85
415.56	219.34
415.94	219.71
416.31	220.32
416.68	221.09
417.06	221.86
417.43	222.77
417.81	223.61
418.18	224.57
418.55	225.49
418.93	226.53
419.30	227.61
419.67	228.77
420.04	229.90
420.42	231.01
420.79	232.68
421.16	234.05
421.54	235.69
421.91	237.23
422.28	238.70
422.66	240.37
423.03	242.19
423.40	243.92
423.77	245.68
424.15	247.41
424.52	249.24
424.89	251.27
425.26	253.06
425.64	255.00
426.01	257.09
426.38	259.28
426.75	261.56
427.13	263.85
427.50	266.19
427.87	268.69
428.24	271.24
428.61	273.46
428.99	276.27
429.36	278.92
429.73	281.75
430.10	284.58
430.47	287.55
430.85	290.41
431.22	293.68
431.59	297.28
431.96	300.60
432.33	304.35
432.70	307.91
433.08	312.14
433.45	316.01
433.82	319.84
434.19	324.24
434.56	328.60
434.93	332.64
435.30	336.82
435.68	341.37
436.05	345.85
436.42	350.31
436.79	354.31
437.16	358.86
437.53	363.49
437.90	368.15
438.27	372.73
438.64	377.43
439.01	381.73
439.38	385.46
439.75	389.36
440.13	393.61
440.50	397.65
440.87	401.04
441.24	404.46
441.61	408.41
441.98	411.23
442.35	414.45
442.72	417.90
443.09	421.16
443.46	423.09
443.83	424.62
444.20	425.96
444.57	427.74
444.94	428.62
445.31	429.61
445.68	430.85
446.05	431.25
446.42	431.06
446.79	430.85
447.16	430.50
447.53	430.31
447.90	428.83
448.27	427.31
448.64	425.15
449.01	423.69
449.37	420.78
449.74	418.01
450.11	414.94
450.48	411.29
450.85	407.41
451.22	404.22
451.59	401.11
451.96	398.08
452.33	394.04
452.70	390.47
453.07	386.15
453.43	381.54
453.80	377.44
454.17	373.26
454.54	369.43
454.91	365.23
455.28	361.23
455.65	357.46
456.02	354.17
456.38	350.89
456.75	346.96
457.12	343.60
457.49	340.28
457.86	336.79
458.23	334.07
458.59	331.20
458.96	328.26
459.33	325.45
459.70	322.75
460.07	320.62
460.43	318.06
460.80	315.77
461.17	313.75
461.54	311.57
461.91	309.67
462.27	307.61
462.64	305.87
463.01	303.80
463.38	301.99
463.74	299.62
464.11	297.97
464.48	296.51
464.85	294.91
465.21	293.81
465.58	292.53
465.95	290.91
466.32	289.57
466.68	288.24
467.05	286.97
467.42	285.61
467.78	284.25
468.15	283.10
468.52	282.16
468.88	280.82
469.25	279.70
469.62	278.79
469.98	277.70
470.35	276.80
470.72	275.89
471.08	274.78
471.45	274.04
471.82	273.28
472.18	272.37
472.55	271.68
472.92	270.77
473.28	270.10
473.65	269.39
474.02	268.73
474.38	268.19
474.75	267.75
475.11	267.26
475.48	266.95
475.85	266.37
476.21	265.86
476.58	265.51
476.94	265.24
477.31	264.91
477.67	264.67
478.04	264.43
478.41	264.34
478.77	264.60
479.14	264.39
479.50	264.22
479.87	264.08
480.23	264.02
480.60	263.98
480.96	263.81
481.33	264.05
481.69	264.16
482.06	264.16
482.42	264.20
482.79	264.36
483.15	264.45
483.52	264.81
483.88	264.94
484.25	265.11
484.61	265.29
484.98	265.45
485.34	265.76
485.71	266.16
486.07	266.43
486.44	266.35
486.80	266.77
487.17	267.09
487.53	267.63
487.90	268.25
488.26	268.94
488.62	269.61
488.99	270.01
489.35	270.55
489.72	271.20
490.08	271.84
490.44	272.43
490.81	273.16
491.17	273.85
491.54	274.78
491.90	275.68
492.26	276.51
492.63	277.45
492.99	278.36
493.36	279.35
493.72	280.45
494.08	281.65
494.45	282.83
494.81	284.15
495.17	285.32
495.54	286.53
495.90	287.66
496.26	288.93
496.63	290.26
496.99	291.51
497.35	292.82
497.72	294.29
498.08	295.80
498.44	297.27
498.80	298.78
499.17	300.24
499.53	301.71
499.89	303.45
500.26	304.98
500.62	306.61
500.98	308.21
501.34	309.80
501.71	311.47
502.07	313.09
502.43	314.66
502.79	316.26
503.16	317.89
503.52	319.53
503.88	321.26
504.24	323.11
504.60	325.08
504.97	327.05
505.33	328.71
505.69	330.69
506.05	332.54
506.41	334.37
506.78	336.14
507.14	338.03
507.50	339.95
507.86	342.01
508.22	344.00
508.59	345.87
508.95	347.91
509.31	350.05
509.67	352.10
510.03	354.30
510.39	356.53
510.75	358.69
511.12	360.88
511.48	363.00
511.84	365.06
512.20	367.00
512.56	369.04
512.92	371.41
513.28	373.47
513.64	375.55
514.00	377.70
514.37	380.05
514.73	382.39
515.09	384.65
515.45	386.82
515.81	389.05
516.17	391.51
516.53	393.74
516.89	395.86
517.25	398.08
517.61	400.32
517.97	402.57
518.33	404.85
518.69	407.31
519.05	409.77
519.41	412.17
519.77	414.95
520.13	417.47
520.49	419.93
520.85	422.42
521.21	425.28
521.57	427.99
521.93	430.43
522.29	433.08
522.65	435.58
523.01	438.25
523.37	440.85
523.73	443.55
524.09	446.50
524.45	449.35
524.81	452.24
525.17	455.24
525.53	458.22
525.89	461.16
526.25	464.02
526.61	466.93
526.97	469.93
527.33	472.92
527.68	476.31
528.04	479.28
528.40	482.39
528.76	485.24
529.12	488.49
529.48	491.89
529.84	495.01
530.20	498.45
530.56	501.86
530.91	505.49
531.27	508.88
531.63	512.17
531.99	515.55
532.35	518.95
532.71	522.16
533.07	525.63
533.42	529.42
533.78	533.07
534.14	536.49
534.50	539.94
534.86	543.42
535.21	546.53
535.57	550.11
535.93	553.40
536.29	557.10
536.65	560.57
537.00	563.83
537.36	567.25
537.72	570.39
538.08	573.79
538.44	576.93
538.79	580.29
539.15	583.63
539.51	586.97
539.87	590.42
540.22	593.95
540.58	597.31
540.94	600.55
541.29	603.73
541.65	606.97
542.01	610.31
542.37	613.51
542.72	616.80
543.08	620.03
543.44	623.65
543.79	626.61
544.15	629.77
544.51	633.26
544.87	636.64
545.22	639.99
545.58	643.09
545.94	646.19
546.29	649.22
546.65	652.14
547.01	654.99
547.36	657.90
547.72	660.79
548.07	663.51
548.43	665.98
548.79	668.46
549.14	671.13
549.50	673.74
549.86	676.16
550.21	678.55
550.57	681.17
550.92	683.25
551.28	685.70
551.64	688.21
551.99	690.59
552.35	692.69
552.70	694.88
553.06	696.89
553.41	699.10
553.77	701.33
554.13	703.35
554.48	705.51
554.84	707.67
555.19	709.51
555.55	711.66
555.90	713.56
556.26	715.50
556.61	717.18
556.97	718.76
557.32	720.58
557.68	722.21
558.03	723.63
558.39	725.28
558.74	726.91
559.10	728.28
559.45	729.64
559.81	731.25
560.16	732.49
560.52	733.84
560.87	735.13
561.23	736.17
561.58	737.96
561.94	739.17
562.29	740.11
562.64	741.31
563.00	742.33
563.35	743.50
563.71	744.79
564.06	746.25
564.42	747.55
564.77	748.75
565.12	749.98
565.48	751.45
565.83	752.72
566.19	753.87
566.54	754.72
566.89	755.53
567.25	756.41
567.60	757.56
567.96	758.86
568.31	759.73
568.66	760.55
569.02	760.81
569.37	761.20
569.72	761.78
570.08	762.26
570.43	762.42
570.78	762.81
571.14	762.94
571.49	762.73
571.84	762.96
572.20	762.82
572.55	762.93
572.90	762.42
573.26	761.89
573.61	761.42
573.96	761.24
574.31	760.72
574.67	760.04
575.02	759.10
575.37	758.14
575.72	757.35
576.08	756.64
576.43	755.79
576.78	755.28
577.13	754.75
577.49	754.07
577.84	753.51
578.19	752.74
578.54	752.20
578.90	751.84
579.25	750.95
579.60	750.18
579.95	749.05
580.30	748.37
580.66	748.03
581.01	747.08
581.36	746.10
581.71	745.36
582.06	744.89
582.42	744.28
582.77	743.36
583.12	742.66
583.47	742.20
583.82	741.60
584.17	740.59
584.53	739.73
584.88	738.80
585.23	737.93
585.58	737.10
585.93	736.10
586.28	735.30
586.63	734.59
586.98	733.80
587.34	733.31
587.69	732.43
588.04	731.29
588.39	730.43
588.74	729.49
589.09	728.69
589.44	727.41
589.79	726.45
590.14	725.59
590.49	724.48
590.84	723.18
591.19	722.35
591.54	721.44
591.89	720.09
592.25	719.20
592.60	717.93
592.95	716.68
593.30	715.21
593.65	713.78
594.00	712.18
594.35	711.76
594.70	710.18
595.05	708.75
595.40	707.32
595.75	705.94
596.10	704.67
596.45	703.38
596.80	702.29
597.15	701.10
597.50	699.79
597.85	698.70
598.19	697.10
598.54	695.57
598.89	694.25
599.24	693.40
599.59	691.95
599.94	690.95
600.29	689.65
600.64	688.66
600.99	687.34
601.34	686.21
601.69	683.87
602.04	682.42
602.39	681.18
602.74	680.15
603.08	679.16
603.43	678.27
603.78	676.96
604.13	675.69
604.48	674.50
604.83	673.55
605.18	672.30
605.53	671.31
605.87	669.99
606.22	668.85
606.57	667.22
606.92	665.80
607.27	664.31
607.62	662.92
607.96	661.63
608.31	660.41
608.66	659.05
609.01	657.63
609.36	656.35
609.70	654.93
610.05	653.31
610.40	651.73
610.75	649.82
611.10	648.32
611.44	646.32
611.79	644.44
612.14	642.42
612.49	640.41
612.83	638.60
613.18	636.65
613.53	634.69
613.88	632.65
614.22	630.91
614.57	628.98
614.92	627.01
615.27	625.09
615.61	622.89
615.96	620.86
616.31	619.21
616.65	617.58
617.00	615.58
617.35	613.67
617.70	611.69
618.04	609.59
618.39	607.34
618.74	605.48
619.08	603.57
619.43	601.63
619.78	599.70
620.12	597.81
620.47	595.95
620.82	593.78
621.16	591.81
621.51	589.84
621.85	587.81
622.20	585.85
622.55	583.58
622.89	581.57
623.24	579.70
623.59	577.43
623.93	575.25
624.28	573.24
624.62	571.39
624.97	569.38
625.32	567.45
625.66	565.55
626.01	563.66
626.35	561.60
626.70	559.54
627.04	557.85
627.39	555.78
627.73	553.85
628.08	552.14
628.43	550.07
628.77	548.14
629.12	546.09
629.46	544.35
629.81	542.54
630.15	540.64
630.50	538.50
630.84	536.52
631.19	534.49
631.53	532.70
631.88	530.36
632.22	528.23
632.57	526.50
632.91	524.53
633.26	522.58
633.60	520.63
633.95	518.86
634.29	516.75
634.64	514.99
634.98	513.03
635.32	511.24
635.67	509.71
636.01	507.83
636.36	505.98
636.70	504.25
637.05	502.42
637.39	500.82
637.73	499.29
638.08	497.85
638.42	496.26
638.77	494.40
639.11	492.87
639.45	491.25
639.80	489.19
640.14	487.43
640.49	485.65
640.83	483.95
641.17	482.10
641.52	480.22
641.86	478.29
642.20	476.61
642.55	474.50
642.89	472.53
643.23	470.54
643.58	469.07
643.92	466.98
644.26	465.15
644.61	463.21
644.95	461.14
645.29	459.17
645.64	457.29
645.98	455.46
646.32	453.63
646.66	451.75
647.01	449.90
647.35	448.24
647.69	446.39
648.04	444.56
648.38	442.71
648.72	440.96
649.06	439.25
649.41	437.40
649.75	435.70
650.09	433.89
650.43	432.13
650.78	430.05
651.12	428.23
651.46	426.51
651.80	424.66
652.14	423.01
652.49	421.32
652.83	419.57
653.17	417.69
653.51	415.86
653.85	414.19
654.20	412.59
654.54	410.64
654.88	408.88
655.22	407.23
655.56	405.55
655.90	403.92
656.25	402.11
656.59	400.42
656.93	398.81
657.27	397.36
657.61	395.65
657.95	394.19
658.29	392.59
658.64	391.00
658.98	389.37
659.32	387.61
659.66	385.94
660.00	384.20
660.34	382.64
660.68	381.08
661.02	379.44
661.36	377.90
661.70	376.53
662.05	375.10
662.39	373.60
662.73	372.16
663.07	370.85
663.41	369.43
663.75	367.88
664.09	366.38
664.43	364.78
664.77	363.43
665.11	361.97
665.45	360.64
665.79	359.27
666.13	358.03
666.47	356.84
666.81	355.42
667.15	354.07
667.49	352.90
667.83	351.69
668.17	350.38
668.51	349.14
668.85	347.92
669.19	346.84
669.53	345.53
669.87	344.18
670.21	342.71
670.55	341.50
670.89	340.49
671.23	339.45
671.57	338.39
671.91	337.15
672.25	335.97
672.58	334.91
672.92	333.76
673.26	332.61
673.60	331.51
673.94	330.48
674.28	329.52
674.62	328.54
674.96	327.43
675.30	326.38
675.64	325.41
675.97	324.23
676.31	323.07
676.65	322.07
676.99	321.22
677.33	320.21
677.67	319.24
678.01	318.10
678.34	317.08
678.68	316.10
679.02	315.12
679.36	314.14
679.70	313.11
680.04	312.13
680.37	311.12
680.71	310.16
681.05	309.35
681.39	308.40
681.73	307.41
682.06	306.56
682.40	305.71
682.74	304.79
683.08	304.04
683.42	303.15
683.75	302.38
684.09	301.41
684.43	300.54
684.77	299.55
685.10	298.68
685.44	297.77
685.78	296.91
686.12	296.19
686.45	295.40
686.79	294.56
687.13	293.86
687.46	293.05
687.80	292.27
688.14	291.38
688.48	290.60
688.81	289.73
689.15	288.95
689.49	288.14
689.82	287.27
690.16	286.38
690.50	285.55
690.83	284.65
691.17	283.80
691.51	282.94
691.84	282.24
692.18	281.55
692.52	280.78
692.85	280.01
693.19	279.37
693.52	278.56
693.86	277.84
694.20	277.08
694.53	276.42
694.87	275.65
695.21	274.89
695.54	274.17
695.88	273.44
696.21	272.61
696.55	271.98
696.88	271.41
697.22	270.70
697.56	270.13
697.89	269.56
698.23	269.05
698.56	268.51
698.90	267.99
699.23	267.33
699.57	266.80
699.90	266.22
700.24	265.46
700.58	264.92
700.91	264.35
701.25	263.93
701.58	263.43
701.92	262.90
702.25	262.34
702.59	261.79
702.92	261.28
703.26	260.84
703.59	260.31
703.93	260.04
704.26	259.60
704.60	259.08
704.93	258.52
705.26	257.94
705.60	257.55
705.93	256.93
706.27	256.55
706.60	256.18
706.94	255.87
707.27	255.39
707.61	254.93
707.94	254.47
708.27	253.78
708.61	253.25
708.94	252.87
709.28	252.44
709.61	252.01
709.94	251.61
710.28	251.18
710.61	250.79
710.95	250.07
711.28	250.01
711.61	249.69
711.95	249.34
712.28	248.94
712.61	248.52
712.95	248.38
713.28	248.07
713.61	247.51
713.95	247.02
714.28	246.74
714.61	246.34
714.95	245.94
715.28	245.55
715.61	245.10
715.95	244.75
716.28	244.38
716.61	244.08
716.95	243.73
717.28	243.47
717.61	243.10
717.94	242.84
718.28	242.10
718.61	241.65
718.94	241.35
719.27	241.05
719.61	240.71
719.94	240.32
720.27	239.92
720.60	239.73
720.94	239.43
721.27	239.14
721.60	238.92
721.93	238.62
722.27	238.50
722.60	238.42
722.93	238.12
723.26	237.90
723.59	237.53
723.93	237.33
724.26	237.01
724.59	236.70
724.92	236.42
725.25	236.38
725.59	236.18
725.92	235.90
726.25	235.70
726.58	235.53
726.91	235.22
727.24	234.98
727.57	234.74
727.91	234.50
728.24	234.29
728.57	233.93
728.90	233.85
729.23	233.51
729.56	233.35
729.89	233.05
730.22	232.80
730.55	232.53
730.89	232.29
731.22	232.09
731.55	231.87
731.88	231.60
732.21	231.29
732.54	230.98
732.87	230.84
733.20	230.59
733.53	230.35
733.86	230.19
734.19	229.96
734.52	229.74
734.85	229.68
735.18	229.43
735.51	229.34
735.84	229.11
736.17	229.00
736.50	228.69
736.83	229.00
737.16	228.84
737.49	228.75
737.82	228.48
738.15	228.33
738.48	228.23
738.81	228.09
739.14	227.83
739.47	227.70
739.80	227.43
740.13	227.31
740.46	227.10
740.79	226.89
741.12	226.66
741.45	226.47
741.78	226.20
742.11	226.16
742.44	226.05
742.77	225.94
743.10	225.71
743.43	225.53
743.75	224.98
744.08	225.32
744.41	225.13
744.74	225.03
745.07	224.82
745.40	224.66
745.73	224.72
746.06	224.63
746.39	224.54
746.71	224.40
747.04	224.23
747.37	224.08
747.70	224.00
748.03	223.99
748.36	223.96
748.68	223.80
749.01	223.54
749.34	223.37
749.67	223.19
750.00	223.18
750.33	223.25
750.65	223.14
750.98	222.60
751.31	222.48
751.64	222.35
751.97	222.47
752.29	222.31
752.62	222.00
752.95	221.93
753.28	221.80
753.60	221.72
753.93	221.71
754.26	221.74
754.59	221.56
754.91	221.37
755.24	221.20
755.57	221.00
755.90	220.95
756.22	220.83
756.55	220.75
756.88	220.58
757.20	220.35
757.53	220.15
757.86	220.07
758.19	220.03
758.51	219.99
758.84	219.65
759.17	219.62
759.49	219.52
759.82	219.59
760.15	219.47
760.47	219.34
760.80	219.15
761.13	219.04
761.45	218.89
761.78	218.79
762.11	218.74
762.43	218.70
762.76	218.58
763.08	218.54
763.41	218.46
763.74	218.38
764.06	218.24
764.39	218.17
764.71	218.07
765.04	217.97
765.37	217.80
765.69	217.71
766.02	217.59
766.34	217.53
766.67	217.27
767.00	217.30
767.32	217.38
767.65	217.49
767.97	217.36
768.30	217.34
768.62	217.42
768.95	217.25
769.27	217.22
769.60	217.18
769.92	217.07
770.25	216.95
770.57	216.82
770.90	216.78
771.22	216.73
771.55	216.65
771.87	216.58
772.20	216.59
772.52	216.88
772.85	217.26
773.17	217.22
773.50	217.12
773.82	216.93
774.15	216.74
774.47	216.54
774.80	216.46
775.12	216.43
775.45	216.25
775.77	216.27
776.09	216.20
776.42	216.21
776.74	216.26
777.07	216.22
777.39	216.22
777.72	216.19
778.04	216.23
778.36	216.15
778.69	216.16
779.01	216.09
779.33	215.65
779.66	215.23
779.98	215.07
780.31	215.10
780.63	215.26
780.95	215.25
781.28	215.13
781.60	215.09
781.92	215.09
782.25	215.06
782.57	214.96
782.89	214.91
783.22	214.83
783.54	214.78
783.86	214.76
784.19	214.65
784.51	214.70
784.83	214.55
785.16	214.53
785.48	214.54
785.80	214.55
786.12	214.61
786.45	214.57
786.77	214.62
787.09	214.57
787.42	214.42
787.74	214.39
788.06	214.41
788.38	214.42
788.71	214.38
789.03	214.41
789.35	214.46
789.67	214.45
789.99	214.44
790.32	214.39
790.64	214.39
790.96	214.65
791.28	214.52
791.61	214.51
791.93	214.50
792.25	214.41
792.57	214.64
792.89	214.55
793.21	214.55
793.54	214.54
793.86	214.54
794.18	214.54
