SpectraSuite Data File
++++++++++++++++++++++++++++++++++++
Date: Mon Feb 25 17:16:55 EST 2013
User: group
Dark Spectrum Present: No
Reference Spectrum Present: No
Number of Sampled Component Spectra: 1
Spectrometers: USB2E7196
Integration Time (usec): 104000 (USB2E7196)
Spectra Averaged: 20 (USB2E7196)
Boxcar Smoothing: 10 (USB2E7196)
Correct for Electrical Dark: No (USB2E7196)
Strobe/Lamp Enabled: No (USB2E7196)
Correct for Detector Non-linearity: No (USB2E7196)
Correct for Stray Light: No (USB2E7196)
Number of Pixels in Processed Spectrum: 2048
>>>>>Begin Processed Spectral Data<<<<<
339.09	0.00
339.48	198.30
339.86	201.35
340.24	200.75
340.63	203.25
341.01	209.85
341.39	206.05
341.78	206.95
342.16	209.90
342.54	209.55
342.93	198.39
343.31	208.38
343.69	208.94
344.07	209.37
344.46	209.85
344.84	210.23
345.22	210.22
345.60	210.46
345.99	210.68
346.37	210.74
346.75	210.75
347.13	210.77
347.52	210.85
347.90	211.00
348.28	211.05
348.66	211.13
349.05	210.99
349.43	211.07
349.81	211.10
350.19	211.07
350.57	211.13
350.96	211.22
351.34	211.32
351.72	211.35
352.10	211.41
352.48	211.46
352.87	211.45
353.25	211.56
353.63	211.57
354.01	211.63
354.39	211.72
354.77	211.84
355.15	212.01
355.54	212.00
355.92	211.93
356.30	211.90
356.68	212.13
357.06	212.25
357.44	212.30
357.82	212.35
358.20	212.53
358.58	212.54
358.97	212.55
359.35	212.66
359.73	212.81
360.11	212.91
360.49	213.05
360.87	213.20
361.25	213.30
361.63	213.54
362.01	213.57
362.39	213.65
362.77	213.71
363.15	213.74
363.53	213.76
363.91	213.82
364.29	213.92
364.67	213.71
365.05	213.80
365.43	213.83
365.81	214.02
366.19	214.19
366.57	214.37
366.95	214.51
367.33	214.51
367.71	214.58
368.09	214.60
368.47	214.50
368.85	214.53
369.23	214.64
369.61	214.46
369.99	214.60
370.37	214.53
370.75	214.73
371.13	214.73
371.51	214.75
371.89	214.83
372.27	214.86
372.65	214.88
373.03	214.85
373.41	214.87
373.78	214.77
374.16	214.57
374.54	214.48
374.92	214.41
375.30	214.35
375.68	214.26
376.06	214.26
376.44	214.27
376.82	214.20
377.19	214.07
377.57	214.03
377.95	213.87
378.33	213.92
378.71	213.64
379.09	213.58
379.47	213.58
379.84	213.50
380.22	213.40
380.60	213.30
380.98	213.22
381.36	213.18
381.73	213.11
382.11	213.12
382.49	213.08
382.87	212.93
383.25	212.91
383.62	213.24
384.00	213.13
384.38	213.11
384.76	213.19
385.13	213.34
385.51	213.33
385.89	213.29
386.27	213.25
386.64	213.27
387.02	213.22
387.40	213.19
387.78	213.17
388.15	213.15
388.53	213.08
388.91	213.12
389.29	213.11
389.66	213.15
390.04	213.07
390.42	213.11
390.79	213.13
391.17	213.10
391.55	212.75
391.92	212.73
392.30	212.70
392.68	212.61
393.05	212.58
393.43	212.54
393.81	212.46
394.18	212.42
394.56	212.38
394.94	212.44
395.31	212.42
395.69	212.50
396.06	212.59
396.44	212.63
396.82	212.55
397.19	212.70
397.57	212.57
397.95	212.68
398.32	212.54
398.70	212.61
399.07	212.67
399.45	212.68
399.82	212.74
400.20	212.73
400.58	212.68
400.95	212.55
401.33	212.67
401.70	213.00
402.08	213.03
402.45	213.09
402.83	213.21
403.20	213.25
403.58	213.32
403.95	213.41
404.33	213.57
404.71	213.70
405.08	213.93
405.46	214.10
405.83	214.21
406.21	214.35
406.58	214.52
406.96	214.68
407.33	214.80
407.70	214.98
408.08	215.45
408.45	215.72
408.83	216.01
409.20	216.20
409.58	216.31
409.95	216.65
410.33	217.01
410.70	217.26
411.08	217.64
411.45	217.98
411.82	218.32
412.20	218.73
412.57	219.38
412.95	219.49
413.32	220.02
413.69	220.47
414.07	221.09
414.44	221.65
414.82	222.25
415.19	223.12
415.56	223.85
415.94	224.52
416.31	225.42
416.68	226.30
417.06	227.35
417.43	228.27
417.81	229.42
418.18	230.59
418.55	231.69
418.93	233.01
419.30	234.42
419.67	235.84
420.04	237.35
420.42	238.75
420.79	240.88
421.16	242.69
421.54	244.70
421.91	246.59
422.28	248.56
422.66	250.76
423.03	252.87
423.40	255.03
423.77	257.28
424.15	259.66
424.52	262.03
424.89	264.69
425.26	267.31
425.64	269.60
426.01	272.23
426.38	275.10
426.75	278.00
427.13	280.81
427.50	283.84
427.87	286.95
428.24	290.21
428.61	293.04
428.99	296.44
429.36	300.04
429.73	303.57
430.10	307.09
430.47	310.68
430.85	314.27
431.22	318.31
431.59	322.70
431.96	326.77
432.33	331.22
432.70	335.48
433.08	340.49
433.45	345.31
433.82	350.05
434.19	355.21
434.56	360.26
434.93	365.12
435.30	370.07
435.68	375.46
436.05	380.76
436.42	385.99
436.79	390.75
437.16	395.91
437.53	401.49
437.90	407.01
438.27	412.42
438.64	417.97
439.01	423.07
439.38	427.43
439.75	431.78
440.13	436.81
440.50	441.62
440.87	445.44
441.24	449.44
441.61	453.75
441.98	457.06
442.35	460.73
442.72	464.68
443.09	468.56
443.46	470.71
443.83	472.02
444.20	473.35
444.57	475.12
444.94	475.90
445.31	476.70
445.68	477.83
446.05	477.94
446.42	477.26
446.79	476.49
447.16	475.74
447.53	475.10
447.90	472.95
448.27	470.77
448.64	467.86
449.01	465.70
449.37	462.24
449.74	458.66
450.11	454.78
450.48	450.09
450.85	445.13
451.22	441.13
451.59	437.42
451.96	433.70
452.33	428.88
452.70	424.55
453.07	419.29
453.43	413.68
453.80	408.65
454.17	403.80
454.54	399.17
454.91	394.16
455.28	389.25
455.65	384.82
456.02	380.71
456.38	376.88
456.75	372.12
457.12	367.96
457.49	364.02
457.86	359.90
458.23	356.68
458.59	353.16
458.96	349.59
459.33	346.32
459.70	343.09
460.07	340.66
460.43	337.64
460.80	334.96
461.17	332.52
461.54	330.01
461.91	327.67
462.27	325.18
462.64	323.02
463.01	320.83
463.38	318.69
463.74	316.09
464.11	314.10
464.48	312.48
464.85	310.69
465.21	309.36
465.58	307.97
465.95	306.13
466.32	304.58
466.68	303.09
467.05	301.71
467.42	300.37
467.78	298.80
468.15	297.43
468.52	296.45
468.88	295.03
469.25	293.89
469.62	292.94
469.98	292.09
470.35	291.25
470.72	290.41
471.08	289.32
471.45	288.59
471.82	287.92
472.18	287.02
472.55	286.58
472.92	285.81
473.28	285.22
473.65	284.66
474.02	284.22
474.38	283.88
474.75	283.61
475.11	283.18
475.48	283.05
475.85	282.84
476.21	282.52
476.58	282.46
476.94	282.43
477.31	282.39
477.67	282.32
478.04	282.39
478.41	282.59
478.77	283.17
479.14	283.30
479.50	283.70
479.87	284.16
480.23	284.48
480.60	284.80
480.96	285.18
481.33	285.88
481.69	286.44
482.06	286.98
482.42	287.55
482.79	288.30
483.15	289.02
483.52	290.07
483.88	291.06
484.25	292.10
484.61	293.23
484.98	294.41
485.34	295.70
485.71	297.12
486.07	298.46
486.44	299.65
486.80	301.27
487.17	302.79
487.53	304.57
487.90	306.49
488.26	308.70
488.62	310.96
488.99	313.21
489.35	315.67
489.72	318.21
490.08	320.88
490.44	323.68
490.81	326.64
491.17	329.59
491.54	332.82
491.90	336.22
492.26	339.85
492.63	343.54
492.99	347.43
493.36	351.44
493.72	355.79
494.08	360.23
494.45	364.80
494.81	369.90
495.17	374.97
495.54	380.38
495.90	385.95
496.26	391.75
496.63	397.80
496.99	403.97
497.35	410.71
497.72	417.62
498.08	424.81
498.44	432.21
498.80	440.13
499.17	448.20
499.53	456.51
499.89	465.22
500.26	474.19
500.62	483.30
500.98	492.88
501.34	502.84
501.71	513.16
502.07	523.80
502.43	534.42
502.79	545.49
503.16	556.99
503.52	568.74
503.88	580.74
504.24	593.30
504.60	606.21
504.97	619.34
505.33	632.65
505.69	646.83
506.05	661.31
506.41	675.80
506.78	690.55
507.14	705.83
507.50	721.35
507.86	737.20
508.22	753.59
508.59	770.31
508.95	787.39
509.31	804.68
509.67	822.26
510.03	840.32
510.39	858.90
510.75	877.77
511.12	896.90
511.48	916.54
511.84	936.20
512.20	956.06
512.56	976.59
512.92	997.74
513.28	1018.50
513.64	1039.32
514.00	1060.39
514.37	1082.08
514.73	1103.84
515.09	1125.72
515.45	1147.64
515.81	1169.76
516.17	1191.94
516.53	1214.39
516.89	1237.08
517.25	1260.05
517.61	1282.82
517.97	1305.75
518.33	1328.43
518.69	1351.41
519.05	1374.41
519.41	1397.53
519.77	1421.27
520.13	1444.22
520.49	1466.70
520.85	1489.78
521.21	1513.39
521.57	1537.17
521.93	1559.91
522.29	1583.65
522.65	1607.12
523.01	1630.36
523.37	1653.06
523.73	1676.26
524.09	1699.10
524.45	1722.18
524.81	1745.13
525.17	1768.46
525.53	1791.16
525.89	1814.13
526.25	1836.39
526.61	1858.18
526.97	1880.09
527.33	1901.58
527.68	1923.67
528.04	1945.16
528.40	1966.03
528.76	1986.78
529.12	2007.85
529.48	2029.72
529.84	2050.20
530.20	2070.71
530.56	2091.43
530.91	2112.63
531.27	2133.23
531.63	2153.14
531.99	2172.82
532.35	2191.88
532.71	2210.55
533.07	2230.09
533.42	2248.21
533.78	2267.08
534.14	2285.63
534.50	2302.81
534.86	2320.54
535.21	2337.12
535.57	2354.74
535.93	2371.27
536.29	2387.95
536.65	2404.05
537.00	2419.00
537.36	2433.52
537.72	2447.89
538.08	2462.56
538.44	2477.16
538.79	2491.31
539.15	2505.04
539.51	2518.74
539.87	2533.05
540.22	2546.45
540.58	2559.69
540.94	2572.95
541.29	2584.68
541.65	2595.74
542.01	2607.66
542.37	2618.77
542.72	2629.95
543.08	2640.09
543.44	2651.77
543.79	2661.08
544.15	2670.30
544.51	2680.32
544.87	2690.57
545.22	2699.21
545.58	2706.72
545.94	2713.15
546.29	2719.47
546.65	2725.89
547.01	2731.90
547.36	2737.11
547.72	2742.12
548.07	2746.25
548.43	2750.06
548.79	2753.95
549.14	2757.80
549.50	2761.45
549.86	2764.39
550.21	2767.27
550.57	2770.70
550.92	2771.56
551.28	2772.89
551.64	2774.57
551.99	2776.29
552.35	2777.03
552.70	2778.58
553.06	2779.95
553.41	2781.42
553.77	2782.17
554.13	2782.90
554.48	2783.77
554.84	2784.30
555.19	2784.22
555.55	2783.27
555.90	2782.19
556.26	2780.91
556.61	2779.77
556.97	2777.82
557.32	2776.33
557.68	2773.70
558.03	2770.79
558.39	2768.84
558.74	2768.26
559.10	2766.36
559.45	2763.33
559.81	2760.97
560.16	2757.30
560.52	2754.31
560.87	2751.46
561.23	2747.37
561.58	2744.11
561.94	2739.75
562.29	2735.15
562.64	2731.58
563.00	2728.37
563.35	2725.53
563.71	2723.36
564.06	2720.03
564.42	2717.36
564.77	2714.50
565.12	2711.72
565.48	2708.26
565.83	2705.18
566.19	2701.30
566.54	2696.34
566.89	2691.76
567.25	2687.24
567.60	2683.34
567.96	2678.66
568.31	2673.94
568.66	2669.44
569.02	2664.08
569.37	2658.03
569.72	2652.96
570.08	2647.21
570.43	2641.18
570.78	2634.62
571.14	2627.30
571.49	2620.66
571.84	2614.04
572.20	2606.35
572.55	2599.72
572.90	2592.00
573.26	2583.89
573.61	2575.53
573.96	2567.89
574.31	2559.43
574.67	2550.88
575.02	2541.88
575.37	2533.12
575.72	2523.64
576.08	2516.03
576.43	2506.67
576.78	2498.67
577.13	2490.51
577.49	2482.04
577.84	2473.44
578.19	2465.75
578.54	2458.09
578.90	2450.79
579.25	2442.24
579.60	2433.43
579.95	2423.92
580.30	2416.09
580.66	2408.14
581.01	2399.40
581.36	2390.65
581.71	2382.38
582.06	2373.68
582.42	2365.64
582.77	2356.73
583.12	2347.88
583.47	2339.09
583.82	2331.51
584.17	2322.83
584.53	2314.57
584.88	2306.05
585.23	2297.46
585.58	2288.42
585.93	2279.50
586.28	2270.83
586.63	2262.02
586.98	2253.82
587.34	2246.13
587.69	2237.38
588.04	2228.77
588.39	2220.71
588.74	2212.05
589.09	2204.00
589.44	2195.45
589.79	2187.47
590.14	2180.03
590.49	2172.21
590.84	2163.79
591.19	2156.46
591.54	2148.55
591.89	2138.85
592.25	2130.25
592.60	2121.26
592.95	2112.39
593.30	2102.65
593.65	2092.85
594.00	2084.17
594.35	2077.07
594.70	2068.38
595.05	2060.17
595.40	2051.75
595.75	2042.63
596.10	2034.60
596.45	2026.62
596.80	2019.26
597.15	2011.52
597.50	2003.03
597.85	1995.13
598.19	1987.29
598.54	1978.61
598.89	1970.77
599.24	1964.23
599.59	1957.04
599.94	1950.72
600.29	1943.44
600.64	1936.80
600.99	1929.37
601.34	1922.48
601.69	1913.33
602.04	1905.44
602.39	1897.56
602.74	1889.92
603.08	1883.76
603.43	1877.24
603.78	1869.71
604.13	1862.28
604.48	1854.65
604.83	1848.27
605.18	1841.90
605.53	1834.15
605.87	1826.84
606.22	1819.85
606.57	1812.47
606.92	1804.75
607.27	1796.44
607.62	1788.86
607.96	1781.70
608.31	1775.32
608.66	1767.25
609.01	1759.81
609.36	1752.24
609.70	1744.12
610.05	1736.11
610.40	1727.69
610.75	1719.26
611.10	1711.61
611.44	1702.47
611.79	1693.71
612.14	1684.56
612.49	1674.98
612.83	1666.60
613.18	1657.23
613.53	1648.33
613.88	1638.65
614.22	1630.02
614.57	1621.34
614.92	1612.32
615.27	1603.22
615.61	1594.06
615.96	1585.86
616.31	1577.68
616.65	1569.79
617.00	1561.87
617.35	1553.70
617.70	1545.13
618.04	1536.01
618.39	1526.80
618.74	1518.50
619.08	1509.81
619.43	1501.20
619.78	1493.25
620.12	1484.88
620.47	1477.21
620.82	1468.09
621.16	1459.51
621.51	1450.99
621.85	1442.81
622.20	1434.34
622.55	1426.13
622.89	1417.46
623.24	1408.87
623.59	1400.02
623.93	1391.38
624.28	1382.87
624.62	1374.82
624.97	1366.56
625.32	1359.05
625.66	1351.25
626.01	1343.65
626.35	1336.02
626.70	1328.25
627.04	1320.80
627.39	1313.23
627.73	1305.41
628.08	1298.44
628.43	1290.81
628.77	1283.10
629.12	1275.05
629.46	1268.23
629.81	1260.77
630.15	1253.47
630.50	1245.84
630.84	1238.25
631.19	1230.81
631.53	1223.66
631.88	1215.41
632.22	1207.58
632.57	1200.27
632.91	1193.04
633.26	1185.73
633.60	1178.71
633.95	1171.90
634.29	1164.36
634.64	1157.40
634.98	1149.94
635.32	1142.80
635.67	1136.16
636.01	1129.46
636.36	1122.77
636.70	1115.73
637.05	1108.90
637.39	1102.11
637.73	1095.81
638.08	1090.07
638.42	1083.89
638.77	1077.55
639.11	1071.51
639.45	1065.33
639.80	1058.50
640.14	1051.37
640.49	1044.60
640.83	1037.88
641.17	1031.48
641.52	1024.84
641.86	1017.91
642.20	1011.60
642.55	1004.76
642.89	998.08
643.23	990.85
643.58	984.76
643.92	978.06
644.26	971.37
644.61	965.09
644.95	958.36
645.29	951.41
645.64	944.34
645.98	937.79
646.32	931.66
646.66	925.39
647.01	919.21
647.35	913.45
647.69	906.98
648.04	900.74
648.38	894.06
648.72	887.77
649.06	881.63
649.41	875.54
649.75	869.55
650.09	863.64
650.43	857.90
650.78	851.27
651.12	845.06
651.46	839.09
651.80	833.16
652.14	827.35
652.49	821.26
652.83	815.41
653.17	809.15
653.51	802.90
653.85	797.10
654.20	791.24
654.54	785.08
654.88	779.41
655.22	773.59
655.56	767.79
655.90	762.00
656.25	756.15
656.59	750.39
656.93	744.66
657.27	739.19
657.61	733.62
657.95	728.39
658.29	723.08
658.64	717.80
658.98	712.14
659.32	706.42
659.66	701.28
660.00	695.91
660.34	690.54
660.68	685.19
661.02	679.78
661.36	674.82
661.70	669.95
662.05	665.19
662.39	660.69
662.73	656.19
663.07	651.82
663.41	647.31
663.75	642.70
664.09	638.17
664.43	633.36
664.77	628.86
665.11	624.30
665.45	619.95
665.79	615.64
666.13	611.47
666.47	607.22
666.81	602.95
667.15	598.86
667.49	595.08
667.83	591.22
668.17	587.23
668.51	583.20
668.85	579.27
669.19	575.59
669.53	571.49
669.87	567.54
670.21	563.67
670.55	559.85
670.89	556.48
671.23	553.00
671.57	549.52
671.91	546.00
672.25	542.40
672.58	538.85
672.92	535.34
673.26	531.99
673.60	528.74
673.94	525.41
674.28	522.20
674.62	519.11
674.96	516.02
675.30	512.94
675.64	509.81
675.97	506.68
676.31	503.50
676.65	500.46
676.99	497.63
677.33	494.55
677.67	491.58
678.01	488.37
678.34	485.42
678.68	482.55
679.02	479.66
679.36	476.84
679.70	474.01
680.04	471.39
680.37	468.51
680.71	465.75
681.05	463.07
681.39	460.26
681.73	457.45
682.06	454.84
682.40	452.22
682.74	449.54
683.08	447.06
683.42	444.36
683.75	441.82
684.09	439.15
684.43	436.53
684.77	433.91
685.10	431.34
685.44	428.69
685.78	426.22
686.12	423.93
686.45	421.68
686.79	419.34
687.13	416.99
687.46	414.76
687.80	412.59
688.14	410.18
688.48	408.01
688.81	405.67
689.15	403.26
689.49	400.95
689.82	398.75
690.16	396.26
690.50	393.96
690.83	391.75
691.17	389.41
691.51	387.26
691.84	385.16
692.18	383.23
692.52	381.29
692.85	379.39
693.19	377.32
693.52	375.18
693.86	373.05
694.20	371.05
694.53	369.11
694.87	367.08
695.21	365.24
695.54	363.29
695.88	361.34
696.21	359.51
696.55	357.80
696.88	356.00
697.22	354.33
697.56	352.75
697.89	350.92
698.23	349.26
698.56	347.61
698.90	346.16
699.23	344.43
699.57	342.77
699.90	341.02
700.24	339.34
700.58	337.82
700.91	336.48
701.25	335.13
701.58	333.65
701.92	332.15
702.25	330.63
702.59	329.19
702.92	327.81
703.26	326.52
703.59	325.14
703.93	324.03
704.26	322.67
704.60	321.24
704.93	320.02
705.26	318.74
705.60	317.47
705.93	316.10
706.27	314.85
706.60	313.81
706.94	312.78
707.27	311.56
707.61	310.36
707.94	309.06
708.27	307.60
708.61	306.38
708.94	305.25
709.28	304.17
709.61	303.09
709.94	302.11
710.28	301.00
710.61	299.93
710.95	298.54
711.28	297.67
711.61	296.62
711.95	295.66
712.28	294.62
712.61	293.67
712.95	292.86
713.28	291.95
713.61	290.89
713.95	289.80
714.28	288.90
714.61	287.97
714.95	287.14
715.28	286.22
715.61	285.26
715.95	284.44
716.28	283.43
716.61	282.54
716.95	281.52
717.28	280.58
717.61	279.67
717.94	278.85
718.28	277.85
718.61	277.11
718.94	276.29
719.27	275.58
719.61	274.83
719.94	274.01
720.27	273.17
720.60	272.39
720.94	271.70
721.27	271.01
721.60	270.40
721.93	269.69
722.27	269.14
722.60	268.55
722.93	267.88
723.26	267.41
723.59	266.68
723.93	266.14
724.26	265.69
724.59	265.04
724.92	264.56
725.25	264.09
725.59	263.48
725.92	262.97
726.25	262.41
726.58	261.89
726.91	261.38
727.24	260.88
727.57	260.35
727.91	259.80
728.24	259.33
728.57	258.73
728.90	258.22
729.23	257.67
729.56	257.37
729.89	256.74
730.22	256.17
730.55	255.66
730.89	255.20
731.22	254.58
731.55	254.16
731.88	253.70
732.21	253.20
732.54	252.79
732.87	252.28
733.20	251.80
733.53	251.24
733.86	250.68
734.19	250.21
734.52	249.87
734.85	249.65
735.18	249.22
735.51	248.97
735.84	248.61
736.17	248.33
736.50	247.69
736.83	247.79
737.16	247.37
737.49	247.06
737.82	246.61
738.15	246.27
738.48	245.90
738.81	245.41
739.14	245.02
739.47	244.55
739.80	244.09
740.13	243.73
740.46	243.35
740.79	243.00
741.12	242.67
741.45	242.22
741.78	241.71
742.11	241.37
742.44	240.84
742.77	240.59
743.10	240.15
743.43	239.72
743.75	239.05
744.08	239.20
744.41	238.83
744.74	238.48
745.07	238.11
745.40	237.90
745.73	237.78
746.06	237.49
746.39	237.28
746.71	236.98
747.04	236.62
747.37	236.35
747.70	236.09
748.03	235.80
748.36	235.56
748.68	235.24
749.01	234.97
749.34	234.75
749.67	234.48
750.00	234.27
750.33	234.36
750.65	234.06
750.98	233.37
751.31	233.15
751.64	232.90
751.97	232.83
752.29	232.53
752.62	232.21
752.95	231.88
753.28	231.53
753.60	231.31
753.93	231.28
754.26	231.06
754.59	230.77
754.91	230.52
755.24	230.31
755.57	230.08
755.90	229.90
756.22	229.58
756.55	229.34
756.88	229.05
757.20	228.62
757.53	228.39
757.86	228.15
758.19	228.02
758.51	227.80
758.84	227.40
759.17	227.20
759.49	226.96
759.82	227.02
760.15	226.89
760.47	226.67
760.80	226.32
761.13	226.16
761.45	225.96
761.78	225.88
762.11	225.65
762.43	225.50
762.76	225.21
763.08	225.23
763.41	225.05
763.74	224.95
764.06	224.74
764.39	224.59
764.71	224.49
765.04	224.31
765.37	224.20
765.69	224.13
766.02	223.93
766.34	223.79
766.67	223.55
767.00	223.47
767.32	223.57
767.65	223.62
767.97	223.56
768.30	223.45
768.62	223.28
768.95	223.22
769.27	223.09
769.60	223.09
769.92	222.84
770.25	222.65
770.57	222.41
770.90	222.36
771.22	222.21
771.55	222.12
771.87	221.99
772.20	221.87
772.52	222.04
772.85	222.36
773.17	222.25
773.50	222.08
773.82	221.93
774.15	221.71
774.47	221.45
774.80	221.25
775.12	221.11
775.45	220.99
775.77	220.85
776.09	220.80
776.42	220.65
776.74	220.73
777.07	220.67
777.39	220.65
777.72	220.45
778.04	220.42
778.36	220.27
778.69	220.22
779.01	220.24
779.33	219.83
779.66	219.39
779.98	219.28
780.31	219.24
780.63	219.32
780.95	219.24
781.28	219.16
781.60	219.14
781.92	219.10
782.25	219.00
782.57	218.92
782.89	218.75
783.22	218.67
783.54	218.47
783.86	218.39
784.19	218.24
784.51	218.33
784.83	218.22
785.16	218.14
785.48	218.06
785.80	217.87
786.12	217.89
786.45	217.73
