SpectraSuite Data File
++++++++++++++++++++++++++++++++++++
Date: Mon Feb 25 17:09:48 EST 2013
User: group
Dark Spectrum Present: No
Reference Spectrum Present: No
Number of Sampled Component Spectra: 1
Spectrometers: USB2E7196
Integration Time (usec): 104000 (USB2E7196)
Spectra Averaged: 20 (USB2E7196)
Boxcar Smoothing: 10 (USB2E7196)
Correct for Electrical Dark: No (USB2E7196)
Strobe/Lamp Enabled: No (USB2E7196)
Correct for Detector Non-linearity: No (USB2E7196)
Correct for Stray Light: No (USB2E7196)
Number of Pixels in Processed Spectrum: 2048
>>>>>Begin Processed Spectral Data<<<<<
339.09	0.00
339.48	198.35
339.86	200.00
340.24	200.55
340.63	203.10
341.01	209.20
341.39	205.80
341.78	207.35
342.16	208.80
342.54	209.15
342.93	198.23
343.31	208.23
343.69	208.80
344.07	209.28
344.46	209.72
344.84	210.07
345.22	210.20
345.60	210.46
345.99	210.65
346.37	210.74
346.75	210.84
347.13	210.88
347.52	210.86
347.90	210.94
348.28	210.99
348.66	211.09
349.05	210.99
349.43	211.04
349.81	211.18
350.19	211.18
350.57	211.25
350.96	211.37
351.34	211.41
351.72	211.44
352.10	211.51
352.48	211.58
352.87	211.60
353.25	211.57
353.63	211.59
354.01	211.65
354.39	211.65
354.77	211.67
355.15	211.84
355.54	211.91
355.92	211.87
356.30	211.90
356.68	212.14
357.06	212.25
357.44	212.28
357.82	212.34
358.20	212.46
358.58	212.47
358.97	212.53
359.35	212.70
359.73	212.85
360.11	212.93
360.49	212.96
360.87	213.04
361.25	213.17
361.63	213.30
362.01	213.31
362.39	213.38
362.77	213.46
363.15	213.45
363.53	213.45
363.91	213.53
364.29	213.54
364.67	213.21
365.05	213.18
365.43	213.21
365.81	213.18
366.19	213.27
366.57	213.40
366.95	213.32
367.33	213.26
367.71	213.19
368.09	213.30
368.47	213.31
368.85	213.31
369.23	213.33
369.61	213.26
369.99	213.37
370.37	213.46
370.75	213.59
371.13	213.55
371.51	213.50
371.89	213.51
372.27	213.53
372.65	213.57
373.03	213.60
373.41	213.53
373.78	213.56
374.16	213.44
374.54	213.30
374.92	213.25
375.30	213.17
375.68	213.08
376.06	213.00
376.44	212.90
376.82	212.84
377.19	212.82
377.57	212.71
377.95	212.56
378.33	212.45
378.71	212.21
379.09	212.22
379.47	212.21
379.84	212.09
380.22	212.08
380.60	211.94
380.98	211.86
381.36	211.81
381.73	211.66
382.11	211.55
382.49	211.50
382.87	211.47
383.25	211.44
383.62	211.81
384.00	211.64
384.38	211.67
384.76	211.74
385.13	211.69
385.51	211.68
385.89	211.58
386.27	211.60
386.64	211.62
387.02	211.50
387.40	211.40
387.78	211.44
388.15	211.35
388.53	211.33
388.91	211.29
389.29	211.27
389.66	211.27
390.04	211.29
390.42	211.27
390.79	211.25
391.17	211.24
391.55	210.82
391.92	210.85
392.30	210.92
392.68	210.78
393.05	210.76
393.43	210.75
393.81	210.77
394.18	210.63
394.56	210.60
394.94	210.68
395.31	210.65
395.69	210.73
396.06	210.76
396.44	210.76
396.82	210.81
397.19	210.95
397.57	210.93
397.95	210.90
398.32	210.85
398.70	210.87
399.07	210.84
399.45	210.85
399.82	210.81
400.20	210.72
400.58	210.71
400.95	210.60
401.33	210.67
401.70	210.96
402.08	210.97
402.45	210.98
402.83	210.98
403.20	210.99
403.58	210.93
403.95	210.98
404.33	211.10
404.71	211.13
405.08	211.31
405.46	211.40
405.83	211.55
406.21	211.63
406.58	211.75
406.96	211.87
407.33	212.04
407.70	212.17
408.08	212.56
408.45	212.75
408.83	212.98
409.20	213.10
409.58	213.07
409.95	213.31
410.33	213.57
410.70	213.71
411.08	213.95
411.45	214.23
411.82	214.42
412.20	214.67
412.57	215.13
412.95	215.17
413.32	215.52
413.69	215.83
414.07	216.21
414.44	216.57
414.82	217.02
415.19	217.54
415.56	218.08
415.94	218.45
416.31	219.11
416.68	219.73
417.06	220.44
417.43	221.15
417.81	221.95
418.18	222.72
418.55	223.62
418.93	224.58
419.30	225.47
419.67	226.51
420.04	227.56
420.42	228.47
420.79	229.98
421.16	231.25
421.54	232.72
421.91	234.09
422.28	235.47
422.66	236.96
423.03	238.56
423.40	240.01
423.77	241.56
424.15	243.16
424.52	244.82
424.89	246.72
425.26	248.44
425.64	250.07
426.01	251.89
426.38	253.85
426.75	255.87
427.13	257.94
427.50	260.06
427.87	262.31
428.24	264.57
428.61	266.37
428.99	268.80
429.36	271.11
429.73	273.47
430.10	276.03
430.47	278.60
430.85	281.05
431.22	283.90
431.59	287.07
431.96	289.93
432.33	293.02
432.70	295.95
433.08	299.54
433.45	302.95
433.82	306.38
434.19	310.06
434.56	313.73
434.93	317.06
435.30	320.61
435.68	324.49
436.05	328.27
436.42	332.11
436.79	335.60
437.16	339.38
437.53	343.41
437.90	347.24
438.27	351.21
438.64	355.20
439.01	358.98
439.38	362.23
439.75	365.33
440.13	369.05
440.50	372.63
440.87	375.39
441.24	378.47
441.61	381.59
441.98	383.96
442.35	386.65
442.72	389.65
443.09	392.37
443.46	393.92
443.83	395.10
444.20	396.17
444.57	397.54
444.94	398.21
445.31	399.04
445.68	400.25
446.05	400.55
446.42	400.39
446.79	399.97
447.16	399.35
447.53	399.21
447.90	397.87
448.27	396.39
448.64	394.55
449.01	392.92
449.37	390.55
449.74	388.15
450.11	385.56
450.48	382.26
450.85	378.86
451.22	376.10
451.59	373.45
451.96	370.83
452.33	367.35
452.70	364.28
453.07	360.52
453.43	356.29
453.80	352.65
454.17	349.06
454.54	345.69
454.91	342.28
455.28	338.76
455.65	335.47
456.02	332.73
456.38	329.88
456.75	326.59
457.12	323.71
457.49	320.86
457.86	317.85
458.23	315.67
458.59	313.18
458.96	310.61
459.33	308.31
459.70	306.09
460.07	304.25
460.43	302.15
460.80	300.15
461.17	298.53
461.54	296.59
461.91	294.76
462.27	293.10
462.64	291.51
463.01	289.89
463.38	288.37
463.74	286.27
464.11	284.80
464.48	283.52
464.85	282.08
465.21	281.14
465.58	280.03
465.95	278.54
466.32	277.38
466.68	276.22
467.05	275.08
467.42	273.93
467.78	272.83
468.15	271.77
468.52	271.06
468.88	269.87
469.25	268.97
469.62	268.35
469.98	267.51
470.35	266.77
470.72	266.03
471.08	265.15
471.45	264.52
471.82	263.97
472.18	263.27
472.55	262.82
472.92	262.17
473.28	261.65
473.65	261.19
474.02	260.74
474.38	260.50
474.75	260.14
475.11	259.76
475.48	259.49
475.85	259.23
476.21	258.86
476.58	258.75
476.94	258.53
477.31	258.25
477.67	258.05
478.04	257.92
478.41	257.73
478.77	257.95
479.14	257.77
479.50	257.66
479.87	257.70
480.23	257.59
480.60	257.53
480.96	257.48
481.33	257.69
481.69	257.76
482.06	257.71
482.42	257.97
482.79	258.06
483.15	258.25
483.52	258.51
483.88	258.66
484.25	258.78
484.61	259.13
484.98	259.42
485.34	259.88
485.71	260.28
486.07	260.73
486.44	260.91
486.80	261.48
487.17	262.06
487.53	262.70
487.90	263.48
488.26	264.31
488.62	265.10
488.99	265.73
489.35	266.51
489.72	267.31
490.08	268.07
490.44	268.97
490.81	269.83
491.17	270.81
491.54	271.94
491.90	273.14
492.26	274.35
492.63	275.55
492.99	276.73
493.36	277.96
493.72	279.48
494.08	280.97
494.45	282.49
494.81	284.06
495.17	285.56
495.54	287.13
495.90	288.69
496.26	290.40
496.63	292.19
496.99	294.10
497.35	296.12
497.72	298.21
498.08	300.28
498.44	302.49
498.80	304.77
499.17	307.14
499.53	309.43
499.89	311.91
500.26	314.42
500.62	316.90
500.98	319.78
501.34	322.33
501.71	325.26
502.07	328.13
502.43	330.99
502.79	334.01
503.16	337.17
503.52	340.41
503.88	343.66
504.24	347.11
504.60	350.66
504.97	354.18
505.33	357.71
505.69	361.51
506.05	365.39
506.41	369.25
506.78	372.96
507.14	376.85
507.50	380.76
507.86	384.89
508.22	389.14
508.59	393.13
508.95	397.46
509.31	401.83
509.67	406.30
510.03	410.86
510.39	415.49
510.75	420.14
511.12	424.89
511.48	429.75
511.84	434.54
512.20	439.35
512.56	444.35
512.92	449.46
513.28	454.52
513.64	459.60
514.00	464.64
514.37	469.97
514.73	475.32
515.09	480.81
515.45	486.19
515.81	491.60
516.17	497.05
516.53	502.57
516.89	507.88
517.25	513.54
517.61	519.20
517.97	524.81
518.33	530.55
518.69	536.25
519.05	542.11
519.41	548.09
519.77	554.22
520.13	560.01
520.49	565.85
520.85	571.96
521.21	578.28
521.57	584.38
521.93	590.30
522.29	596.55
522.65	602.63
523.01	608.77
523.37	614.73
523.73	620.96
524.09	627.26
524.45	633.64
524.81	639.82
525.17	646.26
525.53	652.61
525.89	658.79
526.25	665.26
526.61	671.33
526.97	677.50
527.33	683.49
527.68	690.27
528.04	696.50
528.40	702.49
528.76	708.45
529.12	714.69
529.48	721.27
529.84	727.42
530.20	733.66
530.56	740.10
530.91	746.72
531.27	753.27
531.63	759.53
531.99	765.80
532.35	771.90
532.71	777.92
533.07	784.23
533.42	790.61
533.78	796.61
534.14	802.71
534.50	808.38
534.86	814.48
535.21	819.74
535.57	825.81
535.93	831.55
536.29	837.27
536.65	843.24
537.00	848.55
537.36	854.00
537.72	859.38
538.08	864.61
538.44	869.84
538.79	874.96
539.15	880.06
539.51	885.09
539.87	890.32
540.22	895.30
540.58	900.50
540.94	905.19
541.29	909.89
541.65	914.53
542.01	919.32
542.37	923.91
542.72	928.46
543.08	932.64
543.44	937.32
543.79	941.33
544.15	945.35
544.51	949.75
544.87	953.91
545.22	957.93
545.58	961.63
545.94	965.15
546.29	968.57
546.65	971.88
547.01	975.31
547.36	978.65
547.72	982.05
548.07	984.68
548.43	987.44
548.79	990.10
549.14	992.68
549.50	995.47
549.86	997.73
550.21	1000.08
550.57	1002.60
550.92	1004.42
551.28	1006.72
551.64	1008.64
551.99	1010.51
552.35	1012.39
552.70	1014.20
553.06	1015.98
553.41	1017.90
553.77	1019.80
554.13	1021.67
554.48	1023.46
554.84	1024.93
555.19	1025.99
555.55	1027.36
555.90	1028.54
556.26	1029.70
556.61	1030.82
556.97	1031.34
557.32	1032.37
557.68	1033.28
558.03	1033.95
558.39	1034.97
558.74	1035.86
559.10	1036.62
559.45	1037.55
559.81	1038.35
560.16	1038.66
560.52	1039.39
560.87	1039.76
561.23	1039.99
561.58	1040.50
561.94	1040.50
562.29	1040.49
562.64	1040.85
563.00	1040.88
563.35	1041.44
563.71	1041.97
564.06	1042.17
564.42	1042.76
564.77	1043.22
565.12	1043.65
565.48	1043.93
565.83	1044.04
566.19	1044.15
566.54	1043.82
566.89	1043.27
567.25	1043.12
567.60	1043.24
567.96	1043.13
568.31	1043.02
568.66	1042.56
569.02	1041.68
569.37	1040.67
569.72	1040.11
570.08	1039.40
570.43	1038.54
570.78	1037.21
571.14	1035.72
571.49	1034.62
571.84	1033.70
572.20	1031.84
572.55	1030.57
572.90	1028.90
573.26	1027.22
573.61	1025.51
573.96	1023.94
574.31	1022.26
574.67	1020.22
575.02	1017.86
575.37	1015.68
575.72	1013.11
576.08	1011.27
576.43	1009.08
576.78	1007.50
577.13	1005.63
577.49	1003.54
577.84	1001.79
578.19	1000.14
578.54	998.69
578.90	997.05
579.25	994.73
579.60	992.88
579.95	990.31
580.30	988.34
580.66	986.71
581.01	984.58
581.36	982.69
581.71	980.47
582.06	978.50
582.42	976.82
582.77	974.43
583.12	972.79
583.47	970.67
583.82	968.96
584.17	966.73
584.53	964.82
584.88	962.78
585.23	960.55
585.58	958.42
585.93	956.04
586.28	953.91
586.63	951.89
586.98	949.86
587.34	948.25
587.69	946.01
588.04	943.64
588.39	941.63
588.74	939.12
589.09	937.32
589.44	935.00
589.79	932.70
590.14	930.93
590.49	928.57
590.84	926.53
591.19	924.64
591.54	922.30
591.89	919.55
592.25	917.48
592.60	915.09
592.95	912.58
593.30	909.89
593.65	907.30
594.00	904.73
594.35	903.27
594.70	900.56
595.05	898.30
595.40	895.89
595.75	893.09
596.10	891.10
596.45	888.73
596.80	886.74
597.15	884.53
597.50	882.03
597.85	880.06
598.19	877.45
598.54	874.92
598.89	872.93
599.24	871.22
599.59	868.99
599.94	866.97
600.29	864.85
600.64	862.99
600.99	860.71
601.34	858.65
601.69	855.51
602.04	853.23
602.39	850.94
602.74	848.80
603.08	847.14
603.43	845.19
603.78	843.05
604.13	840.54
604.48	838.38
604.83	836.56
605.18	834.56
605.53	832.39
605.87	830.28
606.22	828.09
606.57	825.82
606.92	823.27
607.27	820.88
607.62	818.52
607.96	816.40
608.31	814.22
608.66	811.88
609.01	809.56
609.36	807.30
609.70	804.94
610.05	802.32
610.40	799.74
610.75	796.98
611.10	794.40
611.44	791.74
611.79	788.79
612.14	785.70
612.49	782.53
612.83	779.84
613.18	776.74
613.53	773.79
613.88	770.57
614.22	767.91
614.57	764.91
614.92	762.07
615.27	758.96
615.61	756.07
615.96	753.29
616.31	750.45
616.65	747.87
617.00	745.05
617.35	742.29
617.70	739.20
618.04	735.98
618.39	732.83
618.74	730.03
619.08	727.16
619.43	724.28
619.78	721.38
620.12	718.44
620.47	715.70
620.82	712.65
621.16	709.49
621.51	706.47
621.85	703.51
622.20	700.59
622.55	697.49
622.89	694.47
623.24	691.44
623.59	688.28
623.93	685.19
624.28	682.30
624.62	679.62
624.97	676.88
625.32	674.20
625.66	671.47
626.01	668.56
626.35	665.77
626.70	663.05
627.04	660.65
627.39	657.85
627.73	655.11
628.08	652.47
628.43	649.84
628.77	647.06
629.12	644.41
629.46	641.78
629.81	639.28
630.15	636.70
630.50	633.91
630.84	631.32
631.19	628.71
631.53	626.05
631.88	622.95
632.22	620.01
632.57	617.52
632.91	614.80
633.26	612.32
633.60	609.69
633.95	607.29
634.29	604.26
634.64	601.82
634.98	599.05
635.32	596.52
635.67	594.15
636.01	591.57
636.36	588.98
636.70	586.46
637.05	584.00
637.39	581.43
637.73	579.15
638.08	576.97
638.42	574.61
638.77	572.25
639.11	569.85
639.45	567.38
639.80	564.78
640.14	562.25
640.49	559.65
640.83	557.17
641.17	554.54
641.52	552.13
641.86	549.50
642.20	547.13
642.55	544.61
642.89	542.09
643.23	539.53
643.58	537.34
643.92	534.63
644.26	532.01
644.61	529.57
644.95	527.00
645.29	524.25
645.64	521.67
645.98	519.10
646.32	516.86
646.66	514.39
647.01	512.02
647.35	509.78
647.69	507.29
648.04	505.02
648.38	502.69
648.72	500.32
649.06	498.01
649.41	495.57
649.75	493.16
650.09	490.84
650.43	488.54
650.78	485.93
651.12	483.70
651.46	481.50
651.80	479.18
652.14	477.00
652.49	474.87
652.83	472.57
653.17	470.05
653.51	467.56
653.85	465.41
654.20	463.12
654.54	460.66
654.88	458.29
655.22	456.09
655.56	453.65
655.90	451.29
656.25	448.93
656.59	446.70
656.93	444.59
657.27	442.43
657.61	440.17
657.95	437.97
658.29	435.88
658.64	433.70
658.98	431.47
659.32	429.05
659.66	426.88
660.00	424.66
660.34	422.66
660.68	420.53
661.02	418.40
661.36	416.46
661.70	414.49
662.05	412.64
662.39	410.71
662.73	408.88
663.07	407.20
663.41	405.53
663.75	403.64
664.09	401.75
664.43	399.72
664.77	397.94
665.11	396.21
665.45	394.28
665.79	392.51
666.13	390.88
666.47	389.14
666.81	387.37
667.15	385.64
667.49	384.10
667.83	382.55
668.17	380.89
668.51	379.18
668.85	377.66
669.19	376.31
669.53	374.59
669.87	372.95
670.21	371.32
670.55	369.61
670.89	368.36
671.23	366.88
671.57	365.57
671.91	364.07
672.25	362.63
672.58	361.38
672.92	359.91
673.26	358.50
673.60	357.32
673.94	355.92
674.28	354.68
674.62	353.37
674.96	352.09
675.30	350.90
675.64	349.57
675.97	348.14
676.31	346.75
676.65	345.59
676.99	344.46
677.33	343.08
677.67	341.89
678.01	340.36
678.34	339.10
678.68	337.87
679.02	336.63
679.36	335.46
679.70	334.14
680.04	333.00
680.37	331.85
680.71	330.68
681.05	329.56
681.39	328.36
681.73	327.15
682.06	325.94
682.40	324.86
682.74	323.80
683.08	322.84
683.42	321.58
683.75	320.50
684.09	319.36
684.43	318.35
684.77	317.18
685.10	316.17
685.44	315.05
685.78	313.87
686.12	312.96
686.45	311.86
686.79	310.80
687.13	309.80
687.46	308.70
687.80	307.77
688.14	306.71
688.48	305.77
688.81	304.65
689.15	303.71
689.49	302.59
689.82	301.60
690.16	300.50
690.50	299.58
690.83	298.53
691.17	297.43
691.51	296.50
691.84	295.62
692.18	294.74
692.52	293.95
692.85	293.21
693.19	292.39
693.52	291.51
693.86	290.66
694.20	289.80
694.53	288.97
694.87	288.06
695.21	287.16
695.54	286.22
695.88	285.33
696.21	284.43
696.55	283.68
696.88	282.78
697.22	282.00
697.56	281.29
697.89	280.45
698.23	279.77
698.56	278.92
698.90	278.24
699.23	277.42
699.57	276.58
699.90	275.82
700.24	275.05
700.58	274.34
700.91	273.68
701.25	273.14
701.58	272.44
701.92	271.79
702.25	271.25
702.59	270.60
702.92	270.08
703.26	269.46
703.59	268.87
703.93	268.58
704.26	267.99
704.60	267.34
704.93	266.71
705.26	266.08
705.60	265.51
705.93	264.94
706.27	264.52
706.60	264.03
706.94	263.54
707.27	262.86
707.61	262.34
707.94	261.79
708.27	261.10
708.61	260.56
708.94	259.94
709.28	259.32
709.61	258.82
709.94	258.33
710.28	257.89
710.61	257.44
710.95	256.57
711.28	256.34
711.61	255.83
711.95	255.45
712.28	254.85
712.61	254.44
712.95	254.08
713.28	253.73
713.61	253.19
713.95	252.66
714.28	252.23
714.61	251.71
714.95	251.27
715.28	250.73
715.61	250.25
715.95	249.87
716.28	249.45
716.61	248.97
716.95	248.50
717.28	248.05
717.61	247.62
717.94	247.26
718.28	246.57
718.61	246.19
718.94	245.75
719.27	245.45
719.61	245.11
719.94	244.60
720.27	243.96
720.60	243.63
720.94	243.29
721.27	242.90
721.60	242.60
721.93	242.22
722.27	242.05
722.60	241.80
722.93	241.35
723.26	241.08
723.59	240.78
723.93	240.46
724.26	240.16
724.59	239.76
724.92	239.52
725.25	239.36
725.59	239.01
725.92	238.82
726.25	238.54
726.58	238.22
726.91	237.98
727.24	237.82
727.57	237.54
727.91	237.17
728.24	237.01
728.57	236.70
728.90	236.49
729.23	236.14
729.56	236.04
729.89	235.81
730.22	235.45
730.55	235.19
730.89	234.95
731.22	234.70
731.55	234.48
731.88	234.20
732.21	233.94
732.54	233.75
732.87	233.50
733.20	233.29
733.53	233.12
733.86	232.85
734.19	232.57
734.52	232.36
734.85	232.38
735.18	232.17
735.51	232.10
735.84	231.91
736.17	231.74
736.50	231.30
736.83	231.51
737.16	231.37
737.49	231.24
737.82	230.98
738.15	230.76
738.48	230.58
738.81	230.35
739.14	230.09
739.47	229.82
739.80	229.63
740.13	229.45
740.46	229.16
740.79	229.00
741.12	228.79
741.45	228.61
741.78	228.29
742.11	228.13
742.44	227.79
742.77	227.68
743.10	227.48
743.43	227.29
743.75	226.72
744.08	227.00
744.41	226.76
744.74	226.64
745.07	226.48
745.40	226.42
745.73	226.46
746.06	226.22
746.39	226.17
746.71	225.90
747.04	225.71
747.37	225.59
747.70	225.48
748.03	225.38
748.36	225.27
748.68	225.09
749.01	224.89
749.34	224.84
749.67	224.66
750.00	224.56
750.33	224.70
750.65	224.67
750.98	224.12
751.31	224.00
751.64	223.89
751.97	223.95
752.29	223.71
752.62	223.41
752.95	223.29
753.28	223.09
753.60	222.98
753.93	222.97
754.26	222.80
754.59	222.57
754.91	222.38
755.24	222.22
755.57	222.08
755.90	221.91
756.22	221.72
756.55	221.53
756.88	221.30
757.20	221.00
757.53	220.75
757.86	220.61
758.19	220.54
758.51	220.36
758.84	220.08
759.17	219.96
759.49	219.90
759.82	220.12
760.15	220.07
760.47	220.01
760.80	219.82
761.13	219.80
761.45	219.70
761.78	219.68
762.11	219.61
762.43	219.51
762.76	219.46
763.08	219.43
763.41	219.41
763.74	219.36
764.06	219.21
764.39	219.18
764.71	219.10
765.04	218.95
765.37	218.92
765.69	218.82
766.02	218.71
766.34	218.59
766.67	218.27
767.00	218.22
767.32	218.36
767.65	218.45
767.97	218.41
768.30	218.42
768.62	218.35
768.95	218.26
769.27	218.20
769.60	218.25
769.92	218.09
770.25	217.94
770.57	217.87
770.90	217.84
771.22	217.71
771.55	217.65
771.87	217.62
772.20	217.52
772.52	217.78
772.85	218.13
773.17	218.07
773.50	217.95
773.82	217.82
774.15	217.58
774.47	217.36
774.80	217.31
775.12	217.15
775.45	217.01
775.77	216.96
776.09	216.90
776.42	216.71
776.74	216.79
777.07	216.73
777.39	216.75
777.72	216.74
778.04	216.78
778.36	216.76
778.69	216.74
779.01	216.75
779.33	216.38
779.66	215.97
779.98	215.88
780.31	215.87
780.63	216.05
780.95	216.06
781.28	215.99
781.60	215.86
781.92	215.84
782.25	215.92
782.57	215.89
782.89	215.88
783.22	215.85
783.54	215.83
783.86	215.82
784.19	215.67
784.51	215.65
784.83	215.52
785.16	215.49
785.48	215.51
785.80	215.43
786.12	215.46
786.45	215.46
786.77	215.48
787.09	215.46
787.42	215.24
787.74	215.23
788.06	215.23
788.38	215.15
788.71	215.14
789.03	215.06
789.35	215.11
789.67	214.95
789.99	214.96
790.32	214.80
790.64	214.76
790.96	215.06
791.28	214.86
791.61	214.84
791.93	214.84
792.25	214.67
792.57	214.98
