SpectraSuite Data File
++++++++++++++++++++++++++++++++++++
Date: Mon Feb 25 17:13:20 EST 2013
User: group
Dark Spectrum Present: No
Reference Spectrum Present: No
Number of Sampled Component Spectra: 1
Spectrometers: USB2E7196
Integration Time (usec): 104000 (USB2E7196)
Spectra Averaged: 20 (USB2E7196)
Boxcar Smoothing: 10 (USB2E7196)
Correct for Electrical Dark: No (USB2E7196)
Strobe/Lamp Enabled: No (USB2E7196)
Correct for Detector Non-linearity: No (USB2E7196)
Correct for Stray Light: No (USB2E7196)
Number of Pixels in Processed Spectrum: 2048
>>>>>Begin Processed Spectral Data<<<<<
339.09	0.00
339.48	199.05
339.86	198.85
340.24	200.30
340.63	202.40
341.01	208.55
341.39	204.40
341.78	206.05
342.16	208.05
342.54	208.40
342.93	197.92
343.31	207.94
343.69	208.45
344.07	208.96
344.46	209.46
344.84	209.83
345.22	209.91
345.60	210.26
345.99	210.54
346.37	210.67
346.75	210.82
347.13	210.90
347.52	210.92
347.90	211.11
348.28	211.08
348.66	211.17
349.05	211.05
349.43	211.16
349.81	211.22
350.19	211.28
350.57	211.35
350.96	211.34
351.34	211.43
351.72	211.46
352.10	211.52
352.48	211.60
352.87	211.67
353.25	211.79
353.63	211.80
354.01	211.84
354.39	212.00
354.77	212.10
355.15	212.25
355.54	212.31
355.92	212.24
356.30	212.37
356.68	212.70
357.06	212.83
357.44	212.80
357.82	212.93
358.20	213.00
358.58	213.09
358.97	213.25
359.35	213.31
359.73	213.49
360.11	213.54
360.49	213.59
360.87	213.63
361.25	213.69
361.63	213.91
362.01	213.96
362.39	213.87
362.77	213.89
363.15	213.87
363.53	213.93
363.91	214.00
364.29	213.93
364.67	213.62
365.05	213.68
365.43	213.85
365.81	213.79
366.19	213.96
366.57	214.00
366.95	214.01
367.33	214.04
367.71	214.01
368.09	214.09
368.47	214.07
368.85	214.09
369.23	214.17
369.61	213.87
369.99	214.02
370.37	214.08
370.75	214.22
371.13	214.15
371.51	214.02
371.89	214.02
372.27	214.05
372.65	214.09
373.03	214.00
373.41	213.90
373.78	213.89
374.16	213.71
374.54	213.55
374.92	213.39
375.30	213.27
375.68	213.13
376.06	213.10
376.44	213.06
376.82	213.06
377.19	212.98
377.57	213.00
377.95	212.74
378.33	212.64
378.71	212.37
379.09	212.30
379.47	212.34
379.84	212.24
380.22	212.11
380.60	211.90
380.98	211.81
381.36	211.70
381.73	211.57
382.11	211.51
382.49	211.56
382.87	211.45
383.25	211.42
383.62	211.81
384.00	211.71
384.38	211.69
384.76	211.68
385.13	211.67
385.51	211.58
385.89	211.53
386.27	211.52
386.64	211.48
387.02	211.43
387.40	211.37
387.78	211.31
388.15	211.38
388.53	211.33
388.91	211.30
389.29	211.28
389.66	211.32
390.04	211.26
390.42	211.28
390.79	211.32
391.17	211.30
391.55	210.86
391.92	210.86
392.30	210.84
392.68	210.71
393.05	210.73
393.43	210.81
393.81	210.78
394.18	210.76
394.56	210.76
394.94	210.85
395.31	210.73
395.69	210.83
396.06	210.81
396.44	210.85
396.82	210.84
397.19	211.04
397.57	211.06
397.95	211.10
398.32	211.03
398.70	211.07
399.07	211.10
399.45	211.19
399.82	211.29
400.20	211.17
400.58	211.21
400.95	211.07
401.33	211.16
401.70	211.44
402.08	211.42
402.45	211.46
402.83	211.56
403.20	211.70
403.58	211.75
403.95	211.88
404.33	212.02
404.71	212.12
405.08	212.34
405.46	212.46
405.83	212.56
406.21	212.63
406.58	212.76
406.96	212.87
407.33	212.99
407.70	213.10
408.08	213.60
408.45	213.78
408.83	214.05
409.20	214.18
409.58	214.19
409.95	214.48
410.33	214.79
410.70	214.90
411.08	215.25
411.45	215.53
411.82	215.73
412.20	216.11
412.57	216.53
412.95	216.62
413.32	217.04
413.69	217.39
414.07	217.87
414.44	218.30
414.82	218.80
415.19	219.33
415.56	219.89
415.94	220.31
416.31	221.01
416.68	221.71
417.06	222.48
417.43	223.29
417.81	224.16
418.18	224.95
418.55	225.87
418.93	226.75
419.30	227.66
419.67	228.75
420.04	229.71
420.42	230.86
420.79	232.48
421.16	233.71
421.54	235.31
421.91	236.81
422.28	238.28
422.66	239.77
423.03	241.55
423.40	243.10
423.77	244.70
424.15	246.34
424.52	248.02
424.89	250.05
425.26	251.84
425.64	253.51
426.01	255.42
426.38	257.45
426.75	259.61
427.13	261.83
427.50	264.08
427.87	266.50
428.24	268.83
428.61	270.78
428.99	273.43
429.36	275.95
429.73	278.52
430.10	281.19
430.47	283.98
430.85	286.56
431.22	289.50
431.59	292.84
431.96	295.90
432.33	299.21
432.70	302.26
433.08	306.02
433.45	309.53
433.82	313.17
434.19	317.08
434.56	320.80
434.93	324.33
435.30	327.85
435.68	331.81
436.05	335.76
436.42	339.70
436.79	343.25
437.16	347.01
437.53	350.98
437.90	355.08
438.27	358.95
438.64	363.09
439.01	366.95
439.38	370.12
439.75	373.33
440.13	377.08
440.50	380.61
440.87	383.49
441.24	386.45
441.61	389.62
441.98	391.95
442.35	394.74
442.72	397.59
443.09	400.46
443.46	402.09
443.83	403.11
444.20	403.97
444.57	405.35
444.94	406.15
445.31	406.83
445.68	407.63
446.05	407.90
446.42	407.38
446.79	406.87
447.16	406.30
447.53	405.92
447.90	404.23
448.27	402.67
448.64	400.55
449.01	399.07
449.37	396.40
449.74	393.84
450.11	390.93
450.48	387.59
450.85	384.09
451.22	381.11
451.59	378.39
451.96	375.65
452.33	371.95
452.70	368.56
453.07	364.72
453.43	360.54
453.80	356.72
454.17	353.11
454.54	349.54
454.91	345.95
455.28	342.32
455.65	339.05
456.02	336.22
456.38	333.33
456.75	329.78
457.12	326.84
457.49	323.94
457.86	320.91
458.23	318.50
458.59	315.78
458.96	313.18
459.33	310.75
459.70	308.44
460.07	306.50
460.43	304.33
460.80	302.28
461.17	300.55
461.54	298.81
461.91	296.94
462.27	295.24
462.64	293.65
463.01	292.03
463.38	290.45
463.74	288.30
464.11	286.78
464.48	285.56
464.85	284.14
465.21	283.15
465.58	282.05
465.95	280.61
466.32	279.55
466.68	278.43
467.05	277.32
467.42	276.22
467.78	275.17
468.15	274.05
468.52	273.32
468.88	272.12
469.25	271.09
469.62	270.53
469.98	269.71
470.35	269.01
470.72	268.35
471.08	267.54
471.45	266.97
471.82	266.47
472.18	265.80
472.55	265.37
472.92	264.74
473.28	264.28
473.65	263.86
474.02	263.42
474.38	263.10
474.75	262.85
475.11	262.65
475.48	262.32
475.85	262.12
476.21	261.77
476.58	261.77
476.94	261.73
477.31	261.57
477.67	261.47
478.04	261.42
478.41	261.38
478.77	261.86
479.14	261.83
479.50	261.93
479.87	262.11
480.23	262.31
480.60	262.43
480.96	262.56
481.33	263.03
481.69	263.31
482.06	263.59
482.42	263.91
482.79	264.23
483.15	264.69
483.52	265.28
483.88	265.87
484.25	266.31
484.61	266.86
484.98	267.46
485.34	268.26
485.71	269.01
486.07	269.79
486.44	270.24
486.80	271.24
487.17	272.16
487.53	273.26
487.90	274.35
488.26	275.66
488.62	277.08
488.99	278.21
489.35	279.64
489.72	281.06
490.08	282.60
490.44	284.09
490.81	285.94
491.17	287.71
491.54	289.65
491.90	291.61
492.26	293.65
492.63	295.83
492.99	298.10
493.36	300.53
493.72	303.09
494.08	305.76
494.45	308.45
494.81	311.36
495.17	314.29
495.54	317.43
495.90	320.60
496.26	323.95
496.63	327.47
496.99	331.10
497.35	335.02
497.72	338.93
498.08	343.09
498.44	347.23
498.80	351.68
499.17	356.22
499.53	361.07
499.89	366.16
500.26	371.16
500.62	376.33
500.98	381.78
501.34	387.35
501.71	393.19
502.07	399.10
502.43	405.12
502.79	411.31
503.16	417.76
503.52	424.36
503.88	431.03
504.24	438.06
504.60	445.19
504.97	452.65
505.33	460.26
505.69	468.22
506.05	476.36
506.41	484.59
506.78	492.95
507.14	501.54
507.50	510.26
507.86	519.23
508.22	528.36
508.59	537.46
508.95	546.93
509.31	556.57
509.67	566.48
510.03	576.73
510.39	587.18
510.75	597.82
511.12	608.69
511.48	619.71
511.84	630.85
512.20	641.98
512.56	653.40
512.92	665.02
513.28	676.80
513.64	688.47
514.00	700.29
514.37	712.30
514.73	724.52
515.09	736.80
515.45	749.24
515.81	761.81
516.17	774.52
516.53	787.41
516.89	800.15
517.25	813.09
517.61	826.09
517.97	838.99
518.33	851.77
518.69	864.94
519.05	878.02
519.41	891.32
519.77	904.98
520.13	918.10
520.49	931.35
520.85	944.71
521.21	958.38
521.57	972.08
521.93	985.33
522.29	999.11
522.65	1012.69
523.01	1026.21
523.37	1039.41
523.73	1052.93
524.09	1066.35
524.45	1080.08
524.81	1093.79
525.17	1107.33
525.53	1120.97
525.89	1134.73
526.25	1147.99
526.61	1161.13
526.97	1174.39
527.33	1187.69
527.68	1201.20
528.04	1214.07
528.40	1226.59
528.76	1239.32
529.12	1252.16
529.48	1265.61
529.84	1278.06
530.20	1290.93
530.56	1303.78
530.91	1317.21
531.27	1330.10
531.63	1342.32
531.99	1354.60
532.35	1366.38
532.71	1378.08
533.07	1389.92
533.42	1401.71
533.78	1413.34
534.14	1424.69
534.50	1435.36
534.86	1446.25
535.21	1456.34
535.57	1467.55
535.93	1478.34
536.29	1488.69
536.65	1499.13
537.00	1508.79
537.36	1518.36
537.72	1527.53
538.08	1536.61
538.44	1545.61
538.79	1554.52
539.15	1563.68
539.51	1572.36
539.87	1581.70
540.22	1590.20
540.58	1599.24
540.94	1607.42
541.29	1614.95
541.65	1622.55
542.01	1630.35
542.37	1637.67
542.72	1645.57
543.08	1652.25
543.44	1659.51
543.79	1665.62
544.15	1671.54
544.51	1678.08
544.87	1684.76
545.22	1690.77
545.58	1696.33
545.94	1700.84
546.29	1705.33
546.65	1709.71
547.01	1714.06
547.36	1717.92
547.72	1722.18
548.07	1725.16
548.43	1728.22
548.79	1731.49
549.14	1734.67
549.50	1738.02
549.86	1740.33
550.21	1742.36
550.57	1745.00
550.92	1746.87
551.28	1749.05
551.64	1750.90
551.99	1752.53
552.35	1753.44
552.70	1754.80
553.06	1756.31
553.41	1758.01
553.77	1759.48
554.13	1760.67
554.48	1761.78
554.84	1762.49
555.19	1763.12
555.55	1763.54
555.90	1763.59
556.26	1763.54
556.61	1763.18
556.97	1762.22
557.32	1762.00
557.68	1761.17
558.03	1760.32
558.39	1759.47
558.74	1759.43
559.10	1759.15
559.45	1758.33
559.81	1757.90
560.16	1756.52
560.52	1755.70
560.87	1754.35
561.23	1752.51
561.58	1751.36
561.94	1749.72
562.29	1747.91
562.64	1746.18
563.00	1744.40
563.35	1743.25
563.71	1742.35
564.06	1741.23
564.42	1740.03
564.77	1738.98
565.12	1737.91
565.48	1736.42
565.83	1734.74
566.19	1732.82
566.54	1730.10
566.89	1727.56
567.25	1725.09
567.60	1723.07
567.96	1720.45
568.31	1718.41
568.66	1716.11
569.02	1712.98
569.37	1709.56
569.72	1706.65
570.08	1703.38
570.43	1700.17
570.78	1696.68
571.14	1692.64
571.49	1688.73
571.84	1685.65
572.20	1681.44
572.55	1677.79
572.90	1673.09
573.26	1668.93
573.61	1664.47
573.96	1660.41
574.31	1655.61
574.67	1651.11
575.02	1645.83
575.37	1640.99
575.72	1635.35
576.08	1630.96
576.43	1625.85
576.78	1621.31
577.13	1616.68
577.49	1611.93
577.84	1607.32
578.19	1602.66
578.54	1598.78
578.90	1594.72
579.25	1589.39
579.60	1584.19
579.95	1578.83
580.30	1574.83
580.66	1570.04
581.01	1564.69
581.36	1559.41
581.71	1554.57
582.06	1549.56
582.42	1544.94
582.77	1539.64
583.12	1535.08
583.47	1530.23
583.82	1525.93
584.17	1521.09
584.53	1516.36
584.88	1511.57
585.23	1506.51
585.58	1501.71
585.93	1496.20
586.28	1491.42
586.63	1486.45
586.98	1481.90
587.34	1477.65
587.69	1472.19
588.04	1467.21
588.39	1463.08
588.74	1458.23
589.09	1453.77
589.44	1448.74
589.79	1444.17
590.14	1439.61
590.49	1434.87
590.84	1430.00
591.19	1425.71
591.54	1420.90
591.89	1415.25
592.25	1410.15
592.60	1404.83
592.95	1399.43
593.30	1393.88
593.65	1387.97
594.00	1382.85
594.35	1379.32
594.70	1373.81
595.05	1369.27
595.40	1364.19
595.75	1358.40
596.10	1353.75
596.45	1349.01
596.80	1344.72
597.15	1340.33
597.50	1335.49
597.85	1330.74
598.19	1325.75
598.54	1320.68
598.89	1316.11
599.24	1312.51
599.59	1308.42
599.94	1304.89
600.29	1300.67
600.64	1296.52
600.99	1292.20
601.34	1288.08
601.69	1282.07
602.04	1277.34
602.39	1272.75
602.74	1268.75
603.08	1265.34
603.43	1261.57
603.78	1257.30
604.13	1252.52
604.48	1247.97
604.83	1244.31
605.18	1240.57
605.53	1236.23
605.87	1231.49
606.22	1227.40
606.57	1222.59
606.92	1217.98
607.27	1213.17
607.62	1208.69
607.96	1204.72
608.31	1200.82
608.66	1196.12
609.01	1191.48
609.36	1187.16
609.70	1182.27
610.05	1177.29
610.40	1172.14
610.75	1167.00
611.10	1162.44
611.44	1157.32
611.79	1152.07
612.14	1146.29
612.49	1140.31
612.83	1135.12
613.18	1129.81
613.53	1124.23
613.88	1118.51
614.22	1113.52
614.57	1108.03
614.92	1102.51
615.27	1096.90
615.61	1091.28
615.96	1086.08
616.31	1081.07
616.65	1076.05
617.00	1071.17
617.35	1066.11
617.70	1060.79
618.04	1055.06
618.39	1049.05
618.74	1043.82
619.08	1038.60
619.43	1033.44
619.78	1028.50
620.12	1023.29
620.47	1018.28
620.82	1012.91
621.16	1007.55
621.51	1001.86
621.85	996.68
622.20	991.39
622.55	985.93
622.89	980.60
623.24	975.23
623.59	969.72
623.93	964.49
624.28	959.27
624.62	954.11
624.97	949.12
625.32	944.29
625.66	939.50
626.01	934.82
626.35	930.08
626.70	925.25
627.04	920.74
627.39	916.13
627.73	911.45
628.08	907.16
628.43	902.48
628.77	897.74
629.12	893.02
629.46	888.88
629.81	884.59
630.15	879.93
630.50	875.22
630.84	870.50
631.19	865.82
631.53	861.25
631.88	856.35
632.22	851.43
632.57	846.98
632.91	842.48
633.26	837.96
633.60	833.31
633.95	829.03
634.29	824.32
634.64	819.94
634.98	815.28
635.32	810.78
635.67	806.95
636.01	802.72
636.36	798.25
636.70	793.87
637.05	789.52
637.39	785.47
637.73	781.73
638.08	778.40
638.42	774.70
638.77	770.60
639.11	766.75
639.45	762.83
639.80	758.55
640.14	754.24
640.49	749.83
640.83	745.68
641.17	741.51
641.52	737.29
641.86	732.91
642.20	728.92
642.55	724.63
642.89	720.21
643.23	716.04
643.58	712.30
643.92	708.00
644.26	703.88
644.61	699.95
644.95	695.66
645.29	691.13
645.64	686.78
645.98	682.72
646.32	678.77
646.66	674.88
647.01	671.05
647.35	667.31
647.69	663.31
648.04	659.60
648.38	655.61
648.72	651.85
649.06	648.08
649.41	644.20
649.75	640.28
650.09	636.59
650.43	632.81
650.78	628.64
651.12	624.78
651.46	621.05
651.80	617.34
652.14	613.62
652.49	610.07
652.83	606.27
653.17	602.41
653.51	598.52
653.85	594.79
654.20	591.20
654.54	587.45
654.88	583.94
655.22	580.13
655.56	576.48
655.90	572.78
656.25	569.08
656.59	565.34
656.93	561.77
657.27	558.27
657.61	554.53
657.95	551.21
658.29	547.90
658.64	544.50
658.98	540.91
659.32	537.45
659.66	534.02
660.00	530.67
660.34	527.27
660.68	523.98
661.02	520.58
661.36	517.39
661.70	514.42
662.05	511.37
662.39	508.56
662.73	505.70
663.07	502.91
663.41	500.02
663.75	497.25
664.09	494.27
664.43	491.18
664.77	488.40
665.11	485.56
665.45	482.73
665.79	480.02
666.13	477.31
666.47	474.66
666.81	471.92
667.15	469.26
667.49	466.85
667.83	464.47
668.17	461.95
668.51	459.40
668.85	456.92
669.19	454.50
669.53	451.86
669.87	449.26
670.21	446.67
670.55	444.23
670.89	442.10
671.23	440.02
671.57	437.87
671.91	435.66
672.25	433.35
672.58	431.00
672.92	428.70
673.26	426.51
673.60	424.28
673.94	422.17
674.28	420.02
674.62	417.92
674.96	415.65
675.30	413.62
675.64	411.52
675.97	409.37
676.31	407.28
676.65	405.25
676.99	403.53
677.33	401.50
677.67	399.59
678.01	397.45
678.34	395.55
678.68	393.55
679.02	391.66
679.36	389.85
679.70	388.12
680.04	386.33
680.37	384.47
680.71	382.74
681.05	380.95
681.39	379.30
681.73	377.59
682.06	375.95
682.40	374.20
682.74	372.52
683.08	370.93
683.42	369.22
683.75	367.59
684.09	365.78
684.43	364.11
684.77	362.34
685.10	360.64
685.44	358.88
685.78	357.38
686.12	355.77
686.45	354.10
686.79	352.46
687.13	351.02
687.46	349.48
687.80	348.00
688.14	346.41
688.48	344.98
688.81	343.40
689.15	341.98
689.49	340.55
689.82	339.10
690.16	337.40
690.50	335.91
690.83	334.41
691.17	332.88
691.51	331.50
691.84	330.16
692.18	328.86
692.52	327.61
692.85	326.40
693.19	325.22
693.52	324.05
693.86	322.80
694.20	321.43
694.53	320.14
694.87	318.86
695.21	317.60
695.54	316.25
695.88	314.92
696.21	313.57
696.55	312.36
696.88	311.18
697.22	310.09
697.56	309.04
697.89	307.90
698.23	306.88
698.56	305.80
698.90	304.88
699.23	303.71
699.57	302.56
699.90	301.33
700.24	300.18
700.58	299.07
700.91	298.07
701.25	297.25
701.58	296.27
701.92	295.24
702.25	294.26
702.59	293.12
702.92	292.27
703.26	291.36
703.59	290.47
703.93	289.87
704.26	289.02
704.60	288.12
704.93	287.26
705.26	286.34
705.60	285.53
705.93	284.59
706.27	283.94
706.60	283.30
706.94	282.64
707.27	281.80
707.61	281.00
707.94	280.17
708.27	279.12
708.61	278.33
708.94	277.56
709.28	276.84
709.61	276.20
709.94	275.50
710.28	274.71
710.61	274.00
710.95	272.81
711.28	272.22
711.61	271.53
711.95	271.01
712.28	270.30
712.61	269.56
712.95	269.11
713.28	268.45
713.61	267.64
713.95	266.77
714.28	266.09
714.61	265.49
714.95	264.83
715.28	264.22
715.61	263.56
715.95	263.03
716.28	262.43
716.61	261.91
716.95	261.18
717.28	260.60
717.61	259.97
717.94	259.49
718.28	258.75
718.61	258.13
718.94	257.41
719.27	256.84
719.61	256.39
719.94	255.74
720.27	255.07
720.60	254.57
720.94	254.22
721.27	253.85
721.60	253.29
721.93	252.80
722.27	252.49
722.60	252.19
722.93	251.71
723.26	251.21
723.59	250.73
723.93	250.51
724.26	250.15
724.59	249.74
724.92	249.41
725.25	249.09
725.59	248.73
725.92	248.38
726.25	248.07
726.58	247.67
726.91	247.18
727.24	246.85
727.57	246.47
727.91	246.03
728.24	245.64
728.57	245.24
728.90	244.97
729.23	244.47
729.56	244.28
729.89	243.87
730.22	243.58
730.55	243.24
730.89	242.80
731.22	242.39
731.55	242.05
731.88	241.72
732.21	241.29
732.54	240.90
732.87	240.58
733.20	240.22
733.53	239.94
733.86	239.72
734.19	239.48
734.52	239.28
734.85	239.17
735.18	238.83
735.51	238.69
735.84	238.37
736.17	238.18
736.50	237.64
736.83	237.69
737.16	237.43
737.49	237.18
737.82	236.88
738.15	236.71
738.48	236.42
738.81	236.10
739.14	235.83
739.47	235.60
739.80	235.32
740.13	235.12
740.46	234.81
740.79	234.49
741.12	234.14
741.45	233.80
741.78	233.36
742.11	233.21
742.44	232.89
742.77	232.73
743.10	232.48
743.43	232.25
743.75	231.67
744.08	231.92
744.41	231.59
744.74	231.40
745.07	231.06
745.40	230.95
745.73	230.96
746.06	230.82
746.39	230.62
746.71	230.42
747.04	230.13
747.37	229.92
747.70	229.78
748.03	229.58
748.36	229.45
748.68	229.25
749.01	228.99
749.34	228.92
749.67	228.77
750.00	228.59
750.33	228.64
750.65	228.56
750.98	227.86
751.31	227.73
751.64	227.53
751.97	227.55
752.29	227.29
752.62	226.89
752.95	226.60
753.28	226.39
753.60	226.23
753.93	226.12
754.26	226.00
754.59	225.73
754.91	225.52
755.24	225.30
755.57	225.16
755.90	225.00
756.22	224.72
756.55	224.43
756.88	224.17
757.20	223.86
757.53	223.58
757.86	223.44
758.19	223.27
758.51	223.05
758.84	222.75
759.17	222.55
759.49	222.35
759.82	222.35
760.15	222.26
760.47	222.11
760.80	221.91
761.13	221.76
761.45	221.60
761.78	221.51
762.11	221.31
762.43	221.16
762.76	220.99
763.08	220.88
763.41	220.81
763.74	220.77
764.06	220.57
764.39	220.44
764.71	220.34
765.04	220.22
765.37	220.14
765.69	220.02
766.02	219.95
766.34	219.99
766.67	219.90
767.00	219.90
767.32	219.93
767.65	220.02
767.97	219.88
768.30	219.81
768.62	219.72
768.95	219.67
769.27	219.66
769.60	219.65
769.92	219.50
770.25	219.30
770.57	219.19
770.90	219.14
771.22	219.10
771.55	219.04
771.87	218.99
772.20	218.88
772.52	219.18
772.85	219.48
773.17	219.37
773.50	219.18
773.82	219.03
774.15	218.81
774.47	218.51
774.80	218.41
775.12	218.40
775.45	218.37
775.77	218.33
776.09	218.18
776.42	218.07
776.74	218.12
777.07	218.13
777.39	217.96
777.72	217.88
778.04	217.84
778.36	217.73
778.69	217.72
779.01	217.82
779.33	217.42
779.66	217.02
779.98	216.95
780.31	216.93
780.63	217.01
780.95	217.05
781.28	217.08
781.60	217.07
781.92	216.99
782.25	216.90
782.57	216.86
782.89	216.85
783.22	216.86
783.54	216.77
783.86	216.74
784.19	216.72
784.51	216.71
784.83	216.61
785.16	216.59
785.48	216.47
785.80	216.32
786.12	216.25
786.45	216.23
786.77	216.16
787.09	216.15
787.42	215.95
787.74	215.91
788.06	215.87
788.38	215.74
