SpectraSuite Data File
++++++++++++++++++++++++++++++++++++
Date: Mon Feb 25 16:59:46 EST 2013
User: group
Dark Spectrum Present: No
Reference Spectrum Present: No
Number of Sampled Component Spectra: 1
Spectrometers: USB2E7196
Integration Time (usec): 104000 (USB2E7196)
Spectra Averaged: 20 (USB2E7196)
Boxcar Smoothing: 10 (USB2E7196)
Correct for Electrical Dark: No (USB2E7196)
Strobe/Lamp Enabled: No (USB2E7196)
Correct for Detector Non-linearity: No (USB2E7196)
Correct for Stray Light: No (USB2E7196)
Number of Pixels in Processed Spectrum: 2048
>>>>>Begin Processed Spectral Data<<<<<
339.09	0.00
339.48	199.50
339.86	200.75
340.24	202.45
340.63	202.25
341.01	210.00
341.39	205.80
341.78	207.50
342.16	208.95
342.54	209.20
342.93	198.35
343.31	208.40
343.69	208.90
344.07	209.37
344.46	209.77
344.84	210.17
345.22	210.20
345.60	210.41
345.99	210.60
346.37	210.68
346.75	210.76
347.13	210.74
347.52	210.75
347.90	210.95
348.28	210.92
348.66	211.04
349.05	210.96
349.43	211.08
349.81	211.14
350.19	211.11
350.57	211.10
350.96	211.25
351.34	211.32
351.72	211.33
352.10	211.37
352.48	211.40
352.87	211.41
353.25	211.42
353.63	211.52
354.01	211.59
354.39	211.68
354.77	211.73
355.15	211.97
355.54	212.01
355.92	211.86
356.30	211.86
356.68	212.08
357.06	212.15
357.44	212.13
357.82	212.17
358.20	212.33
358.58	212.39
358.97	212.41
359.35	212.48
359.73	212.68
360.11	212.70
360.49	212.80
360.87	212.88
361.25	213.00
361.63	213.08
362.01	213.07
362.39	213.09
362.77	213.14
363.15	213.05
363.53	213.13
363.91	213.25
364.29	213.35
364.67	213.09
365.05	213.08
365.43	213.16
365.81	213.20
366.19	213.33
366.57	213.49
366.95	213.50
367.33	213.41
367.71	213.38
368.09	213.47
368.47	213.42
368.85	213.37
369.23	213.43
369.61	213.31
369.99	213.44
370.37	213.44
370.75	213.63
371.13	213.56
371.51	213.49
371.89	213.49
372.27	213.47
372.65	213.45
373.03	213.44
373.41	213.42
373.78	213.39
374.16	213.14
374.54	212.97
374.92	212.89
375.30	212.89
375.68	212.77
376.06	212.71
376.44	212.62
376.82	212.57
377.19	212.48
377.57	212.45
377.95	212.29
378.33	212.26
378.71	211.98
379.09	212.01
379.47	211.97
379.84	211.89
380.22	211.77
380.60	211.70
380.98	211.65
381.36	211.57
381.73	211.50
382.11	211.55
382.49	211.48
382.87	211.40
383.25	211.36
383.62	211.80
384.00	211.73
384.38	211.76
384.76	211.79
385.13	211.85
385.51	211.82
385.89	211.71
386.27	211.65
386.64	211.65
387.02	211.61
387.40	211.61
387.78	211.60
388.15	211.63
388.53	211.56
388.91	211.55
389.29	211.43
389.66	211.47
390.04	211.42
390.42	211.47
390.79	211.46
391.17	211.42
391.55	210.95
391.92	210.92
392.30	210.88
392.68	210.86
393.05	210.78
393.43	210.80
393.81	210.87
394.18	210.79
394.56	210.83
394.94	210.93
395.31	210.91
395.69	211.07
396.06	211.15
396.44	211.23
396.82	211.22
397.19	211.43
397.57	211.37
397.95	211.40
398.32	211.38
398.70	211.41
399.07	211.52
399.45	211.56
399.82	211.54
400.20	211.54
400.58	211.64
400.95	211.58
401.33	211.65
401.70	211.95
402.08	212.15
402.45	212.17
402.83	212.29
403.20	212.40
403.58	212.40
403.95	212.56
404.33	212.71
404.71	212.87
405.08	213.21
405.46	213.44
405.83	213.73
406.21	213.93
406.58	214.22
406.96	214.42
407.33	214.66
407.70	215.10
408.08	215.72
408.45	216.08
408.83	216.50
409.20	216.88
409.58	217.10
409.95	217.57
410.33	218.14
410.70	218.55
411.08	219.15
411.45	219.79
411.82	220.39
412.20	221.11
412.57	222.00
412.95	222.61
413.32	223.48
413.69	224.35
414.07	225.25
414.44	226.31
414.82	227.38
415.19	228.70
415.56	229.95
415.94	231.17
416.31	232.72
416.68	234.36
417.06	236.24
417.43	237.97
417.81	239.82
418.18	241.82
418.55	243.95
418.93	246.23
419.30	248.55
419.67	251.04
420.04	253.68
420.42	256.28
420.79	259.48
421.16	262.53
421.54	265.87
421.91	269.43
422.28	272.95
422.66	276.74
423.03	280.54
423.40	284.40
423.77	288.54
424.15	292.70
424.52	297.05
424.89	301.71
425.26	306.19
425.64	310.72
426.01	315.57
426.38	320.57
426.75	325.77
427.13	331.03
427.50	336.64
427.87	342.47
428.24	348.45
428.61	354.03
428.99	360.30
429.36	366.91
429.73	373.43
430.10	380.06
430.47	386.94
430.85	393.89
431.22	401.31
431.59	409.32
431.96	416.91
432.33	425.24
432.70	433.54
433.08	443.33
433.45	452.38
433.82	461.42
434.19	471.56
434.56	481.47
434.93	491.16
435.30	500.79
435.68	511.44
436.05	522.16
436.42	532.74
436.79	542.42
437.16	552.97
437.53	564.10
437.90	575.12
438.27	586.06
438.64	597.52
439.01	608.35
439.38	617.91
439.75	627.29
440.13	637.97
440.50	647.88
440.87	656.06
441.24	664.57
441.61	674.17
441.98	681.51
442.35	689.91
442.72	698.28
443.09	706.30
443.46	711.45
443.83	714.98
444.20	718.23
444.57	722.92
444.94	725.59
445.31	728.31
445.68	730.87
446.05	732.39
446.42	732.15
446.79	731.54
447.16	730.86
447.53	730.63
447.90	727.40
448.27	724.23
448.64	719.54
449.01	716.26
449.37	709.81
449.74	703.58
450.11	695.98
450.48	687.71
450.85	679.20
451.22	671.89
451.59	664.86
451.96	658.32
452.33	649.04
452.70	640.75
453.07	630.66
453.43	620.36
453.80	610.43
454.17	600.90
454.54	591.91
454.91	582.17
455.28	572.64
455.65	563.88
456.02	555.07
456.38	547.45
456.75	537.97
457.12	530.20
457.49	522.35
457.86	514.64
458.23	508.02
458.59	500.92
458.96	493.73
459.33	487.31
459.70	480.76
460.07	475.60
460.43	469.73
460.80	464.16
461.17	459.51
461.54	454.35
461.91	449.57
462.27	444.63
462.64	440.39
463.01	435.81
463.38	431.29
463.74	426.73
464.11	422.70
464.48	419.38
464.85	415.48
465.21	412.57
465.58	409.50
465.95	405.85
466.32	402.78
466.68	399.74
467.05	396.74
467.42	393.70
467.78	390.53
468.15	387.39
468.52	385.20
468.88	382.05
469.25	379.57
469.62	377.26
469.98	374.99
470.35	372.85
470.72	370.75
471.08	368.48
471.45	366.53
471.82	364.56
472.18	362.49
472.55	360.87
472.92	359.01
473.28	357.38
473.65	355.70
474.02	354.00
474.38	352.69
474.75	351.63
475.11	350.41
475.48	349.50
475.85	348.69
476.21	347.82
476.58	347.15
476.94	346.48
477.31	345.92
477.67	345.25
478.04	344.68
478.41	344.33
478.77	344.29
479.14	343.82
479.50	343.79
479.87	343.73
480.23	343.77
480.60	343.65
480.96	343.56
481.33	343.97
481.69	344.28
482.06	344.46
482.42	344.55
482.79	344.68
483.15	345.00
483.52	345.56
483.88	345.91
484.25	346.22
484.61	346.81
484.98	347.32
485.34	348.15
485.71	349.15
486.07	349.95
486.44	350.48
486.80	351.40
487.17	352.33
487.53	353.54
487.90	354.77
488.26	356.19
488.62	357.69
488.99	359.04
489.35	360.37
489.72	361.96
490.08	363.62
490.44	365.36
490.81	367.22
491.17	368.89
491.54	370.91
491.90	373.12
492.26	375.25
492.63	377.55
492.99	379.65
493.36	381.96
493.72	384.52
494.08	387.06
494.45	389.83
494.81	392.64
495.17	395.34
495.54	398.15
495.90	400.95
496.26	403.75
496.63	406.64
496.99	409.69
497.35	412.77
497.72	415.98
498.08	419.22
498.44	422.50
498.80	426.12
499.17	429.41
499.53	432.64
499.89	436.11
500.26	439.31
500.62	442.70
500.98	446.09
501.34	449.29
501.71	452.86
502.07	456.32
502.43	459.65
502.79	462.82
503.16	466.14
503.52	469.37
503.88	472.70
504.24	475.97
504.60	479.35
504.97	482.73
505.33	485.90
505.69	489.41
506.05	492.60
506.41	495.47
506.78	498.59
507.14	501.55
507.50	504.46
507.86	507.43
508.22	510.34
508.59	513.12
508.95	515.90
509.31	518.46
509.67	521.08
510.03	523.60
510.39	526.27
510.75	528.77
511.12	531.35
511.48	533.72
511.84	536.01
512.20	538.24
512.56	540.30
512.92	542.61
513.28	544.53
513.64	546.42
514.00	548.30
514.37	550.08
514.73	552.03
515.09	553.85
515.45	555.46
515.81	557.01
516.17	558.44
516.53	559.95
516.89	561.41
517.25	562.58
517.61	563.87
517.97	564.94
518.33	565.96
518.69	566.91
519.05	567.97
519.41	569.04
519.77	570.12
520.13	570.98
520.49	571.49
520.85	572.09
521.21	572.84
521.57	573.51
521.93	574.04
522.29	574.68
522.65	575.31
523.01	576.04
523.37	576.60
523.73	577.20
524.09	577.73
524.45	578.29
524.81	578.92
525.17	579.42
525.53	580.19
525.89	580.79
526.25	581.43
526.61	581.77
526.97	582.29
527.33	582.82
527.68	583.64
528.04	584.58
528.40	585.33
528.76	586.05
529.12	586.90
529.48	588.06
529.84	588.97
530.20	589.86
530.56	590.75
530.91	591.96
531.27	593.17
531.63	594.33
531.99	595.48
532.35	596.63
532.71	597.82
533.07	599.25
533.42	601.02
533.78	602.43
534.14	604.04
534.50	605.44
534.86	607.01
535.21	608.32
535.57	609.95
535.93	611.58
536.29	613.40
536.65	615.21
537.00	616.72
537.36	618.42
537.72	620.14
538.08	621.91
538.44	623.84
538.79	625.72
539.15	627.63
539.51	629.65
539.87	631.83
540.22	633.94
540.58	636.10
540.94	637.92
541.29	640.02
541.65	641.98
542.01	644.31
542.37	646.51
542.72	648.74
543.08	650.72
543.44	653.13
543.79	655.33
544.15	657.54
544.51	660.10
544.87	662.71
545.22	665.01
545.58	667.45
545.94	669.59
546.29	671.71
546.65	674.00
547.01	676.24
547.36	678.67
547.72	681.12
548.07	683.35
548.43	685.49
548.79	687.84
549.14	690.34
549.50	692.56
549.86	694.87
550.21	697.34
550.57	700.12
550.92	702.41
551.28	704.90
551.64	707.34
551.99	709.84
552.35	712.11
552.70	714.44
553.06	716.87
553.41	719.36
553.77	722.18
554.13	724.72
554.48	727.44
554.84	729.99
555.19	732.47
555.55	735.05
555.90	737.47
556.26	739.74
556.61	741.91
556.97	744.15
557.32	746.38
557.68	748.53
558.03	750.48
558.39	752.54
558.74	754.61
559.10	756.85
559.45	758.86
559.81	760.95
560.16	762.95
560.52	764.95
560.87	767.03
561.23	768.77
561.58	771.08
561.94	772.68
562.29	774.22
562.64	776.15
563.00	777.79
563.35	779.64
563.71	781.85
564.06	783.87
564.42	786.14
564.77	788.20
565.12	790.35
565.48	792.54
565.83	794.30
566.19	796.31
566.54	797.89
566.89	799.48
567.25	801.52
567.60	803.48
567.96	805.47
568.31	807.26
568.66	809.00
569.02	810.25
569.37	811.57
569.72	812.98
570.08	814.22
570.43	815.32
570.78	816.64
571.14	817.38
571.49	818.33
571.84	819.29
572.20	819.78
572.55	820.38
572.90	820.47
573.26	821.03
573.61	821.29
573.96	821.76
574.31	822.00
574.67	821.79
575.02	821.80
575.37	821.47
575.72	821.06
576.08	820.97
576.43	820.56
576.78	820.49
577.13	820.41
577.49	820.16
577.84	819.87
578.19	819.64
578.54	819.61
578.90	819.52
579.25	818.70
579.60	818.30
579.95	817.45
580.30	817.19
580.66	816.87
581.01	816.11
581.36	815.25
581.71	814.40
582.06	813.86
582.42	813.13
582.77	812.27
583.12	811.34
583.47	810.33
583.82	809.40
584.17	808.45
584.53	807.53
584.88	806.51
585.23	805.55
585.58	804.40
585.93	803.26
586.28	802.14
586.63	801.48
586.98	800.64
587.34	799.93
587.69	798.75
588.04	797.64
588.39	796.73
588.74	795.66
589.09	794.80
589.44	793.35
589.79	792.25
590.14	791.29
590.49	790.19
590.84	789.12
591.19	788.17
591.54	786.96
591.89	785.46
592.25	784.43
592.60	782.98
592.95	781.42
593.30	779.67
593.65	777.83
594.00	775.88
594.35	775.18
594.70	773.46
595.05	772.13
595.40	770.52
595.75	768.64
596.10	767.21
596.45	765.46
596.80	764.19
597.15	762.71
597.50	760.87
597.85	759.35
598.19	757.45
598.54	755.60
598.89	753.99
599.24	752.69
599.59	750.66
599.94	749.20
600.29	747.48
600.64	745.93
600.99	744.30
601.34	742.52
601.69	739.86
602.04	738.01
602.39	735.94
602.74	734.26
603.08	732.62
603.43	730.91
603.78	729.12
604.13	727.09
604.48	725.11
604.83	723.55
605.18	721.79
605.53	720.11
605.87	718.34
606.22	716.53
606.57	714.41
606.92	712.39
607.27	710.20
607.62	708.33
607.96	706.39
608.31	704.54
608.66	702.82
609.01	700.61
609.36	698.60
609.70	696.37
610.05	693.99
610.40	691.90
610.75	689.57
611.10	687.58
611.44	685.11
611.79	682.77
612.14	680.42
612.49	677.96
612.83	675.60
613.18	673.07
613.53	670.59
613.88	668.11
614.22	665.84
614.57	663.62
614.92	661.35
615.27	658.91
615.61	656.35
615.96	654.04
616.31	651.84
616.65	649.78
617.00	647.61
617.35	645.25
617.70	642.72
618.04	640.07
618.39	637.37
618.74	635.05
619.08	632.54
619.43	630.13
619.78	627.81
620.12	625.51
620.47	623.34
620.82	620.83
621.16	618.18
621.51	615.83
621.85	613.39
622.20	610.85
622.55	608.35
622.89	605.99
623.24	603.40
623.59	600.79
623.93	598.12
624.28	595.76
624.62	593.78
624.97	591.49
625.32	589.28
625.66	587.05
626.01	584.80
626.35	582.55
626.70	580.07
627.04	577.89
627.39	575.56
627.73	573.26
628.08	571.33
628.43	569.23
628.77	566.95
629.12	564.60
629.46	562.45
629.81	560.49
630.15	558.29
630.50	555.99
630.84	553.72
631.19	551.58
631.53	549.42
631.88	546.71
632.22	544.34
632.57	542.32
632.91	540.09
633.26	537.88
633.60	535.68
633.95	533.67
634.29	531.27
634.64	529.25
634.98	527.00
635.32	524.79
635.67	522.85
636.01	520.74
636.36	518.61
636.70	516.61
637.05	514.54
637.39	512.60
637.73	510.71
638.08	509.22
638.42	507.32
638.77	505.38
639.11	503.55
639.45	501.80
639.80	499.60
640.14	497.55
640.49	495.55
640.83	493.63
641.17	491.78
641.52	489.93
641.86	487.67
642.20	485.84
642.55	483.76
642.89	481.74
643.23	479.75
643.58	478.16
643.92	476.14
644.26	474.06
644.61	472.10
644.95	470.16
645.29	467.92
645.64	465.89
645.98	463.87
646.32	462.07
646.66	460.00
647.01	458.13
647.35	456.45
647.69	454.49
648.04	452.67
648.38	450.57
648.72	448.77
649.06	446.82
649.41	444.79
649.75	442.84
650.09	441.05
650.43	439.19
650.78	436.99
651.12	435.01
651.46	433.12
651.80	431.34
652.14	429.57
652.49	427.78
652.83	425.99
653.17	424.08
653.51	422.15
653.85	420.39
654.20	418.66
654.54	416.70
654.88	414.90
655.22	413.06
655.56	411.16
655.90	409.17
656.25	407.49
656.59	405.79
656.93	404.08
657.27	402.42
657.61	400.55
657.95	399.01
658.29	397.40
658.64	395.80
658.98	393.97
659.32	392.04
659.66	390.32
660.00	388.54
660.34	386.76
660.68	385.11
661.02	383.46
661.36	381.83
661.70	380.25
662.05	378.74
662.39	377.34
662.73	376.09
663.07	374.84
663.41	373.34
663.75	371.74
664.09	370.17
664.43	368.55
664.77	367.17
665.11	365.64
665.45	364.25
665.79	362.83
666.13	361.48
666.47	360.23
666.81	358.83
667.15	357.46
667.49	356.31
667.83	355.07
668.17	353.74
668.51	352.33
668.85	351.10
669.19	350.00
669.53	348.56
669.87	347.10
670.21	345.66
670.55	344.48
670.89	343.53
671.23	342.42
671.57	341.35
671.91	340.16
672.25	338.95
672.58	337.85
672.92	336.64
673.26	335.54
673.60	334.40
673.94	333.26
674.28	332.25
674.62	331.20
674.96	330.02
675.30	328.96
675.64	328.02
675.97	326.97
676.31	325.83
676.65	324.79
676.99	324.06
677.33	323.01
677.67	322.02
678.01	320.80
678.34	319.79
678.68	318.75
679.02	317.75
679.36	316.79
679.70	315.66
680.04	314.64
680.37	313.62
680.71	312.64
681.05	311.73
681.39	310.75
681.73	309.72
682.06	308.84
682.40	307.95
682.74	306.96
683.08	306.20
683.42	305.22
683.75	304.35
684.09	303.22
684.43	302.39
684.77	301.41
685.10	300.55
685.44	299.56
685.78	298.61
686.12	297.78
686.45	296.92
686.79	296.04
687.13	295.37
687.46	294.53
687.80	293.81
688.14	293.06
688.48	292.26
688.81	291.39
689.15	290.69
689.49	289.81
689.82	289.07
690.16	288.04
690.50	287.22
690.83	286.48
691.17	285.68
691.51	284.80
691.84	284.06
692.18	283.27
692.52	282.73
692.85	282.10
693.19	281.44
693.52	280.76
693.86	280.09
694.20	279.28
694.53	278.61
694.87	277.83
695.21	277.05
695.54	276.29
695.88	275.62
696.21	274.77
696.55	274.19
696.88	273.53
697.22	272.92
697.56	272.34
697.89	271.63
698.23	271.04
698.56	270.39
698.90	269.76
699.23	269.15
699.57	268.40
699.90	267.77
700.24	267.10
700.58	266.49
700.91	265.92
701.25	265.58
701.58	265.06
701.92	264.58
702.25	264.04
702.59	263.46
702.92	262.95
703.26	262.45
703.59	261.83
703.93	261.49
704.26	261.01
704.60	260.56
704.93	260.00
705.26	259.45
705.60	259.04
705.93	258.53
706.27	258.18
706.60	257.85
706.94	257.48
707.27	256.90
707.61	256.44
707.94	255.96
708.27	255.24
708.61	254.63
708.94	254.17
709.28	253.71
709.61	253.30
709.94	252.95
710.28	252.53
710.61	252.16
710.95	251.59
711.28	251.40
711.61	250.98
711.95	250.69
712.28	250.32
712.61	249.93
712.95	249.79
713.28	249.44
713.61	249.02
713.95	248.47
714.28	248.20
714.61	247.75
714.95	247.44
715.28	247.09
715.61	246.76
715.95	246.35
716.28	245.98
716.61	245.66
716.95	245.24
717.28	244.85
717.61	244.63
717.94	244.27
718.28	243.64
718.61	243.21
718.94	242.77
719.27	242.42
719.61	242.11
719.94	241.64
720.27	241.25
720.60	240.88
720.94	240.65
721.27	240.37
721.60	240.18
721.93	239.83
722.27	239.65
722.60	239.50
722.93	239.17
723.26	238.97
723.59	238.61
723.93	238.30
724.26	238.11
724.59	237.62
724.92	237.40
725.25	237.25
725.59	237.11
725.92	236.97
726.25	236.73
726.58	236.53
726.91	236.26
727.24	236.04
727.57	235.79
727.91	235.47
728.24	235.24
728.57	235.02
728.90	234.83
729.23	234.46
729.56	234.36
729.89	234.14
730.22	233.78
730.55	233.60
730.89	233.43
731.22	233.18
731.55	233.05
731.88	232.86
732.21	232.55
732.54	232.25
732.87	231.94
733.20	231.69
733.53	231.53
733.86	231.36
734.19	231.07
734.52	230.97
734.85	231.03
735.18	230.87
735.51	230.74
735.84	230.62
736.17	230.60
736.50	230.20
736.83	230.45
737.16	230.35
737.49	230.12
737.82	229.93
738.15	229.79
738.48	229.61
738.81	229.39
739.14	229.19
739.47	228.96
739.80	228.85
740.13	228.75
740.46	228.44
740.79	228.20
741.12	228.04
741.45	227.75
741.78	227.38
742.11	227.30
742.44	227.07
742.77	226.93
743.10	226.68
743.43	226.47
743.75	225.90
744.08	226.15
744.41	226.03
744.74	225.85
745.07	225.65
745.40	225.58
745.73	225.59
746.06	225.53
746.39	225.45
746.71	225.28
747.04	225.07
747.37	224.90
747.70	224.85
748.03	224.71
748.36	224.64
748.68	224.50
749.01	224.24
749.34	224.02
749.67	223.84
750.00	223.76
750.33	223.97
750.65	223.87
750.98	223.38
751.31	223.28
751.64	223.15
751.97	223.14
752.29	222.97
752.62	222.68
752.95	222.49
753.28	222.37
753.60	222.25
753.93	222.24
754.26	222.15
754.59	221.91
754.91	221.78
755.24	221.65
755.57	221.49
755.90	221.39
756.22	221.29
756.55	221.18
756.88	220.96
757.20	220.55
757.53	220.38
757.86	220.24
758.19	220.16
758.51	220.06
758.84	219.85
759.17	219.68
759.49	219.65
759.82	219.65
760.15	219.53
760.47	219.40
760.80	219.18
761.13	219.18
761.45	219.05
761.78	218.95
762.11	218.84
762.43	218.72
762.76	218.54
763.08	218.49
763.41	218.37
763.74	218.34
764.06	218.23
764.39	218.16
764.71	218.00
765.04	217.80
765.37	217.71
765.69	217.61
766.02	217.50
766.34	217.34
766.67	217.20
767.00	217.22
767.32	217.43
767.65	217.64
767.97	217.47
768.30	217.45
768.62	217.42
768.95	217.37
769.27	217.40
769.60	217.47
769.92	217.37
770.25	217.23
770.57	217.14
770.90	217.11
771.22	217.05
771.55	217.01
771.87	217.09
772.20	217.01
772.52	217.25
772.85	217.74
773.17	217.69
773.50	217.65
773.82	217.50
774.15	217.12
774.47	216.72
774.80	216.66
775.12	216.56
775.45	216.49
775.77	216.41
776.09	216.30
776.42	216.18
776.74	216.20
777.07	216.17
777.39	216.10
777.72	216.00
778.04	216.07
778.36	215.96
778.69	215.82
779.01	215.73
779.33	215.38
779.66	214.90
779.98	214.87
780.31	214.77
780.63	214.86
780.95	214.97
781.28	214.99
781.60	214.93
781.92	214.89
782.25	214.81
782.57	214.82
782.89	214.76
783.22	214.74
783.54	214.56
783.86	214.55
784.19	214.49
784.51	214.56
784.83	214.40
785.16	214.37
785.48	214.33
785.80	214.33
786.12	214.32
786.45	214.24
786.77	214.22
787.09	214.15
787.42	214.02
787.74	214.02
788.06	214.00
788.38	213.99
788.71	213.99
789.03	214.00
789.35	213.99
789.67	213.95
789.99	213.92
790.32	213.98
790.64	213.99
790.96	214.24
791.28	214.12
791.61	214.12
791.93	214.13
792.25	214.12
792.57	214.39
792.89	214.32
793.21	214.39
793.54	214.30
793.86	214.25
794.18	214.26
