SpectraSuite Data File
++++++++++++++++++++++++++++++++++++
Date: Mon Feb 25 17:06:22 EST 2013
User: group
Dark Spectrum Present: No
Reference Spectrum Present: No
Number of Sampled Component Spectra: 1
Spectrometers: USB2E7196
Integration Time (usec): 104000 (USB2E7196)
Spectra Averaged: 20 (USB2E7196)
Boxcar Smoothing: 10 (USB2E7196)
Correct for Electrical Dark: No (USB2E7196)
Strobe/Lamp Enabled: No (USB2E7196)
Correct for Detector Non-linearity: No (USB2E7196)
Correct for Stray Light: No (USB2E7196)
Number of Pixels in Processed Spectrum: 2048
>>>>>Begin Processed Spectral Data<<<<<
339.09	0.00
339.48	197.50
339.86	198.60
340.24	200.85
340.63	200.80
341.01	209.75
341.39	205.45
341.78	206.65
342.16	208.95
342.54	209.45
342.93	197.59
343.31	207.56
343.69	208.10
344.07	208.60
344.46	209.07
344.84	209.57
345.22	209.50
345.60	209.70
345.99	209.89
346.37	209.91
346.75	209.99
347.13	210.12
347.52	210.22
347.90	210.34
348.28	210.34
348.66	210.52
349.05	210.44
349.43	210.49
349.81	210.50
350.19	210.50
350.57	210.58
350.96	210.73
351.34	210.88
351.72	211.03
352.10	211.15
352.48	211.15
352.87	211.09
353.25	211.21
353.63	211.29
354.01	211.27
354.39	211.42
354.77	211.49
355.15	211.59
355.54	211.56
355.92	211.55
356.30	211.67
356.68	211.94
357.06	212.10
357.44	212.15
357.82	212.18
358.20	212.25
358.58	212.27
358.97	212.28
359.35	212.33
359.73	212.40
360.11	212.43
360.49	212.58
360.87	212.58
361.25	212.69
361.63	212.86
362.01	213.02
362.39	213.08
362.77	213.09
363.15	213.12
363.53	213.18
363.91	213.23
364.29	213.23
364.67	212.91
365.05	212.89
365.43	212.92
365.81	212.98
366.19	213.22
366.57	213.44
366.95	213.45
367.33	213.37
367.71	213.46
368.09	213.55
368.47	213.53
368.85	213.64
369.23	213.68
369.61	213.60
369.99	213.71
370.37	213.73
370.75	213.90
371.13	213.81
371.51	213.72
371.89	213.74
372.27	213.77
372.65	213.78
373.03	213.77
373.41	213.72
373.78	213.68
374.16	213.37
374.54	213.18
374.92	213.11
375.30	213.10
375.68	212.97
376.06	212.89
376.44	212.80
376.82	212.68
377.19	212.63
377.57	212.51
377.95	212.31
378.33	212.16
378.71	211.91
379.09	211.88
379.47	211.95
379.84	211.90
380.22	211.79
380.60	211.70
380.98	211.58
381.36	211.57
381.73	211.53
382.11	211.55
382.49	211.49
382.87	211.41
383.25	211.35
383.62	211.70
384.00	211.54
384.38	211.51
384.76	211.58
385.13	211.69
385.51	211.70
385.89	211.66
386.27	211.66
386.64	211.63
387.02	211.63
387.40	211.49
387.78	211.48
388.15	211.39
388.53	211.32
388.91	211.35
389.29	211.29
389.66	211.23
390.04	211.14
390.42	211.21
390.79	211.24
391.17	211.18
391.55	210.76
391.92	210.85
392.30	210.86
392.68	210.80
393.05	210.74
393.43	210.69
393.81	210.62
394.18	210.50
394.56	210.47
394.94	210.45
395.31	210.46
395.69	210.48
396.06	210.60
396.44	210.56
396.82	210.48
397.19	210.61
397.57	210.57
397.95	210.68
398.32	210.55
398.70	210.57
399.07	210.70
399.45	210.65
399.82	210.59
400.20	210.55
400.58	210.56
400.95	210.41
401.33	210.43
401.70	210.75
402.08	210.88
402.45	210.89
402.83	211.06
403.20	211.08
403.58	211.05
403.95	211.09
404.33	211.25
404.71	211.40
405.08	211.60
405.46	211.74
405.83	211.79
406.21	211.97
406.58	212.12
406.96	212.20
407.33	212.43
407.70	212.62
408.08	213.07
408.45	213.21
408.83	213.50
409.20	213.68
409.58	213.63
409.95	213.88
410.33	214.15
410.70	214.25
411.08	214.63
411.45	214.92
411.82	215.21
412.20	215.57
412.57	216.09
412.95	216.21
413.32	216.69
413.69	217.14
414.07	217.60
414.44	218.08
414.82	218.56
415.19	219.12
415.56	219.77
415.94	220.18
416.31	221.07
416.68	221.84
417.06	222.70
417.43	223.65
417.81	224.54
418.18	225.58
418.55	226.61
418.93	227.68
419.30	228.87
419.67	230.00
420.04	231.28
420.42	232.43
420.79	234.18
421.16	235.68
421.54	237.33
421.91	238.92
422.28	240.55
422.66	242.31
423.03	244.19
423.40	245.94
423.77	247.82
424.15	249.66
424.52	251.63
424.89	253.90
425.26	256.01
425.64	258.08
426.01	260.29
426.38	262.68
426.75	265.11
427.13	267.56
427.50	270.17
427.87	272.80
428.24	275.49
428.61	277.75
428.99	280.58
429.36	283.58
429.73	286.60
430.10	289.69
430.47	292.89
430.85	295.97
431.22	299.47
431.59	303.40
431.96	306.94
432.33	310.86
432.70	314.63
433.08	318.96
433.45	323.16
433.82	327.31
434.19	331.85
434.56	336.32
434.93	340.65
435.30	345.00
435.68	349.84
436.05	354.69
436.42	359.69
436.79	364.24
437.16	368.92
437.53	373.92
437.90	378.78
438.27	383.57
438.64	388.68
439.01	393.36
439.38	397.36
439.75	401.40
440.13	406.08
440.50	410.48
440.87	414.04
441.24	417.78
441.61	421.86
441.98	425.00
442.35	428.62
442.72	432.25
443.09	435.93
443.46	438.03
443.83	439.50
444.20	440.84
444.57	442.63
444.94	443.72
445.31	444.77
445.68	446.20
446.05	446.86
446.42	446.73
446.79	446.45
447.16	446.03
447.53	445.86
447.90	444.11
448.27	442.47
448.64	440.38
449.01	438.76
449.37	435.78
449.74	432.95
450.11	429.69
450.48	425.75
450.85	421.68
451.22	418.27
451.59	415.09
451.96	411.97
452.33	407.77
452.70	403.91
453.07	399.33
453.43	394.36
453.80	389.82
454.17	385.40
454.54	381.26
454.91	376.85
455.28	372.54
455.65	368.56
456.02	364.96
456.38	361.38
456.75	357.18
457.12	353.66
457.49	350.01
457.86	346.31
458.23	343.48
458.59	340.15
458.96	337.03
459.33	334.14
459.70	331.12
460.07	328.70
460.43	326.03
460.80	323.49
461.17	321.32
461.54	319.04
461.91	316.86
462.27	314.65
462.64	312.78
463.01	310.66
463.38	308.79
463.74	306.24
464.11	304.46
464.48	302.76
464.85	301.05
465.21	299.82
465.58	298.45
465.95	296.69
466.32	295.36
466.68	293.87
467.05	292.44
467.42	291.08
467.78	289.64
468.15	288.29
468.52	287.37
468.88	285.91
469.25	284.62
469.62	283.66
469.98	282.55
470.35	281.53
470.72	280.60
471.08	279.43
471.45	278.73
471.82	277.95
472.18	277.06
472.55	276.37
472.92	275.50
473.28	274.67
473.65	273.92
474.02	273.22
474.38	272.73
474.75	272.25
475.11	271.61
475.48	271.33
475.85	270.87
476.21	270.37
476.58	270.06
476.94	269.83
477.31	269.45
477.67	269.18
478.04	268.94
478.41	268.75
478.77	268.93
479.14	268.62
479.50	268.36
479.87	268.29
480.23	268.20
480.60	268.08
480.96	268.06
481.33	268.33
481.69	268.43
482.06	268.34
482.42	268.42
482.79	268.64
483.15	268.66
483.52	268.88
483.88	268.96
484.25	269.06
484.61	269.22
484.98	269.39
485.34	269.65
485.71	269.99
486.07	270.29
486.44	270.28
486.80	270.65
487.17	271.11
487.53	271.68
487.90	272.18
488.26	272.78
488.62	273.39
488.99	273.77
489.35	274.22
489.72	274.91
490.08	275.55
490.44	276.15
490.81	276.84
491.17	277.54
491.54	278.39
491.90	279.33
492.26	280.18
492.63	281.06
492.99	281.97
493.36	282.96
493.72	283.99
494.08	284.96
494.45	286.09
494.81	287.23
495.17	288.31
495.54	289.46
495.90	290.65
496.26	291.70
496.63	293.00
496.99	294.23
497.35	295.57
497.72	296.86
498.08	298.23
498.44	299.70
498.80	301.13
499.17	302.49
499.53	303.82
499.89	305.36
500.26	306.90
500.62	308.30
500.98	309.72
501.34	311.15
501.71	312.76
502.07	314.32
502.43	315.73
502.79	317.09
503.16	318.64
503.52	320.15
503.88	321.70
504.24	323.13
504.60	324.74
504.97	326.26
505.33	327.75
505.69	329.47
506.05	331.00
506.41	332.52
506.78	334.00
507.14	335.40
507.50	336.92
507.86	338.39
508.22	340.02
508.59	341.42
508.95	343.04
509.31	344.69
509.67	346.20
510.03	347.78
510.39	349.47
510.75	351.00
511.12	352.44
511.48	353.93
511.84	355.47
512.20	356.95
512.56	358.52
512.92	360.20
513.28	361.63
513.64	363.12
514.00	364.66
514.37	366.25
514.73	368.01
515.09	369.69
515.45	371.26
515.81	372.78
516.17	374.49
516.53	376.11
516.89	377.50
517.25	378.95
517.61	380.58
517.97	382.07
518.33	383.72
518.69	385.47
519.05	387.37
519.41	389.20
519.77	391.19
520.13	392.89
520.49	394.50
520.85	396.32
521.21	398.19
521.57	400.10
521.93	401.84
522.29	403.70
522.65	405.37
523.01	407.30
523.37	409.13
523.73	411.08
524.09	413.05
524.45	415.14
524.81	417.26
525.17	419.41
525.53	421.63
525.89	423.77
526.25	426.02
526.61	428.13
526.97	430.38
527.33	432.60
527.68	435.27
528.04	437.78
528.40	440.15
528.76	442.65
529.12	445.15
529.48	447.89
529.84	450.50
530.20	453.26
530.56	455.99
530.91	458.92
531.27	461.80
531.63	464.54
531.99	467.30
532.35	470.09
532.71	472.93
533.07	475.79
533.42	478.95
533.78	481.90
534.14	484.89
534.50	487.70
534.86	490.79
535.21	493.31
535.57	496.27
535.93	499.26
536.29	502.27
536.65	505.30
537.00	508.16
537.36	510.95
537.72	513.87
538.08	516.74
538.44	519.54
538.79	522.45
539.15	525.45
539.51	528.46
539.87	531.52
540.22	534.55
540.58	537.70
540.94	540.65
541.29	543.61
541.65	546.58
542.01	549.65
542.37	552.51
542.72	555.74
543.08	558.73
543.44	561.87
543.79	564.55
544.15	567.54
544.51	570.78
544.87	574.16
545.22	577.20
545.58	580.20
545.94	583.08
546.29	585.88
546.65	588.69
547.01	591.64
547.36	594.66
547.72	597.53
548.07	600.35
548.43	602.99
548.79	605.52
549.14	608.00
549.50	610.66
549.86	613.22
550.21	615.70
550.57	618.30
550.92	620.57
551.28	623.15
551.64	625.38
551.99	627.77
552.35	629.79
552.70	631.94
553.06	634.47
553.41	636.87
553.77	639.27
554.13	641.38
554.48	643.57
554.84	645.69
555.19	647.64
555.55	649.66
555.90	651.55
556.26	653.52
556.61	655.42
556.97	657.27
557.32	659.11
557.68	660.72
558.03	662.31
558.39	663.97
558.74	665.87
559.10	667.79
559.45	669.34
559.81	671.23
560.16	672.86
560.52	674.24
560.87	675.92
561.23	677.26
561.58	679.21
561.94	680.58
562.29	681.70
562.64	683.15
563.00	684.45
563.35	685.96
563.71	687.61
564.06	689.08
564.42	690.54
564.77	691.84
565.12	693.52
565.48	695.16
565.83	696.49
566.19	697.64
566.54	698.64
566.89	699.72
567.25	700.96
567.60	702.27
567.96	703.63
568.31	704.75
568.66	705.88
569.02	706.40
569.37	706.94
569.72	707.85
570.08	708.55
570.43	708.96
570.78	709.35
571.14	709.52
571.49	709.86
571.84	710.29
572.20	710.60
572.55	710.76
572.90	710.60
573.26	710.68
573.61	710.71
573.96	710.80
574.31	710.75
574.67	710.36
575.02	709.94
575.37	709.30
575.72	708.59
576.08	708.19
576.43	707.91
576.78	707.77
577.13	707.39
577.49	707.10
577.84	706.84
578.19	706.71
578.54	706.75
578.90	706.73
579.25	706.26
579.60	705.75
579.95	705.15
580.30	704.90
580.66	704.67
581.01	703.99
581.36	703.42
581.71	702.83
582.06	702.39
582.42	701.89
582.77	701.25
583.12	700.65
583.47	700.22
583.82	699.84
584.17	699.13
584.53	698.90
584.88	698.18
585.23	697.74
585.58	696.86
585.93	695.87
586.28	695.09
586.63	694.42
586.98	693.92
587.34	693.56
587.69	692.74
588.04	692.12
588.39	691.75
588.74	690.79
589.09	690.17
589.44	689.24
589.79	688.68
590.14	688.14
590.49	687.41
590.84	686.39
591.19	685.56
591.54	684.87
591.89	683.58
592.25	682.90
592.60	681.70
592.95	680.71
593.30	679.59
593.65	678.26
594.00	677.00
594.35	676.70
594.70	675.23
595.05	674.11
595.40	672.63
595.75	671.22
596.10	670.44
596.45	669.40
596.80	668.53
597.15	667.37
597.50	666.07
597.85	665.16
598.19	664.02
598.54	662.68
598.89	661.59
599.24	660.86
599.59	659.65
599.94	658.85
600.29	657.80
600.64	656.97
600.99	655.90
601.34	654.87
601.69	652.91
602.04	651.78
602.39	650.62
602.74	649.78
603.08	648.90
603.43	648.06
603.78	646.98
604.13	645.75
604.48	644.51
604.83	643.70
605.18	642.75
605.53	641.80
605.87	640.66
606.22	639.68
606.57	638.32
606.92	637.11
607.27	635.78
607.62	634.65
607.96	633.45
608.31	632.52
608.66	631.53
609.01	630.20
609.36	628.82
609.70	627.54
610.05	625.96
610.40	624.46
610.75	622.84
611.10	621.44
611.44	619.70
611.79	618.15
612.14	616.50
612.49	614.63
612.83	613.01
613.18	611.40
613.53	609.63
613.88	607.71
614.22	605.95
614.57	604.15
614.92	602.25
615.27	600.35
615.61	598.41
615.96	596.42
616.31	594.85
616.65	593.50
617.00	591.73
617.35	590.02
617.70	588.11
618.04	586.03
618.39	584.00
618.74	582.32
619.08	580.65
619.43	578.81
619.78	577.03
620.12	575.00
620.47	573.18
620.82	571.23
621.16	569.24
621.51	567.39
621.85	565.58
622.20	563.75
622.55	561.81
622.89	559.95
623.24	558.10
623.59	556.00
623.93	553.90
624.28	552.19
624.62	550.80
624.97	549.17
625.32	547.44
625.66	545.66
626.01	543.78
626.35	541.86
626.70	540.07
627.04	538.48
627.39	536.90
627.73	535.14
628.08	533.50
628.43	531.85
628.77	529.98
629.12	528.02
629.46	526.36
629.81	524.75
630.15	522.94
630.50	521.08
630.84	519.11
631.19	517.46
631.53	515.47
631.88	513.23
632.22	511.19
632.57	509.56
632.91	507.83
633.26	506.14
633.60	504.31
633.95	502.49
634.29	500.56
634.64	498.87
634.98	496.94
635.32	495.19
635.67	493.61
636.01	491.96
636.36	490.32
636.70	488.73
637.05	487.01
637.39	485.43
637.73	483.95
638.08	482.75
638.42	481.10
638.77	479.59
639.11	477.79
639.45	476.18
639.80	474.39
640.14	472.53
640.49	470.85
640.83	469.25
641.17	467.52
641.52	465.65
641.86	463.69
642.20	462.27
642.55	460.41
642.89	458.55
643.23	456.77
643.58	455.30
643.92	453.41
644.26	451.75
644.61	450.08
644.95	448.25
645.29	446.30
645.64	444.57
645.98	442.70
646.32	441.25
646.66	439.44
647.01	437.71
647.35	436.18
647.69	434.43
648.04	432.75
648.38	431.09
648.72	429.58
649.06	427.95
649.41	426.24
649.75	424.65
650.09	423.10
650.43	421.47
650.78	419.59
651.12	417.87
651.46	416.09
651.80	414.46
652.14	412.87
652.49	411.42
652.83	409.71
653.17	408.04
653.51	406.35
653.85	404.90
654.20	403.35
654.54	401.67
654.88	400.11
655.22	398.53
655.56	396.79
655.90	395.04
656.25	393.49
656.59	391.72
656.93	390.05
657.27	388.51
657.61	386.91
657.95	385.41
658.29	383.88
658.64	382.40
658.98	380.80
659.32	379.20
659.66	377.48
660.00	375.94
660.34	374.50
660.68	372.87
661.02	371.30
661.36	369.81
661.70	368.43
662.05	366.97
662.39	365.61
662.73	364.50
663.07	363.38
663.41	362.07
663.75	360.76
664.09	359.36
664.43	357.79
664.77	356.41
665.11	354.98
665.45	353.76
665.79	352.50
666.13	351.14
666.47	349.75
666.81	348.55
667.15	347.30
667.49	346.14
667.83	345.07
668.17	343.92
668.51	342.71
668.85	341.61
669.19	340.59
669.53	339.29
669.87	337.92
670.21	336.63
670.55	335.44
670.89	334.53
671.23	333.56
671.57	332.63
671.91	331.62
672.25	330.66
672.58	329.55
672.92	328.42
673.26	327.39
673.60	326.49
673.94	325.43
674.28	324.45
674.62	323.49
674.96	322.44
675.30	321.49
675.64	320.52
675.97	319.44
676.31	318.35
676.65	317.36
676.99	316.63
677.33	315.67
677.67	314.80
678.01	313.65
678.34	312.65
678.68	311.74
679.02	310.75
679.36	309.85
679.70	308.98
680.04	308.11
680.37	307.23
680.71	306.32
681.05	305.46
681.39	304.51
681.73	303.54
682.06	302.73
682.40	301.89
682.74	301.04
683.08	300.28
683.42	299.39
683.75	298.67
684.09	297.68
684.43	296.82
684.77	295.86
685.10	295.03
685.44	294.17
685.78	293.35
686.12	292.66
686.45	291.90
686.79	291.13
687.13	290.40
687.46	289.60
687.80	288.86
688.14	288.05
688.48	287.36
688.81	286.72
689.15	285.96
689.49	285.09
689.82	284.35
690.16	283.44
690.50	282.70
690.83	281.83
691.17	280.99
691.51	280.27
691.84	279.69
692.18	279.09
692.52	278.38
692.85	277.80
693.19	277.19
693.52	276.36
693.86	275.47
694.20	274.78
694.53	274.16
694.87	273.53
695.21	272.91
695.54	272.22
695.88	271.46
696.21	270.72
696.55	270.17
696.88	269.54
697.22	268.99
697.56	268.45
697.89	267.87
698.23	267.45
698.56	266.86
698.90	266.22
699.23	265.45
699.57	264.91
699.90	264.27
700.24	263.55
700.58	263.06
700.91	262.70
701.25	262.46
701.58	262.01
701.92	261.53
702.25	260.96
702.59	260.46
702.92	259.97
703.26	259.49
703.59	258.88
703.93	258.61
704.26	258.08
704.60	257.52
704.93	256.99
705.26	256.33
705.60	255.85
705.93	255.33
706.27	255.02
706.60	254.66
706.94	254.32
707.27	253.79
707.61	253.38
707.94	252.84
708.27	252.03
708.61	251.48
708.94	251.01
709.28	250.65
709.61	250.14
709.94	249.70
710.28	249.28
710.61	248.93
710.95	248.22
711.28	248.04
711.61	247.67
711.95	247.38
712.28	247.08
712.61	246.75
712.95	246.60
713.28	246.42
713.61	245.85
713.95	245.40
714.28	245.13
714.61	244.70
714.95	244.31
715.28	243.90
715.61	243.53
715.95	243.09
716.28	242.68
716.61	242.31
716.95	241.93
717.28	241.64
717.61	241.27
717.94	240.88
718.28	240.38
718.61	240.05
718.94	239.67
719.27	239.26
719.61	239.02
719.94	238.57
720.27	238.00
720.60	237.76
720.94	237.44
721.27	237.17
721.60	236.93
721.93	236.74
722.27	236.67
722.60	236.44
722.93	236.25
723.26	236.03
723.59	235.77
723.93	235.57
724.26	235.34
724.59	235.09
724.92	235.00
725.25	234.88
725.59	234.64
725.92	234.54
726.25	234.36
726.58	234.12
726.91	233.90
727.24	233.74
727.57	233.60
727.91	233.34
728.24	233.16
728.57	232.91
728.90	232.82
729.23	232.52
729.56	232.46
729.89	232.24
730.22	232.02
730.55	231.90
730.89	231.76
731.22	231.53
731.55	231.41
731.88	231.20
732.21	230.85
732.54	230.59
732.87	230.34
733.20	230.13
733.53	229.88
733.86	229.73
734.19	229.55
734.52	229.41
734.85	229.44
735.18	229.21
735.51	229.17
735.84	228.99
736.17	228.87
736.50	228.59
736.83	228.84
737.16	228.69
737.49	228.45
737.82	228.24
738.15	228.09
738.48	227.89
738.81	227.64
739.14	227.43
739.47	227.36
739.80	227.21
740.13	227.12
740.46	226.90
740.79	226.72
741.12	226.60
741.45	226.38
741.78	226.10
742.11	226.06
742.44	225.82
742.77	225.71
743.10	225.50
743.43	225.31
743.75	224.81
744.08	225.13
744.41	225.03
744.74	224.90
745.07	224.71
745.40	224.65
745.73	224.77
746.06	224.70
746.39	224.55
746.71	224.34
747.04	224.17
747.37	224.08
747.70	223.98
748.03	223.78
748.36	223.70
748.68	223.51
749.01	223.33
749.34	223.22
749.67	223.06
750.00	223.00
750.33	223.15
750.65	223.10
750.98	222.50
751.31	222.38
751.64	222.19
751.97	222.32
752.29	222.12
752.62	221.78
752.95	221.62
753.28	221.55
753.60	221.45
753.93	221.43
754.26	221.36
754.59	221.17
754.91	221.10
755.24	220.98
755.57	220.85
755.90	220.72
756.22	220.53
756.55	220.30
756.88	220.18
757.20	219.77
757.53	219.47
757.86	219.41
758.19	219.30
758.51	219.21
758.84	218.91
759.17	218.79
759.49	218.78
759.82	218.89
760.15	218.78
760.47	218.69
760.80	218.54
761.13	218.44
761.45	218.41
761.78	218.27
762.11	218.22
762.43	218.15
762.76	218.06
763.08	218.05
763.41	217.97
763.74	217.91
764.06	217.87
764.39	217.89
764.71	217.85
765.04	217.79
765.37	217.73
765.69	217.63
766.02	217.57
766.34	217.41
766.67	217.22
767.00	217.22
767.32	217.33
767.65	217.45
767.97	217.40
768.30	217.26
768.62	217.29
768.95	217.14
769.27	217.08
769.60	217.04
769.92	216.92
770.25	216.86
770.57	216.67
770.90	216.61
771.22	216.50
771.55	216.35
771.87	216.34
772.20	216.31
772.52	216.53
772.85	216.85
773.17	216.84
773.50	216.73
773.82	216.62
774.15	216.35
774.47	216.11
774.80	216.02
775.12	215.95
775.45	215.89
775.77	215.88
776.09	215.88
776.42	215.84
776.74	215.90
777.07	215.83
777.39	215.82
777.72	215.72
778.04	215.77
778.36	215.74
778.69	215.66
779.01	215.60
779.33	215.32
779.66	214.98
779.98	214.94
780.31	214.89
780.63	214.95
780.95	215.03
781.28	214.93
781.60	214.83
781.92	214.87
782.25	214.77
782.57	214.75
782.89	214.68
783.22	214.64
783.54	214.53
783.86	214.54
784.19	214.53
784.51	214.66
784.83	214.52
785.16	214.48
785.48	214.45
785.80	214.42
786.12	214.37
786.45	214.35
786.77	214.35
787.09	214.32
787.42	214.17
787.74	214.10
788.06	214.17
788.38	214.17
788.71	214.06
789.03	214.02
789.35	214.00
789.67	213.91
789.99	213.90
790.32	213.82
790.64	213.85
790.96	214.10
791.28	213.92
791.61	213.88
791.93	213.90
792.25	213.92
792.57	214.14
792.89	213.98
793.21	213.93
793.54	213.80
793.86	213.77
794.18	213.77
