SpectraSuite Data File
++++++++++++++++++++++++++++++++++++
Date: Mon Feb 25 17:05:35 EST 2013
User: group
Dark Spectrum Present: No
Reference Spectrum Present: No
Number of Sampled Component Spectra: 1
Spectrometers: USB2E7196
Integration Time (usec): 104000 (USB2E7196)
Spectra Averaged: 20 (USB2E7196)
Boxcar Smoothing: 10 (USB2E7196)
Correct for Electrical Dark: No (USB2E7196)
Strobe/Lamp Enabled: No (USB2E7196)
Correct for Detector Non-linearity: No (USB2E7196)
Correct for Stray Light: No (USB2E7196)
Number of Pixels in Processed Spectrum: 2048
>>>>>Begin Processed Spectral Data<<<<<
339.09	0.00
339.48	197.80
339.86	199.95
340.24	201.45
340.63	203.70
341.01	210.80
341.39	206.50
341.78	207.65
342.16	208.95
342.54	209.10
342.93	198.23
343.31	208.22
343.69	208.81
344.07	209.29
344.46	209.75
344.84	210.11
345.22	210.07
345.60	210.27
345.99	210.41
346.37	210.53
346.75	210.55
347.13	210.62
347.52	210.66
347.90	210.82
348.28	210.81
348.66	210.97
349.05	210.92
349.43	210.90
349.81	210.98
350.19	210.97
350.57	210.97
350.96	211.05
351.34	211.13
351.72	211.19
352.10	211.25
352.48	211.25
352.87	211.31
353.25	211.40
353.63	211.46
354.01	211.49
354.39	211.59
354.77	211.70
355.15	211.83
355.54	211.79
355.92	211.71
356.30	211.83
356.68	212.13
357.06	212.25
357.44	212.27
357.82	212.36
358.20	212.49
358.58	212.60
358.97	212.68
359.35	212.77
359.73	212.89
360.11	212.97
360.49	213.02
360.87	213.04
361.25	213.09
361.63	213.25
362.01	213.32
362.39	213.30
362.77	213.34
363.15	213.39
363.53	213.46
363.91	213.55
364.29	213.64
364.67	213.23
365.05	213.13
365.43	213.19
365.81	213.19
366.19	213.35
366.57	213.51
366.95	213.43
367.33	213.39
367.71	213.30
368.09	213.33
368.47	213.34
368.85	213.31
369.23	213.40
369.61	213.23
369.99	213.36
370.37	213.33
370.75	213.46
371.13	213.31
371.51	213.23
371.89	213.15
372.27	213.03
372.65	213.04
373.03	213.10
373.41	213.06
373.78	213.02
374.16	212.86
374.54	212.62
374.92	212.59
375.30	212.60
375.68	212.58
376.06	212.54
376.44	212.48
376.82	212.49
377.19	212.41
377.57	212.39
377.95	212.17
378.33	212.17
378.71	211.96
379.09	211.92
379.47	211.94
379.84	211.90
380.22	211.90
380.60	211.79
380.98	211.75
381.36	211.69
381.73	211.54
382.11	211.56
382.49	211.59
382.87	211.48
383.25	211.35
383.62	211.64
384.00	211.54
384.38	211.48
384.76	211.45
385.13	211.61
385.51	211.54
385.89	211.47
386.27	211.38
386.64	211.38
387.02	211.37
387.40	211.25
387.78	211.25
388.15	211.17
388.53	211.10
388.91	211.03
389.29	211.04
389.66	211.06
390.04	210.85
390.42	210.86
390.79	210.92
391.17	210.90
391.55	210.54
391.92	210.48
392.30	210.60
392.68	210.55
393.05	210.40
393.43	210.42
393.81	210.45
394.18	210.40
394.56	210.41
394.94	210.45
395.31	210.48
395.69	210.60
396.06	210.70
396.44	210.84
396.82	210.80
397.19	210.95
397.57	210.90
397.95	211.02
398.32	210.89
398.70	210.92
399.07	211.06
399.45	211.07
399.82	211.11
400.20	211.04
400.58	211.07
400.95	210.91
401.33	211.01
401.70	211.28
402.08	211.31
402.45	211.34
402.83	211.47
403.20	211.50
403.58	211.54
403.95	211.60
404.33	211.67
404.71	211.76
405.08	211.95
405.46	212.12
405.83	212.23
406.21	212.35
406.58	212.47
406.96	212.58
407.33	212.73
407.70	212.94
408.08	213.36
408.45	213.52
408.83	213.85
409.20	214.02
409.58	214.12
409.95	214.48
410.33	214.71
410.70	214.87
411.08	215.20
411.45	215.38
411.82	215.65
412.20	216.09
412.57	216.66
412.95	216.82
413.32	217.29
413.69	217.74
414.07	218.30
414.44	218.86
414.82	219.46
415.19	220.09
415.56	220.76
415.94	221.21
416.31	222.06
416.68	222.82
417.06	223.75
417.43	224.60
417.81	225.53
418.18	226.63
418.55	227.72
418.93	228.92
419.30	230.20
419.67	231.47
420.04	232.78
420.42	234.04
420.79	235.87
421.16	237.36
421.54	239.13
421.91	240.85
422.28	242.59
422.66	244.41
423.03	246.49
423.40	248.39
423.77	250.55
424.15	252.65
424.52	254.87
424.89	257.22
425.26	259.56
425.64	261.67
426.01	264.04
426.38	266.55
426.75	269.20
427.13	271.78
427.50	274.63
427.87	277.44
428.24	280.32
428.61	282.87
428.99	286.02
429.36	289.21
429.73	292.51
430.10	295.86
430.47	299.20
430.85	302.45
431.22	306.16
431.59	310.19
431.96	313.83
432.33	318.01
432.70	322.06
433.08	326.65
433.45	331.29
433.82	335.75
434.19	340.77
434.56	345.75
434.93	350.71
435.30	355.37
435.68	360.69
436.05	365.87
436.42	371.13
436.79	375.96
437.16	381.23
437.53	386.48
437.90	391.88
438.27	397.27
438.64	402.85
439.01	408.04
439.38	412.54
439.75	417.08
440.13	422.10
440.50	426.91
440.87	431.05
441.24	435.06
441.61	439.62
441.98	442.95
442.35	446.70
442.72	450.47
443.09	454.45
443.46	456.93
443.83	458.76
444.20	460.18
444.57	462.36
444.94	463.36
445.31	464.63
445.68	465.96
446.05	466.54
446.42	466.20
446.79	465.83
447.16	465.39
447.53	465.24
447.90	463.67
448.27	462.02
448.64	459.47
449.01	457.82
449.37	454.62
449.74	451.42
450.11	447.84
450.48	443.59
450.85	439.20
451.22	435.37
451.59	431.90
451.96	428.67
452.33	423.93
452.70	419.82
453.07	414.87
453.43	409.48
453.80	404.69
454.17	400.14
454.54	395.67
454.91	390.85
455.28	386.05
455.65	381.59
456.02	377.59
456.38	373.95
456.75	369.25
457.12	365.42
457.49	361.67
457.86	357.75
458.23	354.68
458.59	351.14
458.96	347.61
459.33	344.36
459.70	341.19
460.07	338.72
460.43	336.00
460.80	333.40
461.17	331.17
461.54	328.57
461.91	326.26
462.27	323.85
462.64	321.82
463.01	319.65
463.38	317.54
463.74	314.89
464.11	312.84
464.48	311.30
464.85	309.41
465.21	308.04
465.58	306.54
465.95	304.65
466.32	303.12
466.68	301.64
467.05	300.10
467.42	298.48
467.78	296.93
468.15	295.32
468.52	294.17
468.88	292.54
469.25	291.28
469.62	290.13
469.98	288.93
470.35	287.81
470.72	286.77
471.08	285.54
471.45	284.55
471.82	283.61
472.18	282.44
472.55	281.66
472.92	280.72
473.28	279.95
473.65	279.20
474.02	278.46
474.38	277.75
474.75	277.23
475.11	276.72
475.48	276.21
475.85	275.75
476.21	275.21
476.58	274.91
476.94	274.60
477.31	274.17
477.67	273.89
478.04	273.58
478.41	273.38
478.77	273.56
479.14	273.39
479.50	273.31
479.87	273.25
480.23	273.08
480.60	272.92
480.96	272.77
481.33	272.90
481.69	272.91
482.06	272.96
482.42	273.00
482.79	272.97
483.15	273.03
483.52	273.26
483.88	273.44
484.25	273.54
484.61	273.65
484.98	273.87
485.34	274.17
485.71	274.55
486.07	274.82
486.44	274.75
486.80	275.09
487.17	275.42
487.53	275.95
487.90	276.45
488.26	277.08
488.62	277.77
488.99	278.31
489.35	278.90
489.72	279.58
490.08	280.24
490.44	280.96
490.81	281.77
491.17	282.42
491.54	283.31
491.90	284.25
492.26	285.18
492.63	286.16
492.99	286.95
493.36	287.92
493.72	288.95
494.08	289.96
494.45	291.06
494.81	292.20
495.17	293.26
495.54	294.47
495.90	295.58
496.26	296.65
496.63	297.82
496.99	298.99
497.35	300.29
497.72	301.66
498.08	302.94
498.44	304.23
498.80	305.66
499.17	306.90
499.53	308.20
499.89	309.54
500.26	310.83
500.62	312.24
500.98	313.61
501.34	314.93
501.71	316.44
502.07	317.79
502.43	319.15
502.79	320.39
503.16	321.80
503.52	323.24
503.88	324.54
504.24	325.89
504.60	327.34
504.97	328.63
505.33	329.82
505.69	331.34
506.05	332.59
506.41	333.78
506.78	335.00
507.14	336.20
507.50	337.45
507.86	338.73
508.22	340.02
508.59	341.19
508.95	342.44
509.31	343.76
509.67	345.01
510.03	346.21
510.39	347.48
510.75	348.59
511.12	349.57
511.48	350.75
511.84	351.73
512.20	352.70
512.56	353.68
512.92	354.80
513.28	355.79
513.64	356.75
514.00	357.91
514.37	359.04
514.73	360.09
515.09	361.24
515.45	362.17
515.81	363.13
516.17	364.02
516.53	364.94
516.89	365.72
517.25	366.57
517.61	367.58
517.97	368.52
518.33	369.47
518.69	370.50
519.05	371.50
519.41	372.68
519.77	374.07
520.13	375.11
520.49	376.11
520.85	377.11
521.21	378.50
521.57	379.54
521.93	380.52
522.29	381.76
522.65	382.83
523.01	384.15
523.37	385.39
523.73	386.84
524.09	388.28
524.45	389.65
524.81	391.12
525.17	392.49
525.53	394.01
525.89	395.56
526.25	397.28
526.61	398.75
526.97	400.26
527.33	401.74
527.68	403.75
528.04	405.56
528.40	407.37
528.76	409.02
529.12	411.02
529.48	413.10
529.84	414.94
530.20	416.92
530.56	419.02
530.91	421.22
531.27	423.31
531.63	425.47
531.99	427.68
532.35	429.93
532.71	432.20
533.07	434.59
533.42	437.22
533.78	439.46
534.14	441.95
534.50	444.28
534.86	446.78
535.21	448.92
535.57	451.42
535.93	453.89
536.29	456.61
536.65	459.17
537.00	461.66
537.36	464.22
537.72	466.83
538.08	469.40
538.44	471.97
538.79	474.80
539.15	477.36
539.51	480.05
539.87	482.82
540.22	485.57
540.58	488.31
540.94	490.89
541.29	493.62
541.65	496.26
542.01	499.20
542.37	502.11
542.72	505.12
543.08	507.91
543.44	510.89
543.79	513.49
544.15	516.27
544.51	519.22
544.87	522.28
545.22	525.24
545.58	528.07
545.94	530.93
546.29	533.55
546.65	536.37
547.01	539.21
547.36	541.98
547.72	544.82
548.07	547.42
548.43	550.05
548.79	552.64
549.14	555.39
549.50	558.15
549.86	560.49
550.21	562.91
550.57	565.62
550.92	568.00
551.28	570.49
551.64	573.03
551.99	575.58
552.35	577.82
552.70	580.18
553.06	582.54
553.41	584.83
553.77	587.41
554.13	589.72
554.48	592.14
554.84	594.45
555.19	596.50
555.55	599.08
555.90	601.17
556.26	603.32
556.61	605.49
556.97	607.30
557.32	609.42
557.68	611.44
558.03	613.20
558.39	615.09
558.74	617.13
559.10	618.88
559.45	620.72
559.81	622.74
560.16	624.50
560.52	626.47
560.87	628.31
561.23	629.69
561.58	631.75
561.94	633.30
562.29	634.98
562.64	636.87
563.00	638.21
563.35	640.04
563.71	641.97
564.06	643.52
564.42	645.15
564.77	646.90
565.12	648.63
565.48	650.61
565.83	652.31
566.19	653.82
566.54	655.39
566.89	656.78
567.25	658.30
567.60	659.83
567.96	661.15
568.31	662.65
568.66	663.96
569.02	664.80
569.37	665.71
569.72	666.65
570.08	667.50
570.43	668.36
570.78	669.01
571.14	669.60
571.49	670.12
571.84	670.90
572.20	671.30
572.55	671.75
572.90	671.71
573.26	671.90
573.61	672.08
573.96	672.17
574.31	672.32
574.67	672.08
575.02	671.83
575.37	671.62
575.72	671.16
576.08	671.05
576.43	670.76
576.78	670.71
577.13	670.50
577.49	670.29
577.84	670.15
578.19	669.96
578.54	669.87
578.90	670.02
579.25	669.73
579.60	669.30
579.95	668.82
580.30	668.68
580.66	668.56
581.01	668.28
581.36	667.98
581.71	667.60
582.06	667.65
582.42	667.52
582.77	667.08
583.12	666.83
583.47	666.79
583.82	666.62
584.17	666.27
584.53	666.30
584.88	666.01
585.23	665.66
585.58	665.50
585.93	665.02
586.28	664.63
586.63	664.23
586.98	664.08
587.34	663.93
587.69	663.35
588.04	662.74
588.39	662.43
588.74	661.87
589.09	661.40
589.44	660.49
589.79	659.86
590.14	659.42
590.49	658.84
590.84	657.89
591.19	657.55
591.54	656.90
591.89	655.52
592.25	655.00
592.60	654.09
592.95	652.90
593.30	651.81
593.65	650.62
594.00	649.56
594.35	649.52
594.70	648.35
595.05	647.49
595.40	646.56
595.75	645.33
596.10	644.46
596.45	643.48
596.80	642.71
597.15	641.88
597.50	640.84
597.85	639.92
598.19	638.98
598.54	637.65
598.89	636.78
599.24	636.20
599.59	635.05
599.94	634.33
600.29	633.46
600.64	632.62
600.99	631.66
601.34	630.95
601.69	629.07
602.04	628.11
602.39	627.10
602.74	626.27
603.08	625.43
603.43	624.71
603.78	623.72
604.13	622.69
604.48	621.70
604.83	621.14
605.18	620.33
605.53	619.40
605.87	618.48
606.22	617.57
606.57	616.50
606.92	615.45
607.27	614.25
607.62	613.21
607.96	612.36
608.31	611.53
608.66	610.37
609.01	609.17
609.36	607.97
609.70	606.69
610.05	605.33
610.40	604.09
610.75	602.53
611.10	601.32
611.44	599.76
611.79	598.17
612.14	596.34
612.49	594.58
612.83	593.21
613.18	591.61
613.53	589.75
613.88	588.07
614.22	586.35
614.57	584.73
614.92	583.19
615.27	581.43
615.61	579.54
615.96	577.94
616.31	576.37
616.65	574.97
617.00	573.42
617.35	571.82
617.70	570.06
618.04	568.22
618.39	566.30
618.74	564.71
619.08	563.02
619.43	561.44
619.78	559.83
620.12	558.05
620.47	556.32
620.82	554.64
621.16	552.84
621.51	551.32
621.85	549.65
622.20	547.87
622.55	546.00
622.89	544.27
623.24	542.36
623.59	540.31
623.93	538.49
624.28	536.82
624.62	535.34
624.97	533.91
625.32	532.39
625.66	530.85
626.01	529.14
626.35	527.55
626.70	525.75
627.04	524.15
627.39	522.40
627.73	520.86
628.08	519.40
628.43	517.75
628.77	515.86
629.12	514.04
629.46	512.47
629.81	510.92
630.15	509.30
630.50	507.54
630.84	505.92
631.19	504.23
631.53	502.55
631.88	500.50
632.22	498.44
632.57	496.80
632.91	495.06
633.26	493.45
633.60	491.81
633.95	490.19
634.29	488.30
634.64	486.63
634.98	484.75
635.32	483.11
635.67	481.70
636.01	480.10
636.36	478.45
636.70	476.89
637.05	475.33
637.39	473.71
637.73	472.37
638.08	471.13
638.42	469.63
638.77	468.20
639.11	466.66
639.45	465.27
639.80	463.52
640.14	461.83
640.49	460.23
640.83	458.45
641.17	456.83
641.52	455.35
641.86	453.70
642.20	452.35
642.55	450.49
642.89	448.71
643.23	447.10
643.58	445.73
643.92	443.88
644.26	442.13
644.61	440.54
644.95	438.77
645.29	436.95
645.64	435.35
645.98	433.56
646.32	432.05
646.66	430.26
647.01	428.71
647.35	427.29
647.69	425.71
648.04	424.35
648.38	422.72
648.72	421.14
649.06	419.56
649.41	417.86
649.75	416.27
650.09	414.71
650.43	413.11
650.78	411.30
651.12	409.63
651.46	408.03
651.80	406.52
652.14	405.05
652.49	403.54
652.83	401.86
653.17	400.15
653.51	398.43
653.85	397.10
654.20	395.60
654.54	393.88
654.88	392.32
655.22	390.77
655.56	389.28
655.90	387.73
656.25	386.13
656.59	384.55
656.93	383.14
657.27	381.73
657.61	380.20
657.95	378.80
658.29	377.29
658.64	376.01
658.98	374.45
659.32	372.85
659.66	371.33
660.00	369.85
660.34	368.50
660.68	367.08
661.02	365.54
661.36	364.16
661.70	362.89
662.05	361.56
662.39	360.26
662.73	359.04
663.07	357.95
663.41	356.84
663.75	355.47
664.09	354.15
664.43	352.82
664.77	351.58
665.11	350.20
665.45	349.13
665.79	347.80
666.13	346.53
666.47	345.33
666.81	344.10
667.15	342.95
667.49	341.81
667.83	340.73
668.17	339.55
668.51	338.35
668.85	337.25
669.19	336.22
669.53	334.94
669.87	333.80
670.21	332.50
670.55	331.33
670.89	330.50
671.23	329.58
671.57	328.60
671.91	327.60
672.25	326.60
672.58	325.65
672.92	324.61
673.26	323.70
673.60	322.79
673.94	321.84
674.28	320.88
674.62	320.02
674.96	319.11
675.30	318.17
675.64	317.22
675.97	316.20
676.31	315.25
676.65	314.34
676.99	313.50
677.33	312.60
677.67	311.75
678.01	310.74
678.34	309.73
678.68	308.83
679.02	307.94
679.36	307.08
679.70	306.07
680.04	305.24
680.37	304.36
680.71	303.44
681.05	302.67
681.39	301.82
681.73	300.89
682.06	300.03
682.40	299.26
682.74	298.45
683.08	297.76
683.42	296.86
683.75	296.10
684.09	295.17
684.43	294.39
684.77	293.43
685.10	292.65
685.44	291.81
685.78	290.92
686.12	290.11
686.45	289.36
686.79	288.58
687.13	287.88
687.46	287.15
687.80	286.50
688.14	285.69
688.48	284.87
688.81	284.14
689.15	283.49
689.49	282.76
689.82	282.01
690.16	281.13
690.50	280.33
690.83	279.56
691.17	278.76
691.51	278.00
691.84	277.50
692.18	276.79
692.52	276.13
692.85	275.54
693.19	275.00
693.52	274.32
693.86	273.67
694.20	273.03
694.53	272.37
694.87	271.67
695.21	271.05
695.54	270.47
695.88	269.79
696.21	269.05
696.55	268.45
696.88	267.81
697.22	267.17
697.56	266.70
697.89	266.09
698.23	265.54
698.56	264.95
698.90	264.32
699.23	263.65
699.57	263.19
699.90	262.57
700.24	261.89
700.58	261.40
700.91	260.97
701.25	260.66
701.58	260.21
701.92	259.78
702.25	259.17
702.59	258.60
702.92	258.18
703.26	257.74
703.59	257.27
703.93	257.12
704.26	256.70
704.60	256.15
704.93	255.72
705.26	255.27
705.60	254.90
705.93	254.41
706.27	254.13
706.60	253.76
706.94	253.45
707.27	253.04
707.61	252.55
707.94	252.02
708.27	251.29
708.61	250.79
708.94	250.30
709.28	250.03
709.61	249.67
709.94	249.30
710.28	248.91
710.61	248.49
710.95	247.85
711.28	247.70
711.61	247.39
711.95	247.09
712.28	246.65
712.61	246.29
712.95	246.05
713.28	245.78
713.61	245.37
713.95	245.00
714.28	244.67
714.61	244.31
714.95	244.00
715.28	243.63
715.61	243.29
715.95	242.88
716.28	242.37
716.61	242.07
716.95	241.69
717.28	241.42
717.61	241.08
717.94	240.79
718.28	240.27
718.61	239.97
718.94	239.59
719.27	239.34
719.61	239.06
719.94	238.75
720.27	238.21
720.60	237.86
720.94	237.57
721.27	237.27
721.60	237.11
721.93	236.85
722.27	236.68
722.60	236.47
722.93	236.30
723.26	236.17
723.59	235.88
723.93	235.69
724.26	235.38
724.59	235.15
724.92	234.91
725.25	234.75
725.59	234.54
725.92	234.40
726.25	234.15
726.58	233.88
726.91	233.61
727.24	233.60
727.57	233.37
727.91	233.06
728.24	232.88
728.57	232.60
728.90	232.40
729.23	232.11
729.56	232.05
729.89	231.85
730.22	231.59
730.55	231.34
730.89	231.14
731.22	230.91
731.55	230.70
731.88	230.48
732.21	230.24
732.54	229.95
732.87	229.65
733.20	229.51
733.53	229.35
733.86	229.24
734.19	228.95
734.52	228.82
734.85	228.89
735.18	228.64
735.51	228.59
735.84	228.46
736.17	228.37
736.50	228.05
736.83	228.24
737.16	228.02
737.49	227.91
737.82	227.68
738.15	227.56
738.48	227.35
738.81	227.15
739.14	226.97
739.47	226.76
739.80	226.66
740.13	226.50
740.46	226.35
740.79	226.05
741.12	225.88
741.45	225.73
741.78	225.35
742.11	225.27
742.44	225.06
742.77	224.90
743.10	224.74
743.43	224.58
743.75	224.03
744.08	224.40
744.41	224.26
744.74	224.12
745.07	223.94
745.40	223.91
745.73	223.97
746.06	223.83
746.39	223.81
746.71	223.65
747.04	223.48
747.37	223.37
747.70	223.39
748.03	223.27
748.36	223.23
748.68	223.09
749.01	222.95
749.34	222.86
749.67	222.78
750.00	222.61
750.33	222.72
750.65	222.67
750.98	222.16
751.31	222.05
751.64	221.93
751.97	221.97
752.29	221.85
752.62	221.56
752.95	221.45
753.28	221.24
753.60	221.14
753.93	221.16
754.26	221.05
754.59	220.85
754.91	220.73
755.24	220.64
755.57	220.61
755.90	220.53
756.22	220.32
756.55	220.17
756.88	220.05
757.20	219.77
757.53	219.63
757.86	219.52
758.19	219.45
758.51	219.40
758.84	219.20
759.17	219.05
759.49	218.99
759.82	219.15
760.15	219.15
760.47	219.03
760.80	218.80
761.13	218.74
761.45	218.69
761.78	218.63
762.11	218.51
762.43	218.45
762.76	218.31
763.08	218.34
763.41	218.30
763.74	218.27
764.06	218.16
764.39	218.05
764.71	217.98
765.04	217.87
765.37	217.78
765.69	217.72
766.02	217.67
766.34	217.56
766.67	217.30
767.00	217.25
767.32	217.41
767.65	217.57
767.97	217.48
768.30	217.40
768.62	217.34
768.95	217.23
769.27	217.15
769.60	217.19
769.92	217.06
770.25	216.90
770.57	216.81
770.90	216.76
771.22	216.73
771.55	216.70
771.87	216.65
772.20	216.55
772.52	216.79
772.85	217.18
773.17	217.12
773.50	217.05
773.82	217.02
774.15	216.78
774.47	216.40
774.80	216.37
775.12	216.24
775.45	216.21
775.77	216.16
776.09	216.14
776.42	216.11
776.74	216.14
777.07	216.10
777.39	216.01
777.72	215.91
778.04	215.86
778.36	215.74
778.69	215.65
779.01	215.73
779.33	215.36
779.66	214.84
779.98	214.80
780.31	214.73
780.63	214.84
780.95	214.87
781.28	214.94
781.60	214.85
781.92	214.84
782.25	214.80
782.57	214.69
782.89	214.55
783.22	214.46
783.54	214.29
783.86	214.31
784.19	214.31
784.51	214.44
784.83	214.39
785.16	214.35
785.48	214.30
785.80	214.18
786.12	214.16
786.45	214.17
786.77	214.17
787.09	214.09
787.42	213.93
787.74	213.90
788.06	213.84
788.38	213.75
788.71	213.75
789.03	213.71
789.35	213.75
789.67	213.68
789.99	213.65
790.32	213.67
790.64	213.74
790.96	213.94
791.28	213.72
791.61	213.66
791.93	213.64
792.25	213.68
792.57	213.94
792.89	213.82
793.21	213.79
793.54	213.76
793.86	213.73
794.18	213.71
