SpectraSuite Data File
++++++++++++++++++++++++++++++++++++
Date: Mon Feb 25 17:09:03 EST 2013
User: group
Dark Spectrum Present: No
Reference Spectrum Present: No
Number of Sampled Component Spectra: 1
Spectrometers: USB2E7196
Integration Time (usec): 104000 (USB2E7196)
Spectra Averaged: 20 (USB2E7196)
Boxcar Smoothing: 10 (USB2E7196)
Correct for Electrical Dark: No (USB2E7196)
Strobe/Lamp Enabled: No (USB2E7196)
Correct for Detector Non-linearity: No (USB2E7196)
Correct for Stray Light: No (USB2E7196)
Number of Pixels in Processed Spectrum: 2048
>>>>>Begin Processed Spectral Data<<<<<
339.09	0.00
339.48	197.95
339.86	200.55
340.24	201.25
340.63	202.90
341.01	209.45
341.39	206.55
341.78	208.20
342.16	210.30
342.54	209.45
342.93	198.63
343.31	208.67
343.69	209.28
344.07	209.72
344.46	210.23
344.84	210.64
345.22	210.65
345.60	210.79
345.99	210.95
346.37	211.00
346.75	211.03
347.13	211.06
347.52	211.01
347.90	211.13
348.28	211.11
348.66	211.15
349.05	210.96
349.43	210.97
349.81	210.99
350.19	211.03
350.57	211.02
350.96	211.01
351.34	211.02
351.72	211.08
352.10	211.11
352.48	211.08
352.87	211.05
353.25	211.09
353.63	211.16
354.01	211.18
354.39	211.18
354.77	211.33
355.15	211.38
355.54	211.35
355.92	211.26
356.30	211.34
356.68	211.57
357.06	211.67
357.44	211.67
357.82	211.67
358.20	211.71
358.58	211.85
358.97	211.91
359.35	212.12
359.73	212.20
360.11	212.27
360.49	212.37
360.87	212.40
361.25	212.52
361.63	212.68
362.01	212.66
362.39	212.70
362.77	212.66
363.15	212.73
363.53	212.80
363.91	212.83
364.29	212.83
364.67	212.49
365.05	212.50
365.43	212.54
365.81	212.61
366.19	212.71
366.57	212.74
366.95	212.77
367.33	212.53
367.71	212.49
368.09	212.55
368.47	212.50
368.85	212.45
369.23	212.49
369.61	212.34
369.99	212.49
370.37	212.51
370.75	212.66
371.13	212.60
371.51	212.54
371.89	212.56
372.27	212.57
372.65	212.58
373.03	212.51
373.41	212.47
373.78	212.38
374.16	212.23
374.54	212.14
374.92	212.07
375.30	212.12
375.68	212.05
376.06	211.98
376.44	211.89
376.82	211.89
377.19	211.81
377.57	211.80
377.95	211.64
378.33	211.57
378.71	211.31
379.09	211.26
379.47	211.33
379.84	211.28
380.22	211.20
380.60	211.09
380.98	211.03
381.36	211.05
381.73	211.01
382.11	211.03
382.49	210.99
382.87	210.90
383.25	210.81
383.62	211.18
384.00	211.10
384.38	211.13
384.76	211.21
385.13	211.28
385.51	211.17
385.89	211.07
386.27	211.08
386.64	211.16
387.02	211.15
387.40	211.00
387.78	210.94
388.15	210.92
388.53	211.02
388.91	211.05
389.29	210.98
389.66	211.03
390.04	210.97
390.42	211.05
390.79	211.05
391.17	211.05
391.55	210.70
391.92	210.69
392.30	210.72
392.68	210.59
393.05	210.61
393.43	210.67
393.81	210.69
394.18	210.59
394.56	210.53
394.94	210.59
395.31	210.62
395.69	210.80
396.06	210.82
396.44	210.75
396.82	210.73
397.19	210.82
397.57	210.82
397.95	210.88
398.32	210.74
398.70	210.79
399.07	210.91
399.45	210.88
399.82	210.87
400.20	210.85
400.58	210.86
400.95	210.78
401.33	210.81
401.70	211.04
402.08	211.12
402.45	211.17
402.83	211.27
403.20	211.29
403.58	211.22
403.95	211.30
404.33	211.44
404.71	211.47
405.08	211.75
405.46	211.73
405.83	211.89
406.21	211.99
406.58	212.12
406.96	212.21
407.33	212.37
407.70	212.53
408.08	212.89
408.45	213.16
408.83	213.32
409.20	213.53
409.58	213.49
409.95	213.70
410.33	213.92
410.70	214.02
411.08	214.31
411.45	214.54
411.82	214.77
412.20	215.10
412.57	215.61
412.95	215.65
413.32	216.10
413.69	216.41
414.07	216.84
414.44	217.23
414.82	217.61
415.19	218.08
415.56	218.64
415.94	219.04
416.31	219.63
416.68	220.31
417.06	221.02
417.43	221.87
417.81	222.64
418.18	223.45
418.55	224.31
418.93	225.20
419.30	226.17
419.67	227.15
420.04	228.14
420.42	229.16
420.79	230.62
421.16	231.86
421.54	233.28
421.91	234.56
422.28	235.96
422.66	237.49
423.03	239.19
423.40	240.63
423.77	242.24
424.15	243.85
424.52	245.57
424.89	247.50
425.26	249.21
425.64	250.96
426.01	252.81
426.38	254.83
426.75	256.93
427.13	259.03
427.50	261.26
427.87	263.51
428.24	265.79
428.61	267.78
428.99	270.28
429.36	272.74
429.73	275.32
430.10	277.91
430.47	280.51
430.85	282.93
431.22	285.91
431.59	289.10
431.96	291.97
432.33	295.11
432.70	298.33
433.08	301.99
433.45	305.50
433.82	308.97
434.19	312.84
434.56	316.72
434.93	320.32
435.30	323.88
435.68	327.77
436.05	331.70
436.42	335.65
436.79	339.22
437.16	343.16
437.53	347.34
437.90	351.34
438.27	355.49
438.64	359.73
439.01	363.54
439.38	366.77
439.75	370.19
440.13	374.07
440.50	377.50
440.87	380.42
441.24	383.39
441.61	386.62
441.98	388.92
442.35	391.65
442.72	394.56
443.09	397.62
443.46	399.40
443.83	400.65
444.20	401.74
444.57	403.22
444.94	403.91
445.31	404.61
445.68	405.77
446.05	406.06
446.42	405.72
446.79	405.39
447.16	404.98
447.53	404.74
447.90	403.28
448.27	401.79
448.64	399.84
449.01	398.49
449.37	396.07
449.74	393.67
450.11	390.95
450.48	387.63
450.85	384.06
451.22	381.23
451.59	378.44
451.96	375.74
452.33	372.15
452.70	368.94
453.07	365.18
453.43	360.89
453.80	357.08
454.17	353.46
454.54	349.95
454.91	346.30
455.28	342.64
455.65	339.23
456.02	336.34
456.38	333.53
456.75	330.05
457.12	327.07
457.49	324.15
457.86	321.05
458.23	318.72
458.59	316.07
458.96	313.42
459.33	310.95
459.70	308.53
460.07	306.63
460.43	304.34
460.80	302.20
461.17	300.45
461.54	298.64
461.91	296.84
462.27	295.00
462.64	293.38
463.01	291.69
463.38	290.17
463.74	288.11
464.11	286.53
464.48	285.20
464.85	283.74
465.21	282.83
465.58	281.68
465.95	280.26
466.32	279.10
466.68	277.95
467.05	276.89
467.42	275.82
467.78	274.63
468.15	273.68
468.52	272.92
468.88	271.78
469.25	270.84
469.62	270.10
469.98	269.33
470.35	268.58
470.72	267.86
471.08	266.89
471.45	266.28
471.82	265.74
472.18	264.97
472.55	264.45
472.92	263.59
473.28	262.98
473.65	262.43
474.02	261.94
474.38	261.53
474.75	261.18
475.11	260.76
475.48	260.44
475.85	260.03
476.21	259.67
476.58	259.41
476.94	259.10
477.31	258.84
477.67	258.63
478.04	258.44
478.41	258.32
478.77	258.61
479.14	258.42
479.50	258.30
479.87	258.34
480.23	258.31
480.60	258.34
480.96	258.32
481.33	258.52
481.69	258.55
482.06	258.60
482.42	258.64
482.79	258.70
483.15	258.91
483.52	259.30
483.88	259.49
484.25	259.70
484.61	259.88
484.98	260.18
485.34	260.63
485.71	261.10
486.07	261.48
486.44	261.62
486.80	262.02
487.17	262.47
487.53	262.98
487.90	263.58
488.26	264.32
488.62	265.15
488.99	265.62
489.35	266.34
489.72	267.13
490.08	267.99
490.44	268.86
490.81	269.72
491.17	270.50
491.54	271.46
491.90	272.54
492.26	273.70
492.63	274.72
492.99	275.71
493.36	276.82
493.72	278.09
494.08	279.25
494.45	280.73
494.81	282.20
495.17	283.59
495.54	285.14
495.90	286.68
496.26	288.07
496.63	289.80
496.99	291.48
497.35	293.24
497.72	295.01
498.08	296.80
498.44	298.63
498.80	300.70
499.17	302.78
499.53	304.83
499.89	307.10
500.26	309.34
500.62	311.63
500.98	314.07
501.34	316.39
501.71	318.95
502.07	321.35
502.43	323.80
502.79	326.34
503.16	328.87
503.52	331.48
503.88	334.16
504.24	336.96
504.60	339.90
504.97	342.81
505.33	345.63
505.69	348.90
506.05	352.09
506.41	355.18
506.78	358.20
507.14	361.40
507.50	364.56
507.86	367.84
508.22	371.19
508.59	374.43
508.95	378.01
509.31	381.64
509.67	385.18
510.03	388.93
510.39	392.74
510.75	396.56
511.12	400.31
511.48	404.30
511.84	408.15
512.20	412.00
512.56	416.00
512.92	420.19
513.28	424.26
513.64	428.36
514.00	432.54
514.37	436.82
514.73	441.23
515.09	445.52
515.45	449.94
515.81	454.30
516.17	458.72
516.53	463.11
516.89	467.39
517.25	471.93
517.61	476.42
517.97	480.80
518.33	485.42
518.69	490.08
519.05	494.77
519.41	499.60
519.77	504.67
520.13	509.43
520.49	514.15
520.85	518.87
521.21	523.69
521.57	528.52
521.93	533.33
522.29	538.31
522.65	543.28
523.01	548.25
523.37	553.23
523.73	558.42
524.09	563.41
524.45	568.64
524.81	573.77
525.17	578.98
525.53	584.34
525.89	589.33
526.25	594.50
526.61	599.53
526.97	604.51
527.33	609.39
527.68	614.90
528.04	620.09
528.40	625.15
528.76	630.27
529.12	635.60
529.48	641.08
529.84	646.06
530.20	651.32
530.56	656.68
530.91	662.20
531.27	667.46
531.63	672.77
531.99	677.84
532.35	683.09
532.71	688.00
533.07	693.34
533.42	698.90
533.78	704.18
534.14	709.47
534.50	714.44
534.86	719.94
535.21	724.36
535.57	729.59
535.93	734.54
536.29	739.63
536.65	744.57
537.00	749.27
537.36	754.06
537.72	758.76
538.08	763.19
538.44	767.67
538.79	772.37
539.15	776.91
539.51	781.68
539.87	786.27
540.22	790.98
540.58	795.38
540.94	799.70
541.29	803.77
541.65	807.96
542.01	812.20
542.37	816.19
542.72	820.62
543.08	824.49
543.44	828.69
543.79	832.29
544.15	835.98
544.51	839.84
544.87	843.75
545.22	847.52
545.58	851.23
545.94	854.55
546.29	857.62
546.65	860.75
547.01	863.70
547.36	866.86
547.72	869.92
548.07	872.82
548.43	875.23
548.79	878.02
549.14	880.67
549.50	883.37
549.86	885.65
550.21	887.84
550.57	890.19
550.92	892.36
551.28	894.57
551.64	896.65
551.99	898.90
552.35	900.65
552.70	902.40
553.06	904.39
553.41	906.43
553.77	908.33
554.13	910.15
554.48	911.90
554.84	913.50
555.19	915.08
555.55	916.46
555.90	917.98
556.26	919.35
556.61	920.38
556.97	921.51
557.32	922.68
557.68	923.70
558.03	924.64
558.39	925.63
558.74	926.92
559.10	928.06
559.45	928.95
559.81	930.16
560.16	931.09
560.52	931.95
560.87	932.55
561.23	933.10
561.58	934.01
561.94	934.63
562.29	934.96
562.64	935.43
563.00	936.01
563.35	936.76
563.71	937.60
564.06	938.42
564.42	938.99
564.77	939.51
565.12	940.27
565.48	941.05
565.83	941.31
566.19	941.77
566.54	941.80
566.89	941.68
567.25	941.89
567.60	941.84
567.96	942.05
568.31	942.45
568.66	942.56
569.02	942.10
569.37	941.50
569.72	941.13
570.08	940.71
570.43	940.01
570.78	939.09
571.14	938.10
571.49	937.14
571.84	936.49
572.20	935.45
572.55	934.65
572.90	933.19
573.26	932.25
573.61	930.95
573.96	929.81
574.31	928.54
574.67	927.06
575.02	925.59
575.37	923.67
575.72	921.77
576.08	920.12
576.43	918.58
576.78	917.37
577.13	916.12
577.49	914.58
577.84	913.17
578.19	912.04
578.54	910.85
578.90	909.63
579.25	908.18
579.60	906.45
579.95	904.44
580.30	903.11
580.66	901.45
581.01	899.80
581.36	898.13
581.71	896.48
582.06	894.93
582.42	893.35
582.77	891.62
583.12	889.92
583.47	888.51
583.82	887.09
584.17	885.41
584.53	883.88
584.88	882.22
585.23	880.56
585.58	878.96
585.93	877.09
586.28	875.33
586.63	873.53
586.98	872.14
587.34	870.94
587.69	869.20
588.04	867.58
588.39	865.94
588.74	864.08
589.09	862.69
589.44	860.69
589.79	859.11
590.14	857.57
590.49	855.95
590.84	854.01
591.19	852.31
591.54	850.60
591.89	848.44
592.25	846.74
592.60	844.59
592.95	842.30
593.30	839.94
593.65	837.67
594.00	835.47
594.35	834.33
594.70	832.11
595.05	830.20
595.40	828.18
595.75	825.99
596.10	824.06
596.45	822.09
596.80	820.52
597.15	818.80
597.50	816.83
597.85	814.97
598.19	813.13
598.54	811.09
598.89	809.02
599.24	807.30
599.59	805.41
599.94	803.92
600.29	802.20
600.64	800.60
600.99	798.68
601.34	797.09
601.69	794.25
602.04	792.12
602.39	790.20
602.74	788.38
603.08	786.77
603.43	785.34
603.78	783.35
604.13	781.30
604.48	779.41
604.83	777.90
605.18	776.28
605.53	774.45
605.87	772.65
606.22	771.18
606.57	769.30
606.92	767.10
607.27	765.07
607.62	763.06
607.96	761.33
608.31	759.88
608.66	757.82
609.01	755.71
609.36	753.95
609.70	751.97
610.05	749.74
610.40	747.64
610.75	745.18
611.10	743.10
611.44	740.61
611.79	738.09
612.14	735.37
612.49	732.58
612.83	729.98
613.18	727.39
613.53	724.50
613.88	721.67
614.22	719.33
614.57	716.75
614.92	714.27
615.27	711.62
615.61	708.75
615.96	706.29
616.31	704.11
616.65	701.66
617.00	698.97
617.35	696.47
617.70	693.76
618.04	691.09
618.39	688.09
618.74	685.57
619.08	682.73
619.43	680.15
619.78	677.65
620.12	675.15
620.47	672.75
620.82	670.28
621.16	667.68
621.51	665.18
621.85	662.41
622.20	659.71
622.55	657.00
622.89	654.41
623.24	651.68
623.59	648.76
623.93	646.06
624.28	643.51
624.62	641.07
624.97	638.55
625.32	636.04
625.66	633.80
626.01	631.50
626.35	629.17
626.70	626.66
627.04	624.47
627.39	622.00
627.73	619.51
628.08	617.01
628.43	614.51
628.77	611.76
629.12	609.41
629.46	607.22
629.81	604.91
630.15	602.53
630.50	600.08
630.84	597.68
631.19	595.33
631.53	593.01
631.88	590.31
632.22	587.74
632.57	585.44
632.91	582.89
633.26	580.33
633.60	577.88
633.95	575.63
634.29	572.83
634.64	570.62
634.98	568.00
635.32	565.87
635.67	563.72
636.01	561.60
636.36	559.17
636.70	556.97
637.05	554.71
637.39	552.53
637.73	550.57
638.08	548.69
638.42	546.44
638.77	544.27
639.11	542.13
639.45	539.93
639.80	537.54
640.14	535.33
640.49	532.97
640.83	530.75
641.17	528.60
641.52	526.43
641.86	523.93
642.20	521.87
642.55	519.30
642.89	516.95
643.23	514.56
643.58	512.51
643.92	509.91
644.26	507.56
644.61	505.26
644.95	502.72
645.29	500.22
645.64	497.92
645.98	495.60
646.32	493.55
646.66	491.36
647.01	489.11
647.35	487.00
647.69	484.83
648.04	482.76
648.38	480.46
648.72	478.26
649.06	476.16
649.41	473.92
649.75	471.80
650.09	469.90
650.43	467.91
650.78	465.67
651.12	463.61
651.46	461.52
651.80	459.45
652.14	457.38
652.49	455.31
652.83	453.17
653.17	451.06
653.51	448.74
653.85	446.74
654.20	444.79
654.54	442.73
654.88	440.66
655.22	438.65
655.56	436.51
655.90	434.50
656.25	432.38
656.59	430.32
656.93	428.34
657.27	426.22
657.61	424.13
657.95	422.26
658.29	420.39
658.64	418.42
658.98	416.43
659.32	414.44
659.66	412.51
660.00	410.60
660.34	408.55
660.68	406.60
661.02	404.66
661.36	402.88
661.70	400.99
662.05	399.26
662.39	397.56
662.73	395.98
663.07	394.48
663.41	392.98
663.75	391.24
664.09	389.54
664.43	387.75
664.77	386.14
665.11	384.35
665.45	382.65
665.79	381.09
666.13	379.47
666.47	377.89
666.81	376.25
667.15	374.53
667.49	373.17
667.83	371.93
668.17	370.27
668.51	368.77
668.85	367.40
669.19	366.09
669.53	364.37
669.87	362.79
670.21	361.17
670.55	359.55
670.89	358.40
671.23	357.15
671.57	355.83
671.91	354.39
672.25	353.18
672.58	351.93
672.92	350.55
673.26	349.26
673.60	348.05
673.94	346.71
674.28	345.56
674.62	344.28
674.96	342.92
675.30	341.83
675.64	340.56
675.97	339.30
676.31	338.00
676.65	337.08
676.99	336.15
677.33	335.01
677.67	333.89
678.01	332.46
678.34	331.23
678.68	330.20
679.02	329.00
679.36	327.73
679.70	326.52
680.04	325.37
680.37	324.30
680.71	323.15
681.05	322.20
681.39	321.04
681.73	319.98
682.06	318.96
682.40	317.91
682.74	316.97
683.08	316.00
683.42	314.90
683.75	313.78
684.09	312.55
684.43	311.49
684.77	310.44
685.10	309.47
685.44	308.47
685.78	307.40
686.12	306.54
686.45	305.68
686.79	304.66
687.13	303.81
687.46	302.78
687.80	301.90
688.14	300.93
688.48	300.15
688.81	299.20
689.15	298.28
689.49	297.30
689.82	296.32
690.16	295.28
690.50	294.35
690.83	293.33
691.17	292.41
691.51	291.52
691.84	290.78
692.18	290.00
692.52	289.19
692.85	288.43
693.19	287.81
693.52	286.99
693.86	286.17
694.20	285.37
694.53	284.57
694.87	283.62
695.21	282.73
695.54	282.03
695.88	281.19
696.21	280.36
696.55	279.75
696.88	278.95
697.22	278.23
697.56	277.60
697.89	276.91
698.23	276.28
698.56	275.57
698.90	274.92
699.23	274.15
699.57	273.40
699.90	272.67
700.24	271.70
700.58	271.03
700.91	270.47
701.25	269.95
701.58	269.46
701.92	268.95
702.25	268.38
702.59	267.60
702.92	267.03
703.26	266.45
703.59	265.77
703.93	265.54
704.26	264.98
704.60	264.40
704.93	263.80
705.26	263.11
705.60	262.61
705.93	261.92
706.27	261.51
706.60	261.12
706.94	260.77
707.27	260.22
707.61	259.70
707.94	259.14
708.27	258.42
708.61	257.72
708.94	257.29
709.28	256.85
709.61	256.29
709.94	255.86
710.28	255.37
710.61	254.96
710.95	254.10
711.28	253.83
711.61	253.32
711.95	253.05
712.28	252.65
712.61	252.22
712.95	251.94
713.28	251.57
713.61	250.99
713.95	250.43
714.28	250.06
714.61	249.62
714.95	249.22
715.28	248.81
715.61	248.47
715.95	248.05
716.28	247.58
716.61	247.35
716.95	246.91
717.28	246.60
717.61	246.13
717.94	245.89
718.28	245.35
718.61	244.99
718.94	244.56
719.27	244.25
719.61	243.87
719.94	243.46
720.27	242.95
720.60	242.69
720.94	242.33
721.27	242.05
721.60	241.77
721.93	241.42
722.27	241.18
722.60	240.95
722.93	240.62
723.26	240.38
723.59	240.02
723.93	239.76
724.26	239.48
724.59	239.12
724.92	238.80
725.25	238.57
725.59	238.25
725.92	238.06
726.25	237.77
726.58	237.57
726.91	237.26
727.24	237.06
727.57	236.73
727.91	236.45
728.24	236.14
728.57	235.85
728.90	235.66
729.23	235.36
729.56	235.31
729.89	235.01
730.22	234.77
730.55	234.49
730.89	234.26
731.22	233.98
731.55	233.79
731.88	233.51
732.21	233.20
732.54	232.92
732.87	232.65
733.20	232.45
733.53	232.16
733.86	232.00
734.19	231.69
734.52	231.63
734.85	231.72
735.18	231.57
735.51	231.48
735.84	231.34
736.17	231.19
736.50	230.76
736.83	231.00
737.16	230.81
737.49	230.64
737.82	230.42
738.15	230.22
738.48	230.04
738.81	229.89
739.14	229.77
739.47	229.60
739.80	229.33
740.13	229.15
740.46	228.85
740.79	228.53
741.12	228.41
741.45	228.10
741.78	227.66
742.11	227.54
742.44	227.29
742.77	227.10
743.10	226.92
743.43	226.77
743.75	226.15
744.08	226.38
744.41	226.11
744.74	225.99
745.07	225.84
745.40	225.71
745.73	225.73
746.06	225.53
746.39	225.45
746.71	225.23
747.04	225.06
747.37	225.00
747.70	224.99
748.03	224.88
748.36	224.86
748.68	224.69
749.01	224.43
749.34	224.27
749.67	224.16
750.00	224.09
750.33	224.16
750.65	224.16
750.98	223.52
751.31	223.43
751.64	223.25
751.97	223.28
752.29	223.16
752.62	222.80
752.95	222.54
753.28	222.38
753.60	222.36
753.93	222.25
754.26	222.10
754.59	221.89
754.91	221.75
755.24	221.56
755.57	221.47
755.90	221.40
756.22	221.25
756.55	221.10
756.88	220.85
757.20	220.50
757.53	220.25
757.86	220.27
758.19	220.20
758.51	220.08
758.84	219.80
759.17	219.65
759.49	219.60
759.82	219.78
760.15	219.75
760.47	219.56
760.80	219.43
761.13	219.42
761.45	219.35
761.78	219.20
762.11	219.08
762.43	218.98
762.76	218.84
763.08	218.80
763.41	218.71
763.74	218.61
764.06	218.55
764.39	218.53
764.71	218.40
765.04	218.33
765.37	218.22
765.69	218.09
766.02	218.00
766.34	217.92
766.67	217.75
767.00	217.74
767.32	217.90
767.65	218.05
767.97	217.89
768.30	217.77
768.62	217.70
768.95	217.61
769.27	217.52
769.60	217.60
769.92	217.50
770.25	217.37
770.57	217.35
770.90	217.32
771.22	217.21
771.55	217.12
771.87	217.10
772.20	217.05
772.52	217.35
772.85	217.65
773.17	217.60
773.50	217.44
773.82	217.34
774.15	217.20
774.47	216.90
774.80	216.88
775.12	216.87
775.45	216.88
775.77	216.85
776.09	216.88
776.42	216.85
776.74	216.87
777.07	216.84
777.39	216.78
777.72	216.64
778.04	216.68
778.36	216.66
778.69	216.67
779.01	216.61
779.33	216.19
779.66	215.78
779.98	215.72
780.31	215.71
780.63	215.76
780.95	215.72
781.28	215.69
781.60	215.59
781.92	215.56
782.25	215.50
782.57	215.43
782.89	215.32
783.22	215.16
783.54	215.07
783.86	215.00
784.19	214.99
784.51	215.07
784.83	214.91
785.16	214.87
785.48	214.79
785.80	214.74
786.12	214.81
786.45	214.86
786.77	214.85
787.09	214.80
787.42	214.63
787.74	214.62
788.06	214.60
788.38	214.54
788.71	214.50
789.03	214.48
789.35	214.47
789.67	214.46
789.99	214.50
790.32	214.47
790.64	214.53
790.96	214.75
791.28	214.61
791.61	214.63
791.93	214.64
792.25	214.56
792.57	214.77
792.89	214.65
793.21	214.62
793.54	214.51
793.86	214.52
794.18	214.52
