SpectraSuite Data File
++++++++++++++++++++++++++++++++++++
Date: Mon Feb 25 17:03:06 EST 2013
User: group
Dark Spectrum Present: No
Reference Spectrum Present: No
Number of Sampled Component Spectra: 1
Spectrometers: USB2E7196
Integration Time (usec): 104000 (USB2E7196)
Spectra Averaged: 20 (USB2E7196)
Boxcar Smoothing: 10 (USB2E7196)
Correct for Electrical Dark: No (USB2E7196)
Strobe/Lamp Enabled: No (USB2E7196)
Correct for Detector Non-linearity: No (USB2E7196)
Correct for Stray Light: No (USB2E7196)
Number of Pixels in Processed Spectrum: 2048
>>>>>Begin Processed Spectral Data<<<<<
339.09	0.00
339.48	198.75
339.86	200.10
340.24	200.90
340.63	203.20
341.01	209.30
341.39	205.15
341.78	208.10
342.16	208.50
342.54	208.45
342.93	198.23
343.31	208.30
343.69	208.88
344.07	209.37
344.46	209.88
344.84	210.29
345.22	210.36
345.60	210.65
345.99	210.81
346.37	210.94
346.75	211.09
347.13	211.14
347.52	211.19
347.90	211.34
348.28	211.40
348.66	211.53
349.05	211.42
349.43	211.42
349.81	211.47
350.19	211.42
350.57	211.50
350.96	211.60
351.34	211.61
351.72	211.62
352.10	211.71
352.48	211.68
352.87	211.67
353.25	211.70
353.63	211.70
354.01	211.74
354.39	211.82
354.77	211.89
355.15	212.03
355.54	212.09
355.92	212.05
356.30	212.09
356.68	212.29
357.06	212.41
357.44	212.41
357.82	212.46
358.20	212.60
358.58	212.62
358.97	212.66
359.35	212.80
359.73	212.94
360.11	212.97
360.49	213.02
360.87	213.11
361.25	213.22
361.63	213.30
362.01	213.30
362.39	213.31
362.77	213.31
363.15	213.26
363.53	213.15
363.91	213.11
364.29	213.13
364.67	212.87
365.05	212.84
365.43	212.90
365.81	212.94
366.19	213.05
366.57	213.25
366.95	213.21
367.33	213.12
367.71	213.01
368.09	213.10
368.47	213.15
368.85	213.04
369.23	213.06
369.61	212.96
369.99	213.07
370.37	213.08
370.75	213.20
371.13	213.14
371.51	213.16
371.89	213.21
372.27	213.21
372.65	213.18
373.03	213.08
373.41	213.03
373.78	212.96
374.16	212.77
374.54	212.61
374.92	212.54
375.30	212.41
375.68	212.37
376.06	212.32
376.44	212.20
376.82	212.20
377.19	212.12
377.57	212.08
377.95	211.93
378.33	211.82
378.71	211.55
379.09	211.56
379.47	211.60
379.84	211.48
380.22	211.36
380.60	211.25
380.98	211.23
381.36	211.07
381.73	210.91
382.11	210.91
382.49	210.83
382.87	210.72
383.25	210.76
383.62	211.14
384.00	210.96
384.38	210.95
384.76	210.95
385.13	211.07
385.51	211.08
385.89	211.03
386.27	210.96
386.64	211.10
387.02	211.02
387.40	210.98
387.78	211.00
388.15	211.00
388.53	210.98
388.91	210.90
389.29	210.95
389.66	211.07
390.04	210.98
390.42	210.96
390.79	210.97
391.17	210.97
391.55	210.56
391.92	210.54
392.30	210.56
392.68	210.53
393.05	210.38
393.43	210.35
393.81	210.33
394.18	210.33
394.56	210.24
394.94	210.31
395.31	210.25
395.69	210.37
396.06	210.42
396.44	210.39
396.82	210.42
397.19	210.63
397.57	210.56
397.95	210.71
398.32	210.63
398.70	210.73
399.07	210.79
399.45	210.78
399.82	210.83
400.20	210.78
400.58	210.84
400.95	210.81
401.33	210.92
401.70	211.17
402.08	211.26
402.45	211.34
402.83	211.42
403.20	211.49
403.58	211.46
403.95	211.60
404.33	211.74
404.71	211.81
405.08	212.04
405.46	212.11
405.83	212.21
406.21	212.40
406.58	212.51
406.96	212.69
407.33	212.91
407.70	213.13
408.08	213.65
408.45	213.88
408.83	214.19
409.20	214.37
409.58	214.45
409.95	214.78
410.33	215.06
410.70	215.40
411.08	215.81
411.45	216.29
411.82	216.66
412.20	217.19
412.57	218.00
412.95	218.25
413.32	218.98
413.69	219.53
414.07	220.20
414.44	220.96
414.82	221.71
415.19	222.62
415.56	223.50
415.94	224.27
416.31	225.26
416.68	226.36
417.06	227.57
417.43	228.77
417.81	230.09
418.18	231.50
418.55	232.92
418.93	234.48
419.30	236.04
419.67	237.69
420.04	239.41
420.42	240.99
420.79	243.20
421.16	245.28
421.54	247.56
421.91	249.79
422.28	252.03
422.66	254.47
423.03	257.06
423.40	259.61
423.77	262.32
424.15	265.06
424.52	267.94
424.89	271.08
425.26	274.12
425.64	277.08
426.01	280.23
426.38	283.55
426.75	286.96
427.13	290.49
427.50	294.26
427.87	298.30
428.24	302.39
428.61	306.03
428.99	310.20
429.36	314.56
429.73	319.06
430.10	323.65
430.47	328.28
430.85	332.85
431.22	337.82
431.59	343.26
431.96	348.37
432.33	353.98
432.70	359.42
433.08	365.69
433.45	371.72
433.82	377.85
434.19	384.62
434.56	391.19
434.93	397.50
435.30	403.81
435.68	410.61
436.05	417.51
436.42	424.62
436.79	430.97
437.16	437.83
437.53	444.98
437.90	452.25
438.27	459.42
438.64	466.83
439.01	473.78
439.38	479.74
439.75	485.78
440.13	492.57
440.50	499.14
440.87	504.64
441.24	510.15
441.61	516.16
441.98	520.82
442.35	526.26
442.72	531.72
443.09	537.11
443.46	540.55
443.83	542.92
444.20	544.98
444.57	547.91
444.94	549.61
445.31	551.37
445.68	553.09
446.05	553.94
446.42	553.65
446.79	553.23
447.16	552.83
447.53	552.70
447.90	550.55
448.27	548.45
448.64	545.32
449.01	543.15
449.37	538.87
449.74	534.63
450.11	529.68
450.48	524.05
450.85	518.15
451.22	513.35
451.59	508.75
451.96	504.35
452.33	498.24
452.70	492.85
453.07	486.15
453.43	479.24
453.80	472.70
454.17	466.46
454.54	460.62
454.91	454.29
455.28	448.07
455.65	442.15
456.02	436.55
456.38	431.41
456.75	425.23
457.12	420.11
457.49	415.00
457.86	409.89
458.23	405.65
458.59	401.03
458.96	396.19
459.33	391.93
459.70	387.55
460.07	384.23
460.43	380.26
460.80	376.65
461.17	373.52
461.54	370.27
461.91	367.10
462.27	363.80
462.64	360.98
463.01	357.91
463.38	355.14
463.74	351.81
464.11	349.12
464.48	346.77
464.85	344.30
465.21	342.44
465.58	340.38
465.95	337.91
466.32	335.89
466.68	333.85
467.05	331.75
467.42	329.75
467.78	327.50
468.15	325.45
468.52	324.07
468.88	321.89
469.25	320.12
469.62	318.68
469.98	317.20
470.35	315.88
470.72	314.47
471.08	312.88
471.45	311.70
471.82	310.60
472.18	309.16
472.55	308.03
472.92	306.73
473.28	305.62
473.65	304.47
474.02	303.45
474.38	302.56
474.75	301.91
475.11	301.15
475.48	300.55
475.85	300.03
476.21	299.22
476.58	298.85
476.94	298.36
477.31	297.86
477.67	297.41
478.04	296.96
478.41	296.60
478.77	296.57
479.14	296.13
479.50	295.95
479.87	295.86
480.23	295.76
480.60	295.61
480.96	295.48
481.33	295.84
481.69	295.85
482.06	295.88
482.42	295.80
482.79	295.76
483.15	295.91
483.52	296.14
483.88	296.37
484.25	296.45
484.61	296.69
484.98	296.94
485.34	297.29
485.71	297.61
486.07	298.03
486.44	298.28
486.80	298.84
487.17	299.28
487.53	299.96
487.90	300.75
488.26	301.62
488.62	302.33
488.99	302.78
489.35	303.55
489.72	304.40
490.08	305.35
490.44	306.22
490.81	307.16
491.17	308.11
491.54	309.27
491.90	310.35
492.26	311.51
492.63	312.73
492.99	313.85
493.36	315.16
493.72	316.47
494.08	317.72
494.45	319.14
494.81	320.70
495.17	322.16
495.54	323.55
495.90	324.95
496.26	326.41
496.63	328.04
496.99	329.61
497.35	331.25
497.72	332.74
498.08	334.45
498.44	336.16
498.80	337.98
499.17	339.56
499.53	341.22
499.89	342.87
500.26	344.54
500.62	346.16
500.98	347.84
501.34	349.44
501.71	351.04
502.07	352.48
502.43	353.79
502.79	355.06
503.16	356.46
503.52	357.76
503.88	359.17
504.24	360.54
504.60	361.83
504.97	363.01
505.33	364.34
505.69	365.76
506.05	366.92
506.41	367.90
506.78	368.91
507.14	370.04
507.50	371.10
507.86	372.00
508.22	372.94
508.59	373.67
508.95	374.54
509.31	375.46
509.67	376.31
510.03	377.06
510.39	377.85
510.75	378.55
511.12	379.17
511.48	379.73
511.84	380.17
512.20	380.63
512.56	381.14
512.92	381.53
513.28	381.69
513.64	381.89
514.00	382.13
514.37	382.36
514.73	382.57
515.09	382.71
515.45	382.70
515.81	382.62
516.17	382.67
516.53	382.59
516.89	382.42
517.25	382.20
517.61	382.32
517.97	382.20
518.33	382.03
518.69	381.87
519.05	381.86
519.41	381.79
519.77	381.86
520.13	381.60
520.49	381.37
520.85	381.26
521.21	381.24
521.57	381.15
521.93	380.91
522.29	380.69
522.65	380.40
523.01	380.37
523.37	380.36
523.73	380.36
524.09	380.40
524.45	380.42
524.81	380.64
525.17	380.60
525.53	380.87
525.89	381.02
526.25	381.36
526.61	381.46
526.97	381.72
527.33	381.92
527.68	382.75
528.04	383.25
528.40	383.68
528.76	384.24
529.12	384.87
529.48	385.84
529.84	386.55
530.20	387.56
530.56	388.48
530.91	389.56
531.27	390.55
531.63	391.55
531.99	392.66
532.35	393.75
532.71	394.95
533.07	396.10
533.42	397.79
533.78	398.99
534.14	400.46
534.50	401.88
534.86	403.57
535.21	404.79
535.57	406.47
535.93	408.06
536.29	409.91
536.65	411.63
537.00	413.20
537.36	414.96
537.72	416.72
538.08	418.54
538.44	420.28
538.79	422.24
539.15	424.17
539.51	426.29
539.87	428.38
540.22	430.55
540.58	432.88
540.94	434.78
541.29	437.14
541.65	439.30
542.01	441.70
542.37	443.92
542.72	446.21
543.08	448.61
543.44	451.27
543.79	453.27
544.15	455.84
544.51	458.57
544.87	461.33
545.22	463.93
545.58	466.65
545.94	469.29
546.29	471.92
546.65	474.67
547.01	477.18
547.36	479.93
547.72	482.51
548.07	485.09
548.43	487.70
548.79	490.24
549.14	492.91
549.50	495.46
549.86	497.91
550.21	500.82
550.57	503.62
550.92	506.17
551.28	509.06
551.64	511.52
551.99	514.18
552.35	516.77
552.70	519.31
553.06	521.94
553.41	524.62
553.77	527.32
554.13	529.95
554.48	532.90
554.84	535.64
555.19	538.42
555.55	541.36
555.90	543.96
556.26	546.63
556.61	549.15
556.97	551.51
557.32	554.10
557.68	556.17
558.03	558.49
558.39	560.83
558.74	563.14
559.10	565.55
559.45	567.78
559.81	570.32
560.16	572.55
560.52	574.81
560.87	577.32
561.23	579.45
561.58	581.89
561.94	583.84
562.29	585.79
562.64	587.91
563.00	589.67
563.35	591.88
563.71	594.22
564.06	596.46
564.42	598.76
564.77	600.89
565.12	603.38
565.48	605.64
565.83	607.72
566.19	609.82
566.54	611.73
566.89	613.68
567.25	615.54
567.60	617.69
567.96	619.82
568.31	621.65
568.66	623.44
569.02	624.66
569.37	626.04
569.72	627.64
570.08	629.05
570.43	630.52
570.78	631.67
571.14	632.70
571.49	633.76
571.84	634.86
572.20	635.96
572.55	636.76
572.90	637.32
573.26	638.00
573.61	638.73
573.96	639.49
574.31	640.05
574.67	640.35
575.02	640.52
575.37	640.60
575.72	640.69
576.08	640.98
576.43	641.31
576.78	641.81
577.13	642.05
577.49	642.24
577.84	642.48
578.19	642.87
578.54	643.24
578.90	643.67
579.25	643.87
579.60	643.95
579.95	643.86
580.30	644.14
580.66	644.35
581.01	644.33
581.36	644.18
581.71	644.20
582.06	644.30
582.42	644.47
582.77	644.40
583.12	644.42
583.47	644.47
583.82	644.64
584.17	644.45
584.53	644.47
584.88	644.32
585.23	644.24
585.58	643.98
585.93	643.57
586.28	643.08
586.63	642.85
586.98	642.39
587.34	642.43
587.69	641.90
588.04	641.56
588.39	641.34
588.74	641.00
589.09	640.71
589.44	640.13
589.79	639.65
590.14	639.28
590.49	638.85
590.84	638.37
591.19	638.07
591.54	637.57
591.89	636.81
592.25	636.41
592.60	635.40
592.95	634.59
593.30	633.71
593.65	632.99
594.00	632.04
594.35	632.35
594.70	631.34
595.05	630.54
595.40	629.76
595.75	628.74
596.10	627.99
596.45	627.06
596.80	626.48
597.15	625.72
597.50	624.64
597.85	623.84
598.19	622.90
598.54	621.74
598.89	620.89
599.24	620.24
599.59	619.17
599.94	618.64
600.29	617.82
600.64	617.16
600.99	616.21
601.34	615.44
601.69	613.62
602.04	612.63
602.39	611.75
602.74	610.92
603.08	610.13
603.43	609.54
603.78	608.72
604.13	607.78
604.48	606.97
604.83	606.49
605.18	605.71
605.53	604.60
605.87	603.75
606.22	602.98
606.57	601.88
606.92	600.82
607.27	599.77
607.62	598.91
607.96	597.95
608.31	597.08
608.66	596.02
609.01	594.90
609.36	593.82
609.70	592.59
610.05	591.31
610.40	590.16
610.75	588.66
611.10	587.40
611.44	585.81
611.79	584.33
612.14	582.72
612.49	581.05
612.83	579.74
613.18	578.04
613.53	576.50
613.88	574.84
614.22	573.39
614.57	571.78
614.92	570.26
615.27	568.61
615.61	567.08
615.96	565.55
616.31	564.07
616.65	562.89
617.00	561.51
617.35	559.89
617.70	558.16
618.04	556.54
618.39	554.74
618.74	553.35
619.08	551.59
619.43	550.03
619.78	548.41
620.12	546.90
620.47	545.42
620.82	543.62
621.16	541.92
621.51	540.31
621.85	538.61
622.20	536.79
622.55	535.10
622.89	533.28
623.24	531.54
623.59	529.64
623.93	527.70
624.28	526.10
624.62	524.72
624.97	523.34
625.32	521.67
625.66	520.25
626.01	518.47
626.35	516.87
626.70	515.20
627.04	513.65
627.39	511.92
627.73	510.24
628.08	508.77
628.43	507.26
628.77	505.58
629.12	504.00
629.46	502.52
629.81	500.80
630.15	499.15
630.50	497.48
630.84	495.84
631.19	494.19
631.53	492.52
631.88	490.57
632.22	488.64
632.57	487.26
632.91	485.46
633.26	484.06
633.60	482.40
633.95	480.86
634.29	479.13
634.64	477.64
634.98	476.21
635.32	474.60
635.67	473.26
636.01	471.75
636.36	470.15
636.70	468.61
637.05	467.22
637.39	465.71
637.73	464.36
638.08	463.15
638.42	461.70
638.77	460.30
639.11	458.83
639.45	457.47
639.80	455.63
640.14	454.03
640.49	452.40
640.83	450.91
641.17	449.31
641.52	447.81
641.86	446.17
642.20	444.65
642.55	442.90
642.89	441.08
643.23	439.45
643.58	438.16
643.92	436.42
644.26	434.87
644.61	433.54
644.95	431.76
645.29	430.09
645.64	428.59
645.98	426.82
646.32	425.44
646.66	423.75
647.01	422.26
647.35	420.95
647.69	419.28
648.04	417.91
648.38	416.40
648.72	414.90
649.06	413.34
649.41	411.71
649.75	410.21
650.09	408.73
650.43	407.25
650.78	405.54
651.12	403.98
651.46	402.38
651.80	400.87
652.14	399.56
652.49	398.03
652.83	396.54
653.17	395.04
653.51	393.40
653.85	392.01
654.20	390.62
654.54	388.94
654.88	387.48
655.22	386.02
655.56	384.38
655.90	382.90
656.25	381.48
656.59	379.99
656.93	378.69
657.27	377.41
657.61	375.88
657.95	374.46
658.29	373.05
658.64	371.88
658.98	370.30
659.32	368.80
659.66	367.44
660.00	365.96
660.34	364.60
660.68	363.14
661.02	361.75
661.36	360.44
661.70	359.30
662.05	358.05
662.39	356.80
662.73	355.74
663.07	354.60
663.41	353.31
663.75	352.03
664.09	350.75
664.43	349.40
664.77	348.29
665.11	347.04
665.45	345.90
665.79	344.54
666.13	343.38
666.47	342.16
666.81	341.02
667.15	339.89
667.49	338.75
667.83	337.89
668.17	336.71
668.51	335.52
668.85	334.41
669.19	333.47
669.53	332.24
669.87	331.09
670.21	329.93
670.55	328.97
670.89	328.11
671.23	327.13
671.57	326.21
671.91	325.15
672.25	324.18
672.58	323.34
672.92	322.38
673.26	321.49
673.60	320.66
673.94	319.66
674.28	318.74
674.62	317.87
674.96	316.83
675.30	315.91
675.64	314.93
675.97	314.01
676.31	313.01
676.65	312.18
676.99	311.53
677.33	310.58
677.67	309.70
678.01	308.70
678.34	307.74
678.68	306.82
679.02	305.91
679.36	304.98
679.70	304.02
680.04	303.14
680.37	302.22
680.71	301.35
681.05	300.64
681.39	299.82
681.73	298.96
682.06	298.13
682.40	297.47
682.74	296.81
683.08	296.10
683.42	295.27
683.75	294.41
684.09	293.36
684.43	292.64
684.77	291.71
685.10	290.97
685.44	290.17
685.78	289.37
686.12	288.66
686.45	287.93
686.79	287.12
687.13	286.42
687.46	285.72
687.80	285.11
688.14	284.30
688.48	283.59
688.81	282.88
689.15	282.23
689.49	281.49
689.82	280.74
690.16	279.83
690.50	279.06
690.83	278.35
691.17	277.60
691.51	276.86
691.84	276.25
692.18	275.55
692.52	274.92
692.85	274.37
693.19	273.94
693.52	273.32
693.86	272.66
694.20	272.07
694.53	271.40
694.87	270.70
695.21	270.09
695.54	269.45
695.88	268.78
696.21	268.03
696.55	267.42
696.88	266.80
697.22	266.25
697.56	265.85
697.89	265.27
698.23	264.76
698.56	264.20
698.90	263.71
699.23	263.10
699.57	262.60
699.90	261.90
700.24	261.18
700.58	260.66
700.91	260.28
701.25	259.97
701.58	259.50
701.92	258.95
702.25	258.43
702.59	257.90
702.92	257.49
703.26	257.03
703.59	256.57
703.93	256.46
704.26	256.04
704.60	255.50
704.93	254.99
705.26	254.51
705.60	254.08
705.93	253.57
706.27	253.27
706.60	252.85
706.94	252.62
707.27	252.08
707.61	251.68
707.94	251.15
708.27	250.48
708.61	250.03
708.94	249.69
709.28	249.30
709.61	248.87
709.94	248.46
710.28	248.10
710.61	247.73
710.95	246.98
711.28	246.80
711.61	246.45
711.95	246.29
712.28	245.90
712.61	245.55
712.95	245.34
713.28	245.08
713.61	244.70
713.95	244.18
714.28	243.94
714.61	243.60
714.95	243.35
715.28	243.10
715.61	242.86
715.95	242.41
716.28	242.10
716.61	241.92
716.95	241.53
717.28	241.26
717.61	240.95
717.94	240.68
718.28	240.15
718.61	239.79
718.94	239.39
719.27	239.13
719.61	238.94
719.94	238.59
720.27	238.05
720.60	237.74
720.94	237.50
721.27	237.35
721.60	237.10
721.93	236.75
722.27	236.58
722.60	236.37
722.93	236.21
723.26	236.00
723.59	235.62
723.93	235.39
724.26	235.15
724.59	234.90
724.92	234.66
725.25	234.55
725.59	234.32
725.92	234.16
726.25	233.95
726.58	233.70
726.91	233.54
727.24	233.47
727.57	233.23
727.91	232.96
728.24	232.69
728.57	232.39
728.90	232.22
729.23	231.82
729.56	231.76
729.89	231.61
730.22	231.28
730.55	231.09
730.89	230.98
731.22	230.77
731.55	230.54
731.88	230.37
732.21	230.15
732.54	230.00
732.87	229.76
733.20	229.60
733.53	229.44
733.86	229.21
734.19	229.01
734.52	228.87
734.85	228.97
735.18	228.84
735.51	228.74
735.84	228.55
736.17	228.47
736.50	228.05
736.83	228.20
737.16	228.08
737.49	227.89
737.82	227.62
738.15	227.47
738.48	227.30
738.81	227.18
739.14	226.92
739.47	226.67
739.80	226.59
740.13	226.44
740.46	226.18
740.79	225.96
741.12	225.76
741.45	225.65
741.78	225.31
742.11	225.22
742.44	225.03
742.77	224.97
743.10	224.75
743.43	224.63
743.75	224.06
744.08	224.40
744.41	224.30
744.74	224.16
745.07	224.01
745.40	223.96
745.73	223.89
746.06	223.85
746.39	223.78
746.71	223.56
747.04	223.47
747.37	223.35
747.70	223.35
748.03	223.26
748.36	223.15
748.68	223.08
749.01	222.81
749.34	222.70
749.67	222.60
750.00	222.58
750.33	222.73
750.65	222.74
750.98	222.21
751.31	222.12
751.64	222.05
751.97	222.11
752.29	221.96
752.62	221.73
752.95	221.62
753.28	221.39
753.60	221.31
753.93	221.21
754.26	221.14
754.59	220.91
754.91	220.84
755.24	220.73
755.57	220.58
755.90	220.57
756.22	220.54
756.55	220.41
756.88	220.18
757.20	219.86
757.53	219.63
757.86	219.50
758.19	219.42
758.51	219.38
758.84	219.08
759.17	218.98
759.49	218.95
759.82	218.98
760.15	219.04
760.47	218.91
760.80	218.78
761.13	218.77
761.45	218.73
761.78	218.55
762.11	218.44
762.43	218.33
762.76	218.21
763.08	218.17
763.41	218.06
763.74	218.12
764.06	218.04
764.39	217.97
764.71	217.94
765.04	217.82
765.37	217.70
765.69	217.69
766.02	217.65
766.34	217.54
766.67	217.31
767.00	217.20
767.32	217.35
767.65	217.48
767.97	217.35
768.30	217.20
768.62	217.18
768.95	217.16
769.27	217.10
769.60	217.01
769.92	216.86
770.25	216.85
770.57	216.63
770.90	216.55
771.22	216.48
771.55	216.39
771.87	216.36
772.20	216.28
772.52	216.45
772.85	216.77
773.17	216.73
773.50	216.69
773.82	216.68
774.15	216.47
774.47	216.20
774.80	216.07
775.12	216.10
775.45	216.03
775.77	215.91
776.09	215.96
776.42	215.92
776.74	215.93
777.07	215.81
777.39	215.82
777.72	215.81
778.04	215.81
778.36	215.83
778.69	215.79
779.01	215.74
779.33	215.45
779.66	215.01
779.98	214.95
780.31	214.96
780.63	215.02
780.95	215.03
781.28	214.98
781.60	214.98
781.92	214.91
782.25	214.95
782.57	214.85
782.89	214.65
783.22	214.65
783.54	214.58
783.86	214.64
784.19	214.61
784.51	214.63
784.83	214.56
785.16	214.45
785.48	214.44
785.80	214.43
786.12	214.40
786.45	214.38
786.77	214.39
787.09	214.37
787.42	214.27
787.74	214.24
788.06	214.25
788.38	214.20
788.71	214.17
789.03	214.15
789.35	214.29
789.67	214.28
789.99	214.25
790.32	214.23
790.64	214.17
790.96	214.39
791.28	214.23
791.61	214.22
791.93	214.24
792.25	214.23
792.57	214.50
792.89	214.48
793.21	214.44
793.54	214.39
793.86	214.28
794.18	214.22
