SpectraSuite Data File
++++++++++++++++++++++++++++++++++++
Date: Mon Feb 25 17:03:51 EST 2013
User: group
Dark Spectrum Present: No
Reference Spectrum Present: No
Number of Sampled Component Spectra: 1
Spectrometers: USB2E7196
Integration Time (usec): 104000 (USB2E7196)
Spectra Averaged: 20 (USB2E7196)
Boxcar Smoothing: 10 (USB2E7196)
Correct for Electrical Dark: No (USB2E7196)
Strobe/Lamp Enabled: No (USB2E7196)
Correct for Detector Non-linearity: No (USB2E7196)
Correct for Stray Light: No (USB2E7196)
Number of Pixels in Processed Spectrum: 2048
>>>>>Begin Processed Spectral Data<<<<<
339.09	0.00
339.48	197.50
339.86	199.80
340.24	201.50
340.63	203.35
341.01	208.50
341.39	205.20
341.78	206.15
342.16	208.25
342.54	207.50
342.93	197.92
343.31	207.97
343.69	208.57
344.07	209.00
344.46	209.45
344.84	209.71
345.22	209.81
345.60	210.04
345.99	210.23
346.37	210.37
346.75	210.54
347.13	210.55
347.52	210.62
347.90	210.83
348.28	210.87
348.66	210.94
349.05	210.80
349.43	210.84
349.81	210.88
350.19	210.90
350.57	210.93
350.96	211.05
351.34	211.08
351.72	211.15
352.10	211.33
352.48	211.42
352.87	211.55
353.25	211.58
353.63	211.66
354.01	211.80
354.39	211.86
354.77	211.91
355.15	212.13
355.54	212.12
355.92	211.98
356.30	212.07
356.68	212.34
357.06	212.49
357.44	212.48
357.82	212.56
358.20	212.66
358.58	212.77
358.97	212.87
359.35	213.02
359.73	213.20
360.11	213.08
360.49	213.11
360.87	213.19
361.25	213.33
361.63	213.45
362.01	213.50
362.39	213.51
362.77	213.63
363.15	213.59
363.53	213.70
363.91	213.77
364.29	213.71
364.67	213.37
365.05	213.36
365.43	213.43
365.81	213.37
366.19	213.50
366.57	213.61
366.95	213.61
367.33	213.44
367.71	213.38
368.09	213.56
368.47	213.58
368.85	213.56
369.23	213.58
369.61	213.45
369.99	213.44
370.37	213.46
370.75	213.43
371.13	213.35
371.51	213.34
371.89	213.39
372.27	213.46
372.65	213.38
373.03	213.31
373.41	213.21
373.78	213.20
374.16	212.95
374.54	212.77
374.92	212.67
375.30	212.65
375.68	212.51
376.06	212.46
376.44	212.28
376.82	212.17
377.19	212.12
377.57	212.10
377.95	211.96
378.33	211.92
378.71	211.78
379.09	211.74
379.47	211.66
379.84	211.57
380.22	211.47
380.60	211.46
380.98	211.47
381.36	211.44
381.73	211.34
382.11	211.38
382.49	211.37
382.87	211.30
383.25	211.25
383.62	211.60
384.00	211.46
384.38	211.45
384.76	211.50
385.13	211.53
385.51	211.47
385.89	211.34
386.27	211.27
386.64	211.30
387.02	211.25
387.40	211.19
387.78	211.12
388.15	211.04
388.53	210.96
388.91	210.85
389.29	210.73
389.66	210.72
390.04	210.63
390.42	210.68
390.79	210.59
391.17	210.57
391.55	210.17
391.92	210.11
392.30	210.13
392.68	210.05
393.05	209.96
393.43	209.97
393.81	210.08
394.18	209.96
394.56	209.93
394.94	209.92
395.31	209.86
395.69	209.90
396.06	210.00
396.44	210.07
396.82	210.07
397.19	210.34
397.57	210.37
397.95	210.47
398.32	210.36
398.70	210.51
399.07	210.65
399.45	210.65
399.82	210.66
400.20	210.72
400.58	210.74
400.95	210.65
401.33	210.70
401.70	210.98
402.08	211.08
402.45	211.09
402.83	211.31
403.20	211.45
403.58	211.54
403.95	211.74
404.33	211.81
404.71	211.94
405.08	212.21
405.46	212.34
405.83	212.45
406.21	212.58
406.58	212.63
406.96	212.70
407.33	212.90
407.70	213.15
408.08	213.62
408.45	213.86
408.83	214.20
409.20	214.49
409.58	214.53
409.95	214.87
410.33	215.16
410.70	215.32
411.08	215.68
411.45	216.05
411.82	216.30
412.20	216.76
412.57	217.33
412.95	217.48
413.32	218.01
413.69	218.47
414.07	219.05
414.44	219.77
414.82	220.50
415.19	221.28
415.56	222.11
415.94	222.75
416.31	223.68
416.68	224.57
417.06	225.62
417.43	226.65
417.81	227.82
418.18	229.07
418.55	230.42
418.93	231.75
419.30	233.14
419.67	234.69
420.04	236.17
420.42	237.73
420.79	239.83
421.16	241.74
421.54	243.92
421.91	246.04
422.28	248.08
422.66	250.29
423.03	252.67
423.40	254.92
423.77	257.35
424.15	259.89
424.52	262.57
424.89	265.42
425.26	268.16
425.64	270.77
426.01	273.68
426.38	276.64
426.75	279.83
427.13	283.06
427.50	286.38
427.87	289.93
428.24	293.45
428.61	296.68
428.99	300.45
429.36	304.24
429.73	308.17
430.10	312.22
430.47	316.37
430.85	320.44
431.22	324.93
431.59	329.88
431.96	334.43
432.33	339.54
432.70	344.45
433.08	350.25
433.45	355.67
433.82	361.17
434.19	367.24
434.56	373.21
434.93	378.97
435.30	384.81
435.68	391.23
436.05	397.62
436.42	403.94
436.79	409.77
437.16	416.02
437.53	422.56
437.90	429.05
438.27	435.50
438.64	442.16
439.01	448.53
439.38	453.96
439.75	459.41
440.13	465.52
440.50	471.31
440.87	476.06
441.24	481.17
441.61	486.70
441.98	490.94
442.35	495.67
442.72	500.54
443.09	505.26
443.46	508.31
443.83	510.44
444.20	512.39
444.57	514.98
444.94	516.61
445.31	518.20
445.68	519.91
446.05	520.89
446.42	520.72
446.79	520.24
447.16	519.77
447.53	519.66
447.90	517.76
448.27	515.84
448.64	512.97
449.01	510.99
449.37	507.07
449.74	503.31
450.11	498.90
450.48	493.73
450.85	488.48
451.22	483.95
451.59	479.75
451.96	475.67
452.33	470.13
452.70	465.01
453.07	458.92
453.43	452.62
453.80	446.61
454.17	440.90
454.54	435.48
454.91	429.73
455.28	424.03
455.65	418.62
456.02	413.70
456.38	409.22
456.75	403.59
457.12	398.96
457.49	394.30
457.86	389.57
458.23	385.89
458.59	381.70
458.96	377.49
459.33	373.62
459.70	369.80
460.07	366.80
460.43	363.36
460.80	360.21
461.17	357.24
461.54	354.15
461.91	351.37
462.27	348.59
462.64	346.13
463.01	343.30
463.38	340.79
463.74	337.78
464.11	335.41
464.48	333.43
464.85	331.16
465.21	329.48
465.58	327.73
465.95	325.40
466.32	323.50
466.68	321.59
467.05	319.73
467.42	317.77
467.78	315.80
468.15	314.00
468.52	312.60
468.88	310.88
469.25	309.30
469.62	308.00
469.98	306.54
470.35	305.25
470.72	304.03
471.08	302.52
471.45	301.41
471.82	300.32
472.18	298.92
472.55	297.96
472.92	296.85
473.28	295.81
473.65	294.83
474.02	293.96
474.38	293.24
474.75	292.60
475.11	291.92
475.48	291.39
475.85	290.86
476.21	290.22
476.58	289.78
476.94	289.40
477.31	288.89
477.67	288.49
478.04	288.02
478.41	287.73
478.77	287.84
479.14	287.46
479.50	287.25
479.87	287.12
480.23	287.04
480.60	286.86
480.96	286.75
481.33	286.90
481.69	286.89
482.06	286.85
482.42	286.88
482.79	286.95
483.15	286.94
483.52	287.12
483.88	287.23
484.25	287.42
484.61	287.59
484.98	287.82
485.34	288.28
485.71	288.78
486.07	289.20
486.44	289.30
486.80	289.68
487.17	290.01
487.53	290.70
487.90	291.17
488.26	291.91
488.62	292.62
488.99	293.27
489.35	293.93
489.72	294.67
490.08	295.36
490.44	296.17
490.81	297.04
491.17	297.83
491.54	298.78
491.90	299.70
492.26	300.69
492.63	301.69
492.99	302.61
493.36	303.74
493.72	304.89
494.08	306.07
494.45	307.34
494.81	308.72
495.17	309.94
495.54	311.30
495.90	312.55
496.26	313.87
496.63	315.20
496.99	316.58
497.35	317.97
497.72	319.40
498.08	320.73
498.44	322.18
498.80	323.68
499.17	325.15
499.53	326.51
499.89	328.08
500.26	329.55
500.62	330.89
500.98	332.26
501.34	333.64
501.71	335.06
502.07	336.47
502.43	337.71
502.79	338.99
503.16	340.24
503.52	341.50
503.88	342.66
504.24	343.85
504.60	345.13
504.97	346.37
505.33	347.53
505.69	348.82
506.05	349.78
506.41	350.79
506.78	351.74
507.14	352.73
507.50	353.60
507.86	354.52
508.22	355.50
508.59	356.25
508.95	357.07
509.31	357.97
509.67	358.63
510.03	359.38
510.39	359.97
510.75	360.66
511.12	361.14
511.48	361.69
511.84	362.19
512.20	362.54
512.56	363.08
512.92	363.55
513.28	363.90
513.64	364.38
514.00	364.75
514.37	365.11
514.73	365.48
515.09	365.73
515.45	365.92
515.81	365.93
516.17	366.08
516.53	366.17
516.89	365.98
517.25	366.15
517.61	366.28
517.97	366.41
518.33	366.43
518.69	366.65
519.05	366.76
519.41	366.89
519.77	367.22
520.13	367.21
520.49	367.28
520.85	367.34
521.21	367.49
521.57	367.65
521.93	367.68
522.29	367.82
522.65	367.91
523.01	368.12
523.37	368.44
523.73	368.77
524.09	369.12
524.45	369.57
524.81	369.92
525.17	370.32
525.53	370.79
525.89	371.45
526.25	371.96
526.61	372.48
526.97	373.04
527.33	373.64
527.68	374.58
528.04	375.27
528.40	376.00
528.76	376.94
529.12	377.91
529.48	379.04
529.84	379.94
530.20	381.09
530.56	382.25
530.91	383.57
531.27	384.87
531.63	386.10
531.99	387.45
532.35	388.84
532.71	390.26
533.07	391.74
533.42	393.46
533.78	394.97
534.14	396.64
534.50	398.15
534.86	399.83
535.21	401.34
535.57	403.21
535.93	405.07
536.29	406.94
536.65	408.84
537.00	410.62
537.36	412.55
537.72	414.50
538.08	416.65
538.44	418.67
538.79	420.76
539.15	422.93
539.51	425.15
539.87	427.44
540.22	429.85
540.58	432.20
540.94	434.31
541.29	436.83
541.65	439.14
542.01	441.80
542.37	444.18
542.72	446.72
543.08	449.18
543.44	451.83
543.79	454.11
544.15	456.71
544.51	459.62
544.87	462.43
545.22	465.16
545.58	467.71
545.94	470.38
546.29	473.00
546.65	475.70
547.01	478.19
547.36	481.01
547.72	483.64
548.07	486.36
548.43	488.93
548.79	491.35
549.14	493.94
549.50	496.74
549.86	499.42
550.21	502.10
550.57	504.90
550.92	507.52
551.28	510.41
551.64	512.98
551.99	515.59
552.35	518.16
552.70	520.83
553.06	523.44
553.41	525.92
553.77	528.64
554.13	531.25
554.48	533.97
554.84	536.45
555.19	538.82
555.55	541.59
555.90	544.09
556.26	546.71
556.61	549.23
556.97	551.34
557.32	553.61
557.68	555.77
558.03	557.99
558.39	560.12
558.74	562.35
559.10	564.64
559.45	566.90
559.81	569.22
560.16	571.27
560.52	573.44
560.87	575.75
561.23	577.65
561.58	580.04
561.94	582.02
562.29	583.90
562.64	586.04
563.00	587.79
563.35	589.96
563.71	591.98
564.06	593.91
564.42	595.99
564.77	598.19
565.12	600.36
565.48	602.49
565.83	604.52
566.19	606.51
566.54	608.10
566.89	609.74
567.25	611.62
567.60	613.72
567.96	615.69
568.31	617.50
568.66	619.22
569.02	620.35
569.37	621.80
569.72	623.28
570.08	624.68
570.43	625.87
570.78	626.99
571.14	627.96
571.49	629.04
571.84	629.95
572.20	630.68
572.55	631.43
572.90	632.01
573.26	632.65
573.61	633.16
573.96	633.90
574.31	634.18
574.67	634.38
575.02	634.42
575.37	634.42
575.72	634.54
576.08	634.81
576.43	635.06
576.78	635.39
577.13	635.60
577.49	635.73
577.84	635.97
578.19	636.06
578.54	636.53
578.90	636.85
579.25	637.02
579.60	637.16
579.95	637.12
580.30	637.10
580.66	637.27
581.01	637.08
581.36	637.09
581.71	637.21
582.06	637.35
582.42	637.38
582.77	637.32
583.12	637.13
583.47	637.07
583.82	637.18
584.17	637.08
584.53	637.20
584.88	637.03
585.23	636.75
585.58	636.74
585.93	636.25
586.28	636.03
586.63	635.84
586.98	635.63
587.34	635.73
587.69	635.55
588.04	635.26
588.39	635.17
588.74	634.81
589.09	634.75
589.44	634.26
589.79	634.02
590.14	633.71
590.49	633.27
590.84	632.65
591.19	632.19
591.54	631.57
591.89	630.51
592.25	630.17
592.60	629.55
592.95	628.65
593.30	627.98
593.65	627.05
594.00	626.16
594.35	626.22
594.70	625.15
595.05	624.42
595.40	623.62
595.75	622.57
596.10	621.92
596.45	620.97
596.80	620.27
597.15	619.38
597.50	618.54
597.85	617.95
598.19	617.14
598.54	616.31
598.89	615.65
599.24	615.20
599.59	614.18
599.94	613.54
600.29	612.74
600.64	611.90
600.99	611.11
601.34	610.38
601.69	608.67
602.04	607.73
602.39	606.85
602.74	605.94
603.08	605.48
603.43	604.80
603.78	603.80
604.13	602.85
604.48	602.04
604.83	601.41
605.18	600.51
605.53	599.59
605.87	598.54
606.22	597.74
606.57	596.83
606.92	595.98
607.27	594.92
607.62	593.98
607.96	593.20
608.31	592.34
608.66	591.36
609.01	590.22
609.36	589.24
609.70	587.94
610.05	586.73
610.40	585.45
610.75	584.06
611.10	583.11
611.44	581.67
611.79	580.18
612.14	578.53
612.49	577.09
612.83	575.80
613.18	574.32
613.53	572.69
613.88	571.06
614.22	569.49
614.57	567.81
614.92	566.23
615.27	564.59
615.61	562.99
615.96	561.64
616.31	560.22
616.65	558.91
617.00	557.64
617.35	556.13
617.70	554.49
618.04	552.74
618.39	550.85
618.74	549.46
619.08	547.85
619.43	546.28
619.78	544.78
620.12	543.25
620.47	541.79
620.82	539.98
621.16	538.30
621.51	536.72
621.85	535.24
622.20	533.60
622.55	531.85
622.89	530.10
623.24	528.35
623.59	526.63
623.93	524.87
624.28	523.11
624.62	521.86
624.97	520.34
625.32	518.70
625.66	517.18
626.01	515.54
626.35	514.06
626.70	512.54
627.04	510.89
627.39	509.08
627.73	507.53
628.08	506.17
628.43	504.51
628.77	502.88
629.12	501.21
629.46	499.75
629.81	498.25
630.15	496.73
630.50	495.10
630.84	493.52
631.19	491.88
631.53	490.46
631.88	488.46
632.22	486.79
632.57	485.42
632.91	483.90
633.26	482.29
633.60	480.66
633.95	479.12
634.29	477.50
634.64	476.15
634.98	474.39
635.32	472.87
635.67	471.49
636.01	469.92
636.36	468.33
636.70	466.99
637.05	465.52
637.39	464.07
637.73	462.69
638.08	461.46
638.42	460.20
638.77	458.65
639.11	457.18
639.45	455.59
639.80	453.89
640.14	452.14
640.49	450.55
640.83	448.87
641.17	447.33
641.52	445.76
641.86	444.09
642.20	442.83
642.55	441.15
642.89	439.60
643.23	438.05
643.58	436.79
643.92	435.03
644.26	433.50
644.61	432.03
644.95	430.43
645.29	428.67
645.64	426.94
645.98	425.24
646.32	423.85
646.66	422.28
647.01	420.79
647.35	419.50
647.69	418.05
648.04	416.74
648.38	415.20
648.72	413.72
649.06	412.30
649.41	410.65
649.75	409.21
650.09	407.73
650.43	406.20
650.78	404.55
651.12	403.08
651.46	401.42
651.80	399.89
652.14	398.33
652.49	396.96
652.83	395.52
653.17	394.00
653.51	392.37
653.85	391.04
654.20	389.64
654.54	388.09
654.88	386.54
655.22	385.01
655.56	383.39
655.90	381.91
656.25	380.38
656.59	378.95
656.93	377.54
657.27	376.12
657.61	374.62
657.95	373.20
658.29	371.73
658.64	370.48
658.98	368.99
659.32	367.45
659.66	365.99
660.00	364.47
660.34	363.13
660.68	361.67
661.02	360.22
661.36	358.88
661.70	357.55
662.05	356.40
662.39	355.28
662.73	354.25
663.07	353.18
663.41	351.98
663.75	350.63
664.09	349.32
664.43	348.08
664.77	346.98
665.11	345.78
665.45	344.67
665.79	343.47
666.13	342.41
666.47	341.34
666.81	340.21
667.15	339.13
667.49	338.14
667.83	337.24
668.17	336.21
668.51	335.10
668.85	334.12
669.19	333.08
669.53	331.79
669.87	330.63
670.21	329.42
670.55	328.35
670.89	327.59
671.23	326.70
671.57	325.68
671.91	324.67
672.25	323.70
672.58	322.78
672.92	321.79
673.26	320.77
673.60	319.90
673.94	318.91
674.28	317.93
674.62	316.93
674.96	315.89
675.30	315.04
675.64	314.12
675.97	313.13
676.31	312.16
676.65	311.35
676.99	310.59
677.33	309.74
677.67	308.93
678.01	307.83
678.34	306.83
678.68	306.05
679.02	305.12
679.36	304.22
679.70	303.36
680.04	302.49
680.37	301.61
680.71	300.79
681.05	300.01
681.39	299.31
681.73	298.43
682.06	297.71
682.40	296.80
682.74	296.14
683.08	295.59
683.42	294.63
683.75	293.93
684.09	292.96
684.43	292.12
684.77	291.21
685.10	290.54
685.44	289.73
685.78	288.87
686.12	288.22
686.45	287.43
686.79	286.59
687.13	285.91
687.46	285.21
687.80	284.57
688.14	283.75
688.48	283.02
688.81	282.37
689.15	281.67
689.49	280.98
689.82	280.23
690.16	279.31
690.50	278.72
690.83	277.97
691.17	277.31
691.51	276.65
691.84	276.05
692.18	275.30
692.52	274.68
692.85	274.16
693.19	273.60
693.52	272.97
693.86	272.25
694.20	271.62
694.53	271.06
694.87	270.31
695.21	269.70
695.54	269.08
695.88	268.47
696.21	267.77
696.55	267.14
696.88	266.54
697.22	265.94
697.56	265.45
697.89	264.79
698.23	264.21
698.56	263.61
698.90	263.09
699.23	262.52
699.57	261.95
699.90	261.34
700.24	260.71
700.58	260.26
700.91	259.89
701.25	259.64
701.58	259.19
701.92	258.74
702.25	258.31
702.59	257.77
702.92	257.24
703.26	256.77
703.59	256.27
703.93	256.01
704.26	255.56
704.60	255.07
704.93	254.56
705.26	254.12
705.60	253.78
705.93	253.33
706.27	252.94
706.60	252.70
706.94	252.38
707.27	251.82
707.61	251.39
707.94	250.95
708.27	250.29
708.61	249.77
708.94	249.38
709.28	248.96
709.61	248.52
709.94	248.18
710.28	247.77
710.61	247.47
710.95	246.75
711.28	246.60
711.61	246.22
711.95	246.07
712.28	245.71
712.61	245.35
712.95	245.12
713.28	244.94
713.61	244.49
713.95	244.07
714.28	243.92
714.61	243.51
714.95	243.07
715.28	242.71
715.61	242.36
715.95	242.05
716.28	241.68
716.61	241.41
716.95	241.04
717.28	240.80
717.61	240.51
717.94	240.30
718.28	239.76
718.61	239.45
718.94	239.09
719.27	238.76
719.61	238.42
719.94	238.00
720.27	237.55
720.60	237.21
720.94	236.88
721.27	236.58
721.60	236.39
721.93	236.30
722.27	236.17
722.60	236.01
722.93	235.72
723.26	235.53
723.59	235.24
723.93	235.06
724.26	234.79
724.59	234.58
724.92	234.35
725.25	234.25
725.59	234.03
725.92	233.80
726.25	233.61
726.58	233.50
726.91	233.35
727.24	233.18
727.57	233.05
727.91	232.74
728.24	232.60
728.57	232.33
728.90	232.06
729.23	231.69
729.56	231.57
729.89	231.40
730.22	231.10
730.55	230.91
730.89	230.74
731.22	230.58
731.55	230.38
731.88	230.12
732.21	229.89
732.54	229.67
732.87	229.51
733.20	229.35
733.53	229.16
733.86	229.04
734.19	228.87
734.52	228.73
734.85	228.91
735.18	228.65
735.51	228.62
735.84	228.41
736.17	228.37
736.50	228.04
736.83	228.30
737.16	228.20
737.49	228.02
737.82	227.87
738.15	227.68
738.48	227.45
738.81	227.31
739.14	227.13
739.47	226.98
739.80	226.80
740.13	226.66
740.46	226.46
740.79	226.21
741.12	226.03
741.45	225.78
741.78	225.43
742.11	225.41
742.44	225.19
742.77	225.16
743.10	225.05
743.43	224.95
743.75	224.35
744.08	224.70
744.41	224.58
744.74	224.39
745.07	224.24
745.40	224.22
745.73	224.23
746.06	224.09
746.39	223.99
746.71	223.78
747.04	223.63
747.37	223.48
747.70	223.40
748.03	223.31
748.36	223.32
748.68	223.16
749.01	222.92
749.34	222.78
749.67	222.67
750.00	222.54
750.33	222.68
750.65	222.65
750.98	222.12
751.31	222.05
751.64	221.92
751.97	222.05
752.29	221.93
752.62	221.65
752.95	221.56
753.28	221.38
753.60	221.31
753.93	221.25
754.26	221.15
754.59	221.02
754.91	220.93
755.24	220.74
755.57	220.63
755.90	220.49
756.22	220.40
756.55	220.26
756.88	220.12
757.20	219.79
757.53	219.60
757.86	219.48
758.19	219.38
758.51	219.38
758.84	219.05
759.17	218.82
759.49	218.82
759.82	218.80
760.15	218.83
760.47	218.80
760.80	218.71
761.13	218.74
761.45	218.60
761.78	218.51
762.11	218.42
762.43	218.34
762.76	218.26
763.08	218.22
763.41	218.09
763.74	218.04
764.06	217.90
764.39	217.84
764.71	217.76
765.04	217.61
765.37	217.45
765.69	217.36
766.02	217.45
766.34	217.35
766.67	217.15
767.00	217.08
767.32	217.15
767.65	217.25
767.97	217.12
768.30	217.06
768.62	216.94
768.95	216.79
769.27	216.74
769.60	216.79
769.92	216.70
770.25	216.65
770.57	216.53
770.90	216.44
771.22	216.35
771.55	216.32
771.87	216.33
772.20	216.30
772.52	216.49
772.85	216.80
773.17	216.72
773.50	216.74
773.82	216.62
774.15	216.38
774.47	216.09
774.80	216.03
775.12	215.97
775.45	215.93
775.77	216.03
776.09	215.97
776.42	215.90
776.74	215.96
777.07	215.87
777.39	215.78
777.72	215.83
778.04	215.86
778.36	215.77
778.69	215.70
779.01	215.70
779.33	215.36
779.66	214.83
779.98	214.76
780.31	214.68
780.63	214.82
780.95	214.83
781.28	214.83
781.60	214.72
781.92	214.69
782.25	214.69
782.57	214.58
782.89	214.53
783.22	214.42
783.54	214.34
783.86	214.39
784.19	214.40
784.51	214.40
784.83	214.31
785.16	214.27
785.48	214.27
785.80	214.18
786.12	214.20
786.45	214.21
786.77	214.21
787.09	214.14
787.42	213.90
787.74	213.84
788.06	213.78
788.38	213.80
788.71	213.74
789.03	213.70
789.35	213.69
789.67	213.70
789.99	213.75
790.32	213.70
790.64	213.66
790.96	213.96
791.28	213.79
791.61	213.75
791.93	213.75
792.25	213.71
792.57	213.97
792.89	213.89
793.21	213.92
793.54	213.90
793.86	213.93
794.18	213.98
