SpectraSuite Data File
++++++++++++++++++++++++++++++++++++
Date: Mon Feb 25 17:00:44 EST 2013
User: group
Dark Spectrum Present: No
Reference Spectrum Present: No
Number of Sampled Component Spectra: 1
Spectrometers: USB2E7196
Integration Time (usec): 104000 (USB2E7196)
Spectra Averaged: 20 (USB2E7196)
Boxcar Smoothing: 10 (USB2E7196)
Correct for Electrical Dark: No (USB2E7196)
Strobe/Lamp Enabled: No (USB2E7196)
Correct for Detector Non-linearity: No (USB2E7196)
Correct for Stray Light: No (USB2E7196)
Number of Pixels in Processed Spectrum: 2048
>>>>>Begin Processed Spectral Data<<<<<
339.09	0.00
339.48	198.25
339.86	200.45
340.24	201.80
340.63	202.95
341.01	210.10
341.39	204.85
341.78	207.90
342.16	209.65
342.54	209.30
342.93	198.51
343.31	208.52
343.69	209.09
344.07	209.50
344.46	209.93
344.84	210.32
345.22	210.33
345.60	210.59
345.99	210.76
346.37	210.83
346.75	210.85
347.13	210.91
347.52	210.97
347.90	211.08
348.28	211.08
348.66	211.10
349.05	211.07
349.43	211.06
349.81	211.11
350.19	211.11
350.57	211.10
350.96	211.06
351.34	211.14
351.72	211.21
352.10	211.29
352.48	211.29
352.87	211.26
353.25	211.29
353.63	211.32
354.01	211.34
354.39	211.34
354.77	211.44
355.15	211.58
355.54	211.57
355.92	211.53
356.30	211.65
356.68	211.92
357.06	211.90
357.44	211.95
357.82	212.01
358.20	212.05
358.58	212.12
358.97	212.22
359.35	212.36
359.73	212.40
360.11	212.46
360.49	212.57
360.87	212.66
361.25	212.77
361.63	212.95
362.01	213.01
362.39	213.08
362.77	213.13
363.15	213.10
363.53	213.13
363.91	213.18
364.29	213.12
364.67	212.81
365.05	212.89
365.43	212.90
365.81	212.95
366.19	213.20
366.57	213.40
366.95	213.38
367.33	213.30
367.71	213.28
368.09	213.32
368.47	213.27
368.85	213.24
369.23	213.29
369.61	213.12
369.99	213.19
370.37	213.24
370.75	213.38
371.13	213.31
371.51	213.28
371.89	213.27
372.27	213.34
372.65	213.33
373.03	213.41
373.41	213.41
373.78	213.32
374.16	213.10
374.54	212.87
374.92	212.79
375.30	212.77
375.68	212.71
376.06	212.72
376.44	212.71
376.82	212.69
377.19	212.60
377.57	212.55
377.95	212.43
378.33	212.34
378.71	212.09
379.09	212.17
379.47	212.16
379.84	212.09
380.22	211.95
380.60	211.87
380.98	211.68
381.36	211.57
381.73	211.50
382.11	211.48
382.49	211.49
382.87	211.42
383.25	211.32
383.62	211.74
384.00	211.62
384.38	211.60
384.76	211.65
385.13	211.75
385.51	211.73
385.89	211.67
386.27	211.66
386.64	211.65
387.02	211.52
387.40	211.43
387.78	211.43
388.15	211.38
388.53	211.34
388.91	211.36
389.29	211.31
389.66	211.29
390.04	211.23
390.42	211.25
390.79	211.23
391.17	211.23
391.55	210.83
391.92	210.85
392.30	210.80
392.68	210.70
393.05	210.58
393.43	210.62
393.81	210.62
394.18	210.58
394.56	210.61
394.94	210.71
395.31	210.71
395.69	210.79
396.06	210.87
396.44	210.97
396.82	210.89
397.19	211.12
397.57	211.10
397.95	211.08
398.32	210.95
398.70	211.00
399.07	211.16
399.45	211.09
399.82	211.05
400.20	211.10
400.58	211.17
400.95	211.22
401.33	211.26
401.70	211.56
402.08	211.55
402.45	211.58
402.83	211.69
403.20	211.80
403.58	211.94
403.95	212.09
404.33	212.15
404.71	212.30
405.08	212.52
405.46	212.75
405.83	212.97
406.21	213.13
406.58	213.39
406.96	213.54
407.33	213.85
407.70	214.18
408.08	214.74
408.45	215.08
408.83	215.45
409.20	215.80
409.58	215.95
409.95	216.47
410.33	217.01
410.70	217.35
411.08	217.97
411.45	218.49
411.82	219.00
412.20	219.68
412.57	220.63
412.95	221.06
413.32	221.80
413.69	222.73
414.07	223.72
414.44	224.69
414.82	225.60
415.19	226.75
415.56	227.84
415.94	228.88
416.31	230.19
416.68	231.51
417.06	233.11
417.43	234.68
417.81	236.39
418.18	238.06
418.55	240.05
418.93	241.91
419.30	243.91
419.67	246.21
420.04	248.41
420.42	250.68
420.79	253.68
421.16	256.51
421.54	259.42
421.91	262.35
422.28	265.41
422.66	268.77
423.03	272.14
423.40	275.53
423.77	279.06
424.15	282.84
424.52	286.73
424.89	290.93
425.26	295.05
425.64	299.02
426.01	303.33
426.38	307.84
426.75	312.54
427.13	317.27
427.50	322.26
427.87	327.60
428.24	332.77
428.61	337.59
428.99	343.10
429.36	348.88
429.73	354.84
430.10	360.84
430.47	367.02
430.85	373.20
431.22	379.90
431.59	387.18
431.96	393.97
432.33	401.50
432.70	408.86
433.08	417.38
433.45	425.36
433.82	433.52
434.19	442.48
434.56	451.38
434.93	459.95
435.30	468.46
435.68	477.87
436.05	487.34
436.42	496.67
436.79	505.32
437.16	514.94
437.53	524.77
437.90	534.55
438.27	544.14
438.64	554.29
439.01	563.63
439.38	572.08
439.75	580.17
440.13	589.40
440.50	598.14
440.87	605.49
441.24	613.25
441.61	621.51
441.98	627.82
442.35	635.15
442.72	642.51
443.09	649.55
443.46	654.09
443.83	657.42
444.20	660.51
444.57	664.53
444.94	666.62
445.31	668.98
445.68	671.31
446.05	672.62
446.42	672.30
446.79	671.99
447.16	671.23
447.53	671.09
447.90	668.25
448.27	665.42
448.64	660.94
449.01	657.85
449.37	652.12
449.74	646.58
450.11	639.82
450.48	632.35
450.85	624.80
451.22	618.35
451.59	612.17
451.96	606.17
452.33	597.99
452.70	590.58
453.07	581.64
453.43	572.44
453.80	563.77
454.17	555.57
454.54	547.58
454.91	539.10
455.28	530.70
455.65	522.92
456.02	515.28
456.38	508.75
456.75	500.46
457.12	493.55
457.49	486.75
457.86	480.01
458.23	474.27
458.59	467.85
458.96	461.49
459.33	455.76
459.70	450.02
460.07	445.47
460.43	440.30
460.80	435.47
461.17	431.10
461.54	426.57
461.91	422.05
462.27	417.66
462.64	414.01
463.01	409.92
463.38	406.02
463.74	401.76
464.11	398.20
464.48	395.18
464.85	391.76
465.21	389.15
465.58	386.44
465.95	383.24
466.32	380.56
466.68	377.69
467.05	374.94
467.42	372.29
467.78	369.58
468.15	366.86
468.52	364.80
468.88	362.20
469.25	359.91
469.62	358.10
469.98	356.00
470.35	354.01
470.72	352.19
471.08	350.06
471.45	348.46
471.82	346.85
472.18	344.96
472.55	343.69
472.92	342.06
473.28	340.50
473.65	339.05
474.02	337.64
474.38	336.61
474.75	335.61
475.11	334.48
475.48	333.57
475.85	332.90
476.21	331.93
476.58	331.28
476.94	330.67
477.31	330.07
477.67	329.57
478.04	329.10
478.41	328.72
478.77	328.73
479.14	328.29
479.50	328.00
479.87	327.87
480.23	327.78
480.60	327.59
480.96	327.55
481.33	327.75
481.69	328.02
482.06	328.23
482.42	328.27
482.79	328.41
483.15	328.66
483.52	329.08
483.88	329.61
484.25	329.89
484.61	330.28
484.98	330.66
485.34	331.27
485.71	331.94
486.07	332.60
486.44	333.09
486.80	333.94
487.17	334.84
487.53	335.98
487.90	336.97
488.26	338.26
488.62	339.46
488.99	340.52
489.35	341.63
489.72	342.85
490.08	344.33
490.44	345.80
490.81	347.28
491.17	348.62
491.54	350.25
491.90	352.01
492.26	353.81
492.63	355.64
492.99	357.40
493.36	359.32
493.72	361.42
494.08	363.49
494.45	365.59
494.81	367.83
495.17	369.81
495.54	372.18
495.90	374.27
496.26	376.58
496.63	379.08
496.99	381.55
497.35	384.05
497.72	386.50
498.08	389.14
498.44	391.79
498.80	394.68
499.17	397.43
499.53	400.11
499.89	402.95
500.26	405.52
500.62	408.24
500.98	410.95
501.34	413.61
501.71	416.33
502.07	419.06
502.43	421.61
502.79	424.24
503.16	426.68
503.52	429.34
503.88	431.89
504.24	434.39
504.60	436.84
504.97	439.24
505.33	441.63
505.69	444.20
506.05	446.52
506.41	448.62
506.78	450.68
507.14	452.77
507.50	454.69
507.86	456.82
508.22	458.91
508.59	460.66
508.95	462.54
509.31	464.35
509.67	465.99
510.03	467.71
510.39	469.49
510.75	471.24
511.12	472.79
511.48	474.19
511.84	475.63
512.20	477.11
512.56	478.48
512.92	479.87
513.28	480.83
513.64	481.75
514.00	482.64
514.37	483.59
514.73	484.56
515.09	485.45
515.45	486.33
515.81	486.96
516.17	487.85
516.53	488.29
516.89	488.82
517.25	489.23
517.61	489.73
517.97	490.14
518.33	490.33
518.69	490.55
519.05	491.01
519.41	491.17
519.77	491.53
520.13	491.64
520.49	491.70
520.85	491.92
521.21	492.37
521.57	492.73
521.93	492.80
522.29	492.95
522.65	493.03
523.01	493.18
523.37	493.21
523.73	493.19
524.09	493.27
524.45	493.46
524.81	493.82
525.17	494.20
525.53	494.49
525.89	494.87
526.25	495.20
526.61	495.27
526.97	495.62
527.33	495.92
527.68	496.80
528.04	497.21
528.40	497.38
528.76	497.85
529.12	498.39
529.48	499.17
529.84	499.76
530.20	500.60
530.56	501.26
530.91	502.24
531.27	503.19
531.63	504.26
531.99	505.33
532.35	506.26
532.71	507.08
533.07	508.13
533.42	509.76
533.78	511.07
534.14	512.55
534.50	513.78
534.86	515.09
535.21	516.13
535.57	517.72
535.93	519.34
536.29	521.01
536.65	522.67
537.00	524.13
537.36	525.70
537.72	527.30
538.08	529.05
538.44	530.68
538.79	532.59
539.15	534.48
539.51	536.44
539.87	538.54
540.22	540.64
540.58	542.85
540.94	544.63
541.29	546.64
541.65	548.48
542.01	550.85
542.37	553.16
542.72	555.38
543.08	557.52
543.44	560.04
543.79	562.14
544.15	564.48
544.51	567.27
544.87	570.05
545.22	572.52
545.58	575.12
545.94	577.74
546.29	580.05
546.65	582.61
547.01	584.98
547.36	587.63
547.72	590.33
548.07	592.78
548.43	595.17
548.79	597.75
549.14	600.48
549.50	603.10
549.86	605.52
550.21	608.24
550.57	610.91
550.92	613.47
551.28	616.10
551.64	618.65
551.99	621.02
552.35	623.42
552.70	625.97
553.06	628.46
553.41	630.93
553.77	633.91
554.13	636.51
554.48	639.27
554.84	641.92
555.19	644.33
555.55	647.23
555.90	649.74
556.26	652.23
556.61	654.70
556.97	656.82
557.32	659.24
557.68	661.41
558.03	663.79
558.39	665.87
558.74	668.23
559.10	670.53
559.45	672.97
559.81	675.29
560.16	677.40
560.52	679.58
560.87	682.05
561.23	683.91
561.58	686.31
561.94	688.27
562.29	690.24
562.64	692.25
563.00	694.02
563.35	696.08
563.71	698.39
564.06	700.58
564.42	702.95
564.77	705.20
565.12	707.59
565.48	709.98
565.83	712.29
566.19	714.36
566.54	716.28
566.89	718.00
567.25	720.06
567.60	722.20
567.96	724.42
568.31	726.33
568.66	728.46
569.02	729.93
569.37	731.39
569.72	732.98
570.08	734.62
570.43	735.99
570.78	737.24
571.14	738.20
571.49	739.11
571.84	739.99
572.20	740.60
572.55	741.34
572.90	741.51
573.26	742.07
573.61	742.59
573.96	743.14
574.31	743.66
574.67	743.97
575.02	744.00
575.37	743.77
575.72	743.57
576.08	743.55
576.43	743.52
576.78	743.62
577.13	743.66
577.49	743.68
577.84	743.65
578.19	743.85
578.54	744.23
578.90	744.60
579.25	744.68
579.60	744.66
579.95	744.32
580.30	744.49
580.66	744.31
581.01	743.91
581.36	743.75
581.71	743.29
582.06	743.07
582.42	743.05
582.77	742.79
583.12	742.49
583.47	742.10
583.82	741.74
584.17	741.35
584.53	740.90
584.88	740.35
585.23	739.89
585.58	739.20
585.93	738.19
586.28	737.45
586.63	736.85
586.98	736.44
587.34	736.14
587.69	735.45
588.04	734.90
588.39	734.36
588.74	733.33
589.09	732.80
589.44	731.59
589.79	730.70
590.14	729.99
590.49	729.17
590.84	728.13
591.19	727.54
591.54	726.61
591.89	725.24
592.25	724.29
592.60	723.00
592.95	721.75
593.30	720.53
593.65	718.95
594.00	717.45
594.35	717.08
594.70	715.48
595.05	714.20
595.40	712.80
595.75	711.22
596.10	709.99
596.45	708.57
596.80	707.73
597.15	706.52
597.50	705.01
597.85	703.72
598.19	702.20
598.54	700.54
598.89	699.26
599.24	698.44
599.59	696.88
599.94	695.59
600.29	694.35
600.64	693.11
600.99	691.82
601.34	690.76
601.69	688.27
602.04	686.85
602.39	685.34
602.74	683.95
603.08	682.91
603.43	681.86
603.78	680.36
604.13	678.82
604.48	677.35
604.83	676.14
605.18	674.92
605.53	673.55
605.87	672.19
606.22	670.70
606.57	668.92
606.92	667.31
607.27	665.73
607.62	664.19
607.96	662.75
608.31	661.49
608.66	659.78
609.01	658.12
609.36	656.49
609.70	654.66
610.05	652.84
610.40	651.12
610.75	649.10
611.10	647.55
611.44	645.45
611.79	643.41
612.14	641.36
612.49	639.05
612.83	637.19
613.18	635.14
613.53	633.21
613.88	631.06
614.22	629.22
614.57	627.31
614.92	625.43
615.27	623.26
615.61	621.07
615.96	619.10
616.31	617.20
616.65	615.49
617.00	613.71
617.35	611.63
617.70	609.39
618.04	607.26
618.39	604.90
618.74	602.95
619.08	600.89
619.43	598.87
619.78	596.78
620.12	594.64
620.47	592.50
620.82	590.14
621.16	587.93
621.51	585.86
621.85	583.79
622.20	581.45
622.55	579.28
622.89	577.03
623.24	574.85
623.59	572.57
623.93	570.27
624.28	568.20
624.62	566.48
624.97	564.57
625.32	562.63
625.66	560.76
626.01	558.58
626.35	556.51
626.70	554.34
627.04	552.61
627.39	550.59
627.73	548.76
628.08	546.97
628.43	545.08
628.77	542.95
629.12	540.88
629.46	538.89
629.81	537.00
630.15	535.06
630.50	532.94
630.84	530.93
631.19	528.83
631.53	526.89
631.88	524.43
632.22	522.14
632.57	520.11
632.91	518.15
633.26	516.32
633.60	514.50
633.95	512.70
634.29	510.60
634.64	508.85
634.98	506.75
635.32	504.90
635.67	503.19
636.01	501.41
636.36	499.52
636.70	497.85
637.05	495.88
637.39	494.08
637.73	492.45
638.08	490.98
638.42	489.44
638.77	487.61
639.11	486.10
639.45	484.51
639.80	482.67
640.14	480.75
640.49	478.96
640.83	477.17
641.17	475.40
641.52	473.52
641.86	471.57
642.20	469.83
642.55	467.78
642.89	465.82
643.23	463.90
643.58	462.30
643.92	460.28
644.26	458.55
644.61	456.89
644.95	454.96
645.29	452.97
645.64	451.06
645.98	449.27
646.32	447.46
646.66	445.51
647.01	443.75
647.35	442.06
647.69	440.17
648.04	438.45
648.38	436.67
648.72	434.92
649.06	433.14
649.41	431.21
649.75	429.52
650.09	427.86
650.43	426.12
650.78	424.12
651.12	422.47
651.46	420.68
651.80	418.90
652.14	417.24
652.49	415.70
652.83	413.95
653.17	412.06
653.51	410.33
653.85	408.83
654.20	407.27
654.54	405.51
654.88	403.83
655.22	402.18
655.56	400.47
655.90	398.86
656.25	397.21
656.59	395.67
656.93	394.12
657.27	392.63
657.61	390.95
657.95	389.46
658.29	387.81
658.64	386.40
658.98	384.73
659.32	382.95
659.66	381.23
660.00	379.62
660.34	378.21
660.68	376.60
661.02	374.94
661.36	373.36
661.70	371.95
662.05	370.63
662.39	369.18
662.73	367.84
663.07	366.66
663.41	365.31
663.75	363.89
664.09	362.52
664.43	361.02
664.77	359.78
665.11	358.39
665.45	357.10
665.79	355.69
666.13	354.43
666.47	353.22
666.81	351.90
667.15	350.63
667.49	349.45
667.83	348.35
668.17	347.16
668.51	345.89
668.85	344.75
669.19	343.64
669.53	342.30
669.87	341.01
670.21	339.71
670.55	338.60
670.89	337.67
671.23	336.45
671.57	335.31
671.91	334.22
672.25	333.17
672.58	332.21
672.92	331.04
673.26	330.03
673.60	329.03
673.94	328.01
674.28	326.97
674.62	325.89
674.96	324.74
675.30	323.72
675.64	322.72
675.97	321.62
676.31	320.57
676.65	319.66
676.99	318.80
677.33	317.74
677.67	316.69
678.01	315.46
678.34	314.58
678.68	313.64
679.02	312.62
679.36	311.67
679.70	310.57
680.04	309.70
680.37	308.70
680.71	307.80
681.05	306.99
681.39	306.05
681.73	305.08
682.06	304.28
682.40	303.42
682.74	302.66
683.08	301.89
683.42	300.91
683.75	300.14
684.09	299.20
684.43	298.36
684.77	297.49
685.10	296.76
685.44	295.81
685.78	294.92
686.12	294.20
686.45	293.36
686.79	292.55
687.13	291.87
687.46	291.14
687.80	290.34
688.14	289.46
688.48	288.83
688.81	288.12
689.15	287.38
689.49	286.51
689.82	285.72
690.16	284.84
690.50	284.13
690.83	283.28
691.17	282.38
691.51	281.59
691.84	280.89
692.18	280.12
692.52	279.52
692.85	278.91
693.19	278.29
693.52	277.53
693.86	276.87
694.20	276.19
694.53	275.53
694.87	274.92
695.21	274.30
695.54	273.49
695.88	272.71
696.21	271.96
696.55	271.33
696.88	270.72
697.22	270.11
697.56	269.54
697.89	268.87
698.23	268.42
698.56	267.79
698.90	267.33
699.23	266.75
699.57	266.11
699.90	265.54
700.24	264.84
700.58	264.45
700.91	263.98
701.25	263.66
701.58	263.25
701.92	262.71
702.25	262.19
702.59	261.75
702.92	261.31
703.26	260.85
703.59	260.44
703.93	260.27
704.26	259.77
704.60	259.29
704.93	258.79
705.26	258.33
705.60	257.94
705.93	257.32
706.27	257.00
706.60	256.66
706.94	256.36
707.27	255.93
707.61	255.38
707.94	254.88
708.27	254.12
708.61	253.46
708.94	253.03
709.28	252.59
709.61	252.13
709.94	251.75
710.28	251.42
710.61	251.05
710.95	250.25
711.28	250.11
711.61	249.65
711.95	249.41
712.28	248.98
712.61	248.62
712.95	248.43
713.28	248.17
713.61	247.65
713.95	247.11
714.28	246.78
714.61	246.51
714.95	246.13
715.28	245.77
715.61	245.49
715.95	245.04
716.28	244.62
716.61	244.32
716.95	243.96
717.28	243.53
717.61	243.12
717.94	242.82
718.28	242.22
718.61	241.82
718.94	241.39
719.27	241.05
719.61	240.72
719.94	240.29
720.27	239.72
720.60	239.52
720.94	239.23
721.27	238.91
721.60	238.65
721.93	238.39
722.27	238.20
722.60	237.92
722.93	237.68
723.26	237.50
723.59	237.21
723.93	237.00
724.26	236.77
724.59	236.51
724.92	236.27
725.25	236.10
725.59	235.96
725.92	235.81
726.25	235.53
726.58	235.29
726.91	235.16
727.24	235.05
727.57	234.75
727.91	234.50
728.24	234.32
728.57	234.00
728.90	233.77
729.23	233.50
729.56	233.48
729.89	233.26
730.22	232.99
730.55	232.67
730.89	232.38
731.22	232.17
731.55	231.99
731.88	231.78
732.21	231.56
732.54	231.25
732.87	231.04
733.20	230.93
733.53	230.73
733.86	230.49
734.19	230.22
734.52	230.13
734.85	230.19
735.18	229.89
735.51	229.77
735.84	229.60
736.17	229.52
736.50	229.21
736.83	229.50
737.16	229.37
737.49	229.24
737.82	229.09
738.15	228.90
738.48	228.75
738.81	228.61
739.14	228.43
739.47	228.29
739.80	228.10
740.13	227.95
740.46	227.65
740.79	227.41
741.12	227.26
741.45	226.93
741.78	226.49
742.11	226.49
742.44	226.30
742.77	226.25
743.10	226.04
743.43	225.76
743.75	225.31
744.08	225.58
744.41	225.43
744.74	225.25
745.07	225.12
745.40	224.96
745.73	224.94
746.06	224.75
746.39	224.74
746.71	224.55
747.04	224.38
747.37	224.32
747.70	224.28
748.03	224.19
748.36	224.22
748.68	224.19
749.01	223.93
749.34	223.84
749.67	223.71
750.00	223.61
750.33	223.85
750.65	223.82
750.98	223.28
751.31	223.25
751.64	223.25
751.97	223.36
752.29	223.24
752.62	222.95
752.95	222.84
753.28	222.65
753.60	222.51
753.93	222.43
754.26	222.33
754.59	222.15
754.91	222.02
755.24	221.82
755.57	221.68
755.90	221.64
756.22	221.38
756.55	221.16
756.88	220.99
757.20	220.60
757.53	220.26
757.86	220.18
758.19	220.08
758.51	219.94
758.84	219.60
759.17	219.52
759.49	219.45
759.82	219.50
760.15	219.40
760.47	219.35
760.80	219.20
761.13	219.22
761.45	219.11
761.78	218.99
762.11	219.00
762.43	218.82
762.76	218.66
763.08	218.75
763.41	218.78
763.74	218.68
764.06	218.61
764.39	218.58
764.71	218.44
765.04	218.29
765.37	218.19
765.69	218.17
766.02	218.05
766.34	218.01
766.67	217.84
767.00	217.83
767.32	218.03
767.65	218.25
767.97	218.11
768.30	218.07
768.62	218.00
768.95	217.87
769.27	217.83
769.60	217.84
769.92	217.70
770.25	217.51
770.57	217.47
770.90	217.35
771.22	217.30
771.55	217.22
771.87	217.18
772.20	217.07
772.52	217.28
772.85	217.68
773.17	217.61
773.50	217.56
773.82	217.49
774.15	217.21
774.47	216.87
774.80	216.77
775.12	216.65
775.45	216.65
775.77	216.60
776.09	216.62
776.42	216.53
776.74	216.52
777.07	216.51
777.39	216.44
777.72	216.41
778.04	216.45
778.36	216.39
778.69	216.39
779.01	216.39
779.33	216.03
779.66	215.56
779.98	215.49
780.31	215.42
780.63	215.52
780.95	215.52
781.28	215.54
781.60	215.45
781.92	215.47
782.25	215.36
782.57	215.32
782.89	215.24
783.22	215.17
783.54	215.05
783.86	215.00
784.19	214.92
784.51	215.00
784.83	214.78
785.16	214.72
785.48	214.62
785.80	214.60
786.12	214.57
786.45	214.49
786.77	214.48
787.09	214.43
787.42	214.28
787.74	214.25
788.06	214.18
788.38	214.14
788.71	214.09
789.03	214.09
789.35	214.11
789.67	213.99
789.99	214.02
790.32	213.98
790.64	214.02
790.96	214.37
791.28	214.16
791.61	214.13
791.93	214.16
792.25	214.13
792.57	214.34
792.89	214.27
793.21	214.38
793.54	214.32
793.86	214.26
794.18	214.23
