SpectraSuite Data File
++++++++++++++++++++++++++++++++++++
Date: Mon Feb 25 17:15:20 EST 2013
User: group
Dark Spectrum Present: No
Reference Spectrum Present: No
Number of Sampled Component Spectra: 1
Spectrometers: USB2E7196
Integration Time (usec): 104000 (USB2E7196)
Spectra Averaged: 20 (USB2E7196)
Boxcar Smoothing: 10 (USB2E7196)
Correct for Electrical Dark: No (USB2E7196)
Strobe/Lamp Enabled: No (USB2E7196)
Correct for Detector Non-linearity: No (USB2E7196)
Correct for Stray Light: No (USB2E7196)
Number of Pixels in Processed Spectrum: 2048
>>>>>Begin Processed Spectral Data<<<<<
339.09	0.00
339.48	198.75
339.86	200.95
340.24	202.75
340.63	202.60
341.01	208.50
341.39	205.30
341.78	208.10
342.16	208.70
342.54	209.45
342.93	198.50
343.31	208.49
343.69	209.01
344.07	209.46
344.46	209.85
344.84	210.30
345.22	210.44
345.60	210.70
345.99	210.82
346.37	210.97
346.75	211.08
347.13	211.16
347.52	211.24
347.90	211.40
348.28	211.43
348.66	211.53
349.05	211.42
349.43	211.47
349.81	211.51
350.19	211.60
350.57	211.64
350.96	211.67
351.34	211.77
351.72	211.86
352.10	211.89
352.48	211.96
352.87	211.99
353.25	212.05
353.63	212.13
354.01	212.22
354.39	212.23
354.77	212.20
355.15	212.25
355.54	212.31
355.92	212.25
356.30	212.27
356.68	212.53
357.06	212.65
357.44	212.59
357.82	212.62
358.20	212.58
358.58	212.58
358.97	212.68
359.35	212.78
359.73	212.93
360.11	213.01
360.49	213.08
360.87	213.12
361.25	213.21
361.63	213.38
362.01	213.45
362.39	213.53
362.77	213.67
363.15	213.78
363.53	213.86
363.91	213.86
364.29	213.88
364.67	213.57
365.05	213.60
365.43	213.70
365.81	213.82
366.19	214.02
366.57	214.14
366.95	214.12
367.33	214.10
367.71	214.08
368.09	214.13
368.47	214.09
368.85	214.01
369.23	214.08
369.61	213.88
369.99	213.95
370.37	214.00
370.75	214.09
371.13	214.01
371.51	213.88
371.89	213.90
372.27	213.95
372.65	214.00
373.03	213.92
373.41	213.83
373.78	213.72
374.16	213.54
374.54	213.46
374.92	213.40
375.30	213.34
375.68	213.22
376.06	213.20
376.44	213.14
376.82	213.14
377.19	212.96
377.57	212.95
377.95	212.84
378.33	212.68
378.71	212.40
379.09	212.33
379.47	212.42
379.84	212.37
380.22	212.28
380.60	212.15
380.98	212.06
381.36	212.09
381.73	212.04
382.11	212.05
382.49	212.08
382.87	212.01
383.25	211.98
383.62	212.32
384.00	212.21
384.38	212.26
384.76	212.30
385.13	212.48
385.51	212.44
385.89	212.28
386.27	212.36
386.64	212.44
387.02	212.39
387.40	212.27
387.78	212.30
388.15	212.29
388.53	212.28
388.91	212.33
389.29	212.23
389.66	212.23
390.04	212.18
390.42	212.18
390.79	212.20
391.17	212.22
391.55	211.80
391.92	211.87
392.30	211.89
392.68	211.83
393.05	211.82
393.43	211.81
393.81	211.87
394.18	211.75
394.56	211.76
394.94	211.90
395.31	211.91
395.69	211.95
396.06	211.99
396.44	211.94
396.82	211.89
397.19	212.09
397.57	212.05
397.95	212.07
398.32	212.01
398.70	212.04
399.07	212.10
399.45	212.14
399.82	212.08
400.20	211.98
400.58	212.00
400.95	211.83
401.33	211.98
401.70	212.21
402.08	212.31
402.45	212.36
402.83	212.45
403.20	212.52
403.58	212.55
403.95	212.68
404.33	212.88
404.71	212.90
405.08	213.14
405.46	213.29
405.83	213.40
406.21	213.40
406.58	213.58
406.96	213.72
407.33	213.85
407.70	214.05
408.08	214.52
408.45	214.79
408.83	215.10
409.20	215.26
409.58	215.33
409.95	215.56
410.33	215.86
410.70	215.98
411.08	216.32
411.45	216.67
411.82	216.90
412.20	217.28
412.57	217.89
412.95	218.01
413.32	218.50
413.69	218.99
414.07	219.53
414.44	219.99
414.82	220.48
415.19	221.19
415.56	221.84
415.94	222.31
416.31	223.02
416.68	223.79
417.06	224.66
417.43	225.58
417.81	226.57
418.18	227.55
418.55	228.61
418.93	229.72
419.30	230.91
419.67	232.21
420.04	233.46
420.42	234.79
420.79	236.55
421.16	238.01
421.54	239.79
421.91	241.42
422.28	243.13
422.66	244.87
423.03	246.84
423.40	248.72
423.77	250.69
424.15	252.61
424.52	254.63
424.89	256.85
425.26	258.99
425.64	261.04
426.01	263.29
426.38	265.74
426.75	268.27
427.13	270.65
427.50	273.24
427.87	276.02
428.24	278.68
428.61	281.13
428.99	284.10
429.36	287.03
429.73	290.12
430.10	293.28
430.47	296.49
430.85	299.56
431.22	302.96
431.59	306.77
431.96	310.26
432.33	314.14
432.70	317.95
433.08	322.29
433.45	326.40
433.82	330.62
434.19	335.21
434.56	339.49
434.93	343.69
435.30	347.80
435.68	352.49
436.05	356.98
436.42	361.53
436.79	365.78
437.16	370.22
437.53	374.98
437.90	379.55
438.27	384.27
438.64	388.97
439.01	393.37
439.38	397.17
439.75	400.94
440.13	405.19
440.50	409.21
440.87	412.40
441.24	415.80
441.61	419.32
441.98	421.97
442.35	425.18
442.72	428.41
443.09	431.70
443.46	433.39
443.83	434.58
444.20	435.70
444.57	437.02
444.94	437.68
445.31	438.40
445.68	439.40
446.05	439.43
446.42	438.85
446.79	438.34
447.16	437.60
447.53	437.18
447.90	435.42
448.27	433.62
448.64	431.25
449.01	429.48
449.37	426.43
449.74	423.36
450.11	420.01
450.48	416.14
450.85	411.98
451.22	408.56
451.59	405.41
451.96	402.16
452.33	398.13
452.70	394.27
453.07	389.65
453.43	384.79
453.80	380.45
454.17	376.27
454.54	372.18
454.91	367.91
455.28	363.71
455.65	359.73
456.02	356.15
456.38	352.90
456.75	348.83
457.12	345.41
457.49	342.06
457.86	338.45
458.23	335.75
458.59	332.75
458.96	329.72
459.33	326.95
459.70	324.27
460.07	322.05
460.43	319.61
460.80	317.48
461.17	315.51
461.54	313.37
461.91	311.27
462.27	309.19
462.64	307.44
463.01	305.47
463.38	303.76
463.74	301.45
464.11	299.68
464.48	298.26
464.85	296.69
465.21	295.51
465.58	294.36
465.95	292.72
466.32	291.48
466.68	290.19
467.05	289.01
467.42	287.72
467.78	286.46
468.15	285.31
468.52	284.34
468.88	283.07
469.25	282.04
469.62	281.33
469.98	280.50
470.35	279.62
470.72	278.83
471.08	277.85
471.45	277.26
471.82	276.69
472.18	275.77
472.55	275.21
472.92	274.56
473.28	273.93
473.65	273.46
474.02	273.00
474.38	272.65
474.75	272.27
475.11	271.89
475.48	271.59
475.85	271.37
476.21	271.15
476.58	271.08
476.94	271.07
477.31	271.00
477.67	270.88
478.04	270.99
478.41	271.14
478.77	271.62
479.14	271.65
479.50	271.75
479.87	272.15
480.23	272.48
480.60	272.59
480.96	273.00
481.33	273.55
481.69	273.90
482.06	274.30
482.42	274.84
482.79	275.43
483.15	276.08
483.52	276.84
483.88	277.44
484.25	278.14
484.61	278.99
484.98	279.80
485.34	280.87
485.71	281.88
486.07	282.96
486.44	283.87
486.80	285.09
487.17	286.49
487.53	287.97
487.90	289.52
488.26	291.45
488.62	293.21
488.99	294.92
489.35	296.78
489.72	298.85
490.08	300.86
490.44	303.06
490.81	305.39
491.17	307.68
491.54	310.36
491.90	313.02
492.26	315.80
492.63	318.86
492.99	321.95
493.36	325.18
493.72	328.70
494.08	332.20
494.45	336.09
494.81	340.02
495.17	343.96
495.54	348.28
495.90	352.58
496.26	357.14
496.63	362.00
496.99	367.13
497.35	372.33
497.72	377.93
498.08	383.62
498.44	389.54
498.80	395.79
499.17	402.36
499.53	409.05
499.89	415.90
500.26	422.86
500.62	430.07
500.98	437.71
501.34	445.41
501.71	453.55
502.07	461.67
502.43	470.08
502.79	478.83
503.16	487.97
503.52	497.33
503.88	506.77
504.24	516.58
504.60	526.67
504.97	537.18
505.33	547.57
505.69	558.92
506.05	570.29
506.41	581.91
506.78	593.34
507.14	605.30
507.50	617.75
507.86	630.36
508.22	643.29
508.59	656.22
508.95	669.89
509.31	683.55
509.67	697.59
510.03	711.98
510.39	726.80
510.75	741.86
511.12	757.07
511.48	772.58
511.84	788.15
512.20	803.80
512.56	820.02
512.92	836.61
513.28	852.80
513.64	869.27
514.00	886.00
514.37	903.24
514.73	920.61
515.09	937.95
515.45	955.41
515.81	972.99
516.17	991.00
516.53	1008.71
516.89	1026.70
517.25	1044.70
517.61	1062.76
517.97	1080.49
518.33	1098.37
518.69	1116.51
519.05	1135.05
519.41	1153.75
519.77	1172.82
520.13	1191.23
520.49	1209.50
520.85	1228.16
521.21	1246.93
521.57	1265.79
521.93	1284.19
522.29	1303.02
522.65	1322.00
523.01	1340.87
523.37	1359.27
523.73	1377.71
524.09	1396.30
524.45	1414.97
524.81	1433.94
525.17	1452.85
525.53	1471.87
525.89	1490.34
526.25	1508.84
526.61	1526.45
526.97	1544.41
527.33	1562.05
527.68	1580.08
528.04	1597.62
528.40	1614.40
528.76	1631.38
529.12	1648.68
529.48	1666.45
529.84	1683.59
530.20	1700.19
530.56	1717.10
530.91	1734.28
531.27	1751.38
531.63	1767.84
531.99	1783.80
532.35	1799.34
532.71	1814.71
533.07	1830.41
533.42	1845.83
533.78	1861.13
534.14	1876.18
534.50	1889.78
534.86	1904.71
535.21	1918.15
535.57	1932.66
535.93	1946.79
536.29	1960.75
536.65	1974.22
537.00	1986.73
537.36	1998.60
537.72	2010.76
538.08	2022.62
538.44	2034.60
538.79	2046.30
539.15	2057.93
539.51	2069.82
539.87	2081.47
540.22	2092.33
540.58	2103.72
540.94	2114.58
541.29	2124.00
541.65	2133.39
542.01	2143.69
542.37	2152.62
542.72	2162.09
543.08	2170.64
543.44	2180.06
543.79	2187.81
544.15	2195.13
544.51	2203.26
544.87	2212.06
545.22	2219.39
545.58	2225.98
545.94	2231.89
546.29	2237.09
546.65	2242.27
547.01	2247.58
547.36	2252.38
547.72	2257.10
548.07	2260.20
548.43	2263.48
548.79	2267.19
549.14	2270.94
549.50	2274.34
549.86	2276.67
550.21	2279.31
550.57	2282.40
550.92	2283.55
551.28	2285.26
551.64	2287.51
551.99	2289.43
552.35	2290.21
552.70	2291.62
553.06	2293.16
553.41	2294.30
553.77	2295.18
554.13	2295.95
554.48	2296.16
554.84	2296.88
555.19	2297.14
555.55	2297.17
555.90	2296.45
556.26	2295.86
556.61	2295.22
556.97	2293.94
557.32	2293.56
557.68	2291.88
558.03	2289.73
558.39	2288.88
558.74	2288.47
559.10	2287.02
559.45	2284.86
559.81	2283.36
560.16	2281.12
560.52	2278.90
560.87	2276.73
561.23	2274.00
561.58	2271.95
561.94	2269.08
562.29	2265.40
562.64	2262.52
563.00	2259.80
563.35	2257.80
563.71	2255.97
564.06	2253.37
564.42	2251.12
564.77	2248.42
565.12	2246.28
565.48	2243.79
565.83	2240.71
566.19	2237.46
566.54	2233.50
566.89	2229.91
567.25	2226.56
567.60	2223.33
567.96	2219.85
568.31	2216.30
568.66	2212.72
569.02	2207.94
569.37	2203.33
569.72	2199.47
570.08	2194.85
570.43	2190.09
570.78	2184.82
571.14	2179.13
571.49	2173.81
571.84	2168.79
572.20	2162.77
572.55	2157.24
572.90	2151.20
573.26	2145.03
573.61	2138.70
573.96	2132.90
574.31	2126.46
574.67	2119.17
575.02	2111.82
575.37	2104.71
575.72	2097.11
576.08	2090.75
576.43	2084.04
576.78	2077.59
577.13	2071.21
577.49	2064.68
577.84	2058.09
578.19	2051.92
578.54	2046.19
578.90	2040.35
579.25	2033.38
579.60	2026.55
579.95	2019.20
580.30	2012.58
580.66	2006.29
581.01	1999.42
581.36	1992.19
581.71	1985.05
582.06	1978.34
582.42	1971.83
582.77	1964.82
583.12	1958.10
583.47	1951.52
583.82	1945.16
584.17	1938.27
584.53	1931.65
584.88	1924.93
585.23	1918.37
585.58	1911.60
585.93	1904.10
586.28	1897.30
586.63	1890.23
586.98	1883.78
587.34	1877.76
587.69	1870.97
588.04	1864.18
588.39	1857.76
588.74	1850.68
589.09	1844.64
589.44	1837.84
589.79	1831.70
590.14	1825.30
590.49	1818.99
590.84	1812.03
591.19	1805.96
591.54	1799.51
591.89	1791.51
592.25	1784.51
592.60	1777.06
592.95	1769.81
593.30	1762.34
593.65	1754.68
594.00	1747.94
594.35	1742.27
594.70	1735.21
595.05	1728.63
595.40	1721.54
595.75	1714.15
596.10	1708.33
596.45	1701.60
596.80	1695.46
597.15	1689.09
597.50	1682.39
597.85	1676.07
598.19	1669.48
598.54	1662.51
598.89	1656.37
599.24	1651.28
599.59	1645.35
599.94	1640.06
600.29	1634.36
600.64	1628.64
600.99	1622.35
601.34	1616.61
601.69	1609.10
602.04	1602.83
602.39	1596.74
602.74	1591.09
603.08	1586.03
603.43	1580.35
603.78	1574.44
604.13	1568.62
604.48	1562.76
604.83	1557.93
605.18	1553.03
605.53	1547.15
605.87	1541.35
606.22	1535.75
606.57	1529.45
606.92	1523.49
607.27	1517.13
607.62	1510.95
607.96	1505.40
608.31	1500.10
608.66	1493.66
609.01	1487.49
609.36	1481.20
609.70	1474.50
610.05	1467.70
610.40	1460.72
610.75	1453.98
611.10	1447.59
611.44	1440.07
611.79	1432.55
612.14	1424.92
612.49	1416.76
612.83	1409.93
613.18	1402.50
613.53	1394.71
613.88	1386.94
614.22	1380.00
614.57	1372.67
614.92	1365.40
615.27	1357.83
615.61	1350.28
615.96	1343.17
616.31	1336.59
616.65	1330.20
617.00	1323.75
617.35	1316.95
617.70	1310.06
618.04	1302.27
618.39	1294.66
618.74	1288.00
619.08	1280.98
619.43	1273.90
619.78	1267.28
620.12	1260.47
620.47	1253.60
620.82	1246.59
621.16	1239.80
621.51	1232.51
621.85	1225.78
622.20	1218.73
622.55	1211.78
622.89	1204.81
623.24	1197.96
623.59	1190.82
623.93	1183.64
624.28	1176.77
624.62	1170.09
624.97	1163.36
625.32	1157.40
625.66	1151.29
626.01	1144.97
626.35	1138.63
626.70	1132.55
627.04	1126.59
627.39	1120.28
627.73	1114.24
628.08	1108.55
628.43	1102.31
628.77	1096.07
629.12	1089.72
629.46	1083.97
629.81	1078.20
630.15	1072.27
630.50	1066.21
630.84	1059.98
631.19	1053.75
631.53	1047.64
631.88	1041.37
632.22	1035.04
632.57	1029.20
632.91	1023.15
633.26	1017.13
633.60	1011.20
633.95	1005.29
634.29	999.10
634.64	993.33
634.98	987.27
635.32	981.39
635.67	975.93
636.01	970.47
636.36	964.66
636.70	958.91
637.05	953.07
637.39	947.62
637.73	942.45
638.08	937.82
638.42	932.79
638.77	927.66
639.11	922.42
639.45	917.34
639.80	911.59
640.14	905.89
640.49	900.49
640.83	895.14
641.17	889.85
641.52	884.29
641.86	878.68
642.20	873.45
642.55	867.77
642.89	862.25
643.23	856.51
643.58	851.52
643.92	845.90
644.26	840.56
644.61	835.42
644.95	829.87
645.29	824.13
645.64	818.69
645.98	813.29
646.32	808.25
646.66	803.03
647.01	797.91
647.35	793.00
647.69	787.55
648.04	782.63
648.38	777.35
648.72	772.25
649.06	767.38
649.41	762.38
649.75	757.40
650.09	752.66
650.43	747.79
650.78	742.65
651.12	737.73
651.46	732.83
651.80	727.76
652.14	722.90
652.49	717.99
652.83	713.02
653.17	707.77
653.51	702.70
653.85	697.85
654.20	693.17
654.54	688.27
654.88	683.63
655.22	678.59
655.56	673.68
655.90	669.07
656.25	664.27
656.59	659.54
656.93	655.10
657.27	650.58
657.61	645.98
657.95	641.57
658.29	637.22
658.64	633.02
658.98	628.46
659.32	623.91
659.66	619.69
660.00	615.34
660.34	611.10
660.68	606.75
661.02	602.42
661.36	598.35
661.70	594.45
662.05	590.41
662.39	586.80
662.73	583.23
663.07	579.71
663.41	575.92
663.75	572.18
664.09	568.35
664.43	564.33
664.77	560.68
665.11	556.91
665.45	553.37
665.79	549.66
666.13	546.19
666.47	542.69
666.81	539.02
667.15	535.64
667.49	532.60
667.83	529.54
668.17	526.21
668.51	522.96
668.85	519.75
669.19	516.98
669.53	513.65
669.87	510.23
670.21	506.95
670.55	503.94
670.89	501.06
671.23	498.17
671.57	495.40
671.91	492.49
672.25	489.49
672.58	486.56
672.92	483.73
673.26	481.04
673.60	478.42
673.94	475.75
674.28	473.00
674.62	470.19
674.96	467.46
675.30	464.90
675.64	462.26
675.97	459.58
676.31	456.87
676.65	454.37
676.99	452.21
677.33	449.55
677.67	446.98
678.01	444.30
678.34	441.96
678.68	439.45
679.02	437.04
679.36	434.66
679.70	432.32
680.04	429.95
680.37	427.43
680.71	425.02
681.05	422.77
681.39	420.56
681.73	418.48
682.06	416.30
682.40	414.23
682.74	412.04
683.08	409.96
683.42	407.73
683.75	405.63
684.09	403.33
684.43	401.28
684.77	399.12
685.10	397.08
685.44	394.76
685.78	392.68
686.12	390.73
686.45	388.81
686.79	386.84
687.13	384.97
687.46	383.21
687.80	381.46
688.14	379.41
688.48	377.47
688.81	375.43
689.15	373.62
689.49	371.65
689.82	369.80
690.16	367.78
690.50	365.93
690.83	364.00
691.17	362.00
691.51	360.17
691.84	358.46
692.18	356.73
692.52	355.10
692.85	353.62
693.19	352.07
693.52	350.36
693.86	348.65
694.20	347.07
694.53	345.43
694.87	343.69
695.21	342.20
695.54	340.60
695.88	338.93
696.21	337.24
696.55	335.77
696.88	334.12
697.22	332.73
697.56	331.30
697.89	329.85
698.23	328.53
698.56	327.15
698.90	325.73
699.23	324.32
699.57	322.93
699.90	321.48
700.24	319.97
700.58	318.72
700.91	317.40
701.25	316.32
701.58	315.10
701.92	313.90
702.25	312.72
702.59	311.48
702.92	310.28
703.26	309.12
703.59	307.91
703.93	307.08
704.26	305.89
704.60	304.72
704.93	303.60
705.26	302.47
705.60	301.47
705.93	300.40
706.27	299.43
706.60	298.52
706.94	297.61
707.27	296.51
707.61	295.47
707.94	294.40
708.27	293.12
708.61	292.09
708.94	291.17
709.28	290.19
709.61	289.21
709.94	288.35
710.28	287.40
710.61	286.58
710.95	285.41
711.28	284.73
711.61	283.89
711.95	283.14
712.28	282.33
712.61	281.45
712.95	280.86
713.28	280.16
713.61	279.29
713.95	278.40
714.28	277.66
714.61	276.94
714.95	276.27
715.28	275.59
715.61	274.72
715.95	273.86
716.28	273.04
716.61	272.41
716.95	271.65
717.28	270.98
717.61	270.24
717.94	269.58
718.28	268.77
718.61	268.08
718.94	267.39
719.27	266.70
719.61	266.13
719.94	265.33
720.27	264.54
720.60	263.91
720.94	263.37
721.27	262.84
721.60	262.27
721.93	261.67
722.27	261.12
722.60	260.70
722.93	260.18
723.26	259.67
723.59	259.08
723.93	258.65
724.26	258.19
724.59	257.73
724.92	257.28
725.25	256.84
725.59	256.31
725.92	255.92
726.25	255.55
726.58	255.03
726.91	254.56
727.24	254.18
727.57	253.70
727.91	253.13
728.24	252.75
728.57	252.32
728.90	252.01
729.23	251.48
729.56	251.16
729.89	250.76
730.22	250.32
730.55	249.89
730.89	249.51
731.22	248.99
731.55	248.46
731.88	248.14
732.21	247.61
732.54	247.25
732.87	246.78
733.20	246.36
733.53	245.92
733.86	245.57
734.19	245.09
734.52	244.84
734.85	244.78
735.18	244.34
735.51	244.05
735.84	243.60
736.17	243.41
736.50	242.93
736.83	243.01
737.16	242.80
737.49	242.50
737.82	242.01
738.15	241.75
738.48	241.53
738.81	241.15
739.14	240.85
739.47	240.42
739.80	240.09
740.13	239.80
740.46	239.52
740.79	239.20
741.12	238.92
741.45	238.52
741.78	237.91
742.11	237.77
742.44	237.40
742.77	237.20
743.10	236.86
743.43	236.53
743.75	235.87
744.08	235.96
744.41	235.67
744.74	235.38
745.07	235.11
745.40	234.87
745.73	234.74
746.06	234.49
746.39	234.37
746.71	234.13
747.04	233.87
747.37	233.58
747.70	233.34
748.03	233.07
748.36	232.87
748.68	232.69
749.01	232.30
749.34	232.07
749.67	231.87
750.00	231.62
750.33	231.70
750.65	231.50
750.98	230.83
751.31	230.62
751.64	230.47
751.97	230.45
752.29	230.28
752.62	229.88
752.95	229.69
753.28	229.45
753.60	229.31
753.93	229.12
754.26	228.95
754.59	228.72
754.91	228.61
755.24	228.40
755.57	228.18
755.90	227.97
756.22	227.79
756.55	227.50
756.88	227.30
757.20	226.78
757.53	226.47
757.86	226.29
758.19	226.14
758.51	225.98
758.84	225.59
759.17	225.35
759.49	225.24
759.82	225.26
760.15	225.05
760.47	224.79
760.80	224.55
761.13	224.45
761.45	224.31
761.78	224.11
762.11	224.04
762.43	223.93
762.76	223.85
763.08	223.70
763.41	223.60
763.74	223.46
764.06	223.34
764.39	223.28
764.71	223.20
765.04	223.06
765.37	222.83
765.69	222.68
766.02	222.53
766.34	222.33
766.67	221.99
767.00	221.99
767.32	222.04
767.65	222.14
767.97	222.00
768.30	221.91
768.62	221.71
768.95	221.54
769.27	221.37
769.60	221.24
769.92	221.11
770.25	220.95
770.57	220.76
770.90	220.67
771.22	220.56
771.55	220.43
771.87	220.31
772.20	220.22
772.52	220.41
772.85	220.73
773.17	220.65
773.50	220.55
773.82	220.43
774.15	220.13
774.47	219.79
774.80	219.61
775.12	219.40
775.45	219.34
775.77	219.22
776.09	219.16
776.42	219.08
776.74	219.05
777.07	218.91
777.39	218.83
777.72	218.72
778.04	218.71
778.36	218.64
778.69	218.56
779.01	218.57
779.33	218.25
779.66	217.78
779.98	217.78
780.31	217.73
780.63	217.75
780.95	217.84
781.28	217.77
781.60	217.74
781.92	217.75
782.25	217.69
782.57	217.66
782.89	217.56
783.22	217.48
783.54	217.41
783.86	217.39
784.19	217.35
784.51	217.42
784.83	217.28
785.16	217.13
785.48	217.11
785.80	217.10
786.12	217.05
786.45	216.98
786.77	216.95
787.09	216.92
