SpectraSuite Data File
++++++++++++++++++++++++++++++++++++
Date: Mon Feb 25 16:59:56 EST 2013
User: group
Dark Spectrum Present: No
Reference Spectrum Present: No
Number of Sampled Component Spectra: 1
Spectrometers: USB2E7196
Integration Time (usec): 104000 (USB2E7196)
Spectra Averaged: 20 (USB2E7196)
Boxcar Smoothing: 10 (USB2E7196)
Correct for Electrical Dark: No (USB2E7196)
Strobe/Lamp Enabled: No (USB2E7196)
Correct for Detector Non-linearity: No (USB2E7196)
Correct for Stray Light: No (USB2E7196)
Number of Pixels in Processed Spectrum: 2048
>>>>>Begin Processed Spectral Data<<<<<
339.09	0.00
339.48	198.95
339.86	200.55
340.24	201.60
340.63	201.90
341.01	210.10
341.39	205.55
341.78	206.85
342.16	209.40
342.54	209.35
342.93	198.40
343.31	208.46
343.69	209.01
344.07	209.52
344.46	210.03
344.84	210.50
345.22	210.50
345.60	210.75
345.99	210.95
346.37	211.07
346.75	211.09
347.13	211.10
347.52	211.28
347.90	211.42
348.28	211.48
348.66	211.57
349.05	211.43
349.43	211.43
349.81	211.48
350.19	211.55
350.57	211.60
350.96	211.67
351.34	211.66
351.72	211.77
352.10	211.80
352.48	211.83
352.87	211.84
353.25	211.88
353.63	211.92
354.01	212.01
354.39	211.97
354.77	212.07
355.15	212.29
355.54	212.23
355.92	212.16
356.30	212.21
356.68	212.54
357.06	212.66
357.44	212.60
357.82	212.69
358.20	212.78
358.58	212.74
358.97	212.78
359.35	212.90
359.73	212.98
360.11	213.01
360.49	213.06
360.87	213.08
361.25	213.19
361.63	213.37
362.01	213.41
362.39	213.50
362.77	213.58
363.15	213.49
363.53	213.50
363.91	213.55
364.29	213.52
364.67	213.21
365.05	213.17
365.43	213.27
365.81	213.34
366.19	213.41
366.57	213.64
366.95	213.63
367.33	213.55
367.71	213.55
368.09	213.67
368.47	213.57
368.85	213.56
369.23	213.63
369.61	213.46
369.99	213.53
370.37	213.57
370.75	213.71
371.13	213.66
371.51	213.56
371.89	213.58
372.27	213.61
372.65	213.60
373.03	213.59
373.41	213.49
373.78	213.41
374.16	213.25
374.54	213.06
374.92	213.00
375.30	213.00
375.68	212.82
376.06	212.71
376.44	212.70
376.82	212.67
377.19	212.56
377.57	212.49
377.95	212.34
378.33	212.25
378.71	211.95
379.09	211.95
379.47	212.00
379.84	211.87
380.22	211.79
380.60	211.68
380.98	211.61
381.36	211.62
381.73	211.50
382.11	211.51
382.49	211.51
382.87	211.44
383.25	211.40
383.62	211.75
384.00	211.67
384.38	211.66
384.76	211.66
385.13	211.81
385.51	211.80
385.89	211.71
386.27	211.66
386.64	211.74
387.02	211.66
387.40	211.60
387.78	211.60
388.15	211.59
388.53	211.52
388.91	211.47
389.29	211.40
389.66	211.42
390.04	211.38
390.42	211.41
390.79	211.37
391.17	211.33
391.55	210.98
391.92	210.95
392.30	210.91
392.68	210.84
393.05	210.77
393.43	210.80
393.81	210.83
394.18	210.82
394.56	210.78
394.94	210.84
395.31	210.80
395.69	210.90
396.06	210.94
396.44	211.07
396.82	211.09
397.19	211.35
397.57	211.35
397.95	211.40
398.32	211.30
398.70	211.40
399.07	211.56
399.45	211.58
399.82	211.63
400.20	211.68
400.58	211.74
400.95	211.63
401.33	211.74
401.70	212.10
402.08	212.15
402.45	212.25
402.83	212.41
403.20	212.57
403.58	212.60
403.95	212.86
404.33	212.99
404.71	213.13
405.08	213.38
405.46	213.58
405.83	213.76
406.21	214.00
406.58	214.24
406.96	214.48
407.33	214.79
407.70	215.13
408.08	215.72
408.45	216.13
408.83	216.60
409.20	216.97
409.58	217.09
409.95	217.67
410.33	218.22
410.70	218.63
411.08	219.26
411.45	219.95
411.82	220.39
412.20	221.14
412.57	222.12
412.95	222.57
413.32	223.43
413.69	224.31
414.07	225.28
414.44	226.27
414.82	227.35
415.19	228.66
415.56	229.95
415.94	231.15
416.31	232.71
416.68	234.23
417.06	236.03
417.43	237.81
417.81	239.58
418.18	241.53
418.55	243.75
418.93	245.88
419.30	248.17
419.67	250.66
420.04	253.18
420.42	255.71
420.79	258.99
421.16	261.98
421.54	265.28
421.91	268.60
422.28	272.14
422.66	275.75
423.03	279.37
423.40	283.02
423.77	287.00
424.15	290.98
424.52	295.14
424.89	299.80
425.26	304.25
425.64	308.60
426.01	313.36
426.38	318.31
426.75	323.43
427.13	328.66
427.50	334.28
427.87	340.08
428.24	345.91
428.61	351.32
428.99	357.42
429.36	363.90
429.73	370.43
430.10	376.91
430.47	383.67
430.85	390.41
431.22	398.00
431.59	405.80
431.96	413.34
432.33	421.75
432.70	429.77
433.08	439.19
433.45	448.22
433.82	457.26
434.19	467.18
434.56	476.95
434.93	486.48
435.30	495.75
435.68	506.27
436.05	516.70
436.42	527.18
436.79	536.93
437.16	547.47
437.53	558.30
437.90	569.10
438.27	579.80
438.64	591.22
439.01	601.47
439.38	610.83
439.75	619.94
440.13	630.21
440.50	640.04
440.87	648.36
441.24	656.76
441.61	666.03
441.98	673.21
442.35	681.55
442.72	689.68
443.09	697.78
443.46	702.79
443.83	706.41
444.20	709.68
444.57	714.10
444.94	716.44
445.31	719.15
445.68	721.94
446.05	723.55
446.42	723.19
446.79	722.71
447.16	722.13
447.53	721.97
447.90	718.86
448.27	715.68
448.64	710.82
449.01	707.45
449.37	701.03
449.74	694.87
450.11	687.44
450.48	679.19
450.85	670.65
451.22	663.38
451.59	656.51
451.96	649.89
452.33	640.81
452.70	632.65
453.07	622.73
453.43	612.44
453.80	602.72
454.17	593.40
454.54	584.64
454.91	575.16
455.28	565.84
455.65	557.21
456.02	548.65
456.38	541.33
456.75	532.12
457.12	524.47
457.49	516.72
457.86	509.00
458.23	502.74
458.59	495.77
458.96	488.75
459.33	482.41
459.70	476.08
460.07	471.11
460.43	465.40
460.80	460.06
461.17	455.25
461.54	450.24
461.91	445.58
462.27	440.69
462.64	436.56
463.01	432.00
463.38	427.68
463.74	423.10
464.11	419.14
464.48	415.76
464.85	411.95
465.21	409.26
465.58	406.34
465.95	402.63
466.32	399.57
466.68	396.54
467.05	393.60
467.42	390.59
467.78	387.44
468.15	384.52
468.52	382.19
468.88	379.35
469.25	376.71
469.62	374.67
469.98	372.27
470.35	370.17
470.72	368.10
471.08	365.80
471.45	363.93
471.82	361.97
472.18	359.99
472.55	358.53
472.92	356.63
473.28	354.92
473.65	353.20
474.02	351.68
474.38	350.49
474.75	349.46
475.11	348.32
475.48	347.43
475.85	346.49
476.21	345.62
476.58	344.90
476.94	344.33
477.31	343.54
477.67	343.10
478.04	342.48
478.41	342.22
478.77	342.20
479.14	341.74
479.50	341.52
479.87	341.41
480.23	341.27
480.60	341.06
480.96	341.06
481.33	341.43
481.69	341.71
482.06	341.83
482.42	341.83
482.79	341.98
483.15	342.25
483.52	342.83
483.88	343.17
484.25	343.69
484.61	344.21
484.98	344.74
485.34	345.59
485.71	346.57
486.07	347.43
486.44	348.01
486.80	349.10
487.17	350.17
487.53	351.50
487.90	352.74
488.26	354.28
488.62	355.67
488.99	356.97
489.35	358.33
489.72	359.94
490.08	361.64
490.44	363.28
490.81	365.10
491.17	366.85
491.54	368.82
491.90	370.70
492.26	372.74
492.63	374.85
492.99	376.91
493.36	379.07
493.72	381.31
494.08	383.79
494.45	386.31
494.81	389.01
495.17	391.44
495.54	394.23
495.90	396.81
496.26	399.48
496.63	402.40
496.99	405.34
497.35	408.20
497.72	411.23
498.08	414.30
498.44	417.37
498.80	420.68
499.17	423.98
499.53	427.33
499.89	430.68
500.26	433.96
500.62	437.23
500.98	440.49
501.34	443.84
501.71	447.14
502.07	450.46
502.43	453.74
502.79	456.92
503.16	459.98
503.52	463.15
503.88	466.44
504.24	469.67
504.60	472.85
504.97	476.11
505.33	479.17
505.69	482.62
506.05	485.84
506.41	488.72
506.78	491.50
507.14	494.18
507.50	496.95
507.86	499.74
508.22	502.43
508.59	504.93
508.95	507.41
509.31	509.99
509.67	512.31
510.03	514.53
510.39	517.06
510.75	519.48
511.12	521.80
511.48	524.02
511.84	525.94
512.20	527.93
512.56	530.01
512.92	532.06
513.28	533.69
513.64	535.28
514.00	537.02
514.37	538.76
514.73	540.54
515.09	542.25
515.45	543.64
515.81	544.97
516.17	546.36
516.53	547.64
516.89	548.77
517.25	549.86
517.61	550.94
517.97	551.79
518.33	552.68
518.69	553.52
519.05	554.46
519.41	555.37
519.77	556.45
520.13	556.97
520.49	557.42
520.85	558.12
521.21	558.86
521.57	559.42
521.93	559.81
522.29	560.55
522.65	561.02
523.01	561.71
523.37	562.14
523.73	562.80
524.09	563.32
524.45	563.83
524.81	564.50
525.17	565.28
525.53	566.04
525.89	566.63
526.25	567.24
526.61	567.47
526.97	567.99
527.33	568.39
527.68	569.37
528.04	570.12
528.40	570.66
528.76	571.26
529.12	571.98
529.48	573.09
529.84	573.70
530.20	574.44
530.56	575.36
530.91	576.62
531.27	577.73
531.63	578.91
531.99	580.01
532.35	581.04
532.71	582.15
533.07	583.55
533.42	585.25
533.78	586.76
534.14	588.38
534.50	589.88
534.86	591.53
535.21	592.72
535.57	594.56
535.93	596.13
536.29	598.05
536.65	599.88
537.00	601.35
537.36	603.07
537.72	604.89
538.08	606.90
538.44	608.52
538.79	610.40
539.15	612.32
539.51	614.25
539.87	616.44
540.22	618.56
540.58	620.46
540.94	622.28
541.29	624.26
541.65	626.38
542.01	628.57
542.37	630.62
542.72	632.80
543.08	634.85
543.44	637.27
543.79	639.21
544.15	641.47
544.51	644.14
544.87	646.61
545.22	649.09
545.58	651.22
545.94	653.57
546.29	655.70
546.65	658.06
547.01	660.48
547.36	662.93
547.72	665.33
548.07	667.98
548.43	670.27
548.79	672.58
549.14	674.90
549.50	677.30
549.86	679.62
550.21	682.18
550.57	684.80
550.92	687.15
551.28	689.78
551.64	692.30
551.99	694.87
552.35	697.28
552.70	699.61
553.06	702.16
553.41	704.69
553.77	707.52
554.13	710.07
554.48	712.56
554.84	715.20
555.19	717.53
555.55	719.98
555.90	722.36
556.26	724.75
556.61	726.96
556.97	729.05
557.32	731.41
557.68	733.58
558.03	735.70
558.39	737.81
558.74	739.88
559.10	741.77
559.45	743.73
559.81	746.04
560.16	748.05
560.52	750.11
560.87	752.15
561.23	754.01
561.58	756.07
561.94	757.90
562.29	759.45
562.64	761.43
563.00	763.10
563.35	765.08
563.71	767.16
564.06	769.14
564.42	771.29
564.77	773.24
565.12	775.29
565.48	777.35
565.83	779.29
566.19	781.31
566.54	783.15
566.89	784.71
567.25	786.38
567.60	788.55
567.96	790.42
568.31	792.47
568.66	794.06
569.02	795.29
569.37	796.81
569.72	798.30
570.08	799.64
570.43	800.95
570.78	802.11
571.14	803.06
571.49	804.07
571.84	805.02
572.20	805.77
572.55	806.56
572.90	806.87
573.26	807.39
573.61	807.62
573.96	808.11
574.31	808.51
574.67	808.63
575.02	808.30
575.37	807.95
575.72	807.53
576.08	807.50
576.43	807.33
576.78	807.12
577.13	806.96
577.49	806.86
577.84	806.67
578.19	806.35
578.54	806.40
578.90	806.50
579.25	806.15
579.60	805.65
579.95	804.86
580.30	804.48
580.66	804.20
581.01	803.57
581.36	802.75
581.71	802.14
582.06	801.53
582.42	801.15
582.77	800.40
583.12	799.70
583.47	798.80
583.82	798.11
584.17	797.24
584.53	796.68
584.88	795.67
585.23	794.57
585.58	793.70
585.93	792.56
586.28	791.47
586.63	790.47
586.98	789.70
587.34	789.06
587.69	787.95
588.04	786.68
588.39	786.00
588.74	785.09
589.09	784.19
589.44	782.80
589.79	781.49
590.14	780.59
590.49	779.32
590.84	778.25
591.19	777.32
591.54	776.34
591.89	774.54
592.25	773.41
592.60	772.09
592.95	770.53
593.30	768.85
593.65	767.07
594.00	765.36
594.35	764.67
594.70	762.93
595.05	761.61
595.40	760.28
595.75	758.56
596.10	757.05
596.45	755.40
596.80	754.31
597.15	752.91
597.50	751.03
597.85	749.59
598.19	747.91
598.54	746.08
598.89	744.38
599.24	743.17
599.59	741.28
599.94	739.72
600.29	738.14
600.64	736.41
600.99	734.85
601.34	733.44
601.69	730.80
602.04	728.90
602.39	726.98
602.74	725.13
603.08	723.37
603.43	721.86
603.78	720.05
604.13	717.95
604.48	716.11
604.83	714.82
605.18	713.35
605.53	711.50
605.87	709.66
606.22	707.94
606.57	705.87
606.92	703.97
607.27	701.97
607.62	700.03
607.96	698.30
608.31	696.68
608.66	694.59
609.01	692.66
609.36	690.80
609.70	688.84
610.05	686.74
610.40	684.80
610.75	682.40
611.10	680.47
611.44	678.33
611.79	676.11
612.14	673.80
612.49	671.13
612.83	668.99
613.18	666.68
613.53	664.28
613.88	661.79
614.22	659.55
614.57	657.40
614.92	655.22
615.27	652.96
615.61	650.51
615.96	648.29
616.31	646.05
616.65	644.05
617.00	641.68
617.35	639.48
617.70	637.00
618.04	634.62
618.39	632.01
618.74	629.59
619.08	627.04
619.43	624.60
619.78	622.40
620.12	620.12
620.47	617.89
620.82	615.35
621.16	612.98
621.51	610.69
621.85	608.25
622.20	605.89
622.55	603.24
622.89	600.68
623.24	598.18
623.59	595.61
623.93	593.11
624.28	590.89
624.62	588.92
624.97	586.76
625.32	584.61
625.66	582.31
626.01	579.99
626.35	577.89
626.70	575.54
627.04	573.45
627.39	571.28
627.73	569.22
628.08	567.32
628.43	565.17
628.77	562.88
629.12	560.60
629.46	558.59
629.81	556.58
630.15	554.35
630.50	552.18
630.84	550.02
631.19	547.80
631.53	545.69
631.88	542.98
632.22	540.50
632.57	538.38
632.91	536.23
633.26	534.02
633.60	531.87
633.95	529.68
634.29	527.49
634.64	525.38
634.98	522.98
635.32	520.83
635.67	519.04
636.01	517.01
636.36	514.86
636.70	512.86
637.05	510.82
637.39	508.97
637.73	507.36
638.08	505.84
638.42	504.05
638.77	502.11
639.11	500.28
639.45	498.57
639.80	496.49
640.14	494.57
640.49	492.91
640.83	490.98
641.17	489.16
641.52	487.11
641.86	485.08
642.20	483.31
642.55	481.15
642.89	478.91
643.23	477.06
643.58	475.43
643.92	473.22
644.26	471.33
644.61	469.39
644.95	467.22
645.29	465.07
645.64	463.01
645.98	461.05
646.32	459.22
646.66	457.21
647.01	455.26
647.35	453.33
647.69	451.23
648.04	449.29
648.38	447.43
648.72	445.46
649.06	443.45
649.41	441.48
649.75	439.68
650.09	438.02
650.43	436.09
650.78	433.97
651.12	432.12
651.46	430.35
651.80	428.60
652.14	426.77
652.49	425.06
652.83	423.25
653.17	421.43
653.51	419.49
653.85	417.85
654.20	416.27
654.54	414.54
654.88	412.75
655.22	411.06
655.56	409.28
655.90	407.70
656.25	406.00
656.59	404.25
656.93	402.67
657.27	401.09
657.61	399.35
657.95	397.90
658.29	396.21
658.64	394.68
658.98	392.97
659.32	391.35
659.66	389.58
660.00	387.90
660.34	386.21
660.68	384.65
661.02	382.82
661.36	381.17
661.70	379.62
662.05	378.13
662.39	376.72
662.73	375.31
663.07	373.93
663.41	372.52
663.75	371.00
664.09	369.55
664.43	367.89
664.77	366.49
665.11	364.88
665.45	363.60
665.79	362.23
666.13	360.93
666.47	359.48
666.81	358.11
667.15	356.82
667.49	355.62
667.83	354.33
668.17	353.13
668.51	351.82
668.85	350.59
669.19	349.52
669.53	348.05
669.87	346.65
670.21	345.30
670.55	344.09
670.89	343.07
671.23	341.88
671.57	340.79
671.91	339.60
672.25	338.51
672.58	337.30
672.92	336.03
673.26	334.86
673.60	333.75
673.94	332.71
674.28	331.57
674.62	330.47
674.96	329.36
675.30	328.27
675.64	327.18
675.97	326.07
676.31	325.03
676.65	324.03
676.99	323.13
677.33	321.99
677.67	321.01
678.01	319.92
678.34	319.00
678.68	318.02
679.02	316.99
679.36	316.01
679.70	315.02
680.04	314.04
680.37	313.00
680.71	312.02
681.05	311.00
681.39	310.07
681.73	309.10
682.06	308.30
682.40	307.49
682.74	306.61
683.08	305.85
683.42	304.89
683.75	304.08
684.09	303.19
684.43	302.38
684.77	301.42
685.10	300.48
685.44	299.44
685.78	298.50
686.12	297.69
686.45	296.70
686.79	295.85
687.13	295.07
687.46	294.27
687.80	293.61
688.14	292.77
688.48	292.03
688.81	291.23
689.15	290.41
689.49	289.55
689.82	288.83
690.16	287.90
690.50	287.05
690.83	286.20
691.17	285.30
691.51	284.52
691.84	283.78
692.18	283.04
692.52	282.34
692.85	281.74
693.19	281.21
693.52	280.61
693.86	279.85
694.20	279.19
694.53	278.49
694.87	277.64
695.21	276.94
695.54	276.20
695.88	275.50
696.21	274.70
696.55	274.06
696.88	273.36
697.22	272.65
697.56	272.02
697.89	271.41
698.23	270.81
698.56	270.15
698.90	269.54
699.23	268.90
699.57	268.28
699.90	267.60
700.24	266.76
700.58	266.17
700.91	265.71
701.25	265.33
701.58	264.90
701.92	264.41
702.25	263.82
702.59	263.27
702.92	262.70
703.26	262.23
703.59	261.66
703.93	261.45
704.26	260.93
704.60	260.44
704.93	259.87
705.26	259.33
705.60	258.91
705.93	258.38
706.27	258.01
706.60	257.59
706.94	257.22
707.27	256.75
707.61	256.29
707.94	255.82
708.27	255.06
708.61	254.46
708.94	254.00
709.28	253.60
709.61	253.16
709.94	252.77
710.28	252.36
710.61	251.92
710.95	251.13
711.28	250.99
711.61	250.60
711.95	250.34
712.28	249.97
712.61	249.47
712.95	249.25
713.28	248.99
713.61	248.63
713.95	248.16
714.28	247.92
714.61	247.47
714.95	246.97
715.28	246.56
715.61	246.11
715.95	245.76
716.28	245.36
716.61	245.04
716.95	244.69
717.28	244.30
717.61	243.94
717.94	243.70
718.28	243.10
718.61	242.72
718.94	242.31
719.27	242.01
719.61	241.80
719.94	241.42
720.27	240.98
720.60	240.66
720.94	240.30
721.27	239.98
721.60	239.80
721.93	239.59
722.27	239.45
722.60	239.31
722.93	239.09
723.26	238.86
723.59	238.51
723.93	238.20
724.26	237.93
724.59	237.77
724.92	237.48
725.25	237.32
725.59	237.10
725.92	236.98
726.25	236.70
726.58	236.43
726.91	236.19
727.24	235.93
727.57	235.70
727.91	235.51
728.24	235.29
728.57	235.00
728.90	234.82
729.23	234.51
729.56	234.35
729.89	234.07
730.22	233.76
730.55	233.61
730.89	233.43
731.22	233.22
731.55	232.99
731.88	232.76
732.21	232.52
732.54	232.31
732.87	231.97
733.20	231.81
733.53	231.61
733.86	231.48
734.19	231.24
734.52	231.09
734.85	231.16
735.18	230.92
735.51	230.90
735.84	230.69
736.17	230.64
736.50	230.32
736.83	230.54
737.16	230.46
737.49	230.28
737.82	230.04
738.15	229.91
738.48	229.66
738.81	229.49
739.14	229.24
739.47	229.01
739.80	228.88
740.13	228.68
740.46	228.41
740.79	228.11
741.12	227.99
741.45	227.69
741.78	227.29
742.11	227.21
742.44	226.87
742.77	226.77
743.10	226.55
743.43	226.37
743.75	225.85
744.08	226.15
744.41	225.92
744.74	225.74
745.07	225.52
745.40	225.46
745.73	225.41
746.06	225.33
746.39	225.25
746.71	225.07
747.04	224.92
747.37	224.85
747.70	224.75
748.03	224.65
748.36	224.57
748.68	224.40
749.01	224.19
749.34	224.05
749.67	223.86
750.00	223.74
750.33	223.90
750.65	223.84
750.98	223.28
751.31	223.20
751.64	223.15
751.97	223.20
752.29	223.01
752.62	222.74
752.95	222.59
753.28	222.42
753.60	222.30
753.93	222.25
754.26	222.17
754.59	221.95
754.91	221.72
755.24	221.63
755.57	221.51
755.90	221.38
756.22	221.27
756.55	221.12
756.88	220.94
757.20	220.63
757.53	220.43
757.86	220.28
758.19	220.17
758.51	220.05
758.84	219.74
759.17	219.64
759.49	219.49
759.82	219.50
760.15	219.41
760.47	219.35
760.80	219.21
761.13	219.12
761.45	218.98
761.78	218.91
762.11	218.79
762.43	218.70
762.76	218.63
763.08	218.57
763.41	218.55
763.74	218.49
764.06	218.36
764.39	218.26
764.71	218.16
765.04	218.07
765.37	217.96
765.69	217.90
766.02	217.79
766.34	217.77
766.67	217.53
767.00	217.59
767.32	217.66
767.65	217.79
767.97	217.70
768.30	217.72
768.62	217.69
768.95	217.57
769.27	217.52
769.60	217.49
769.92	217.38
770.25	217.25
770.57	217.14
770.90	217.02
771.22	216.91
771.55	216.88
771.87	216.85
772.20	216.85
772.52	217.10
772.85	217.47
773.17	217.47
773.50	217.50
773.82	217.27
774.15	217.03
774.47	216.70
774.80	216.62
775.12	216.55
775.45	216.47
775.77	216.52
776.09	216.42
776.42	216.40
776.74	216.57
777.07	216.52
777.39	216.49
777.72	216.54
778.04	216.60
778.36	216.55
778.69	216.55
779.01	216.48
779.33	216.15
779.66	215.67
779.98	215.59
780.31	215.60
780.63	215.81
780.95	215.87
781.28	215.90
781.60	215.82
781.92	215.76
782.25	215.67
782.57	215.58
782.89	215.52
783.22	215.46
783.54	215.21
783.86	215.17
784.19	215.13
784.51	215.14
784.83	214.99
785.16	214.94
785.48	214.81
785.80	214.83
786.12	214.82
786.45	214.83
786.77	214.83
787.09	214.72
787.42	214.57
787.74	214.58
788.06	214.49
788.38	214.49
788.71	214.49
789.03	214.52
789.35	214.55
789.67	214.49
789.99	214.41
790.32	214.41
790.64	214.39
790.96	214.62
791.28	214.42
791.61	214.29
791.93	214.26
792.25	214.23
792.57	214.35
792.89	214.25
793.21	214.25
793.54	214.13
793.86	214.00
794.18	213.96
