SpectraSuite Data File
++++++++++++++++++++++++++++++++++++
Date: Mon Feb 25 16:58:46 EST 2013
User: group
Dark Spectrum Present: No
Reference Spectrum Present: No
Number of Sampled Component Spectra: 1
Spectrometers: USB2E7196
Integration Time (usec): 104000 (USB2E7196)
Spectra Averaged: 20 (USB2E7196)
Boxcar Smoothing: 10 (USB2E7196)
Correct for Electrical Dark: No (USB2E7196)
Strobe/Lamp Enabled: No (USB2E7196)
Correct for Detector Non-linearity: No (USB2E7196)
Correct for Stray Light: No (USB2E7196)
Number of Pixels in Processed Spectrum: 2048
>>>>>Begin Processed Spectral Data<<<<<
339.09	0.00
339.48	197.45
339.86	200.15
340.24	201.00
340.63	202.55
341.01	209.00
341.39	205.85
341.78	206.95
342.16	207.65
342.54	207.85
342.93	198.00
343.31	208.00
343.69	208.63
344.07	209.13
344.46	209.59
344.84	210.00
345.22	210.01
345.60	210.19
345.99	210.38
346.37	210.57
346.75	210.72
347.13	210.78
347.52	210.78
347.90	210.95
348.28	210.90
348.66	211.04
349.05	210.93
349.43	210.90
349.81	211.02
350.19	211.08
350.57	211.12
350.96	211.26
351.34	211.36
351.72	211.42
352.10	211.48
352.48	211.55
352.87	211.63
353.25	211.79
353.63	211.89
354.01	211.95
354.39	212.00
354.77	212.08
355.15	212.21
355.54	212.25
355.92	212.16
356.30	212.31
356.68	212.57
357.06	212.69
357.44	212.74
357.82	212.70
358.20	212.80
358.58	212.90
358.97	213.00
359.35	213.10
359.73	213.24
360.11	213.28
360.49	213.31
360.87	213.36
361.25	213.44
361.63	213.61
362.01	213.72
362.39	213.72
362.77	213.75
363.15	213.77
363.53	213.79
363.91	213.89
364.29	213.93
364.67	213.63
365.05	213.69
365.43	213.74
365.81	213.78
366.19	214.05
366.57	214.24
366.95	214.19
367.33	214.11
367.71	214.05
368.09	214.14
368.47	214.11
368.85	214.00
369.23	214.04
369.61	214.00
369.99	214.05
370.37	214.14
370.75	214.30
371.13	214.23
371.51	214.25
371.89	214.18
372.27	214.15
372.65	214.15
373.03	214.06
373.41	213.96
373.78	213.94
374.16	213.68
374.54	213.46
374.92	213.48
375.30	213.51
375.68	213.41
376.06	213.34
376.44	213.37
376.82	213.42
377.19	213.27
377.57	213.08
377.95	212.95
378.33	212.81
378.71	212.58
379.09	212.61
379.47	212.58
379.84	212.60
380.22	212.46
380.60	212.31
380.98	212.30
381.36	212.29
381.73	212.16
382.11	212.19
382.49	212.16
382.87	211.96
383.25	211.86
383.62	212.25
384.00	212.08
384.38	211.97
384.76	211.97
385.13	212.12
385.51	212.12
385.89	212.06
386.27	212.08
386.64	212.10
387.02	211.95
387.40	211.89
387.78	211.81
388.15	211.88
388.53	211.82
388.91	211.78
389.29	211.69
389.66	211.70
390.04	211.60
390.42	211.52
390.79	211.59
391.17	211.54
391.55	211.14
391.92	211.17
392.30	211.18
392.68	211.07
393.05	210.97
393.43	211.00
393.81	211.00
394.18	210.91
394.56	210.86
394.94	210.99
395.31	210.96
395.69	211.06
396.06	211.05
396.44	211.10
396.82	211.11
397.19	211.27
397.57	211.29
397.95	211.31
398.32	211.38
398.70	211.42
399.07	211.55
399.45	211.53
399.82	211.53
400.20	211.56
400.58	211.70
400.95	211.71
401.33	211.80
401.70	212.08
402.08	212.19
402.45	212.35
402.83	212.50
403.20	212.59
403.58	212.67
403.95	212.87
404.33	213.04
404.71	213.21
405.08	213.60
405.46	213.80
405.83	214.07
406.21	214.22
406.58	214.48
406.96	214.71
407.33	215.06
407.70	215.42
408.08	216.08
408.45	216.55
408.83	216.95
409.20	217.33
409.58	217.63
409.95	218.19
410.33	218.75
410.70	219.26
411.08	219.96
411.45	220.70
411.82	221.39
412.20	222.29
412.57	223.38
412.95	223.96
413.32	225.09
413.69	226.09
414.07	227.30
414.44	228.54
414.82	229.79
415.19	231.26
415.56	232.82
415.94	234.23
416.31	235.94
416.68	237.74
417.06	239.70
417.43	241.67
417.81	243.81
418.18	246.04
418.55	248.43
418.93	250.99
419.30	253.66
419.67	256.49
420.04	259.41
420.42	262.38
420.79	266.12
421.16	269.55
421.54	273.41
421.91	277.20
422.28	281.13
422.66	285.36
423.03	289.63
423.40	293.97
423.77	298.55
424.15	303.09
424.52	308.07
424.89	313.55
425.26	318.77
425.64	323.88
426.01	329.42
426.38	335.16
426.75	341.04
427.13	346.99
427.50	353.37
427.87	360.02
428.24	366.66
428.61	372.87
428.99	379.95
429.36	387.51
429.73	394.99
430.10	402.55
430.47	410.47
430.85	418.43
431.22	426.83
431.59	435.96
431.96	444.73
432.33	454.35
432.70	463.66
433.08	474.75
433.45	484.97
433.82	495.18
434.19	506.66
434.56	517.96
434.93	529.09
435.30	540.07
435.68	552.27
436.05	564.35
436.42	576.47
436.79	587.59
437.16	599.57
437.53	612.23
437.90	624.81
438.27	637.18
438.64	650.14
439.01	662.43
439.38	673.25
439.75	683.86
440.13	695.95
440.50	707.54
440.87	716.98
441.24	726.83
441.61	737.88
441.98	746.40
442.35	755.96
442.72	765.48
443.09	774.76
443.46	780.50
443.83	784.66
444.20	788.51
444.57	793.71
444.94	796.44
445.31	799.56
445.68	802.61
446.05	804.30
446.42	804.06
446.79	803.30
447.16	802.67
447.53	802.59
447.90	798.85
448.27	794.93
448.64	789.19
449.01	785.43
449.37	777.89
449.74	770.47
450.11	761.91
450.48	752.39
450.85	742.51
451.22	734.47
451.59	726.69
451.96	719.01
452.33	708.68
452.70	699.39
453.07	687.95
453.43	676.22
453.80	665.07
454.17	654.27
454.54	644.18
454.91	633.16
455.28	622.30
455.65	612.40
456.02	602.36
456.38	594.03
456.75	583.38
457.12	574.55
457.49	565.78
457.86	557.03
458.23	549.58
458.59	541.57
458.96	533.26
459.33	525.93
459.70	518.69
460.07	512.77
460.43	506.23
460.80	500.00
461.17	494.57
461.54	488.86
461.91	483.37
462.27	477.90
462.64	473.09
463.01	467.86
463.38	462.62
463.74	457.53
464.11	452.95
464.48	449.06
464.85	444.81
465.21	441.66
465.58	438.09
465.95	433.83
466.32	430.28
466.68	426.80
467.05	423.30
467.42	419.89
467.78	416.17
468.15	412.65
468.52	410.14
468.88	406.75
469.25	403.70
469.62	401.25
469.98	398.53
470.35	396.20
470.72	393.74
471.08	391.31
471.45	389.18
471.82	387.00
472.18	384.62
472.55	382.81
472.92	380.65
473.28	378.87
473.65	377.06
474.02	375.32
474.38	373.85
474.75	372.69
475.11	371.31
475.48	370.24
475.85	369.29
476.21	368.17
476.58	367.32
476.94	366.68
477.31	365.99
477.67	365.29
478.04	364.67
478.41	364.36
478.77	364.23
479.14	363.70
479.50	363.51
479.87	363.52
480.23	363.53
480.60	363.37
480.96	363.37
481.33	363.82
481.69	364.11
482.06	364.25
482.42	364.40
482.79	364.62
483.15	365.18
483.52	365.89
483.88	366.45
484.25	367.05
484.61	367.75
484.98	368.46
485.34	369.59
485.71	370.56
486.07	371.69
486.44	372.57
486.80	373.87
487.17	375.15
487.53	376.62
487.90	378.15
488.26	379.96
488.62	381.84
488.99	383.42
489.35	385.11
489.72	387.15
490.08	389.20
490.44	391.37
490.81	393.64
491.17	395.82
491.54	398.37
491.90	400.77
492.26	403.37
492.63	406.05
492.99	408.69
493.36	411.64
493.72	414.62
494.08	417.77
494.45	421.00
494.81	424.49
495.17	427.77
495.54	431.29
495.90	434.75
496.26	438.16
496.63	441.98
496.99	446.00
497.35	449.87
497.72	453.89
498.08	457.98
498.44	462.01
498.80	466.34
499.17	470.61
499.53	475.13
499.89	479.61
500.26	483.90
500.62	488.13
500.98	492.64
501.34	497.01
501.71	501.57
502.07	506.14
502.43	510.47
502.79	514.88
503.16	519.33
503.52	523.80
503.88	528.21
504.24	532.72
504.60	537.01
504.97	541.48
505.33	545.86
505.69	550.48
506.05	555.01
506.41	559.33
506.78	563.42
507.14	567.45
507.50	571.48
507.86	575.74
508.22	580.00
508.59	583.87
508.95	587.98
509.31	592.03
509.67	595.85
510.03	599.64
510.39	603.58
510.75	607.31
511.12	611.02
511.48	614.70
511.84	618.19
512.20	621.70
512.56	625.22
512.92	628.65
513.28	631.83
513.64	634.81
514.00	637.75
514.37	640.84
514.73	643.90
515.09	647.05
515.45	649.73
515.81	652.37
516.17	655.02
516.53	657.40
516.89	659.66
517.25	662.01
517.61	664.50
517.97	666.66
518.33	668.70
518.69	670.69
519.05	672.76
519.41	674.70
519.77	676.94
520.13	678.64
520.49	680.30
520.85	682.02
521.21	683.86
521.57	685.63
521.93	686.99
522.29	688.58
522.65	690.00
523.01	691.64
523.37	692.96
523.73	694.46
524.09	695.83
524.45	697.19
524.81	698.61
525.17	699.94
525.53	701.34
525.89	702.86
526.25	704.43
526.61	705.47
526.97	706.58
527.33	707.82
527.68	709.37
528.04	710.54
528.40	711.68
528.76	712.92
529.12	714.40
529.48	716.10
529.84	717.51
530.20	718.90
530.56	720.36
530.91	722.24
531.27	723.93
531.63	725.73
531.99	727.34
532.35	729.03
532.71	730.62
533.07	732.39
533.42	734.10
533.78	735.81
534.14	737.88
534.50	739.59
534.86	741.51
535.21	743.01
535.57	745.30
535.93	747.17
536.29	749.14
536.65	750.95
537.00	752.62
537.36	754.21
537.72	755.97
538.08	757.85
538.44	759.59
538.79	761.49
539.15	763.38
539.51	765.31
539.87	767.41
540.22	769.61
540.58	772.00
540.94	774.12
541.29	776.22
541.65	778.01
542.01	780.42
542.37	782.30
542.72	784.46
543.08	786.49
543.44	788.96
543.79	790.84
544.15	792.88
544.51	795.54
544.87	798.25
545.22	800.65
545.58	802.87
545.94	804.98
546.29	807.05
546.65	809.03
547.01	811.24
547.36	813.29
547.72	815.31
548.07	817.07
548.43	818.93
548.79	820.76
549.14	823.13
549.50	825.20
549.86	827.13
550.21	829.23
550.57	831.40
550.92	833.11
551.28	835.33
551.64	837.41
551.99	839.45
552.35	841.33
552.70	843.28
553.06	845.29
553.41	847.36
553.77	849.71
554.13	851.92
554.48	854.20
554.84	856.57
555.19	858.58
555.55	860.80
555.90	862.82
556.26	864.81
556.61	866.51
556.97	868.11
557.32	869.99
557.68	871.75
558.03	873.28
558.39	874.95
558.74	876.90
559.10	878.75
559.45	880.37
559.81	881.95
560.16	883.34
560.52	885.10
560.87	886.76
561.23	887.89
561.58	889.60
561.94	890.65
562.29	891.63
562.64	893.10
563.00	894.34
563.35	895.83
563.71	897.56
564.06	899.02
564.42	900.67
564.77	902.46
565.12	904.18
565.48	906.06
565.83	907.73
566.19	909.20
566.54	910.28
566.89	911.48
567.25	913.22
567.60	915.00
567.96	916.60
568.31	918.14
568.66	919.60
569.02	920.48
569.37	921.45
569.72	922.63
570.08	923.59
570.43	924.35
570.78	924.95
571.14	925.29
571.49	925.89
571.84	926.54
572.20	926.77
572.55	927.02
572.90	926.86
573.26	926.85
573.61	926.67
573.96	926.79
574.31	926.47
574.67	925.93
575.02	925.12
575.37	924.11
575.72	923.04
576.08	922.61
576.43	921.81
576.78	921.35
577.13	920.65
577.49	920.07
577.84	919.32
578.19	918.80
578.54	918.25
578.90	917.70
579.25	916.69
579.60	915.42
579.95	914.10
580.30	913.14
580.66	912.23
581.01	910.98
581.36	909.58
581.71	908.25
582.06	907.09
582.42	905.88
582.77	904.49
583.12	903.33
583.47	901.78
583.82	900.75
584.17	899.31
584.53	897.99
584.88	896.30
585.23	894.97
585.58	893.45
585.93	891.83
586.28	890.33
586.63	888.84
586.98	887.56
587.34	886.53
587.69	884.82
588.04	883.20
588.39	881.85
588.74	880.36
589.09	879.09
589.44	877.14
589.79	875.60
590.14	874.35
590.49	872.79
590.84	871.04
591.19	869.44
591.54	867.98
591.89	865.79
592.25	864.11
592.60	862.03
592.95	859.80
593.30	857.54
593.65	855.06
594.00	852.77
594.35	851.53
594.70	848.99
595.05	847.06
595.40	844.97
595.75	842.48
596.10	840.40
596.45	838.14
596.80	836.31
597.15	834.47
597.50	832.09
597.85	829.94
598.19	827.64
598.54	825.33
598.89	823.02
599.24	821.33
599.59	819.11
599.94	817.02
600.29	814.99
600.64	812.90
600.99	810.67
601.34	808.70
601.69	805.43
602.04	803.11
602.39	800.70
602.74	798.49
603.08	796.52
603.43	794.41
603.78	792.04
604.13	789.64
604.48	787.17
604.83	785.09
605.18	782.85
605.53	780.44
605.87	777.85
606.22	775.54
606.57	772.91
606.92	770.35
607.27	767.89
607.62	765.43
607.96	763.16
608.31	761.11
608.66	758.42
609.01	755.85
609.36	753.39
609.70	750.71
610.05	747.83
610.40	745.24
610.75	742.43
611.10	740.04
611.44	737.11
611.79	734.13
612.14	731.07
612.49	728.04
612.83	725.34
613.18	722.44
613.53	719.43
613.88	716.30
614.22	713.44
614.57	710.49
614.92	707.64
615.27	704.72
615.61	701.72
615.96	698.98
616.31	696.42
616.65	693.79
617.00	691.14
617.35	688.63
617.70	685.61
618.04	682.70
618.39	679.44
618.74	676.75
619.08	673.82
619.43	671.11
619.78	668.48
620.12	665.82
620.47	663.09
620.82	660.16
621.16	657.30
621.51	654.60
621.85	651.94
622.20	649.04
622.55	646.07
622.89	643.16
623.24	640.26
623.59	637.15
623.93	634.22
624.28	631.55
624.62	628.96
624.97	626.36
625.32	623.54
625.66	620.96
626.01	618.06
626.35	615.51
626.70	612.76
627.04	610.14
627.39	607.39
627.73	604.97
628.08	602.72
628.43	600.25
628.77	597.58
629.12	594.68
629.46	592.23
629.81	589.70
630.15	587.13
630.50	584.56
630.84	582.12
631.19	579.64
631.53	576.93
631.88	574.00
632.22	571.26
632.57	568.91
632.91	566.40
633.26	564.06
633.60	561.59
633.95	559.09
634.29	556.61
634.64	554.31
634.98	551.63
635.32	549.18
635.67	546.98
636.01	544.74
636.36	542.54
636.70	540.38
637.05	538.08
637.39	535.96
637.73	533.94
638.08	532.02
638.42	530.07
638.77	528.01
639.11	526.02
639.45	523.98
639.80	521.78
640.14	519.49
640.49	517.40
640.83	515.26
641.17	513.19
641.52	510.80
641.86	508.48
642.20	506.57
642.55	504.08
642.89	501.68
643.23	499.36
643.58	497.40
643.92	494.95
644.26	492.68
644.61	490.58
644.95	488.34
645.29	485.90
645.64	483.52
645.98	481.24
646.32	478.90
646.66	476.70
647.01	474.60
647.35	472.61
647.69	470.31
648.04	468.19
648.38	466.05
648.72	463.98
649.06	461.77
649.41	459.54
649.75	457.56
650.09	455.59
650.43	453.58
650.78	451.27
651.12	449.34
651.46	447.46
651.80	445.41
652.14	443.42
652.49	441.60
652.83	439.61
653.17	437.61
653.51	435.68
653.85	433.79
654.20	431.83
654.54	429.84
654.88	428.00
655.22	426.19
655.56	424.22
655.90	422.25
656.25	420.42
656.59	418.52
656.93	416.62
657.27	414.84
657.61	412.76
657.95	411.03
658.29	409.21
658.64	407.52
658.98	405.53
659.32	403.51
659.66	401.62
660.00	399.77
660.34	397.92
660.68	396.07
661.02	394.14
661.36	392.43
661.70	390.73
662.05	388.94
662.39	387.38
662.73	385.89
663.07	384.55
663.41	382.94
663.75	381.27
664.09	379.71
664.43	377.91
664.77	376.47
665.11	374.86
665.45	373.26
665.79	371.65
666.13	370.19
666.47	368.77
666.81	367.34
667.15	365.83
667.49	364.49
667.83	363.31
668.17	361.94
668.51	360.51
668.85	359.27
669.19	358.20
669.53	356.58
669.87	355.05
670.21	353.51
670.55	352.20
670.89	351.18
671.23	350.04
671.57	348.96
671.91	347.78
672.25	346.54
672.58	345.49
672.92	344.07
673.26	342.95
673.60	341.80
673.94	340.51
674.28	339.32
674.62	338.15
674.96	336.93
675.30	335.83
675.64	334.76
675.97	333.60
676.31	332.32
676.65	331.26
676.99	330.40
677.33	329.35
677.67	328.28
678.01	326.90
678.34	325.71
678.68	324.56
679.02	323.34
679.36	322.31
679.70	321.13
680.04	320.18
680.37	319.03
680.71	317.97
681.05	317.06
681.39	316.15
681.73	315.13
682.06	314.19
682.40	313.32
682.74	312.31
683.08	311.42
683.42	310.45
683.75	309.50
684.09	308.43
684.43	307.43
684.77	306.46
685.10	305.64
685.44	304.73
685.78	303.76
686.12	302.85
686.45	302.00
686.79	301.06
687.13	300.35
687.46	299.59
687.80	298.80
688.14	297.91
688.48	297.03
688.81	296.20
689.15	295.31
689.49	294.36
689.82	293.55
690.16	292.55
690.50	291.62
690.83	290.77
691.17	289.86
691.51	289.02
691.84	288.27
692.18	287.45
692.52	286.76
692.85	286.03
693.19	285.42
693.52	284.60
693.86	283.77
694.20	282.91
694.53	282.17
694.87	281.39
695.21	280.60
695.54	279.81
695.88	278.96
696.21	278.17
696.55	277.48
696.88	276.68
697.22	275.96
697.56	275.40
697.89	274.73
698.23	274.09
698.56	273.46
698.90	272.81
699.23	272.18
699.57	271.41
699.90	270.75
700.24	270.12
700.58	269.52
700.91	269.00
701.25	268.62
701.58	268.10
701.92	267.55
702.25	266.96
702.59	266.46
702.92	265.98
703.26	265.42
703.59	264.87
703.93	264.60
704.26	264.03
704.60	263.52
704.93	262.98
705.26	262.40
705.60	261.95
705.93	261.25
706.27	260.76
706.60	260.35
706.94	260.04
707.27	259.47
707.61	258.97
707.94	258.44
708.27	257.67
708.61	257.01
708.94	256.55
709.28	256.10
709.61	255.58
709.94	255.13
710.28	254.68
710.61	254.33
710.95	253.60
711.28	253.50
711.61	252.95
711.95	252.62
712.28	252.18
712.61	251.78
712.95	251.56
713.28	251.35
713.61	250.91
713.95	250.40
714.28	250.06
714.61	249.65
714.95	249.32
715.28	248.95
715.61	248.57
715.95	248.18
716.28	247.77
716.61	247.37
716.95	246.96
717.28	246.58
717.61	246.09
717.94	245.83
718.28	245.25
718.61	244.95
718.94	244.58
719.27	244.32
719.61	243.96
719.94	243.61
720.27	243.00
720.60	242.62
720.94	242.26
721.27	241.93
721.60	241.61
721.93	241.31
722.27	241.20
722.60	240.92
722.93	240.64
723.26	240.40
723.59	240.15
723.93	239.90
724.26	239.58
724.59	239.36
724.92	239.05
725.25	238.91
725.59	238.64
725.92	238.35
726.25	238.07
726.58	237.84
726.91	237.61
727.24	237.45
727.57	237.24
727.91	237.01
728.24	236.72
728.57	236.48
728.90	236.28
729.23	235.90
729.56	235.88
729.89	235.56
730.22	235.39
730.55	235.07
730.89	234.85
731.22	234.68
731.55	234.47
731.88	234.28
732.21	233.95
732.54	233.75
732.87	233.52
733.20	233.24
733.53	232.93
733.86	232.79
734.19	232.55
734.52	232.40
734.85	232.40
735.18	232.22
735.51	232.13
735.84	231.90
736.17	231.86
736.50	231.42
736.83	231.66
737.16	231.35
737.49	231.25
737.82	231.01
738.15	230.85
738.48	230.59
738.81	230.33
739.14	230.10
739.47	229.80
739.80	229.65
740.13	229.59
740.46	229.40
740.79	229.08
741.12	228.83
741.45	228.59
741.78	228.24
742.11	228.22
742.44	227.93
742.77	227.75
743.10	227.48
743.43	227.35
743.75	226.72
744.08	227.01
744.41	226.74
744.74	226.59
745.07	226.39
745.40	226.29
745.73	226.26
746.06	226.10
746.39	226.03
746.71	225.81
747.04	225.52
747.37	225.34
747.70	225.25
748.03	225.18
748.36	225.06
748.68	224.87
749.01	224.60
749.34	224.51
749.67	224.37
750.00	224.27
750.33	224.40
750.65	224.39
750.98	223.89
751.31	223.88
751.64	223.73
751.97	223.78
752.29	223.65
752.62	223.41
752.95	223.26
753.28	223.03
753.60	222.94
753.93	222.98
754.26	222.95
754.59	222.76
754.91	222.60
755.24	222.50
755.57	222.41
755.90	222.28
756.22	222.16
756.55	222.02
756.88	221.87
757.20	221.50
757.53	221.22
757.86	221.05
758.19	220.98
758.51	220.88
758.84	220.65
759.17	220.60
759.49	220.62
759.82	220.71
760.15	220.70
760.47	220.57
760.80	220.39
761.13	220.35
761.45	220.17
761.78	220.08
762.11	220.00
762.43	219.86
762.76	219.75
763.08	219.75
763.41	219.66
763.74	219.57
764.06	219.40
764.39	219.39
764.71	219.28
765.04	219.07
765.37	219.02
765.69	218.89
766.02	218.72
766.34	218.46
766.67	218.23
767.00	218.29
767.32	218.37
767.65	218.52
767.97	218.35
768.30	218.35
768.62	218.27
768.95	218.10
769.27	218.07
769.60	218.05
769.92	217.89
770.25	217.72
770.57	217.57
770.90	217.56
771.22	217.49
771.55	217.52
771.87	217.55
772.20	217.45
772.52	217.65
772.85	217.95
773.17	218.00
773.50	217.99
773.82	217.81
774.15	217.59
774.47	217.28
774.80	217.16
775.12	217.05
775.45	217.01
775.77	217.03
776.09	216.98
776.42	216.85
776.74	216.79
777.07	216.83
777.39	216.84
777.72	216.81
778.04	216.77
778.36	216.58
778.69	216.50
779.01	216.49
779.33	216.16
779.66	215.80
779.98	215.68
780.31	215.55
780.63	215.68
780.95	215.69
781.28	215.65
781.60	215.65
781.92	215.68
782.25	215.64
782.57	215.60
782.89	215.47
783.22	215.43
783.54	215.42
783.86	215.38
784.19	215.28
784.51	215.27
784.83	215.17
785.16	215.15
785.48	215.10
785.80	215.01
786.12	214.95
786.45	214.94
786.77	214.95
787.09	214.94
787.42	214.67
787.74	214.62
788.06	214.57
788.38	214.49
788.71	214.37
789.03	214.33
789.35	214.35
789.67	214.33
789.99	214.33
790.32	214.14
790.64	214.17
790.96	214.46
791.28	214.30
791.61	214.23
791.93	214.29
792.25	214.28
792.57	214.56
792.89	214.47
793.21	214.42
793.54	214.33
793.86	214.11
794.18	214.16
