SpectraSuite Data File
++++++++++++++++++++++++++++++++++++
Date: Mon Feb 25 17:02:22 EST 2013
User: group
Dark Spectrum Present: No
Reference Spectrum Present: No
Number of Sampled Component Spectra: 1
Spectrometers: USB2E7196
Integration Time (usec): 104000 (USB2E7196)
Spectra Averaged: 20 (USB2E7196)
Boxcar Smoothing: 10 (USB2E7196)
Correct for Electrical Dark: No (USB2E7196)
Strobe/Lamp Enabled: No (USB2E7196)
Correct for Detector Non-linearity: No (USB2E7196)
Correct for Stray Light: No (USB2E7196)
Number of Pixels in Processed Spectrum: 2048
>>>>>Begin Processed Spectral Data<<<<<
339.09	0.00
339.48	197.65
339.86	199.15
340.24	201.55
340.63	202.25
341.01	207.60
341.39	205.75
341.78	206.70
342.16	209.45
342.54	207.85
342.93	197.94
343.31	207.92
343.69	208.48
344.07	208.99
344.46	209.53
344.84	209.95
345.22	210.12
345.60	210.30
345.99	210.49
346.37	210.53
346.75	210.66
347.13	210.69
347.52	210.75
347.90	210.89
348.28	210.89
348.66	211.01
349.05	210.90
349.43	210.89
349.81	210.91
350.19	210.95
350.57	210.98
350.96	211.03
351.34	211.13
351.72	211.20
352.10	211.26
352.48	211.16
352.87	211.16
353.25	211.15
353.63	211.25
354.01	211.29
354.39	211.34
354.77	211.37
355.15	211.55
355.54	211.53
355.92	211.45
356.30	211.50
356.68	211.75
357.06	211.88
357.44	211.85
357.82	211.85
358.20	211.88
358.58	211.87
358.97	211.99
359.35	212.13
359.73	212.29
360.11	212.28
360.49	212.36
360.87	212.41
361.25	212.52
361.63	212.67
362.01	212.71
362.39	212.73
362.77	212.77
363.15	212.77
363.53	212.84
363.91	212.88
364.29	212.87
364.67	212.54
365.05	212.59
365.43	212.69
365.81	212.79
366.19	212.96
366.57	213.10
366.95	213.07
367.33	212.92
367.71	212.89
368.09	213.01
368.47	212.99
368.85	212.97
369.23	213.03
369.61	212.86
369.99	213.01
370.37	213.12
370.75	213.28
371.13	213.19
371.51	213.14
371.89	213.20
372.27	213.24
372.65	213.29
373.03	213.21
373.41	213.14
373.78	213.10
374.16	212.89
374.54	212.81
374.92	212.71
375.30	212.68
375.68	212.53
376.06	212.43
376.44	212.37
376.82	212.34
377.19	212.27
377.57	212.31
377.95	212.10
378.33	212.00
378.71	211.77
379.09	211.78
379.47	211.71
379.84	211.60
380.22	211.47
380.60	211.30
380.98	211.28
381.36	211.23
381.73	211.06
382.11	211.06
382.49	211.04
382.87	211.00
383.25	210.98
383.62	211.35
384.00	211.28
384.38	211.29
384.76	211.34
385.13	211.46
385.51	211.39
385.89	211.31
386.27	211.27
386.64	211.22
387.02	211.13
387.40	211.07
387.78	211.05
388.15	211.13
388.53	211.15
388.91	211.10
389.29	211.01
389.66	211.13
390.04	211.13
390.42	211.13
390.79	211.14
391.17	211.13
391.55	210.75
391.92	210.75
392.30	210.73
392.68	210.64
393.05	210.51
393.43	210.50
393.81	210.46
394.18	210.31
394.56	210.33
394.94	210.41
395.31	210.39
395.69	210.45
396.06	210.38
396.44	210.40
396.82	210.37
397.19	210.64
397.57	210.63
397.95	210.66
398.32	210.56
398.70	210.60
399.07	210.71
399.45	210.68
399.82	210.66
400.20	210.64
400.58	210.64
400.95	210.57
401.33	210.63
401.70	211.00
402.08	211.09
402.45	211.21
402.83	211.31
403.20	211.43
403.58	211.48
403.95	211.64
404.33	211.73
404.71	211.90
405.08	212.15
405.46	212.23
405.83	212.40
406.21	212.59
406.58	212.72
406.96	212.83
407.33	213.10
407.70	213.48
408.08	213.99
408.45	214.35
408.83	214.68
409.20	214.96
409.58	214.99
409.95	215.45
410.33	215.84
410.70	216.12
411.08	216.54
411.45	217.05
411.82	217.48
412.20	218.14
412.57	218.82
412.95	219.11
413.32	219.71
413.69	220.36
414.07	221.02
414.44	221.83
414.82	222.68
415.19	223.55
415.56	224.42
415.94	225.27
416.31	226.45
416.68	227.53
417.06	228.84
417.43	230.16
417.81	231.60
418.18	233.03
418.55	234.60
418.93	236.28
419.30	237.96
419.67	239.82
420.04	241.62
420.42	243.51
420.79	246.03
421.16	248.45
421.54	250.93
421.91	253.47
422.28	255.96
422.66	258.65
423.03	261.43
423.40	264.20
423.77	267.19
424.15	270.10
424.52	273.26
424.89	276.69
425.26	280.01
425.64	283.13
426.01	286.57
426.38	290.22
426.75	293.98
427.13	297.86
427.50	301.85
427.87	306.16
428.24	310.40
428.61	314.34
428.99	318.85
429.36	323.68
429.73	328.60
430.10	333.40
430.47	338.44
430.85	343.53
431.22	348.98
431.59	354.94
431.96	360.43
432.33	366.64
432.70	372.63
433.08	379.60
433.45	386.11
433.82	392.84
434.19	400.13
434.56	407.36
434.93	414.18
435.30	421.15
435.68	428.83
436.05	436.47
436.42	444.16
436.79	451.14
437.16	458.71
437.53	466.62
437.90	474.68
438.27	482.57
438.64	490.66
439.01	498.32
439.38	504.87
439.75	511.60
440.13	519.09
440.50	526.22
440.87	532.22
441.24	538.54
441.61	545.25
441.98	550.61
442.35	556.47
442.72	562.54
443.09	568.32
443.46	572.04
443.83	574.73
444.20	576.95
444.57	580.10
444.94	581.78
445.31	583.68
445.68	585.65
446.05	586.58
446.42	586.47
446.79	586.15
447.16	585.66
447.53	585.57
447.90	583.29
448.27	580.89
448.64	577.28
449.01	574.75
449.37	570.02
449.74	565.39
450.11	560.01
450.48	553.97
450.85	547.69
451.22	542.35
451.59	537.27
451.96	532.46
452.33	525.91
452.70	519.93
453.07	512.55
453.43	504.94
453.80	497.79
454.17	490.81
454.54	484.23
454.91	477.25
455.28	470.38
455.65	464.06
456.02	457.96
456.38	452.58
456.75	445.83
457.12	440.20
457.49	434.47
457.86	428.87
458.23	424.09
458.59	419.05
458.96	413.76
459.33	409.14
459.70	404.55
460.07	400.89
460.43	396.69
460.80	392.76
461.17	389.32
461.54	385.73
461.91	382.35
462.27	378.82
462.64	375.83
463.01	372.54
463.38	369.28
463.74	365.78
464.11	362.93
464.48	360.49
464.85	357.72
465.21	355.80
465.58	353.62
465.95	351.00
466.32	348.71
466.68	346.64
467.05	344.30
467.42	342.08
467.78	339.68
468.15	337.54
468.52	335.85
468.88	333.68
469.25	331.75
469.62	330.19
469.98	328.48
470.35	326.91
470.72	325.32
471.08	323.55
471.45	322.05
471.82	320.66
472.18	319.12
472.55	317.97
472.92	316.44
473.28	315.21
473.65	313.94
474.02	312.89
474.38	311.87
474.75	311.09
475.11	310.10
475.48	309.34
475.85	308.62
476.21	307.94
476.58	307.33
476.94	306.87
477.31	306.29
477.67	305.73
478.04	305.30
478.41	304.96
478.77	305.03
479.14	304.72
479.50	304.48
479.87	304.36
480.23	304.33
480.60	304.10
480.96	304.01
481.33	304.27
481.69	304.24
482.06	304.24
482.42	304.29
482.79	304.43
483.15	304.69
483.52	304.98
483.88	305.21
484.25	305.42
484.61	305.65
484.98	305.93
485.34	306.47
485.71	306.95
486.07	307.39
486.44	307.53
486.80	308.06
487.17	308.70
487.53	309.39
487.90	310.17
488.26	311.17
488.62	312.10
488.99	312.86
489.35	313.73
489.72	314.73
490.08	315.78
490.44	316.72
490.81	317.78
491.17	318.90
491.54	320.12
491.90	321.35
492.26	322.62
492.63	323.85
492.99	325.11
493.36	326.50
493.72	328.05
494.08	329.57
494.45	331.28
494.81	333.00
495.17	334.67
495.54	336.24
495.90	337.85
496.26	339.50
496.63	341.19
496.99	342.94
497.35	344.65
497.72	346.48
498.08	348.32
498.44	350.10
498.80	351.97
499.17	353.89
499.53	355.66
499.89	357.68
500.26	359.67
500.62	361.45
500.98	363.39
501.34	365.18
501.71	367.10
502.07	368.84
502.43	370.36
502.79	371.96
503.16	373.54
503.52	375.22
503.88	376.73
504.24	378.30
504.60	379.88
504.97	381.47
505.33	382.81
505.69	384.46
506.05	385.91
506.41	387.27
506.78	388.38
507.14	389.64
507.50	390.81
507.86	391.96
508.22	393.23
508.59	394.14
508.95	395.07
509.31	395.99
509.67	396.90
510.03	397.75
510.39	398.63
510.75	399.48
511.12	400.19
511.48	400.85
511.84	401.48
512.20	402.08
512.56	402.58
512.92	403.16
513.28	403.54
513.64	403.77
514.00	404.16
514.37	404.55
514.73	404.87
515.09	405.10
515.45	405.10
515.81	405.10
516.17	405.05
516.53	405.12
516.89	405.16
517.25	404.92
517.61	404.92
517.97	404.70
518.33	404.58
518.69	404.40
519.05	404.30
519.41	404.11
519.77	404.13
520.13	403.95
520.49	403.65
520.85	403.39
521.21	403.36
521.57	403.07
521.93	402.76
522.29	402.49
522.65	402.20
523.01	402.18
523.37	401.96
523.73	402.02
524.09	401.89
524.45	401.65
524.81	401.76
525.17	401.77
525.53	401.99
525.89	402.18
526.25	402.44
526.61	402.57
526.97	402.72
527.33	402.82
527.68	403.40
528.04	403.70
528.40	404.09
528.76	404.44
529.12	404.91
529.48	405.67
529.84	406.35
530.20	407.18
530.56	407.86
530.91	408.83
531.27	409.74
531.63	410.74
531.99	411.84
532.35	412.84
532.71	413.76
533.07	414.84
533.42	416.32
533.78	417.50
534.14	418.75
534.50	420.04
534.86	421.57
535.21	422.65
535.57	424.26
535.93	425.73
536.29	427.58
536.65	429.26
537.00	430.67
537.36	432.45
537.72	434.04
538.08	435.92
538.44	437.68
538.79	439.40
539.15	441.18
539.51	443.05
539.87	445.04
540.22	447.22
540.58	449.43
540.94	451.26
541.29	453.37
541.65	455.43
542.01	457.82
542.37	460.03
542.72	462.41
543.08	464.78
543.44	467.33
543.79	469.42
544.15	471.89
544.51	474.78
544.87	477.32
545.22	480.01
545.58	482.59
545.94	485.16
546.29	487.71
546.65	490.38
547.01	493.03
547.36	495.71
547.72	498.41
548.07	500.95
548.43	503.59
548.79	506.25
549.14	508.96
549.50	511.69
549.86	514.34
550.21	517.06
550.57	519.79
550.92	522.20
551.28	524.95
551.64	527.65
551.99	530.11
552.35	532.60
552.70	535.12
553.06	537.75
553.41	540.49
553.77	543.32
554.13	545.95
554.48	548.81
554.84	551.52
555.19	554.26
555.55	557.15
555.90	559.68
556.26	562.17
556.61	564.82
556.97	567.03
557.32	569.49
557.68	571.85
558.03	574.21
558.39	576.74
558.74	579.22
559.10	581.50
559.45	584.10
559.81	586.70
560.16	588.99
560.52	591.41
560.87	593.74
561.23	595.87
561.58	598.49
561.94	600.57
562.29	602.70
562.64	604.75
563.00	606.71
563.35	608.94
563.71	611.32
564.06	613.56
564.42	615.90
564.77	618.06
565.12	620.41
565.48	622.87
565.83	625.05
566.19	627.28
566.54	629.21
566.89	631.00
567.25	633.10
567.60	635.32
567.96	637.47
568.31	639.40
568.66	641.31
569.02	642.71
569.37	644.08
569.72	645.77
570.08	647.37
570.43	648.86
570.78	650.14
571.14	651.28
571.49	652.34
571.84	653.51
572.20	654.63
572.55	655.43
572.90	655.83
573.26	656.58
573.61	657.25
573.96	658.03
574.31	658.58
574.67	658.87
575.02	659.08
575.37	659.10
575.72	659.12
576.08	659.45
576.43	659.63
576.78	660.06
577.13	660.26
577.49	660.40
577.84	660.48
578.19	660.90
578.54	661.34
578.90	661.71
579.25	661.75
579.60	661.67
579.95	661.69
580.30	661.90
580.66	662.05
581.01	662.07
581.36	662.05
581.71	662.06
582.06	662.23
582.42	662.20
582.77	661.84
583.12	661.84
583.47	661.82
583.82	661.83
584.17	661.75
584.53	661.76
584.88	661.54
585.23	661.51
585.58	661.11
585.93	660.78
586.28	660.60
586.63	660.49
586.98	660.31
587.34	660.37
587.69	660.00
588.04	659.67
588.39	659.21
588.74	658.81
589.09	658.69
589.44	657.90
589.79	657.61
590.14	657.55
590.49	657.08
590.84	656.25
591.19	655.92
591.54	655.38
591.89	654.21
592.25	653.82
592.60	652.94
592.95	652.10
593.30	651.16
593.65	650.14
594.00	648.97
594.35	648.93
594.70	647.74
595.05	647.10
595.40	646.17
595.75	645.15
596.10	644.37
596.45	643.22
596.80	642.45
597.15	641.49
597.50	640.47
597.85	639.66
598.19	638.81
598.54	637.63
598.89	636.64
599.24	636.24
599.59	635.26
599.94	634.50
600.29	633.51
600.64	632.38
600.99	631.32
601.34	630.78
601.69	628.97
602.04	627.93
602.39	626.66
602.74	625.58
603.08	624.74
603.43	623.82
603.78	622.79
604.13	621.78
604.48	620.70
604.83	619.84
605.18	618.89
605.53	618.04
605.87	616.99
606.22	616.14
606.57	614.85
606.92	613.58
607.27	612.20
607.62	611.15
607.96	610.46
608.31	609.55
608.66	608.22
609.01	607.00
609.36	605.81
609.70	604.59
610.05	603.32
610.40	601.97
610.75	600.50
611.10	599.34
611.44	597.84
611.79	596.39
612.14	594.75
612.49	592.90
612.83	591.39
613.18	589.82
613.53	587.98
613.88	586.24
614.22	584.75
614.57	583.21
614.92	581.53
615.27	579.65
615.61	577.77
615.96	576.09
616.31	574.52
616.65	573.02
617.00	571.46
617.35	569.76
617.70	567.98
618.04	566.19
618.39	563.98
618.74	562.48
619.08	560.63
619.43	558.94
619.78	557.38
620.12	555.54
620.47	553.88
620.82	552.16
621.16	550.28
621.51	548.56
621.85	546.80
622.20	545.07
622.55	543.28
622.89	541.57
623.24	539.88
623.59	538.10
623.93	536.32
624.28	534.50
624.62	533.02
624.97	531.58
625.32	529.96
625.66	528.43
626.01	526.49
626.35	524.87
626.70	523.16
627.04	521.59
627.39	519.87
627.73	518.30
628.08	516.67
628.43	515.11
628.77	513.24
629.12	511.52
629.46	509.98
629.81	508.32
630.15	506.55
630.50	504.75
630.84	502.84
631.19	501.18
631.53	499.51
631.88	497.43
632.22	495.50
632.57	494.00
632.91	492.41
633.26	490.84
633.60	489.11
633.95	487.44
634.29	485.72
634.64	484.15
634.98	482.12
635.32	480.49
635.67	478.93
636.01	477.42
636.36	475.75
636.70	474.15
637.05	472.56
637.39	471.02
637.73	469.57
638.08	468.48
638.42	466.93
638.77	465.58
639.11	464.12
639.45	462.50
639.80	460.57
640.14	458.97
640.49	457.25
640.83	455.66
641.17	454.10
641.52	452.38
641.86	450.74
642.20	449.39
642.55	447.62
642.89	445.91
643.23	444.18
643.58	442.80
643.92	441.07
644.26	439.37
644.61	437.92
644.95	436.32
645.29	434.44
645.64	432.78
645.98	430.90
646.32	429.42
646.66	427.75
647.01	426.08
647.35	424.61
647.69	423.14
648.04	421.63
648.38	420.00
648.72	418.40
649.06	416.73
649.41	415.07
649.75	413.71
650.09	412.28
650.43	410.85
650.78	409.08
651.12	407.51
651.46	405.97
651.80	404.42
652.14	402.70
652.49	401.26
652.83	399.72
653.17	398.25
653.51	396.62
653.85	395.32
654.20	393.96
654.54	392.27
654.88	390.57
655.22	389.11
655.56	387.53
655.90	386.13
656.25	384.65
656.59	383.22
656.93	381.63
657.27	380.28
657.61	378.68
657.95	377.26
658.29	375.78
658.64	374.43
658.98	372.95
659.32	371.55
659.66	370.00
660.00	368.49
660.34	367.01
660.68	365.56
661.02	363.92
661.36	362.64
661.70	361.25
662.05	360.00
662.39	358.70
662.73	357.55
663.07	356.39
663.41	355.26
663.75	353.88
664.09	352.64
664.43	351.18
664.77	349.92
665.11	348.61
665.45	347.47
665.79	346.22
666.13	345.04
666.47	343.82
666.81	342.65
667.15	341.45
667.49	340.39
667.83	339.40
668.17	338.37
668.51	337.20
668.85	336.22
669.19	335.29
669.53	334.10
669.87	332.92
670.21	331.68
670.55	330.45
670.89	329.62
671.23	328.58
671.57	327.60
671.91	326.61
672.25	325.65
672.58	324.69
672.92	323.60
673.26	322.53
673.60	321.63
673.94	320.71
674.28	319.98
674.62	319.09
674.96	318.06
675.30	317.12
675.64	316.14
675.97	315.12
676.31	314.11
676.65	313.20
676.99	312.39
677.33	311.49
677.67	310.67
678.01	309.60
678.34	308.74
678.68	307.92
679.02	306.96
679.36	306.11
679.70	305.23
680.04	304.39
680.37	303.54
680.71	302.65
681.05	301.87
681.39	300.86
681.73	299.98
682.06	299.15
682.40	298.38
682.74	297.70
683.08	297.04
683.42	296.13
683.75	295.37
684.09	294.52
684.43	293.77
684.77	292.85
685.10	292.15
685.44	291.32
685.78	290.55
686.12	289.88
686.45	289.09
686.79	288.29
687.13	287.66
687.46	286.92
687.80	286.32
688.14	285.47
688.48	284.81
688.81	284.16
689.15	283.51
689.49	282.76
689.82	281.92
690.16	281.11
690.50	280.52
690.83	279.71
691.17	278.93
691.51	278.20
691.84	277.51
692.18	276.82
692.52	276.20
692.85	275.54
693.19	275.04
693.52	274.43
693.86	273.71
694.20	273.05
694.53	272.40
694.87	271.65
695.21	270.99
695.54	270.40
695.88	269.58
696.21	268.86
696.55	268.31
696.88	267.81
697.22	267.15
697.56	266.60
697.89	266.13
698.23	265.57
698.56	265.00
698.90	264.56
699.23	263.97
699.57	263.40
699.90	262.81
700.24	262.05
700.58	261.54
700.91	261.09
701.25	260.80
701.58	260.31
701.92	259.78
702.25	259.26
702.59	258.66
702.92	258.22
703.26	257.75
703.59	257.22
703.93	257.07
704.26	256.60
704.60	256.09
704.93	255.61
705.26	255.13
705.60	254.70
705.93	254.20
706.27	253.82
706.60	253.45
706.94	253.18
707.27	252.80
707.61	252.30
707.94	251.82
708.27	251.15
708.61	250.60
708.94	250.25
709.28	249.87
709.61	249.52
709.94	249.19
710.28	248.82
710.61	248.42
710.95	247.61
711.28	247.51
711.61	247.12
711.95	246.85
712.28	246.46
712.61	246.14
712.95	245.96
713.28	245.77
713.61	245.36
713.95	244.93
714.28	244.54
714.61	244.15
714.95	243.90
715.28	243.48
715.61	243.21
715.95	242.86
716.28	242.46
716.61	242.10
716.95	241.73
717.28	241.41
717.61	241.10
717.94	240.80
718.28	240.20
718.61	239.88
718.94	239.45
719.27	239.21
719.61	238.80
719.94	238.45
720.27	237.92
720.60	237.66
720.94	237.32
721.27	237.10
721.60	236.89
721.93	236.61
722.27	236.53
722.60	236.40
722.93	236.17
723.26	236.04
723.59	235.71
723.93	235.55
724.26	235.37
724.59	235.13
724.92	234.91
725.25	234.89
725.59	234.64
725.92	234.51
726.25	234.22
726.58	234.07
726.91	233.84
727.24	233.67
727.57	233.32
727.91	233.11
728.24	232.96
728.57	232.84
728.90	232.69
729.23	232.31
729.56	232.27
729.89	232.03
730.22	231.83
730.55	231.65
730.89	231.45
731.22	231.23
731.55	231.03
731.88	230.87
732.21	230.55
732.54	230.45
732.87	230.22
733.20	230.05
733.53	229.93
733.86	229.78
734.19	229.59
734.52	229.50
734.85	229.56
735.18	229.32
735.51	229.20
735.84	229.06
736.17	229.03
736.50	228.62
736.83	228.90
737.16	228.75
737.49	228.68
737.82	228.46
738.15	228.32
738.48	228.13
738.81	227.93
739.14	227.76
739.47	227.48
739.80	227.32
740.13	227.22
740.46	226.92
740.79	226.65
741.12	226.54
741.45	226.37
741.78	226.04
742.11	226.01
742.44	225.75
742.77	225.57
743.10	225.35
743.43	225.21
743.75	224.68
744.08	224.89
744.41	224.65
744.74	224.42
745.07	224.21
745.40	224.14
745.73	224.17
746.06	224.00
746.39	223.97
746.71	223.84
747.04	223.69
747.37	223.60
747.70	223.52
748.03	223.33
748.36	223.30
748.68	223.19
749.01	222.89
749.34	222.77
749.67	222.64
750.00	222.56
750.33	222.75
750.65	222.65
750.98	222.13
751.31	222.08
751.64	222.08
751.97	222.16
752.29	222.01
752.62	221.66
752.95	221.56
753.28	221.42
753.60	221.27
753.93	221.26
754.26	221.21
754.59	221.06
754.91	220.90
755.24	220.78
755.57	220.62
755.90	220.53
756.22	220.47
756.55	220.28
756.88	220.08
757.20	219.72
757.53	219.45
757.86	219.34
758.19	219.25
758.51	219.20
758.84	218.94
759.17	218.83
759.49	218.86
759.82	218.99
760.15	218.86
760.47	218.80
760.80	218.56
761.13	218.49
761.45	218.37
761.78	218.31
762.11	218.13
762.43	218.06
762.76	217.98
763.08	217.88
763.41	217.93
763.74	217.94
764.06	217.83
764.39	217.89
764.71	217.80
765.04	217.66
765.37	217.52
765.69	217.46
766.02	217.42
766.34	217.30
766.67	217.05
767.00	217.03
767.32	217.14
767.65	217.30
767.97	217.19
768.30	217.18
768.62	217.14
768.95	217.10
769.27	217.10
769.60	217.15
769.92	217.03
770.25	216.88
770.57	216.68
770.90	216.62
771.22	216.49
771.55	216.47
771.87	216.45
772.20	216.42
772.52	216.67
772.85	216.93
773.17	216.91
773.50	216.88
773.82	216.83
774.15	216.59
774.47	216.27
774.80	216.19
775.12	216.12
775.45	216.06
775.77	216.10
776.09	216.03
776.42	215.98
776.74	216.10
777.07	216.06
777.39	216.15
777.72	216.13
778.04	216.13
778.36	216.10
778.69	216.04
779.01	216.01
779.33	215.69
779.66	215.40
779.98	215.32
780.31	215.35
780.63	215.43
780.95	215.47
781.28	215.55
781.60	215.51
781.92	215.49
782.25	215.51
782.57	215.44
782.89	215.33
783.22	215.27
783.54	215.12
783.86	215.09
784.19	214.94
784.51	214.97
784.83	214.88
785.16	214.87
785.48	214.86
785.80	214.80
786.12	214.77
786.45	214.73
786.77	214.68
787.09	214.55
787.42	214.35
787.74	214.35
788.06	214.27
788.38	214.30
788.71	214.26
789.03	214.22
789.35	214.25
789.67	214.21
789.99	214.19
790.32	214.11
790.64	214.15
790.96	214.49
791.28	214.33
791.61	214.33
791.93	214.28
792.25	214.20
792.57	214.45
792.89	214.39
793.21	214.34
793.54	214.33
793.86	214.30
794.18	214.43
