SpectraSuite Data File
++++++++++++++++++++++++++++++++++++
Date: Mon Feb 25 16:57:01 EST 2013
User: group
Dark Spectrum Present: No
Reference Spectrum Present: No
Number of Sampled Component Spectra: 1
Spectrometers: USB2E7196
Integration Time (usec): 104000 (USB2E7196)
Spectra Averaged: 20 (USB2E7196)
Boxcar Smoothing: 10 (USB2E7196)
Correct for Electrical Dark: No (USB2E7196)
Strobe/Lamp Enabled: No (USB2E7196)
Correct for Detector Non-linearity: No (USB2E7196)
Correct for Stray Light: No (USB2E7196)
Number of Pixels in Processed Spectrum: 2048
>>>>>Begin Processed Spectral Data<<<<<
339.09	0.00
339.48	199.00
339.86	200.20
340.24	201.20
340.63	202.95
341.01	210.05
341.39	205.85
341.78	208.40
342.16	209.15
342.54	208.35
342.93	198.58
343.31	208.55
343.69	209.11
344.07	209.54
344.46	210.03
344.84	210.43
345.22	210.49
345.60	210.83
345.99	210.98
346.37	211.15
346.75	211.26
347.13	211.36
347.52	211.43
347.90	211.65
348.28	211.70
348.66	211.75
349.05	211.63
349.43	211.71
349.81	211.68
350.19	211.73
350.57	211.83
350.96	211.93
351.34	212.04
351.72	212.11
352.10	212.23
352.48	212.30
352.87	212.43
353.25	212.45
353.63	212.42
354.01	212.50
354.39	212.59
354.77	212.59
355.15	212.70
355.54	212.70
355.92	212.58
356.30	212.59
356.68	212.91
357.06	213.03
357.44	212.98
357.82	213.13
358.20	213.25
358.58	213.30
358.97	213.35
359.35	213.52
359.73	213.57
360.11	213.62
360.49	213.62
360.87	213.55
361.25	213.63
361.63	213.83
362.01	213.89
362.39	213.82
362.77	213.94
363.15	213.97
363.53	213.98
363.91	214.00
364.29	214.05
364.67	213.74
365.05	213.78
365.43	213.83
365.81	213.88
366.19	213.97
366.57	214.06
366.95	214.01
367.33	213.93
367.71	214.01
368.09	214.10
368.47	214.12
368.85	214.14
369.23	214.22
369.61	214.03
369.99	214.13
370.37	214.17
370.75	214.36
371.13	214.28
371.51	214.27
371.89	214.29
372.27	214.34
372.65	214.31
373.03	214.25
373.41	214.20
373.78	214.10
374.16	213.94
374.54	213.86
374.92	213.85
375.30	213.79
375.68	213.64
376.06	213.62
376.44	213.62
376.82	213.55
377.19	213.49
377.57	213.47
377.95	213.31
378.33	213.32
378.71	213.08
379.09	213.09
379.47	213.10
379.84	213.04
380.22	212.93
380.60	212.85
380.98	212.76
381.36	212.72
381.73	212.63
382.11	212.62
382.49	212.53
382.87	212.39
383.25	212.35
383.62	212.73
384.00	212.55
384.38	212.51
384.76	212.59
385.13	212.69
385.51	212.63
385.89	212.56
386.27	212.48
386.64	212.48
387.02	212.35
387.40	212.28
387.78	212.27
388.15	212.24
388.53	212.11
388.91	212.08
389.29	212.03
389.66	212.13
390.04	212.02
390.42	212.14
390.79	212.21
391.17	212.17
391.55	211.78
391.92	211.83
392.30	211.93
392.68	211.81
393.05	211.79
393.43	211.84
393.81	211.82
394.18	211.76
394.56	211.80
394.94	211.98
395.31	212.00
395.69	212.17
396.06	212.26
396.44	212.44
396.82	212.45
397.19	212.69
397.57	212.64
397.95	212.77
398.32	212.69
398.70	212.73
399.07	212.95
399.45	213.04
399.82	213.08
400.20	213.06
400.58	213.15
400.95	213.07
401.33	213.23
401.70	213.56
402.08	213.68
402.45	213.80
402.83	213.94
403.20	214.15
403.58	214.18
403.95	214.45
404.33	214.70
404.71	214.97
405.08	215.36
405.46	215.61
405.83	215.84
406.21	216.17
406.58	216.54
406.96	216.82
407.33	217.20
407.70	217.68
408.08	218.40
408.45	219.02
408.83	219.65
409.20	220.13
409.58	220.54
409.95	221.30
410.33	222.05
410.70	222.75
411.08	223.53
411.45	224.43
411.82	225.23
412.20	226.26
412.57	227.56
412.95	228.42
413.32	229.67
413.69	231.08
414.07	232.46
414.44	234.03
414.82	235.60
415.19	237.44
415.56	239.37
415.94	241.10
416.31	243.22
416.68	245.30
417.06	247.84
417.43	250.35
417.81	253.08
418.18	255.85
418.55	258.88
418.93	262.10
419.30	265.50
419.67	269.11
420.04	272.86
420.42	276.70
420.79	281.32
421.16	286.00
421.54	290.72
421.91	295.62
422.28	300.83
422.66	306.29
423.03	311.67
423.40	317.21
423.77	323.15
424.15	329.20
424.52	335.69
424.89	342.57
425.26	349.17
425.64	355.56
426.01	362.69
426.38	370.16
426.75	377.72
427.13	385.49
427.50	393.61
427.87	402.08
428.24	410.52
428.61	418.81
428.99	427.71
429.36	437.43
429.73	447.11
430.10	456.56
430.47	466.45
430.85	476.74
431.22	487.57
431.59	499.38
431.96	510.49
432.33	522.74
432.70	534.74
433.08	548.90
433.45	562.32
433.82	575.60
434.19	590.21
434.56	604.74
434.93	618.87
435.30	633.00
435.68	648.64
436.05	664.39
436.42	679.81
436.79	694.11
437.16	709.65
437.53	726.00
437.90	742.07
438.27	758.14
438.64	774.85
439.01	790.28
439.38	804.17
439.75	818.00
440.13	833.66
440.50	848.36
440.87	860.66
441.24	873.33
441.61	887.45
441.98	898.10
442.35	910.71
442.72	922.99
443.09	934.84
443.46	942.66
443.83	948.08
444.20	952.95
444.57	959.85
444.94	963.48
445.31	967.47
445.68	971.33
446.05	973.72
446.42	973.25
446.79	972.79
447.16	971.96
447.53	971.54
447.90	966.71
448.27	962.19
448.64	954.97
449.01	950.29
449.37	940.58
449.74	931.47
450.11	919.89
450.48	907.63
450.85	895.16
451.22	884.38
451.59	874.24
451.96	864.53
452.33	850.98
452.70	839.04
453.07	824.32
453.43	809.49
453.80	795.03
454.17	781.31
454.54	768.32
454.91	754.24
455.28	740.45
455.65	727.59
456.02	714.38
456.38	703.52
456.75	689.50
457.12	678.20
457.49	666.85
457.86	655.94
458.23	646.43
458.59	635.98
458.96	625.43
459.33	616.10
459.70	606.68
460.07	599.15
460.43	590.50
460.80	582.30
461.17	575.28
461.54	567.91
461.91	560.87
462.27	553.74
462.64	547.64
463.01	540.91
463.38	534.49
463.74	528.07
464.11	522.20
464.48	517.34
464.85	511.83
465.21	507.79
465.58	503.33
465.95	497.93
466.32	493.54
466.68	489.04
467.05	484.42
467.42	480.08
467.78	475.49
468.15	471.12
468.52	467.91
468.88	463.53
469.25	459.59
469.62	456.44
469.98	453.03
470.35	449.97
470.72	447.06
471.08	443.75
471.45	440.96
471.82	438.25
472.18	435.07
472.55	432.78
472.92	430.11
473.28	427.90
473.65	425.66
474.02	423.36
474.38	421.66
474.75	420.28
475.11	418.64
475.48	417.43
475.85	416.28
476.21	415.13
476.58	414.20
476.94	413.59
477.31	412.77
477.67	411.95
478.04	411.23
478.41	410.73
478.77	410.67
479.14	410.30
479.50	410.19
479.87	410.38
480.23	410.58
480.60	410.58
480.96	410.44
481.33	411.16
481.69	411.64
482.06	411.90
482.42	412.16
482.79	412.56
483.15	413.31
483.52	414.29
483.88	415.19
484.25	416.26
484.61	417.34
484.98	418.56
485.34	420.03
485.71	421.60
486.07	423.34
486.44	424.78
486.80	426.71
487.17	428.70
487.53	431.04
487.90	433.38
488.26	435.92
488.62	438.68
488.99	441.25
489.35	444.10
489.72	447.15
490.08	450.35
490.44	453.53
490.81	456.89
491.17	460.23
491.54	463.85
491.90	467.48
492.26	471.35
492.63	475.22
492.99	479.35
493.36	483.69
493.72	488.26
494.08	492.87
494.45	497.72
494.81	502.75
495.17	507.63
495.54	512.90
495.90	518.20
496.26	523.58
496.63	529.23
496.99	535.00
497.35	540.94
497.72	547.18
498.08	553.59
498.44	559.94
498.80	566.71
499.17	573.71
499.53	580.60
499.89	587.60
500.26	594.71
500.62	601.67
500.98	608.75
501.34	615.86
501.71	623.41
502.07	630.65
502.43	638.10
502.79	645.43
503.16	652.87
503.52	660.59
503.88	668.33
504.24	676.04
504.60	683.87
504.97	691.70
505.33	699.37
505.69	707.55
506.05	715.71
506.41	723.39
506.78	730.79
507.14	738.26
507.50	745.89
507.86	753.56
508.22	761.46
508.59	769.08
508.95	776.95
509.31	784.42
509.67	792.16
510.03	799.73
510.39	807.66
510.75	815.40
511.12	822.85
511.48	830.15
511.84	837.41
512.20	844.58
512.56	851.91
512.92	859.15
513.28	866.16
513.64	872.85
514.00	879.87
514.37	886.90
514.73	894.14
515.09	901.11
515.45	907.68
515.81	914.12
516.17	920.71
516.53	926.85
516.89	933.13
517.25	939.05
517.61	944.96
517.97	950.61
518.33	955.94
518.69	961.43
519.05	967.04
519.41	972.58
519.77	978.17
520.13	983.19
520.49	988.09
520.85	992.59
521.21	997.75
521.57	1002.53
521.93	1006.68
522.29	1011.28
522.65	1015.81
523.01	1020.19
523.37	1024.10
523.73	1028.39
524.09	1032.53
524.45	1036.68
524.81	1040.75
525.17	1045.16
525.53	1049.28
525.89	1053.28
526.25	1057.15
526.61	1060.57
526.97	1064.01
527.33	1067.53
527.68	1071.49
528.04	1075.10
528.40	1078.36
528.76	1081.43
529.12	1084.91
529.48	1089.05
529.84	1092.25
530.20	1095.28
530.56	1098.64
530.91	1102.39
531.27	1105.71
531.63	1108.85
531.99	1111.98
532.35	1115.00
532.71	1117.43
533.07	1120.30
533.42	1123.35
533.78	1126.38
534.14	1129.30
534.50	1131.86
534.86	1134.59
535.21	1136.70
535.57	1139.54
535.93	1142.46
536.29	1145.07
536.65	1147.40
537.00	1149.38
537.36	1151.31
537.72	1153.36
538.08	1155.66
538.44	1157.60
538.79	1159.67
539.15	1161.83
539.51	1163.82
539.87	1166.34
540.22	1168.66
540.58	1171.22
540.94	1173.32
541.29	1175.11
541.65	1176.78
542.01	1178.74
542.37	1180.53
542.72	1182.36
543.08	1183.76
543.44	1185.58
543.79	1186.98
544.15	1188.74
544.51	1190.73
544.87	1192.90
545.22	1194.62
545.58	1196.01
545.94	1197.36
546.29	1198.15
546.65	1198.96
547.01	1199.84
547.36	1200.53
547.72	1201.20
548.07	1201.57
548.43	1201.91
548.79	1202.40
549.14	1203.26
549.50	1204.19
549.86	1204.90
550.21	1205.51
550.57	1206.41
550.92	1206.75
551.28	1207.40
551.64	1207.59
551.99	1208.01
552.35	1208.38
552.70	1208.66
553.06	1209.05
553.41	1209.40
553.77	1210.31
554.13	1211.30
554.48	1212.35
554.84	1213.36
555.19	1214.01
555.55	1214.92
555.90	1215.51
556.26	1215.94
556.61	1216.17
556.97	1216.03
557.32	1216.27
557.68	1216.33
558.03	1216.17
558.39	1216.12
558.74	1216.44
559.10	1216.84
559.45	1216.76
559.81	1217.02
560.16	1216.83
560.52	1216.96
560.87	1217.10
561.23	1216.69
561.58	1216.78
561.94	1215.97
562.29	1214.75
562.64	1214.76
563.00	1214.24
563.35	1214.18
563.71	1214.62
564.06	1214.93
564.42	1215.13
564.77	1215.22
565.12	1215.72
565.48	1215.99
565.83	1216.25
566.19	1216.34
566.54	1215.84
566.89	1215.56
567.25	1215.34
567.60	1215.87
567.96	1215.96
568.31	1216.07
568.66	1215.99
569.02	1215.16
569.37	1214.64
569.72	1214.72
570.08	1213.87
570.43	1213.09
570.78	1212.18
571.14	1210.80
571.49	1209.32
571.84	1208.32
572.20	1206.77
572.55	1205.52
572.90	1203.79
573.26	1202.01
573.61	1200.26
573.96	1198.85
574.31	1196.85
574.67	1194.56
575.02	1191.93
575.37	1189.26
575.72	1186.30
576.08	1184.09
576.43	1181.60
576.78	1179.53
577.13	1177.38
577.49	1175.29
577.84	1172.90
578.19	1170.67
578.54	1168.88
578.90	1167.11
579.25	1164.63
579.60	1161.85
579.95	1158.93
580.30	1156.48
580.66	1154.23
581.01	1151.29
581.36	1148.24
581.71	1145.50
582.06	1142.75
582.42	1139.95
582.77	1137.05
583.12	1134.42
583.47	1131.63
583.82	1128.89
584.17	1125.91
584.53	1123.17
584.88	1120.02
585.23	1116.95
585.58	1113.90
585.93	1110.47
586.28	1107.43
586.63	1104.64
586.98	1102.00
587.34	1099.17
587.69	1095.98
588.04	1092.83
588.39	1089.84
588.74	1086.67
589.09	1083.80
589.44	1080.43
589.79	1077.55
590.14	1074.65
590.49	1071.39
590.84	1068.10
591.19	1065.09
591.54	1062.06
591.89	1058.08
592.25	1055.16
592.60	1051.60
592.95	1047.77
593.30	1043.64
593.65	1039.48
594.00	1035.45
594.35	1032.43
594.70	1028.73
595.05	1025.39
595.40	1021.70
595.75	1017.89
596.10	1014.60
596.45	1011.03
596.80	1007.93
597.15	1004.56
597.50	1000.74
597.85	997.52
598.19	993.83
598.54	990.44
598.89	986.93
599.24	984.00
599.59	979.98
599.94	976.63
600.29	973.29
600.64	970.06
600.99	966.49
601.34	963.19
601.69	958.89
602.04	955.09
602.39	951.30
602.74	947.89
603.08	944.66
603.43	941.39
603.78	937.75
604.13	934.04
604.48	930.51
604.83	927.59
605.18	924.42
605.53	920.81
605.87	917.10
606.22	913.64
606.57	909.60
606.92	905.98
607.27	902.29
607.62	898.78
607.96	895.35
608.31	892.13
608.66	888.50
609.01	884.85
609.36	881.28
609.70	877.56
610.05	873.51
610.40	869.58
610.75	865.46
611.10	861.85
611.44	857.64
611.79	853.45
612.14	849.22
612.49	844.39
612.83	840.50
613.18	836.08
613.53	831.73
613.88	827.59
614.22	823.63
614.57	819.67
614.92	815.57
615.27	811.56
615.61	807.32
615.96	803.32
616.31	799.56
616.65	795.92
617.00	792.12
617.35	788.34
617.70	784.42
618.04	780.36
618.39	776.08
618.74	772.32
619.08	768.31
619.43	764.55
619.78	761.36
620.12	757.58
620.47	754.13
620.82	750.32
621.16	746.36
621.51	742.44
621.85	738.69
622.20	735.09
622.55	731.17
622.89	727.56
623.24	723.78
623.59	719.84
623.93	716.03
624.28	712.31
624.62	709.09
624.97	705.74
625.32	702.23
625.66	698.86
626.01	695.53
626.35	692.11
626.70	688.49
627.04	684.73
627.39	681.32
627.73	677.88
628.08	674.80
628.43	671.70
628.77	668.48
629.12	665.01
629.46	661.79
629.81	658.70
630.15	655.47
630.50	652.10
630.84	648.74
631.19	645.34
631.53	642.28
631.88	638.63
632.22	635.16
632.57	632.23
632.91	629.09
633.26	625.83
633.60	622.70
633.95	619.65
634.29	616.63
634.64	613.67
634.98	610.40
635.32	607.32
635.67	604.38
636.01	601.29
636.36	598.24
636.70	595.33
637.05	592.44
637.39	589.57
637.73	587.04
638.08	584.68
638.42	582.14
638.77	579.34
639.11	576.64
639.45	573.99
639.80	571.03
640.14	568.23
640.49	565.58
640.83	562.85
641.17	560.17
641.52	557.50
641.86	554.53
642.20	552.02
642.55	548.97
642.89	546.24
643.23	543.58
643.58	541.32
643.92	538.40
644.26	535.77
644.61	533.08
644.95	530.31
645.29	527.40
645.64	524.64
645.98	521.98
646.32	519.31
646.66	516.48
647.01	513.85
647.35	511.34
647.69	508.64
648.04	506.11
648.38	503.48
648.72	500.94
649.06	498.54
649.41	495.97
649.75	493.61
650.09	491.24
650.43	488.82
650.78	486.16
651.12	483.71
651.46	481.19
651.80	478.94
652.14	476.59
652.49	474.28
652.83	471.88
653.17	469.49
653.51	467.13
653.85	465.09
654.20	462.80
654.54	460.33
654.88	458.03
655.22	455.86
655.56	453.38
655.90	450.97
656.25	448.62
656.59	446.31
656.93	444.11
657.27	442.05
657.61	439.72
657.95	437.50
658.29	435.49
658.64	433.48
658.98	431.25
659.32	428.88
659.66	426.86
660.00	424.71
660.34	422.55
660.68	420.50
661.02	418.14
661.36	416.11
661.70	414.09
662.05	412.23
662.39	410.14
662.73	408.48
663.07	406.89
663.41	405.22
663.75	403.40
664.09	401.63
664.43	399.58
664.77	397.84
665.11	396.07
665.45	394.24
665.79	392.40
666.13	390.60
666.47	388.98
666.81	387.18
667.15	385.43
667.49	383.90
667.83	382.29
668.17	380.77
668.51	379.27
668.85	377.80
669.19	376.47
669.53	374.84
669.87	373.19
670.21	371.40
670.55	369.68
670.89	368.40
671.23	367.02
671.57	365.60
671.91	364.15
672.25	362.66
672.58	361.36
672.92	359.90
673.26	358.59
673.60	357.22
673.94	355.85
674.28	354.61
674.62	353.25
674.96	351.92
675.30	350.61
675.64	349.25
675.97	347.98
676.31	346.48
676.65	345.34
676.99	344.31
677.33	343.10
677.67	341.90
678.01	340.48
678.34	339.12
678.68	337.94
679.02	336.61
679.36	335.39
679.70	333.98
680.04	332.85
680.37	331.67
680.71	330.37
681.05	329.30
681.39	328.12
681.73	326.98
682.06	325.89
682.40	324.88
682.74	323.90
683.08	322.87
683.42	321.77
683.75	320.74
684.09	319.45
684.43	318.41
684.77	317.21
685.10	316.16
685.44	315.06
685.78	313.98
686.12	313.03
686.45	312.13
686.79	311.22
687.13	310.32
687.46	309.34
687.80	308.59
688.14	307.48
688.48	306.53
688.81	305.56
689.15	304.70
689.49	303.61
689.82	302.57
690.16	301.49
690.50	300.50
690.83	299.49
691.17	298.54
691.51	297.67
691.84	296.88
692.18	296.01
692.52	295.13
692.85	294.34
693.19	293.61
693.52	292.69
693.86	291.78
694.20	290.93
694.53	290.11
694.87	289.19
695.21	288.29
695.54	287.48
695.88	286.48
696.21	285.45
696.55	284.72
696.88	283.90
697.22	283.19
697.56	282.47
697.89	281.69
698.23	281.03
698.56	280.26
698.90	279.55
699.23	278.79
699.57	278.20
699.90	277.32
700.24	276.41
700.58	275.76
700.91	275.16
701.25	274.73
701.58	274.06
701.92	273.34
702.25	272.79
702.59	272.10
702.92	271.54
703.26	270.87
703.59	270.27
703.93	269.96
704.26	269.28
704.60	268.74
704.93	268.12
705.26	267.44
705.60	266.85
705.93	266.22
706.27	265.75
706.60	265.15
706.94	264.79
707.27	264.25
707.61	263.62
707.94	262.93
708.27	262.00
708.61	261.35
708.94	260.90
709.28	260.30
709.61	259.69
709.94	259.22
710.28	258.84
710.61	258.33
710.95	257.54
711.28	257.29
711.61	256.70
711.95	256.23
712.28	255.75
712.61	255.28
712.95	255.04
713.28	254.65
713.61	254.12
713.95	253.53
714.28	253.16
714.61	252.70
714.95	252.33
715.28	251.85
715.61	251.41
715.95	250.91
716.28	250.50
716.61	250.10
716.95	249.60
717.28	249.13
717.61	248.72
717.94	248.30
718.28	247.66
718.61	247.24
718.94	246.84
719.27	246.44
719.61	246.12
719.94	245.65
720.27	245.13
720.60	244.75
720.94	244.40
721.27	244.13
721.60	243.87
721.93	243.59
722.27	243.44
722.60	243.15
722.93	242.77
723.26	242.56
723.59	242.33
723.93	242.11
724.26	241.89
724.59	241.56
724.92	241.31
725.25	241.14
725.59	240.87
725.92	240.69
726.25	240.41
726.58	240.07
726.91	239.72
727.24	239.42
727.57	239.19
727.91	238.88
728.24	238.56
728.57	238.19
728.90	237.85
729.23	237.46
729.56	237.38
729.89	237.18
730.22	236.82
730.55	236.53
730.89	236.23
731.22	235.92
731.55	235.72
731.88	235.42
732.21	235.14
732.54	234.86
732.87	234.54
733.20	234.32
733.53	234.07
733.86	233.87
734.19	233.63
734.52	233.50
734.85	233.53
735.18	233.24
735.51	233.15
735.84	232.99
736.17	232.92
736.50	232.52
736.83	232.74
737.16	232.50
737.49	232.30
737.82	232.09
738.15	231.96
738.48	231.73
738.81	231.59
739.14	231.30
739.47	231.06
739.80	230.88
740.13	230.68
740.46	230.49
740.79	230.21
741.12	230.03
741.45	229.71
741.78	229.26
742.11	229.15
742.44	228.90
742.77	228.86
743.10	228.55
743.43	228.36
743.75	227.77
744.08	228.11
744.41	227.85
744.74	227.59
745.07	227.33
745.40	227.21
745.73	227.18
746.06	227.06
746.39	226.97
746.71	226.73
747.04	226.55
747.37	226.36
747.70	226.30
748.03	226.16
748.36	226.09
748.68	225.95
749.01	225.70
749.34	225.55
749.67	225.32
750.00	225.25
750.33	225.37
750.65	225.27
750.98	224.69
751.31	224.58
751.64	224.60
751.97	224.66
752.29	224.54
752.62	224.24
752.95	224.02
753.28	223.86
753.60	223.70
753.93	223.64
754.26	223.56
754.59	223.34
754.91	223.21
755.24	223.08
755.57	222.99
755.90	222.89
756.22	222.77
756.55	222.57
756.88	222.39
757.20	222.08
757.53	221.84
757.86	221.68
758.19	221.60
758.51	221.41
758.84	221.11
759.17	220.90
759.49	220.78
759.82	220.87
760.15	220.82
760.47	220.76
760.80	220.53
761.13	220.44
761.45	220.40
761.78	220.30
762.11	220.16
762.43	219.98
762.76	219.88
763.08	219.85
763.41	219.83
763.74	219.73
764.06	219.53
764.39	219.54
764.71	219.48
765.04	219.35
765.37	219.18
765.69	219.10
766.02	218.98
766.34	218.90
766.67	218.68
767.00	218.70
767.32	218.78
767.65	218.94
767.97	218.80
768.30	218.73
768.62	218.65
768.95	218.58
769.27	218.53
769.60	218.58
769.92	218.37
770.25	218.30
770.57	218.13
770.90	218.11
771.22	217.98
771.55	217.95
771.87	217.91
772.20	217.89
772.52	218.13
772.85	218.50
773.17	218.48
773.50	218.47
773.82	218.29
774.15	218.10
774.47	217.92
774.80	217.85
775.12	217.75
775.45	217.71
775.77	217.65
776.09	217.71
776.42	217.58
776.74	217.66
777.07	217.51
777.39	217.57
777.72	217.53
778.04	217.45
778.36	217.33
778.69	217.32
779.01	217.33
779.33	217.02
779.66	216.64
779.98	216.55
780.31	216.51
780.63	216.61
780.95	216.64
781.28	216.54
781.60	216.47
781.92	216.41
782.25	216.30
782.57	216.31
782.89	216.23
783.22	216.19
783.54	216.10
783.86	216.07
784.19	216.05
784.51	216.14
784.83	216.10
785.16	216.04
785.48	215.96
785.80	215.85
786.12	215.72
786.45	215.66
786.77	215.61
787.09	215.50
787.42	215.34
787.74	215.25
788.06	215.18
788.38	215.11
788.71	215.06
789.03	215.06
789.35	214.97
789.67	214.84
