SpectraSuite Data File
++++++++++++++++++++++++++++++++++++
Date: Mon Feb 25 17:13:42 EST 2013
User: group
Dark Spectrum Present: No
Reference Spectrum Present: No
Number of Sampled Component Spectra: 1
Spectrometers: USB2E7196
Integration Time (usec): 104000 (USB2E7196)
Spectra Averaged: 20 (USB2E7196)
Boxcar Smoothing: 10 (USB2E7196)
Correct for Electrical Dark: No (USB2E7196)
Strobe/Lamp Enabled: No (USB2E7196)
Correct for Detector Non-linearity: No (USB2E7196)
Correct for Stray Light: No (USB2E7196)
Number of Pixels in Processed Spectrum: 2048
>>>>>Begin Processed Spectral Data<<<<<
339.09	0.00
339.48	196.40
339.86	199.95
340.24	200.30
340.63	203.75
341.01	209.30
341.39	206.90
341.78	206.60
342.16	208.65
342.54	209.45
342.93	198.06
343.31	208.04
343.69	208.71
344.07	209.17
344.46	209.67
344.84	210.04
345.22	210.12
345.60	210.29
345.99	210.54
346.37	210.62
346.75	210.66
347.13	210.71
347.52	210.90
347.90	211.04
348.28	211.06
348.66	211.18
349.05	211.05
349.43	211.06
349.81	211.11
350.19	211.12
350.57	211.11
350.96	211.19
351.34	211.29
351.72	211.34
352.10	211.44
352.48	211.49
352.87	211.48
353.25	211.49
353.63	211.52
354.01	211.47
354.39	211.58
354.77	211.68
355.15	211.86
355.54	211.76
355.92	211.73
356.30	211.82
356.68	212.04
357.06	212.07
357.44	212.11
357.82	212.16
358.20	212.20
358.58	212.29
358.97	212.28
359.35	212.38
359.73	212.51
360.11	212.58
360.49	212.69
360.87	212.76
361.25	212.95
361.63	213.15
362.01	213.30
362.39	213.30
362.77	213.36
363.15	213.37
363.53	213.52
363.91	213.59
364.29	213.63
364.67	213.41
365.05	213.42
365.43	213.50
365.81	213.61
366.19	213.80
366.57	213.98
366.95	214.01
367.33	213.91
367.71	213.90
368.09	214.00
368.47	213.96
368.85	213.99
369.23	213.90
369.61	213.79
369.99	213.87
370.37	213.95
370.75	214.14
371.13	214.04
371.51	213.96
371.89	213.95
372.27	213.89
372.65	213.90
373.03	213.95
373.41	213.94
373.78	213.90
374.16	213.72
374.54	213.60
374.92	213.61
375.30	213.69
375.68	213.58
376.06	213.53
376.44	213.41
376.82	213.31
377.19	213.32
377.57	213.22
377.95	213.06
378.33	213.00
378.71	212.80
379.09	212.81
379.47	212.90
379.84	212.85
380.22	212.76
380.60	212.67
380.98	212.60
381.36	212.52
381.73	212.40
382.11	212.43
382.49	212.37
382.87	212.29
383.25	212.26
383.62	212.65
384.00	212.49
384.38	212.53
384.76	212.58
385.13	212.67
385.51	212.69
385.89	212.65
386.27	212.56
386.64	212.46
387.02	212.44
387.40	212.28
387.78	212.22
388.15	212.26
388.53	212.26
388.91	212.24
389.29	212.18
389.66	212.24
390.04	212.13
390.42	212.13
390.79	212.04
391.17	212.01
391.55	211.56
391.92	211.60
392.30	211.65
392.68	211.56
393.05	211.51
393.43	211.46
393.81	211.41
394.18	211.38
394.56	211.31
394.94	211.36
395.31	211.33
395.69	211.38
396.06	211.38
396.44	211.36
396.82	211.29
397.19	211.48
397.57	211.34
397.95	211.40
398.32	211.35
398.70	211.42
399.07	211.53
399.45	211.58
399.82	211.60
400.20	211.49
400.58	211.50
400.95	211.41
401.33	211.50
401.70	211.79
402.08	211.91
402.45	212.00
402.83	212.10
403.20	212.21
403.58	212.27
403.95	212.40
404.33	212.50
404.71	212.63
405.08	212.81
405.46	212.97
405.83	213.10
406.21	213.19
406.58	213.28
406.96	213.26
407.33	213.42
407.70	213.53
408.08	214.01
408.45	214.17
408.83	214.38
409.20	214.53
409.58	214.51
409.95	214.76
410.33	215.10
410.70	215.28
411.08	215.62
411.45	215.89
411.82	216.14
412.20	216.49
412.57	217.07
412.95	217.17
413.32	217.60
413.69	218.00
414.07	218.41
414.44	218.87
414.82	219.45
415.19	219.98
415.56	220.59
415.94	221.00
416.31	221.78
416.68	222.51
417.06	223.36
417.43	224.20
417.81	224.99
418.18	225.81
418.55	226.72
418.93	227.75
419.30	228.79
419.67	229.90
420.04	230.99
420.42	232.00
420.79	233.61
421.16	234.92
421.54	236.52
421.91	238.04
422.28	239.54
422.66	241.09
423.03	242.88
423.40	244.50
423.77	246.26
424.15	248.00
424.52	249.79
424.89	251.79
425.26	253.59
425.64	255.45
426.01	257.33
426.38	259.32
426.75	261.40
427.13	263.59
427.50	265.80
427.87	268.18
428.24	270.54
428.61	272.63
428.99	275.27
429.36	277.85
429.73	280.52
430.10	283.20
430.47	285.96
430.85	288.50
431.22	291.49
431.59	294.74
431.96	297.70
432.33	301.05
432.70	304.18
433.08	308.07
433.45	311.62
433.82	315.39
434.19	319.43
434.56	323.34
434.93	326.95
435.30	330.65
435.68	334.68
436.05	338.75
436.42	342.66
436.79	346.26
437.16	350.08
437.53	354.13
437.90	358.19
438.27	362.22
438.64	366.35
439.01	370.34
439.38	373.64
439.75	376.96
440.13	380.70
440.50	384.32
440.87	387.09
441.24	390.08
441.61	393.37
441.98	395.75
442.35	398.45
442.72	401.50
443.09	404.51
443.46	406.18
443.83	407.24
444.20	408.29
444.57	409.65
444.94	410.42
445.31	411.26
445.68	412.31
446.05	412.54
446.42	412.16
446.79	411.57
447.16	411.01
447.53	410.70
447.90	409.17
448.27	407.59
448.64	405.45
449.01	403.84
449.37	401.02
449.74	398.28
450.11	395.36
450.48	391.72
450.85	387.97
451.22	384.93
451.59	382.09
451.96	379.34
452.33	375.61
452.70	372.17
453.07	368.03
453.43	363.59
453.80	359.77
454.17	356.02
454.54	352.49
454.91	348.67
455.28	344.94
455.65	341.40
456.02	338.40
456.38	335.43
456.75	331.80
457.12	328.74
457.49	325.94
457.86	322.89
458.23	320.46
458.59	317.77
458.96	315.01
459.33	312.50
459.70	309.99
460.07	308.07
460.43	305.83
460.80	303.89
461.17	302.12
461.54	300.17
461.91	298.32
462.27	296.42
462.64	294.79
463.01	292.93
463.38	291.38
463.74	289.18
464.11	287.79
464.48	286.56
464.85	285.22
465.21	284.24
465.58	283.16
465.95	281.73
466.32	280.60
466.68	279.52
467.05	278.41
467.42	277.35
467.78	276.23
468.15	275.20
468.52	274.34
468.88	273.26
469.25	272.28
469.62	271.75
469.98	271.08
470.35	270.38
470.72	269.81
471.08	269.03
471.45	268.49
471.82	267.88
472.18	267.15
472.55	266.65
472.92	265.90
473.28	265.28
473.65	264.82
474.02	264.40
474.38	264.07
474.75	263.87
475.11	263.47
475.48	263.20
475.85	263.03
476.21	262.77
476.58	262.65
476.94	262.60
477.31	262.45
477.67	262.28
478.04	262.36
478.41	262.43
478.77	262.83
479.14	262.85
479.50	262.90
479.87	263.07
480.23	263.34
480.60	263.45
480.96	263.67
481.33	264.17
481.69	264.45
482.06	264.73
482.42	265.08
482.79	265.59
483.15	266.18
483.52	266.76
483.88	267.30
484.25	267.85
484.61	268.54
484.98	269.18
485.34	270.00
485.71	270.75
486.07	271.67
486.44	272.21
486.80	273.17
487.17	274.27
487.53	275.52
487.90	276.65
488.26	278.14
488.62	279.58
488.99	280.82
489.35	282.27
489.72	283.90
490.08	285.41
490.44	287.01
490.81	288.74
491.17	290.57
491.54	292.64
491.90	294.79
492.26	296.92
492.63	299.22
492.99	301.55
493.36	304.08
493.72	306.68
494.08	309.46
494.45	312.36
494.81	315.55
495.17	318.57
495.54	321.81
495.90	325.10
496.26	328.50
496.63	332.32
496.99	336.26
497.35	340.26
497.72	344.47
498.08	348.76
498.44	353.29
498.80	358.08
499.17	362.93
499.53	367.87
499.89	373.11
500.26	378.45
500.62	383.91
500.98	389.71
501.34	395.71
501.71	401.93
502.07	408.27
502.43	414.64
502.79	421.26
503.16	428.03
503.52	435.20
503.88	442.51
504.24	449.91
504.60	457.42
504.97	465.40
505.33	473.40
505.69	482.09
506.05	490.63
506.41	499.22
506.78	508.10
507.14	517.26
507.50	526.59
507.86	536.13
508.22	545.80
508.59	555.74
508.95	565.82
509.31	576.24
509.67	586.75
510.03	597.41
510.39	608.67
510.75	620.01
511.12	631.44
511.48	642.95
511.84	654.69
512.20	666.53
512.56	678.58
512.92	691.09
513.28	703.53
513.64	716.19
514.00	728.97
514.37	741.89
514.73	755.05
515.09	768.23
515.45	781.52
515.81	795.04
516.17	808.25
516.53	821.65
516.89	835.07
517.25	848.86
517.61	862.80
517.97	876.38
518.33	890.05
518.69	903.77
519.05	918.04
519.41	932.35
519.77	946.90
520.13	960.98
520.49	974.83
520.85	988.82
521.21	1003.13
521.57	1017.53
521.93	1031.43
522.29	1046.11
522.65	1060.68
523.01	1074.99
523.37	1089.11
523.73	1103.63
524.09	1118.16
524.45	1132.59
524.81	1146.85
525.17	1161.34
525.53	1175.84
525.89	1190.69
526.25	1204.92
526.61	1218.46
526.97	1232.04
527.33	1245.75
527.68	1260.01
528.04	1273.63
528.40	1286.79
528.76	1300.25
529.12	1313.91
529.48	1328.11
529.84	1341.03
530.20	1354.25
530.56	1367.29
530.91	1381.17
531.27	1394.65
531.63	1407.54
531.99	1420.50
532.35	1433.08
532.71	1445.21
533.07	1458.10
533.42	1470.33
533.78	1482.75
534.14	1495.23
534.50	1506.67
534.86	1518.46
535.21	1529.38
535.57	1541.20
535.93	1552.63
536.29	1563.77
536.65	1574.29
537.00	1584.14
537.36	1594.29
537.72	1603.90
538.08	1614.01
538.44	1623.40
538.79	1632.98
539.15	1642.42
539.51	1651.47
539.87	1661.13
540.22	1670.09
540.58	1679.00
540.94	1687.44
541.29	1695.07
541.65	1702.51
542.01	1710.80
542.37	1718.36
542.72	1726.10
543.08	1733.22
543.44	1740.80
543.79	1746.96
544.15	1753.04
544.51	1760.00
544.87	1766.71
545.22	1772.99
545.58	1778.63
545.94	1783.67
546.29	1787.96
546.65	1792.45
547.01	1796.90
547.36	1801.08
547.72	1805.25
548.07	1808.44
548.43	1811.62
548.79	1814.99
549.14	1818.13
549.50	1820.89
549.86	1823.13
550.21	1825.75
550.57	1828.33
550.92	1829.86
551.28	1831.64
551.64	1833.82
551.99	1835.79
552.35	1836.94
552.70	1838.17
553.06	1839.42
553.41	1840.70
553.77	1841.83
554.13	1842.68
554.48	1843.55
554.84	1844.28
555.19	1844.59
555.55	1844.63
555.90	1844.33
556.26	1844.05
556.61	1843.78
556.97	1843.29
557.32	1843.12
557.68	1841.93
558.03	1840.77
558.39	1840.07
558.74	1839.95
559.10	1839.38
559.45	1837.88
559.81	1837.13
560.16	1835.77
560.52	1834.83
560.87	1833.34
561.23	1831.71
561.58	1830.71
561.94	1828.72
562.29	1826.03
562.64	1824.18
563.00	1822.41
563.35	1821.02
563.71	1820.17
564.06	1818.99
564.42	1817.35
564.77	1816.00
565.12	1814.69
565.48	1813.25
565.83	1811.66
566.19	1810.06
566.54	1807.51
566.89	1805.24
567.25	1802.85
567.60	1800.64
567.96	1797.93
568.31	1795.70
568.66	1793.12
569.02	1789.74
569.37	1786.47
569.72	1783.87
570.08	1780.96
570.43	1777.74
570.78	1774.25
571.14	1770.06
571.49	1765.81
571.84	1762.51
572.20	1757.83
572.55	1753.67
572.90	1748.97
573.26	1744.16
573.61	1738.92
573.96	1734.29
574.31	1729.07
574.67	1723.52
575.02	1718.14
575.37	1712.57
575.72	1706.73
576.08	1701.86
576.43	1696.39
576.78	1691.58
577.13	1686.77
577.49	1681.64
577.84	1676.54
578.19	1671.63
578.54	1667.14
578.90	1662.62
579.25	1657.08
579.60	1651.96
579.95	1646.16
580.30	1641.33
580.66	1636.63
581.01	1631.45
581.36	1625.98
581.71	1620.68
582.06	1615.84
582.42	1610.70
582.77	1605.42
583.12	1599.96
583.47	1595.01
583.82	1590.26
584.17	1585.28
584.53	1580.15
584.88	1574.70
585.23	1569.28
585.58	1563.93
585.93	1558.51
586.28	1553.19
586.63	1547.85
586.98	1542.85
587.34	1538.48
587.69	1533.14
588.04	1527.90
588.39	1523.05
588.74	1517.83
589.09	1513.30
589.44	1508.10
589.79	1503.17
590.14	1498.50
590.49	1493.94
590.84	1488.50
591.19	1483.94
591.54	1478.66
591.89	1472.83
592.25	1467.68
592.60	1462.36
592.95	1456.71
593.30	1450.55
593.65	1444.97
594.00	1439.58
594.35	1435.76
594.70	1430.27
595.05	1425.19
595.40	1419.80
595.75	1413.87
596.10	1409.14
596.45	1403.91
596.80	1399.16
597.15	1394.72
597.50	1389.45
597.85	1384.61
598.19	1379.40
598.54	1374.31
598.89	1369.78
599.24	1365.46
599.59	1360.89
599.94	1356.66
600.29	1352.43
600.64	1348.22
600.99	1343.25
601.34	1339.06
601.69	1332.82
602.04	1327.95
602.39	1323.07
602.74	1318.57
603.08	1314.78
603.43	1310.65
603.78	1305.99
604.13	1301.14
604.48	1296.05
604.83	1292.24
605.18	1288.39
605.53	1284.06
605.87	1279.17
606.22	1274.71
606.57	1270.07
606.92	1265.33
607.27	1260.31
607.62	1255.28
607.96	1251.02
608.31	1246.99
608.66	1242.16
609.01	1237.42
609.36	1232.47
609.70	1227.11
610.05	1221.85
610.40	1216.64
610.75	1210.89
611.10	1206.19
611.44	1200.58
611.79	1194.94
612.14	1188.94
612.49	1182.48
612.83	1176.92
613.18	1171.09
613.53	1165.11
613.88	1158.96
614.22	1153.26
614.57	1147.48
614.92	1142.01
615.27	1135.98
615.61	1130.01
615.96	1124.20
616.31	1118.94
616.65	1113.88
617.00	1109.03
617.35	1103.78
617.70	1097.99
618.04	1092.24
618.39	1086.17
618.74	1080.84
619.08	1075.35
619.43	1070.00
619.78	1064.57
620.12	1059.30
620.47	1054.07
620.82	1048.35
621.16	1043.02
621.51	1037.70
621.85	1032.55
622.20	1026.99
622.55	1021.61
622.89	1015.89
623.24	1010.49
623.59	1004.81
623.93	999.12
624.28	993.78
624.62	988.38
624.97	983.29
625.32	978.17
625.66	973.19
626.01	968.08
626.35	963.16
626.70	958.05
627.04	953.52
627.39	948.48
627.73	943.67
628.08	939.10
628.43	933.97
628.77	928.81
629.12	923.65
629.46	919.19
629.81	914.29
630.15	909.74
630.50	904.88
630.84	899.69
631.19	894.93
631.53	889.99
631.88	884.85
632.22	879.65
632.57	875.17
632.91	870.19
633.26	865.46
633.60	860.86
633.95	856.35
634.29	851.29
634.64	846.81
634.98	841.89
635.32	837.38
635.67	833.26
636.01	828.92
636.36	824.29
636.70	819.80
637.05	815.42
637.39	810.99
637.73	806.89
638.08	803.16
638.42	799.15
638.77	795.05
639.11	790.83
639.45	786.78
639.80	782.17
640.14	777.81
640.49	773.41
640.83	769.09
641.17	764.84
641.52	760.56
641.86	756.05
642.20	751.93
642.55	747.18
642.89	742.56
643.23	738.04
643.58	734.12
643.92	729.49
644.26	725.19
644.61	721.04
644.95	716.54
645.29	712.03
645.64	707.64
645.98	703.25
646.32	699.29
646.66	695.16
647.01	691.14
647.35	687.23
647.69	683.12
648.04	678.95
648.38	674.69
648.72	670.60
649.06	666.46
649.41	662.35
649.75	658.50
650.09	654.71
650.43	650.81
650.78	646.58
651.12	642.44
651.46	638.49
651.80	634.70
652.14	630.88
652.49	626.91
652.83	622.79
653.17	618.55
653.51	614.42
653.85	610.55
654.20	606.76
654.54	602.80
654.88	598.99
655.22	595.20
655.56	591.26
655.90	587.38
656.25	583.60
656.59	579.80
656.93	576.13
657.27	572.48
657.61	568.68
657.95	565.11
658.29	561.70
658.64	558.29
658.98	554.48
659.32	550.69
659.66	547.32
660.00	543.71
660.34	540.40
660.68	536.95
661.02	533.58
661.36	530.29
661.70	527.02
662.05	523.86
662.39	520.80
662.73	517.75
663.07	514.83
663.41	511.81
663.75	508.81
664.09	505.74
664.43	502.47
664.77	499.50
665.11	496.59
665.45	493.54
665.79	490.53
666.13	487.74
666.47	484.96
666.81	482.07
667.15	479.43
667.49	476.90
667.83	474.34
668.17	471.52
668.51	468.99
668.85	466.41
669.19	463.95
669.53	461.30
669.87	458.57
670.21	455.94
670.55	453.38
670.89	451.07
671.23	448.75
671.57	446.47
671.91	444.08
672.25	441.60
672.58	439.38
672.92	437.01
673.26	434.75
673.60	432.66
673.94	430.39
674.28	428.30
674.62	426.12
674.96	423.89
675.30	421.89
675.64	419.68
675.97	417.52
676.31	415.39
676.65	413.36
676.99	411.56
677.33	409.52
677.67	407.65
678.01	405.51
678.34	403.58
678.68	401.64
679.02	399.65
679.36	397.78
679.70	395.83
680.04	393.94
680.37	391.91
680.71	389.95
681.05	388.23
681.39	386.33
681.73	384.39
682.06	382.67
682.40	380.88
682.74	379.02
683.08	377.36
683.42	375.47
683.75	373.71
684.09	371.91
684.43	370.20
684.77	368.26
685.10	366.50
685.44	364.67
685.78	362.99
686.12	361.43
686.45	359.77
686.79	358.17
687.13	356.63
687.46	355.18
687.80	353.69
688.14	352.02
688.48	350.41
688.81	348.78
689.15	347.16
689.49	345.50
689.82	343.96
690.16	342.18
690.50	340.68
690.83	339.05
691.17	337.41
691.51	335.88
691.84	334.53
692.18	333.18
692.52	331.77
692.85	330.32
693.19	329.08
693.52	327.65
693.86	326.25
694.20	324.90
694.53	323.59
694.87	322.16
695.21	320.89
695.54	319.53
695.88	318.15
696.21	316.86
696.55	315.71
696.88	314.51
697.22	313.35
697.56	312.19
697.89	311.00
698.23	309.94
698.56	308.80
698.90	307.85
699.23	306.61
699.57	305.47
699.90	304.35
700.24	303.17
700.58	302.10
700.91	301.11
701.25	300.18
701.58	299.13
701.92	298.19
702.25	297.11
702.59	296.10
702.92	295.19
703.26	294.22
703.59	293.22
703.93	292.53
704.26	291.63
704.60	290.67
704.93	289.71
705.26	288.74
705.60	287.87
705.93	286.78
706.27	286.00
706.60	285.17
706.94	284.51
707.27	283.56
707.61	282.66
707.94	281.77
708.27	280.73
708.61	279.86
708.94	278.97
709.28	278.19
709.61	277.39
709.94	276.69
710.28	275.85
710.61	275.15
710.95	274.02
711.28	273.56
711.61	272.89
711.95	272.32
712.28	271.67
712.61	270.96
712.95	270.36
713.28	269.90
713.61	269.26
713.95	268.49
714.28	267.87
714.61	267.22
714.95	266.61
715.28	265.92
715.61	265.25
715.95	264.70
716.28	264.03
716.61	263.53
716.95	262.78
717.28	262.31
717.61	261.74
717.94	261.22
718.28	260.39
718.61	259.85
718.94	259.26
719.27	258.66
719.61	258.21
719.94	257.68
720.27	256.85
720.60	256.24
720.94	255.71
721.27	255.31
721.60	254.92
721.93	254.39
722.27	254.10
722.60	253.69
722.93	253.18
723.26	252.83
723.59	252.29
723.93	251.99
724.26	251.47
724.59	250.97
724.92	250.59
725.25	250.20
725.59	249.71
725.92	249.40
726.25	249.05
726.58	248.62
726.91	248.23
727.24	247.97
727.57	247.65
727.91	247.20
728.24	246.76
728.57	246.36
728.90	246.12
729.23	245.71
729.56	245.56
729.89	245.27
730.22	244.89
730.55	244.59
730.89	244.21
731.22	243.86
731.55	243.48
731.88	243.18
732.21	242.85
732.54	242.48
732.87	242.05
733.20	241.67
733.53	241.39
733.86	241.09
734.19	240.66
734.52	240.39
734.85	240.40
735.18	240.01
735.51	239.79
735.84	239.43
736.17	239.16
736.50	238.61
736.83	238.68
737.16	238.39
737.49	238.20
737.82	237.87
738.15	237.71
738.48	237.46
738.81	237.17
739.14	236.81
739.47	236.49
739.80	236.26
740.13	236.08
740.46	235.66
740.79	235.28
741.12	235.00
741.45	234.68
741.78	234.17
742.11	234.07
742.44	233.66
742.77	233.47
743.10	233.20
743.43	232.96
743.75	232.32
744.08	232.53
744.41	232.12
744.74	231.86
745.07	231.56
745.40	231.41
745.73	231.37
746.06	231.16
746.39	231.02
746.71	230.68
747.04	230.35
747.37	230.23
747.70	230.11
748.03	230.00
748.36	229.82
748.68	229.66
749.01	229.36
749.34	229.26
749.67	229.00
750.00	228.86
750.33	229.01
750.65	228.83
750.98	228.18
751.31	228.04
751.64	227.89
751.97	227.83
752.29	227.63
752.62	227.28
752.95	227.08
753.28	226.83
753.60	226.71
753.93	226.68
754.26	226.50
754.59	226.25
754.91	225.99
755.24	225.84
755.57	225.58
755.90	225.46
756.22	225.25
756.55	225.09
756.88	224.75
757.20	224.26
757.53	224.04
757.86	223.91
758.19	223.78
758.51	223.61
758.84	223.33
759.17	223.11
759.49	222.96
759.82	222.99
760.15	222.90
760.47	222.81
760.80	222.59
761.13	222.49
761.45	222.37
761.78	222.28
762.11	222.10
762.43	222.00
762.76	221.82
763.08	221.84
763.41	221.78
763.74	221.75
764.06	221.65
764.39	221.61
764.71	221.46
765.04	221.30
765.37	221.25
765.69	221.14
766.02	221.06
766.34	220.88
766.67	220.67
767.00	220.65
767.32	220.69
767.65	220.77
767.97	220.65
768.30	220.59
768.62	220.51
768.95	220.40
769.27	220.33
769.60	220.29
769.92	220.11
770.25	219.90
770.57	219.78
770.90	219.67
771.22	219.45
771.55	219.44
771.87	219.38
772.20	219.26
772.52	219.46
772.85	219.79
773.17	219.74
773.50	219.66
773.82	219.55
774.15	219.27
774.47	219.03
774.80	218.86
775.12	218.77
775.45	218.67
775.77	218.59
776.09	218.58
776.42	218.56
776.74	218.54
777.07	218.54
777.39	218.47
777.72	218.41
778.04	218.45
778.36	218.34
778.69	218.33
779.01	218.27
779.33	217.97
779.66	217.53
779.98	217.48
780.31	217.37
780.63	217.47
780.95	217.46
781.28	217.34
781.60	217.35
781.92	217.26
782.25	217.16
782.57	217.15
782.89	217.00
783.22	216.82
783.54	216.74
783.86	216.66
784.19	216.55
784.51	216.63
784.83	216.50
785.16	216.44
785.48	216.35
785.80	216.29
786.12	216.23
786.45	216.24
786.77	216.23
787.09	216.23
787.42	216.03
787.74	216.05
788.06	215.99
