SpectraSuite Data File
++++++++++++++++++++++++++++++++++++
Date: Mon Feb 25 17:19:30 EST 2013
User: group
Dark Spectrum Present: No
Reference Spectrum Present: No
Number of Sampled Component Spectra: 1
Spectrometers: USB2E7196
Integration Time (usec): 104000 (USB2E7196)
Spectra Averaged: 20 (USB2E7196)
Boxcar Smoothing: 10 (USB2E7196)
Correct for Electrical Dark: No (USB2E7196)
Strobe/Lamp Enabled: No (USB2E7196)
Correct for Detector Non-linearity: No (USB2E7196)
Correct for Stray Light: No (USB2E7196)
Number of Pixels in Processed Spectrum: 2048
>>>>>Begin Processed Spectral Data<<<<<
339.09	0.00
339.48	198.15
339.86	201.10
340.24	201.95
340.63	204.15
341.01	210.30
341.39	206.30
341.78	208.40
342.16	210.10
342.54	209.00
342.93	198.79
343.31	208.82
343.69	209.46
344.07	209.95
344.46	210.47
344.84	210.85
345.22	210.95
345.60	211.30
345.99	211.55
346.37	211.74
346.75	211.88
347.13	211.99
347.52	212.15
347.90	212.38
348.28	212.44
348.66	212.61
349.05	212.57
349.43	212.72
349.81	212.85
350.19	212.85
350.57	213.02
350.96	213.15
351.34	213.32
351.72	213.44
352.10	213.53
352.48	213.56
352.87	213.66
353.25	213.68
353.63	213.69
354.01	213.70
354.39	213.74
354.77	213.89
355.15	214.03
355.54	214.00
355.92	213.90
356.30	213.96
356.68	214.24
357.06	214.27
357.44	214.27
357.82	214.38
358.20	214.54
358.58	214.51
358.97	214.52
359.35	214.58
359.73	214.65
360.11	214.63
360.49	214.64
360.87	214.65
361.25	214.75
361.63	214.95
362.01	214.98
362.39	214.95
362.77	214.89
363.15	214.89
363.53	214.91
363.91	215.03
364.29	214.97
364.67	214.65
365.05	214.73
365.43	214.80
365.81	214.79
366.19	214.93
366.57	215.09
366.95	215.13
367.33	215.04
367.71	215.03
368.09	215.12
368.47	215.21
368.85	215.18
369.23	215.25
369.61	215.03
369.99	215.16
370.37	215.19
370.75	215.39
371.13	215.30
371.51	215.25
371.89	215.18
372.27	215.18
372.65	215.20
373.03	215.14
373.41	215.07
373.78	215.02
374.16	214.79
374.54	214.60
374.92	214.48
375.30	214.47
375.68	214.38
376.06	214.40
376.44	214.24
376.82	214.28
377.19	214.21
377.57	214.15
377.95	213.94
378.33	213.89
378.71	213.67
379.09	213.70
379.47	213.77
379.84	213.71
380.22	213.70
380.60	213.56
380.98	213.50
381.36	213.46
381.73	213.39
382.11	213.43
382.49	213.44
382.87	213.38
383.25	213.34
383.62	213.70
384.00	213.55
384.38	213.54
384.76	213.52
385.13	213.59
385.51	213.63
385.89	213.63
386.27	213.59
386.64	213.57
387.02	213.45
387.40	213.37
387.78	213.34
388.15	213.32
388.53	213.34
388.91	213.33
389.29	213.31
389.66	213.28
390.04	213.18
390.42	213.28
390.79	213.30
391.17	213.29
391.55	212.89
391.92	212.94
392.30	213.00
392.68	212.92
393.05	212.94
393.43	212.96
393.81	212.93
394.18	212.88
394.56	212.92
394.94	213.09
395.31	213.03
395.69	213.11
396.06	213.14
396.44	213.14
396.82	213.15
397.19	213.27
397.57	213.33
397.95	213.43
398.32	213.34
398.70	213.44
399.07	213.51
399.45	213.50
399.82	213.50
400.20	213.50
400.58	213.55
400.95	213.40
401.33	213.50
401.70	213.84
402.08	213.93
402.45	213.97
402.83	214.09
403.20	214.23
403.58	214.23
403.95	214.50
404.33	214.67
404.71	214.86
405.08	215.20
405.46	215.32
405.83	215.49
406.21	215.63
406.58	215.79
406.96	216.00
407.33	216.30
407.70	216.66
408.08	217.19
408.45	217.53
408.83	217.93
409.20	218.20
409.58	218.35
409.95	218.83
410.33	219.29
410.70	219.61
411.08	220.08
411.45	220.68
411.82	221.14
412.20	221.79
412.57	222.51
412.95	222.84
413.32	223.60
413.69	224.31
414.07	225.12
414.44	225.96
414.82	226.79
415.19	227.81
415.56	228.79
415.94	229.75
416.31	230.99
416.68	232.20
417.06	233.60
417.43	235.00
417.81	236.43
418.18	237.92
418.55	239.61
418.93	241.29
419.30	243.10
419.67	245.01
420.04	246.97
420.42	248.98
420.79	251.60
421.16	253.95
421.54	256.53
421.91	259.13
422.28	261.89
422.66	264.73
423.03	267.64
423.40	270.57
423.77	273.54
424.15	276.59
424.52	279.71
424.89	283.15
425.26	286.55
425.64	289.88
426.01	293.50
426.38	297.09
426.75	300.94
427.13	304.77
427.50	308.77
427.87	312.92
428.24	317.09
428.61	320.94
428.99	325.36
429.36	330.01
429.73	334.68
430.10	339.31
430.47	344.19
430.85	349.10
431.22	354.25
431.59	360.00
431.96	365.39
432.33	371.37
432.70	377.15
433.08	383.84
433.45	390.03
433.82	396.26
434.19	403.30
434.56	410.19
434.93	416.69
435.30	423.32
435.68	430.60
436.05	437.72
436.42	444.88
436.79	451.34
437.16	458.44
437.53	465.89
437.90	473.22
438.27	480.34
438.64	487.70
439.01	494.56
439.38	500.52
439.75	506.40
440.13	513.23
440.50	519.61
440.87	524.79
441.24	530.17
441.61	536.05
441.98	540.38
442.35	545.27
442.72	550.35
443.09	555.20
443.46	558.07
443.83	560.03
444.20	561.58
444.57	564.05
444.94	565.14
445.31	566.19
445.68	567.36
446.05	567.74
446.42	566.92
446.79	565.94
447.16	564.89
447.53	564.11
447.90	561.09
448.27	558.12
448.64	554.06
449.01	551.21
449.37	546.18
449.74	541.51
450.11	536.12
450.48	530.09
450.85	523.75
451.22	518.33
451.59	513.11
451.96	508.35
452.33	501.78
452.70	495.78
453.07	488.75
453.43	481.32
453.80	474.36
454.17	467.79
454.54	461.65
454.91	455.00
455.28	448.46
455.65	442.54
456.02	436.83
456.38	431.82
456.75	425.47
457.12	420.27
457.49	414.96
457.86	409.63
458.23	405.30
458.59	400.49
458.96	395.68
459.33	391.55
459.70	387.19
460.07	383.87
460.43	379.90
460.80	376.31
461.17	373.24
461.54	370.04
461.91	366.91
462.27	363.74
462.64	361.01
463.01	358.02
463.38	355.09
463.74	351.83
464.11	349.26
464.48	347.11
464.85	344.71
465.21	342.89
465.58	341.05
465.95	338.57
466.32	336.76
466.68	334.88
467.05	332.88
467.42	330.91
467.78	328.92
468.15	327.23
468.52	325.96
468.88	324.17
469.25	322.53
469.62	321.38
469.98	320.02
470.35	318.82
470.72	317.75
471.08	316.50
471.45	315.61
471.82	314.66
472.18	313.46
472.55	312.73
472.92	311.76
473.28	310.88
473.65	310.23
474.02	309.46
474.38	309.08
474.75	308.79
475.11	308.41
475.48	308.18
475.85	307.94
476.21	307.68
476.58	307.53
476.94	307.65
477.31	307.53
477.67	307.63
478.04	307.75
478.41	308.00
478.77	308.59
479.14	308.85
479.50	309.29
479.87	309.91
480.23	310.55
480.60	311.10
480.96	311.82
481.33	312.78
481.69	313.76
482.06	314.57
482.42	315.49
482.79	316.62
483.15	317.80
483.52	319.13
483.88	320.45
484.25	322.01
484.61	323.53
484.98	325.09
485.34	326.83
485.71	328.75
486.07	330.87
486.44	332.74
486.80	335.02
487.17	337.36
487.53	340.08
487.90	342.80
488.26	345.94
488.62	349.15
488.99	352.20
489.35	355.45
489.72	359.02
490.08	362.78
490.44	366.70
490.81	370.94
491.17	375.17
491.54	379.89
491.90	384.73
492.26	389.81
492.63	395.08
492.99	400.68
493.36	406.56
493.72	412.66
494.08	419.14
494.45	425.82
494.81	432.83
495.17	439.94
495.54	447.62
495.90	455.33
496.26	463.40
496.63	471.94
496.99	480.90
497.35	490.24
497.72	500.07
498.08	510.27
498.44	520.70
498.80	531.92
499.17	543.23
499.53	554.87
499.89	567.26
500.26	579.86
500.62	592.73
500.98	606.18
501.34	620.10
501.71	634.54
502.07	649.43
502.43	665.13
502.79	680.69
503.16	696.83
503.52	713.77
503.88	731.07
504.24	748.97
504.60	767.16
504.97	786.09
505.33	805.24
505.69	825.49
506.05	846.01
506.41	866.86
506.78	888.00
507.14	909.69
507.50	931.69
507.86	954.44
508.22	977.80
508.59	1001.38
508.95	1025.50
509.31	1050.11
509.67	1075.30
510.03	1100.42
510.39	1127.25
510.75	1153.93
511.12	1180.89
511.48	1208.30
511.84	1236.11
512.20	1264.23
512.56	1292.88
512.92	1321.85
513.28	1350.82
513.64	1379.90
514.00	1409.45
514.37	1439.26
514.73	1469.71
515.09	1499.88
515.45	1530.17
515.81	1561.10
516.17	1592.32
516.53	1623.30
516.89	1654.53
517.25	1685.63
517.61	1717.15
517.97	1748.15
518.33	1779.45
518.69	1810.77
519.05	1842.38
519.41	1874.23
519.77	1906.36
520.13	1937.59
520.49	1968.94
520.85	2000.41
521.21	2032.55
521.57	2064.53
521.93	2095.43
522.29	2127.47
522.65	2159.84
523.01	2191.79
523.37	2222.24
523.73	2253.61
524.09	2284.59
524.45	2315.76
524.81	2346.75
525.17	2378.00
525.53	2408.92
525.89	2439.51
526.25	2470.15
526.61	2499.49
526.97	2528.81
527.33	2558.05
527.68	2587.70
528.04	2616.05
528.40	2643.77
528.76	2671.32
529.12	2699.29
529.48	2728.78
529.84	2756.22
530.20	2783.12
530.56	2810.22
530.91	2838.69
531.27	2865.72
531.63	2892.55
531.99	2918.99
532.35	2944.39
532.71	2969.34
533.07	2994.77
533.42	3019.05
533.78	3043.33
534.14	3067.56
534.50	3090.25
534.86	3113.34
535.21	3135.07
535.57	3158.65
535.93	3180.92
536.29	3202.74
536.65	3224.01
537.00	3243.49
537.36	3262.91
537.72	3281.79
538.08	3300.68
538.44	3318.93
538.79	3337.40
539.15	3355.45
539.51	3372.98
539.87	3392.21
540.22	3409.48
540.58	3427.12
540.94	3444.26
541.29	3459.37
541.65	3473.87
542.01	3489.05
542.37	3503.37
542.72	3518.35
543.08	3530.79
543.44	3545.09
543.79	3556.99
544.15	3568.52
544.51	3581.20
544.87	3593.77
545.22	3605.05
545.58	3615.02
545.94	3623.68
546.29	3631.54
546.65	3639.11
547.01	3646.38
547.36	3652.31
547.72	3658.68
548.07	3663.14
548.43	3667.70
548.79	3672.46
549.14	3677.33
549.50	3681.98
549.86	3685.16
550.21	3687.69
550.57	3691.60
550.92	3692.89
551.28	3694.80
551.64	3696.84
551.99	3698.64
552.35	3699.15
552.70	3700.41
553.06	3701.63
553.41	3702.79
553.77	3703.39
554.13	3703.63
554.48	3704.04
554.84	3704.38
555.19	3703.58
555.55	3702.52
555.90	3701.03
556.26	3699.36
556.61	3697.67
556.97	3694.78
557.32	3692.92
557.68	3689.49
558.03	3686.22
558.39	3683.07
558.74	3681.56
559.10	3678.67
559.45	3675.19
559.81	3672.25
560.16	3667.66
560.52	3664.53
560.87	3660.23
561.23	3655.26
561.58	3651.24
561.94	3645.54
562.29	3638.79
562.64	3633.73
563.00	3628.81
563.35	3624.72
563.71	3621.19
564.06	3616.59
564.42	3612.50
564.77	3608.29
565.12	3604.42
565.48	3599.04
565.83	3594.60
566.19	3589.77
566.54	3583.30
566.89	3576.59
567.25	3570.16
567.60	3564.45
567.96	3557.34
568.31	3551.35
568.66	3544.38
569.02	3536.69
569.37	3529.25
569.72	3522.69
570.08	3514.82
570.43	3506.51
570.78	3497.42
571.14	3487.51
571.49	3478.30
571.84	3469.46
572.20	3458.78
572.55	3449.65
572.90	3439.56
573.26	3428.44
573.61	3417.12
573.96	3406.90
574.31	3395.23
574.67	3383.67
575.02	3371.31
575.37	3359.61
575.72	3346.40
576.08	3335.53
576.43	3323.29
576.78	3311.87
577.13	3301.03
577.49	3289.65
577.84	3278.04
578.19	3267.53
578.54	3257.49
578.90	3247.51
579.25	3235.74
579.60	3223.50
579.95	3210.52
580.30	3199.48
580.66	3188.98
581.01	3176.93
581.36	3164.47
581.71	3153.03
582.06	3141.00
582.42	3130.01
582.77	3117.53
583.12	3105.85
583.47	3094.57
583.82	3083.90
584.17	3071.90
584.53	3059.99
584.88	3048.28
585.23	3036.44
585.58	3023.93
585.93	3011.21
586.28	2998.95
586.63	2986.80
586.98	2975.83
587.34	2965.26
587.69	2953.26
588.04	2941.08
588.39	2929.78
588.74	2917.81
589.09	2906.67
589.44	2895.02
589.79	2883.99
590.14	2873.25
590.49	2862.29
590.84	2850.57
591.19	2840.50
591.54	2829.61
591.89	2816.37
592.25	2804.20
592.60	2792.05
592.95	2779.63
593.30	2766.44
593.65	2753.28
594.00	2741.30
594.35	2730.61
594.70	2718.67
595.05	2707.55
595.40	2695.86
595.75	2683.26
596.10	2672.52
596.45	2661.44
596.80	2651.05
597.15	2639.97
597.50	2628.56
597.85	2617.85
598.19	2606.29
598.54	2594.51
598.89	2583.67
599.24	2574.82
599.59	2564.84
599.94	2555.55
600.29	2546.00
600.64	2536.67
600.99	2526.14
601.34	2516.37
601.69	2505.01
602.04	2493.73
602.39	2483.14
602.74	2472.81
603.08	2464.12
603.43	2454.79
603.78	2444.88
604.13	2434.45
604.48	2424.59
604.83	2415.88
605.18	2407.23
605.53	2397.31
605.87	2386.88
606.22	2377.24
606.57	2366.71
606.92	2356.52
607.27	2345.62
607.62	2335.10
607.96	2325.38
608.31	2316.70
608.66	2306.00
609.01	2295.52
609.36	2285.46
609.70	2274.09
610.05	2263.24
610.40	2251.86
610.75	2240.23
611.10	2229.46
611.44	2217.18
611.79	2205.18
612.14	2192.39
612.49	2179.32
612.83	2167.81
613.18	2155.57
613.53	2143.40
613.88	2130.87
614.22	2119.52
614.57	2107.68
614.92	2095.85
615.27	2083.55
615.61	2070.75
615.96	2059.31
616.31	2048.56
616.65	2038.24
617.00	2027.64
617.35	2016.79
617.70	2005.22
618.04	1993.19
618.39	1980.68
618.74	1969.98
619.08	1958.65
619.43	1947.65
619.78	1936.60
620.12	1925.76
620.47	1915.19
620.82	1903.41
621.16	1891.80
621.51	1879.82
621.85	1868.88
622.20	1857.64
622.55	1846.30
622.89	1835.24
623.24	1823.99
623.59	1811.82
623.93	1799.93
624.28	1788.87
624.62	1777.68
624.97	1766.63
625.32	1756.34
625.66	1746.42
626.01	1735.98
626.35	1725.70
626.70	1715.43
627.04	1705.79
627.39	1695.44
627.73	1685.03
628.08	1675.51
628.43	1665.38
628.77	1655.41
629.12	1644.96
629.46	1635.44
629.81	1625.77
630.15	1615.95
630.50	1605.90
630.84	1595.98
631.19	1586.02
631.53	1576.19
631.88	1565.86
632.22	1556.02
632.57	1546.40
632.91	1536.13
633.26	1526.29
633.60	1516.61
633.95	1507.22
634.29	1497.10
634.64	1487.88
634.98	1478.00
635.32	1468.50
635.67	1459.77
636.01	1450.68
636.36	1441.14
636.70	1431.86
637.05	1422.66
637.39	1413.78
637.73	1405.26
638.08	1397.40
638.42	1389.17
638.77	1380.47
639.11	1372.00
639.45	1363.15
639.80	1353.93
640.14	1344.81
640.49	1335.97
640.83	1326.77
641.17	1317.67
641.52	1308.86
641.86	1299.22
642.20	1290.47
642.55	1281.01
642.89	1271.55
643.23	1262.17
643.58	1254.14
643.92	1244.71
644.26	1235.98
644.61	1227.11
644.95	1218.08
645.29	1209.01
645.64	1199.69
645.98	1190.70
646.32	1182.28
646.66	1173.52
647.01	1165.28
647.35	1157.20
647.69	1148.36
648.04	1139.98
648.38	1131.18
648.72	1122.50
649.06	1114.17
649.41	1105.81
649.75	1097.79
650.09	1089.92
650.43	1081.89
650.78	1072.97
651.12	1064.74
651.46	1056.38
651.80	1048.39
652.14	1040.32
652.49	1032.02
652.83	1023.88
653.17	1015.22
653.51	1006.76
653.85	999.01
654.20	990.79
654.54	982.50
654.88	974.66
655.22	966.69
655.56	958.84
655.90	950.90
656.25	943.15
656.59	935.33
656.93	927.56
657.27	919.90
657.61	912.00
657.95	904.70
658.29	897.67
658.64	890.68
658.98	883.11
659.32	875.40
659.66	868.18
660.00	860.90
660.34	854.00
660.68	846.64
661.02	839.30
661.36	832.54
661.70	825.86
662.05	819.24
662.39	812.91
662.73	806.63
663.07	800.46
663.41	794.19
663.75	788.03
664.09	781.57
664.43	775.21
664.77	769.37
665.11	763.11
665.45	757.07
665.79	750.94
666.13	744.95
666.47	739.10
666.81	733.28
667.15	727.57
667.49	722.34
667.83	717.09
668.17	711.81
668.51	706.80
668.85	701.50
669.19	696.48
669.53	691.10
669.87	685.83
670.21	680.57
670.55	675.49
670.89	670.65
671.23	666.12
671.57	661.39
671.91	656.56
672.25	651.80
672.58	646.79
672.92	642.14
673.26	637.58
673.60	633.32
673.94	628.86
674.28	624.55
674.62	620.11
674.96	615.73
675.30	611.35
675.64	606.71
675.97	602.56
676.31	598.27
676.65	594.19
676.99	590.39
677.33	586.19
677.67	582.16
678.01	578.04
678.34	573.92
678.68	569.86
679.02	565.82
679.36	562.06
679.70	558.50
680.04	554.59
680.37	550.71
680.71	546.89
681.05	543.24
681.39	539.71
681.73	535.97
682.06	532.69
682.40	529.30
682.74	525.88
683.08	522.45
683.42	518.86
683.75	515.39
684.09	511.77
684.43	508.47
684.77	504.82
685.10	501.33
685.44	497.93
685.78	494.60
686.12	491.53
686.45	488.49
686.79	485.20
687.13	482.11
687.46	479.18
687.80	476.15
688.14	472.85
688.48	469.67
688.81	466.54
689.15	463.40
689.49	460.29
689.82	457.31
690.16	454.05
690.50	450.95
690.83	447.95
691.17	444.90
691.51	442.01
691.84	439.39
692.18	436.70
692.52	433.99
692.85	431.56
693.19	428.95
693.52	426.11
693.86	423.38
694.20	420.83
694.53	418.20
694.87	415.63
695.21	413.24
695.54	410.68
695.88	408.19
696.21	405.60
696.55	403.32
696.88	400.81
697.22	398.50
697.56	396.32
697.89	394.01
698.23	391.73
698.56	389.50
698.90	387.36
699.23	385.07
699.57	382.93
699.90	380.65
700.24	378.40
700.58	376.32
700.91	374.31
701.25	372.36
701.58	370.47
701.92	368.41
702.25	366.41
702.59	364.41
702.92	362.52
703.26	360.73
703.59	358.82
703.93	357.29
704.26	355.54
704.60	353.80
704.93	351.98
705.26	350.19
705.60	348.56
705.93	346.73
706.27	345.22
706.60	343.65
706.94	342.23
707.27	340.45
707.61	338.79
707.94	337.17
708.27	335.42
708.61	333.71
708.94	332.25
709.28	330.68
709.61	329.24
709.94	327.83
710.28	326.46
710.61	325.09
710.95	323.39
711.28	322.23
711.61	320.83
711.95	319.64
712.28	318.42
712.61	317.02
712.95	315.87
713.28	314.74
713.61	313.43
713.95	312.11
714.28	311.08
714.61	309.90
714.95	308.66
715.28	307.41
715.61	306.12
715.95	304.80
716.28	303.75
716.61	302.66
716.95	301.49
717.28	300.30
717.61	299.13
717.94	298.17
718.28	296.87
718.61	295.87
718.94	294.83
719.27	293.81
719.61	292.84
719.94	291.92
720.27	290.65
720.60	289.73
720.94	288.67
721.27	287.62
721.60	286.76
721.93	285.94
722.27	285.24
722.60	284.57
722.93	283.84
723.26	282.99
723.59	282.14
723.93	281.31
724.26	280.54
724.59	279.73
724.92	278.88
725.25	278.24
725.59	277.47
725.92	276.74
726.25	275.95
726.58	275.24
726.91	274.41
727.24	273.80
727.57	273.04
727.91	272.29
728.24	271.71
728.57	271.02
728.90	270.40
729.23	269.66
729.56	269.18
729.89	268.46
730.22	267.81
730.55	267.16
730.89	266.54
731.22	265.85
731.55	265.26
731.88	264.65
732.21	263.93
732.54	263.30
732.87	262.64
733.20	262.13
733.53	261.59
733.86	261.03
734.19	260.42
734.52	260.02
734.85	259.81
735.18	259.15
735.51	258.67
735.84	258.10
736.17	257.62
736.50	256.90
736.83	256.80
737.16	256.25
737.49	255.84
737.82	255.34
738.15	254.86
738.48	254.34
738.81	253.90
739.14	253.41
739.47	252.94
739.80	252.54
740.13	252.16
740.46	251.53
740.79	251.06
741.12	250.58
741.45	249.99
741.78	249.25
742.11	248.95
742.44	248.48
742.77	248.10
743.10	247.64
743.43	247.17
743.75	246.42
744.08	246.54
744.41	245.96
744.74	245.58
745.07	245.18
745.40	244.89
745.73	244.61
746.06	244.28
746.39	243.96
746.71	243.54
747.04	243.11
747.37	242.87
747.70	242.55
748.03	242.25
748.36	242.04
748.68	241.76
749.01	241.35
749.34	241.07
749.67	240.78
750.00	240.50
750.33	240.43
750.65	240.10
750.98	239.28
751.31	239.05
751.64	238.72
751.97	238.55
752.29	238.18
752.62	237.70
752.95	237.36
753.28	236.96
753.60	236.62
753.93	236.34
754.26	235.95
754.59	235.56
754.91	235.24
755.24	234.87
755.57	234.56
755.90	234.24
756.22	233.91
756.55	233.57
756.88	233.23
757.20	232.79
757.53	232.41
757.86	232.20
758.19	232.00
758.51	231.74
758.84	231.39
759.17	231.13
759.49	230.94
759.82	230.88
760.15	230.70
760.47	230.47
760.80	230.10
761.13	229.96
761.45	229.67
761.78	229.39
762.11	229.19
762.43	229.00
762.76	228.77
763.08	228.58
763.41	228.40
763.74	228.26
764.06	227.95
764.39	227.79
764.71	227.56
765.04	227.24
765.37	227.05
765.69	226.77
766.02	226.62
766.34	226.42
766.67	226.07
767.00	225.92
767.32	225.91
767.65	226.07
767.97	225.84
768.30	225.78
768.62	225.63
768.95	225.42
769.27	225.18
769.60	225.11
769.92	224.85
770.25	224.61
770.57	224.39
770.90	224.30
771.22	224.09
771.55	223.89
771.87	223.80
772.20	223.60
772.52	223.75
772.85	224.01
773.17	223.85
773.50	223.70
773.82	223.53
774.15	223.23
774.47	222.83
774.80	222.70
775.12	222.51
775.45	222.33
775.77	222.24
776.09	222.19
776.42	222.13
776.74	222.14
777.07	222.03
777.39	221.91
777.72	221.74
778.04	221.70
778.36	221.61
778.69	221.52
779.01	221.47
779.33	221.08
779.66	220.54
779.98	220.45
780.31	220.33
780.63	220.33
780.95	220.32
781.28	220.17
781.60	220.10
781.92	220.05
782.25	220.00
782.57	219.91
782.89	219.78
783.22	219.60
783.54	219.49
783.86	219.42
784.19	219.31
784.51	219.33
784.83	219.20
785.16	219.13
785.48	219.07
