SpectraSuite Data File
++++++++++++++++++++++++++++++++++++
Date: Mon Feb 25 17:18:19 EST 2013
User: group
Dark Spectrum Present: No
Reference Spectrum Present: No
Number of Sampled Component Spectra: 1
Spectrometers: USB2E7196
Integration Time (usec): 104000 (USB2E7196)
Spectra Averaged: 20 (USB2E7196)
Boxcar Smoothing: 10 (USB2E7196)
Correct for Electrical Dark: No (USB2E7196)
Strobe/Lamp Enabled: No (USB2E7196)
Correct for Detector Non-linearity: No (USB2E7196)
Correct for Stray Light: No (USB2E7196)
Number of Pixels in Processed Spectrum: 2048
>>>>>Begin Processed Spectral Data<<<<<
339.09	0.00
339.48	197.10
339.86	200.55
340.24	201.20
340.63	202.40
341.01	209.15
341.39	205.10
341.78	207.20
342.16	208.90
342.54	209.30
342.93	198.13
343.31	208.16
343.69	208.76
344.07	209.22
344.46	209.68
344.84	210.10
345.22	210.28
345.60	210.61
345.99	210.83
346.37	210.97
346.75	211.08
347.13	211.25
347.52	211.43
347.90	211.71
348.28	211.79
348.66	211.90
349.05	211.86
349.43	211.97
349.81	212.07
350.19	212.07
350.57	212.21
350.96	212.31
351.34	212.43
351.72	212.56
352.10	212.71
352.48	212.80
352.87	212.88
353.25	212.90
353.63	212.97
354.01	213.00
354.39	213.16
354.77	213.21
355.15	213.35
355.54	213.33
355.92	213.18
356.30	213.23
356.68	213.54
357.06	213.63
357.44	213.63
357.82	213.77
358.20	213.95
358.58	214.01
358.97	214.10
359.35	214.21
359.73	214.35
360.11	214.38
360.49	214.45
360.87	214.50
361.25	214.63
361.63	214.75
362.01	214.83
362.39	214.76
362.77	214.85
363.15	214.83
363.53	214.89
363.91	214.96
364.29	215.04
364.67	214.70
365.05	214.73
365.43	214.71
365.81	214.78
366.19	214.85
366.57	215.05
366.95	215.04
367.33	214.97
367.71	215.01
368.09	215.06
368.47	215.11
368.85	215.13
369.23	215.19
369.61	215.05
369.99	215.20
370.37	215.24
370.75	215.39
371.13	215.31
371.51	215.20
371.89	215.22
372.27	215.23
372.65	215.21
373.03	215.18
373.41	215.16
373.78	215.04
374.16	214.89
374.54	214.62
374.92	214.59
375.30	214.54
375.68	214.38
376.06	214.32
376.44	214.19
376.82	214.15
377.19	214.03
377.57	214.01
377.95	213.77
378.33	213.73
378.71	213.50
379.09	213.49
379.47	213.50
379.84	213.44
380.22	213.38
380.60	213.30
380.98	213.21
381.36	213.21
381.73	213.14
382.11	213.16
382.49	213.19
382.87	213.11
383.25	213.00
383.62	213.33
384.00	213.24
384.38	213.21
384.76	213.25
385.13	213.33
385.51	213.30
385.89	213.26
386.27	213.25
386.64	213.31
387.02	213.25
387.40	213.23
387.78	213.17
388.15	213.13
388.53	213.15
388.91	213.20
389.29	213.18
389.66	213.22
390.04	213.13
390.42	213.20
390.79	213.25
391.17	213.27
391.55	212.93
391.92	212.98
392.30	213.05
392.68	212.96
393.05	212.92
393.43	212.90
393.81	212.94
394.18	212.86
394.56	212.80
394.94	212.95
395.31	212.90
395.69	213.05
396.06	213.09
396.44	213.08
396.82	212.97
397.19	213.09
397.57	213.10
397.95	213.23
398.32	213.12
398.70	213.17
399.07	213.31
399.45	213.30
399.82	213.31
400.20	213.27
400.58	213.34
400.95	213.25
401.33	213.33
401.70	213.66
402.08	213.74
402.45	213.84
402.83	213.86
403.20	213.96
403.58	213.94
403.95	214.07
404.33	214.22
404.71	214.37
405.08	214.65
405.46	214.66
405.83	214.77
406.21	214.89
406.58	215.01
406.96	215.13
407.33	215.34
407.70	215.57
408.08	216.07
408.45	216.34
408.83	216.64
409.20	216.92
409.58	216.98
409.95	217.32
410.33	217.76
410.70	218.03
411.08	218.53
411.45	219.01
411.82	219.38
412.20	219.95
412.57	220.72
412.95	221.00
413.32	221.71
413.69	222.28
414.07	223.00
414.44	223.78
414.82	224.52
415.19	225.48
415.56	226.34
415.94	227.06
416.31	228.10
416.68	229.21
417.06	230.35
417.43	231.59
417.81	232.88
418.18	234.13
418.55	235.62
418.93	237.07
419.30	238.62
419.67	240.20
420.04	241.89
420.42	243.53
420.79	245.80
421.16	247.88
421.54	250.11
421.91	252.30
422.28	254.55
422.66	257.04
423.03	259.57
423.40	262.09
423.77	264.77
424.15	267.45
424.52	270.17
424.89	273.33
425.26	276.25
425.64	279.10
426.01	282.17
426.38	285.36
426.75	288.75
427.13	292.13
427.50	295.75
427.87	299.52
428.24	303.15
428.61	306.56
428.99	310.55
429.36	314.77
429.73	318.88
430.10	323.05
430.47	327.21
430.85	331.34
431.22	335.90
431.59	340.87
431.96	345.48
432.33	350.70
432.70	355.63
433.08	361.50
433.45	366.96
433.82	372.34
434.19	378.46
434.56	384.45
434.93	390.15
435.30	395.79
435.68	401.94
436.05	408.29
436.42	414.42
436.79	420.02
437.16	425.95
437.53	432.31
437.90	438.62
438.27	444.97
438.64	451.48
439.01	457.58
439.38	462.76
439.75	467.84
440.13	473.66
440.50	479.21
440.87	483.60
441.24	488.35
441.61	493.56
441.98	497.15
442.35	501.35
442.72	505.81
443.09	510.23
443.46	512.86
443.83	514.49
444.20	515.97
444.57	518.06
444.94	519.12
445.31	520.10
445.68	521.41
446.05	521.64
446.42	520.93
446.79	520.09
447.16	519.23
447.53	518.67
447.90	516.19
448.27	513.64
448.64	510.32
449.01	507.79
449.37	503.63
449.74	499.59
450.11	494.93
450.48	489.56
450.85	484.01
451.22	479.18
451.59	474.79
451.96	470.43
452.33	464.72
452.70	459.44
453.07	453.38
453.43	446.73
453.80	440.86
454.17	435.22
454.54	429.71
454.91	423.88
455.28	418.07
455.65	412.74
456.02	407.97
456.38	403.56
456.75	397.96
457.12	393.19
457.49	388.65
457.86	383.97
458.23	380.24
458.59	376.03
458.96	371.92
459.33	368.13
459.70	364.38
460.07	361.48
460.43	358.12
460.80	355.03
461.17	352.37
461.54	349.40
461.91	346.54
462.27	343.76
462.64	341.34
463.01	338.85
463.38	336.52
463.74	333.54
464.11	331.15
464.48	329.29
464.85	327.18
465.21	325.67
465.58	323.99
465.95	321.84
466.32	320.24
466.68	318.62
467.05	316.98
467.42	315.42
467.78	313.63
468.15	312.11
468.52	310.94
468.88	309.35
469.25	307.93
469.62	306.87
469.98	305.71
470.35	304.70
470.72	303.68
471.08	302.43
471.45	301.63
471.82	300.87
472.18	299.91
472.55	299.30
472.92	298.39
473.28	297.71
473.65	297.06
474.02	296.33
474.38	295.84
474.75	295.51
475.11	295.03
475.48	294.80
475.85	294.58
476.21	294.37
476.58	294.25
476.94	294.41
477.31	294.38
477.67	294.42
478.04	294.52
478.41	294.89
478.77	295.45
479.14	295.70
479.50	296.00
479.87	296.46
480.23	296.99
480.60	297.43
480.96	298.00
481.33	298.71
481.69	299.52
482.06	300.26
482.42	300.96
482.79	301.89
483.15	302.78
483.52	303.95
483.88	305.00
484.25	306.19
484.61	307.37
484.98	308.78
485.34	310.41
485.71	312.15
486.07	313.70
486.44	315.22
486.80	317.17
487.17	319.16
487.53	321.40
487.90	323.82
488.26	326.55
488.62	329.21
488.99	331.96
489.35	334.87
489.72	337.94
490.08	341.22
490.44	344.58
490.81	348.27
491.17	351.89
491.54	355.95
491.90	360.02
492.26	364.29
492.63	368.87
492.99	373.47
493.36	378.46
493.72	383.84
494.08	389.32
494.45	395.05
494.81	401.34
495.17	407.54
495.54	413.95
495.90	420.64
496.26	427.64
496.63	435.12
496.99	442.82
497.35	450.76
497.72	459.09
498.08	467.65
498.44	476.50
498.80	486.00
499.17	495.68
499.53	505.82
499.89	516.39
500.26	526.91
500.62	538.07
500.98	549.59
501.34	561.60
501.71	573.90
502.07	586.59
502.43	599.59
502.79	612.86
503.16	626.92
503.52	641.21
503.88	655.99
504.24	671.07
504.60	686.60
504.97	702.73
505.33	719.00
505.69	736.50
506.05	754.10
506.41	771.77
506.78	789.67
507.14	808.10
507.50	827.22
507.86	846.80
508.22	866.47
508.59	886.37
508.95	906.98
509.31	928.11
509.67	949.58
510.03	971.43
510.39	994.16
510.75	1016.99
511.12	1040.16
511.48	1063.57
511.84	1087.58
512.20	1111.46
512.56	1136.16
512.92	1161.51
513.28	1186.56
513.64	1211.90
514.00	1237.40
514.37	1263.16
514.73	1289.50
515.09	1315.67
515.45	1342.04
515.81	1368.63
516.17	1395.57
516.53	1422.39
516.89	1449.42
517.25	1476.53
517.61	1503.54
517.97	1530.45
518.33	1557.53
518.69	1584.79
519.05	1612.34
519.41	1639.79
519.77	1667.67
520.13	1694.80
520.49	1721.48
520.85	1748.63
521.21	1776.07
521.57	1804.01
521.93	1831.04
522.29	1858.98
522.65	1886.51
523.01	1913.90
523.37	1940.72
523.73	1967.99
524.09	1994.98
524.45	2022.37
524.81	2049.10
525.17	2076.53
525.53	2103.92
525.89	2130.86
526.25	2157.07
526.61	2182.63
526.97	2208.44
527.33	2234.11
527.68	2259.96
528.04	2284.99
528.40	2309.22
528.76	2333.76
529.12	2358.69
529.48	2384.29
529.84	2408.24
530.20	2432.61
530.56	2456.58
530.91	2481.76
531.27	2505.94
531.63	2529.58
531.99	2552.48
532.35	2575.42
532.71	2597.47
533.07	2619.54
533.42	2640.73
533.78	2662.95
534.14	2684.24
534.50	2704.02
534.86	2724.72
535.21	2743.81
535.57	2765.00
535.93	2784.55
536.29	2803.40
536.65	2821.90
537.00	2839.07
537.36	2856.11
537.72	2872.63
538.08	2889.84
538.44	2905.95
538.79	2922.24
539.15	2938.11
539.51	2953.85
539.87	2970.28
540.22	2985.43
540.58	3001.17
540.94	3016.29
541.29	3029.46
541.65	3042.96
542.01	3056.64
542.37	3069.52
542.72	3082.90
543.08	3093.69
543.44	3106.42
543.79	3117.42
544.15	3127.39
544.51	3139.02
544.87	3150.46
545.22	3160.53
545.58	3169.31
545.94	3177.01
546.29	3183.95
546.65	3190.99
547.01	3197.74
547.36	3203.62
547.72	3209.77
548.07	3214.02
548.43	3218.70
548.79	3223.09
549.14	3227.23
549.50	3231.47
549.86	3234.38
550.21	3237.25
550.57	3241.16
550.92	3242.90
551.28	3245.09
551.64	3247.52
551.99	3249.16
552.35	3249.95
552.70	3251.28
553.06	3252.39
553.41	3253.45
553.77	3253.82
554.13	3254.29
554.48	3255.01
554.84	3255.63
555.19	3255.07
555.55	3254.09
555.90	3252.12
556.26	3250.91
556.61	3249.34
556.97	3246.63
557.32	3245.16
557.68	3242.01
558.03	3238.79
558.39	3236.29
558.74	3235.03
559.10	3232.60
559.45	3229.52
559.81	3226.89
560.16	3222.84
560.52	3219.60
560.87	3216.25
561.23	3212.30
561.58	3208.74
561.94	3203.14
562.29	3197.14
562.64	3192.72
563.00	3188.36
563.35	3185.10
563.71	3181.54
564.06	3177.49
564.42	3174.05
564.77	3169.73
565.12	3166.50
565.48	3162.14
565.83	3157.70
566.19	3153.22
566.54	3146.96
566.89	3141.32
567.25	3135.64
567.60	3130.86
567.96	3125.07
568.31	3119.57
568.66	3113.83
569.02	3106.80
569.37	3100.30
569.72	3094.38
570.08	3087.48
570.43	3080.48
570.78	3072.41
571.14	3064.22
571.49	3056.30
571.84	3049.00
572.20	3040.23
572.55	3032.13
572.90	3023.14
573.26	3013.78
573.61	3003.57
573.96	2994.81
574.31	2984.53
574.67	2974.18
575.02	2963.33
575.37	2952.97
575.72	2941.66
576.08	2931.95
576.43	2921.34
576.78	2911.55
577.13	2901.96
577.49	2892.01
577.84	2881.65
578.19	2872.59
578.54	2863.62
578.90	2854.82
579.25	2844.18
579.60	2833.30
579.95	2821.89
580.30	2812.33
580.66	2803.14
581.01	2792.55
581.36	2781.84
581.71	2772.13
582.06	2762.06
582.42	2752.25
582.77	2741.52
583.12	2731.47
583.47	2721.80
583.82	2712.70
584.17	2702.49
584.53	2692.11
584.88	2681.73
585.23	2671.78
585.58	2661.15
585.93	2650.15
586.28	2639.44
586.63	2629.36
586.98	2620.00
587.34	2611.01
587.69	2600.67
588.04	2590.47
588.39	2581.10
588.74	2570.97
589.09	2561.46
589.44	2551.32
589.79	2541.64
590.14	2532.42
590.49	2522.73
590.84	2512.53
591.19	2503.64
591.54	2494.12
591.89	2482.69
592.25	2472.52
592.60	2461.86
592.95	2451.13
593.30	2439.82
593.65	2428.95
594.00	2418.11
594.35	2409.11
594.70	2398.73
595.05	2388.69
595.40	2378.22
595.75	2367.45
596.10	2358.38
596.45	2348.94
596.80	2339.93
597.15	2330.65
597.50	2320.60
597.85	2311.24
598.19	2301.34
598.54	2291.18
598.89	2282.03
599.24	2274.48
599.59	2265.59
599.94	2257.73
600.29	2249.21
600.64	2240.87
600.99	2231.61
601.34	2223.25
601.69	2212.95
602.04	2203.15
602.39	2194.22
602.74	2185.43
603.08	2177.73
603.43	2169.58
603.78	2160.48
604.13	2151.67
604.48	2142.77
604.83	2135.77
605.18	2128.60
605.53	2120.18
605.87	2111.17
606.22	2102.78
606.57	2093.75
606.92	2084.99
607.27	2075.49
607.62	2066.38
607.96	2058.21
608.31	2050.42
608.66	2041.08
609.01	2032.01
609.36	2023.04
609.70	2013.46
610.05	2003.86
610.40	1994.16
610.75	1984.14
611.10	1975.26
611.44	1964.30
611.79	1953.75
612.14	1942.35
612.49	1930.81
612.83	1920.72
613.18	1909.95
613.53	1898.99
613.88	1887.74
614.22	1877.41
614.57	1867.18
614.92	1856.94
615.27	1846.06
615.61	1835.33
615.96	1825.60
616.31	1816.19
616.65	1807.08
617.00	1797.64
617.35	1788.14
617.70	1777.65
618.04	1766.99
618.39	1755.60
618.74	1746.18
619.08	1736.41
619.43	1726.54
619.78	1716.90
620.12	1706.98
620.47	1697.86
620.82	1687.84
621.16	1677.78
621.51	1667.59
621.85	1657.72
622.20	1647.73
622.55	1637.84
622.89	1627.65
623.24	1617.67
623.59	1607.19
623.93	1597.24
624.28	1587.29
624.62	1577.70
624.97	1568.49
625.32	1559.49
625.66	1550.45
626.01	1541.12
626.35	1532.06
626.70	1522.98
627.04	1514.47
627.39	1505.62
627.73	1496.45
628.08	1488.01
628.43	1479.04
628.77	1470.24
629.12	1461.21
629.46	1453.06
629.81	1444.62
630.15	1436.12
630.50	1427.09
630.84	1418.34
631.19	1409.65
631.53	1401.27
631.88	1392.02
632.22	1382.61
632.57	1374.11
632.91	1365.47
633.26	1357.33
633.60	1348.92
633.95	1340.55
634.29	1331.49
634.64	1323.17
634.98	1314.32
635.32	1306.15
635.67	1298.75
636.01	1290.79
636.36	1282.52
636.70	1274.45
637.05	1266.27
637.39	1258.50
637.73	1251.19
638.08	1244.34
638.42	1237.14
638.77	1229.65
639.11	1222.30
639.45	1215.09
639.80	1207.06
640.14	1199.23
640.49	1191.25
640.83	1183.61
641.17	1176.03
641.52	1168.48
641.86	1160.49
642.20	1153.18
642.55	1144.98
642.89	1136.71
643.23	1128.46
643.58	1121.16
643.92	1112.95
644.26	1105.26
644.61	1097.59
644.95	1089.65
645.29	1081.62
645.64	1073.40
645.98	1065.53
646.32	1058.03
646.66	1050.32
647.01	1043.00
647.35	1036.06
647.69	1028.30
648.04	1020.99
648.38	1013.37
648.72	1005.87
649.06	998.37
649.41	990.82
649.75	983.65
650.09	976.78
650.43	969.90
650.78	962.27
651.12	955.08
651.46	948.15
651.80	941.20
652.14	934.31
652.49	927.15
652.83	919.98
653.17	912.56
653.51	905.22
653.85	898.47
654.20	891.49
654.54	884.24
654.88	877.42
655.22	870.10
655.56	863.13
655.90	856.30
656.25	849.61
656.59	843.07
656.93	836.46
657.27	829.97
657.61	823.21
657.95	817.00
658.29	810.79
658.64	804.50
658.98	798.06
659.32	791.57
659.66	785.44
660.00	779.13
660.34	772.99
660.68	766.76
661.02	760.42
661.36	754.25
661.70	748.45
662.05	743.00
662.39	737.80
662.73	732.36
663.07	726.90
663.41	721.46
663.75	715.98
664.09	710.40
664.43	704.63
664.77	699.35
665.11	694.05
665.45	688.82
665.79	683.55
666.13	678.34
666.47	673.25
666.81	668.07
667.15	663.22
667.49	658.71
667.83	654.19
668.17	649.68
668.51	645.30
668.85	640.78
669.19	636.24
669.53	631.52
669.87	626.97
670.21	622.41
670.55	617.88
670.89	613.87
671.23	609.75
671.57	605.71
671.91	601.49
672.25	597.33
672.58	593.00
672.92	588.91
673.26	584.99
673.60	581.15
673.94	577.47
674.28	573.58
674.62	569.71
674.96	565.94
675.30	562.28
675.64	558.33
675.97	554.62
676.31	550.99
676.65	547.48
676.99	544.18
677.33	540.68
677.67	537.20
678.01	533.37
678.34	529.85
678.68	526.32
679.02	522.83
679.36	519.41
679.70	516.13
680.04	512.72
680.37	509.32
680.71	506.01
681.05	502.73
681.39	499.54
681.73	496.41
682.06	493.44
682.40	490.32
682.74	487.50
683.08	484.48
683.42	481.20
683.75	478.18
684.09	474.92
684.43	471.81
684.77	468.71
685.10	465.80
685.44	462.88
685.78	459.98
686.12	457.39
686.45	454.52
686.79	451.88
687.13	449.34
687.46	446.70
687.80	444.01
688.14	441.22
688.48	438.72
688.81	435.89
689.15	433.17
689.49	430.47
689.82	427.85
690.16	424.95
690.50	422.33
690.83	419.73
691.17	417.13
691.51	414.70
691.84	412.46
692.18	410.17
692.52	407.90
692.85	405.74
693.19	403.49
693.52	401.26
693.86	398.84
694.20	396.51
694.53	394.22
694.87	391.97
695.21	389.73
695.54	387.32
695.88	385.06
696.21	382.71
696.55	380.70
696.88	378.65
697.22	376.59
697.56	374.65
697.89	372.49
698.23	370.50
698.56	368.50
698.90	366.67
699.23	364.62
699.57	362.61
699.90	360.70
700.24	358.79
700.58	356.88
700.91	355.17
701.25	353.57
701.58	351.85
701.92	350.20
702.25	348.50
702.59	346.81
702.92	345.21
703.26	343.62
703.59	341.93
703.93	340.50
704.26	339.08
704.60	337.53
704.93	336.05
705.26	334.50
705.60	333.01
705.93	331.38
706.27	330.03
706.60	328.67
706.94	327.37
707.27	325.78
707.61	324.40
707.94	322.94
708.27	321.34
708.61	319.82
708.94	318.44
709.28	317.05
709.61	315.78
709.94	314.61
710.28	313.44
710.61	312.18
710.95	310.65
711.28	309.56
711.61	308.37
711.95	307.25
712.28	306.17
712.61	305.12
712.95	304.11
713.28	303.06
713.61	301.85
713.95	300.58
714.28	299.65
714.61	298.56
714.95	297.48
715.28	296.41
715.61	295.45
715.95	294.40
716.28	293.43
716.61	292.43
716.95	291.26
717.28	290.30
717.61	289.44
717.94	288.50
718.28	287.41
718.61	286.56
718.94	285.67
719.27	284.79
719.61	283.91
719.94	282.97
720.27	281.94
720.60	281.12
720.94	280.42
721.27	279.55
721.60	278.84
721.93	278.04
722.27	277.28
722.60	276.59
722.93	275.80
723.26	275.12
723.59	274.39
723.93	273.74
724.26	272.95
724.59	272.18
724.92	271.49
725.25	270.88
725.59	270.23
725.92	269.59
726.25	268.93
726.58	268.34
726.91	267.74
727.24	267.13
727.57	266.62
727.91	265.86
728.24	265.30
728.57	264.69
728.90	264.17
729.23	263.57
729.56	263.10
729.89	262.55
730.22	261.92
730.55	261.33
730.89	260.84
731.22	260.32
731.55	259.78
731.88	259.28
732.21	258.63
732.54	258.01
732.87	257.36
733.20	256.82
733.53	256.27
733.86	255.80
734.19	255.30
734.52	254.76
734.85	254.58
735.18	254.06
735.51	253.69
735.84	253.25
736.17	252.90
736.50	252.22
736.83	252.19
737.16	251.84
737.49	251.47
737.82	250.92
738.15	250.50
738.48	250.05
738.81	249.58
739.14	249.14
739.47	248.66
739.80	248.28
740.13	247.85
740.46	247.32
740.79	246.90
741.12	246.48
741.45	246.01
741.78	245.35
742.11	244.97
742.44	244.40
742.77	244.09
743.10	243.71
743.43	243.38
743.75	242.64
744.08	242.66
744.41	242.24
744.74	241.91
745.07	241.54
745.40	241.31
745.73	241.09
746.06	240.77
746.39	240.53
746.71	240.16
747.04	239.85
747.37	239.53
747.70	239.14
748.03	238.89
748.36	238.66
748.68	238.37
749.01	238.02
749.34	237.83
749.67	237.54
750.00	237.26
750.33	237.26
750.65	236.89
750.98	236.18
751.31	235.94
751.64	235.69
751.97	235.55
752.29	235.22
752.62	234.83
752.95	234.59
753.28	234.23
753.60	234.00
753.93	233.89
754.26	233.73
754.59	233.41
754.91	233.12
755.24	232.88
755.57	232.62
755.90	232.34
756.22	231.99
756.55	231.61
756.88	231.31
757.20	230.74
757.53	230.47
757.86	230.20
758.19	229.94
758.51	229.68
758.84	229.37
759.17	229.10
759.49	228.85
759.82	228.81
760.15	228.63
760.47	228.45
760.80	228.08
761.13	227.92
761.45	227.78
761.78	227.63
762.11	227.45
762.43	227.21
762.76	227.09
763.08	226.93
763.41	226.87
763.74	226.62
764.06	226.50
764.39	226.37
764.71	226.20
765.04	226.04
765.37	225.83
765.69	225.50
766.02	225.38
766.34	225.20
766.67	224.87
767.00	224.75
767.32	224.84
767.65	224.91
767.97	224.69
768.30	224.58
768.62	224.31
768.95	224.13
769.27	224.04
769.60	223.95
769.92	223.83
770.25	223.53
770.57	223.40
770.90	223.25
771.22	222.97
771.55	222.85
771.87	222.68
772.20	222.54
772.52	222.78
772.85	223.06
773.17	222.95
773.50	222.77
773.82	222.63
774.15	222.27
774.47	221.89
774.80	221.79
775.12	221.60
775.45	221.54
775.77	221.43
776.09	221.29
776.42	221.16
776.74	221.12
777.07	221.01
777.39	220.98
777.72	220.81
778.04	220.92
778.36	220.80
778.69	220.82
779.01	220.85
779.33	220.51
779.66	220.02
779.98	219.97
780.31	219.91
780.63	220.00
780.95	220.00
781.28	219.95
781.60	219.77
781.92	219.71
782.25	219.59
782.57	219.48
782.89	219.44
783.22	219.40
783.54	219.28
783.86	219.24
784.19	219.08
784.51	219.20
784.83	219.04
785.16	218.98
785.48	218.86
785.80	218.77
