SpectraSuite Data File
++++++++++++++++++++++++++++++++++++
Date: Mon Feb 25 17:02:31 EST 2013
User: group
Dark Spectrum Present: No
Reference Spectrum Present: No
Number of Sampled Component Spectra: 1
Spectrometers: USB2E7196
Integration Time (usec): 104000 (USB2E7196)
Spectra Averaged: 20 (USB2E7196)
Boxcar Smoothing: 10 (USB2E7196)
Correct for Electrical Dark: No (USB2E7196)
Strobe/Lamp Enabled: No (USB2E7196)
Correct for Detector Non-linearity: No (USB2E7196)
Correct for Stray Light: No (USB2E7196)
Number of Pixels in Processed Spectrum: 2048
>>>>>Begin Processed Spectral Data<<<<<
339.09	0.00
339.48	198.95
339.86	200.10
340.24	201.45
340.63	201.50
341.01	209.05
341.39	205.15
341.78	206.25
342.16	208.85
342.54	208.00
342.93	197.63
343.31	207.60
343.69	208.05
344.07	208.44
344.46	208.81
344.84	209.24
345.22	209.24
345.60	209.40
345.99	209.55
346.37	209.62
346.75	209.68
347.13	209.72
347.52	209.71
347.90	209.87
348.28	209.96
348.66	210.07
349.05	209.97
349.43	210.04
349.81	210.05
350.19	210.05
350.57	210.06
350.96	210.09
351.34	210.20
351.72	210.24
352.10	210.34
352.48	210.43
352.87	210.44
353.25	210.55
353.63	210.65
354.01	210.71
354.39	210.81
354.77	210.91
355.15	211.10
355.54	211.20
355.92	211.19
356.30	211.23
356.68	211.49
357.06	211.55
357.44	211.53
357.82	211.63
358.20	211.79
358.58	211.86
358.97	211.98
359.35	212.10
359.73	212.30
360.11	212.33
360.49	212.38
360.87	212.39
361.25	212.52
361.63	212.65
362.01	212.77
362.39	212.72
362.77	212.82
363.15	212.83
363.53	212.89
363.91	212.95
364.29	213.00
364.67	212.76
365.05	212.91
365.43	212.99
365.81	213.05
366.19	213.23
366.57	213.36
366.95	213.35
367.33	213.33
367.71	213.35
368.09	213.52
368.47	213.58
368.85	213.64
369.23	213.66
369.61	213.60
369.99	213.69
370.37	213.75
370.75	213.87
371.13	213.79
371.51	213.70
371.89	213.76
372.27	213.74
372.65	213.71
373.03	213.58
373.41	213.57
373.78	213.55
374.16	213.30
374.54	213.21
374.92	213.13
375.30	213.05
375.68	212.95
376.06	212.88
376.44	212.72
376.82	212.68
377.19	212.60
377.57	212.53
377.95	212.38
378.33	212.30
378.71	212.10
379.09	212.05
379.47	212.02
379.84	211.85
380.22	211.72
380.60	211.58
380.98	211.56
381.36	211.47
381.73	211.36
382.11	211.45
382.49	211.30
382.87	211.28
383.25	211.25
383.62	211.58
384.00	211.43
384.38	211.46
384.76	211.57
385.13	211.71
385.51	211.66
385.89	211.62
386.27	211.60
386.64	211.59
387.02	211.50
387.40	211.47
387.78	211.47
388.15	211.56
388.53	211.54
388.91	211.51
389.29	211.40
389.66	211.40
390.04	211.29
390.42	211.37
390.79	211.35
391.17	211.30
391.55	210.88
391.92	210.87
392.30	210.90
392.68	210.71
393.05	210.54
393.43	210.59
393.81	210.60
394.18	210.51
394.56	210.50
394.94	210.65
395.31	210.56
395.69	210.65
396.06	210.58
396.44	210.62
396.82	210.65
397.19	210.82
397.57	210.79
397.95	210.82
398.32	210.73
398.70	210.69
399.07	210.76
399.45	210.70
399.82	210.73
400.20	210.63
400.58	210.69
400.95	210.64
401.33	210.71
401.70	210.92
402.08	211.05
402.45	211.10
402.83	211.22
403.20	211.37
403.58	211.41
403.95	211.64
404.33	211.83
404.71	211.92
405.08	212.24
405.46	212.37
405.83	212.55
406.21	212.73
406.58	212.96
406.96	213.19
407.33	213.45
407.70	213.71
408.08	214.30
408.45	214.57
408.83	214.90
409.20	215.13
409.58	215.24
409.95	215.64
410.33	215.96
410.70	216.23
411.08	216.67
411.45	217.10
411.82	217.39
412.20	217.91
412.57	218.59
412.95	218.87
413.32	219.55
413.69	220.10
414.07	220.76
414.44	221.53
414.82	222.26
415.19	223.29
415.56	224.18
415.94	224.92
416.31	226.04
416.68	227.18
417.06	228.45
417.43	229.77
417.81	231.12
418.18	232.54
418.55	234.05
418.93	235.64
419.30	237.29
419.67	239.18
420.04	240.94
420.42	242.88
420.79	245.32
421.16	247.53
421.54	250.05
421.91	252.45
422.28	254.93
422.66	257.58
423.03	260.33
423.40	263.14
423.77	266.09
424.15	269.03
424.52	272.11
424.89	275.56
425.26	278.83
425.64	281.98
426.01	285.50
426.38	289.11
426.75	293.00
427.13	296.90
427.50	300.83
427.87	305.04
428.24	309.22
428.61	313.01
428.99	317.57
429.36	322.35
429.73	327.13
430.10	331.88
430.47	336.77
430.85	341.66
431.22	346.90
431.59	352.75
431.96	358.27
432.33	364.32
432.70	370.14
433.08	377.09
433.45	383.44
433.82	389.85
434.19	397.05
434.56	404.04
434.93	410.82
435.30	417.73
435.68	425.30
436.05	432.79
436.42	440.30
436.79	447.18
437.16	454.40
437.53	462.29
437.90	470.03
438.27	477.73
438.64	485.70
439.01	493.19
439.38	499.73
439.75	506.21
440.13	513.64
440.50	520.63
440.87	526.39
441.24	532.59
441.61	539.31
441.98	544.53
442.35	550.29
442.72	556.15
443.09	561.86
443.46	565.49
443.83	568.04
444.20	570.39
444.57	573.42
444.94	575.29
445.31	577.26
445.68	579.28
446.05	580.30
446.42	580.18
446.79	579.97
447.16	579.45
447.53	579.25
447.90	576.87
448.27	574.70
448.64	571.13
449.01	568.82
449.37	564.13
449.74	559.52
450.11	554.30
450.48	548.15
450.85	542.06
451.22	536.64
451.59	531.65
451.96	526.80
452.33	520.32
452.70	514.44
453.07	507.04
453.43	499.52
453.80	492.58
454.17	485.84
454.54	479.38
454.91	472.58
455.28	465.82
455.65	459.53
456.02	453.45
456.38	448.20
456.75	441.42
457.12	435.85
457.49	430.30
457.86	424.77
458.23	420.36
458.59	415.10
458.96	410.13
459.33	405.58
459.70	401.15
460.07	397.59
460.43	393.42
460.80	389.69
461.17	386.41
461.54	382.71
461.91	379.24
462.27	375.74
462.64	372.83
463.01	369.55
463.38	366.45
463.74	362.94
464.11	360.05
464.48	357.65
464.85	355.07
465.21	353.01
465.58	350.70
465.95	347.91
466.32	345.83
466.68	343.63
467.05	341.49
467.42	339.16
467.78	336.77
468.15	334.57
468.52	332.87
468.88	330.61
469.25	328.78
469.62	327.21
469.98	325.47
470.35	323.89
470.72	322.45
471.08	320.82
471.45	319.43
471.82	318.05
472.18	316.47
472.55	315.30
472.92	314.04
473.28	312.96
473.65	311.91
474.02	310.77
474.38	309.93
474.75	309.15
475.11	308.37
475.48	307.70
475.85	307.10
476.21	306.43
476.58	305.91
476.94	305.46
477.31	304.86
477.67	304.51
478.04	304.10
478.41	303.74
478.77	303.73
479.14	303.39
479.50	303.24
479.87	303.22
480.23	303.10
480.60	302.90
480.96	302.63
481.33	302.76
481.69	302.74
482.06	302.70
482.42	302.63
482.79	302.72
483.15	302.90
483.52	303.27
483.88	303.46
484.25	303.65
484.61	303.87
484.98	304.20
485.34	304.62
485.71	305.04
486.07	305.61
486.44	305.75
486.80	306.29
487.17	306.83
487.53	307.51
487.90	308.24
488.26	309.15
488.62	310.19
488.99	310.89
489.35	311.78
489.72	312.74
490.08	313.75
490.44	314.76
490.81	315.75
491.17	316.67
491.54	317.88
491.90	319.15
492.26	320.44
492.63	321.75
492.99	322.95
493.36	324.27
493.72	325.62
494.08	327.19
494.45	328.79
494.81	330.38
495.17	331.92
495.54	333.55
495.90	335.04
496.26	336.53
496.63	338.25
496.99	340.04
497.35	341.92
497.72	343.71
498.08	345.36
498.44	347.16
498.80	349.11
499.17	350.88
499.53	352.62
499.89	354.34
500.26	356.12
500.62	357.84
500.98	359.70
501.34	361.43
501.71	363.15
502.07	364.74
502.43	366.27
502.79	367.79
503.16	369.32
503.52	370.92
503.88	372.48
504.24	373.97
504.60	375.42
504.97	376.83
505.33	378.17
505.69	379.85
506.05	381.26
506.41	382.41
506.78	383.56
507.14	384.74
507.50	386.05
507.86	387.16
508.22	388.33
508.59	389.24
508.95	390.30
509.31	391.32
509.67	392.31
510.03	393.13
510.39	393.96
510.75	394.72
511.12	395.38
511.48	395.92
511.84	396.50
512.20	396.99
512.56	397.44
512.92	397.97
513.28	398.24
513.64	398.60
514.00	398.91
514.37	399.13
514.73	399.38
515.09	399.61
515.45	399.74
515.81	399.78
516.17	399.84
516.53	399.76
516.89	399.56
517.25	399.40
517.61	399.40
517.97	399.25
518.33	399.07
518.69	398.98
519.05	398.94
519.41	398.85
519.77	398.95
520.13	398.68
520.49	398.35
520.85	398.06
521.21	397.96
521.57	397.73
521.93	397.53
522.29	397.46
522.65	397.07
523.01	397.01
523.37	396.80
523.73	396.77
524.09	396.72
524.45	396.79
524.81	396.83
525.17	396.98
525.53	397.06
525.89	397.16
526.25	397.32
526.61	397.40
526.97	397.53
527.33	397.71
527.68	398.28
528.04	398.68
528.40	399.07
528.76	399.50
529.12	400.15
529.48	400.91
529.84	401.36
530.20	402.24
530.56	403.01
530.91	404.07
531.27	404.87
531.63	405.84
531.99	406.74
532.35	407.76
532.71	408.75
533.07	410.05
533.42	411.67
533.78	412.80
534.14	414.18
534.50	415.36
534.86	416.73
535.21	417.89
535.57	419.54
535.93	421.11
536.29	422.69
536.65	424.27
537.00	425.79
537.36	427.51
537.72	429.13
538.08	430.80
538.44	432.41
538.79	434.34
539.15	436.15
539.51	438.14
539.87	440.14
540.22	442.25
540.58	444.29
540.94	446.18
541.29	448.50
541.65	450.66
542.01	453.19
542.37	455.50
542.72	457.92
543.08	460.14
543.44	462.64
543.79	464.85
544.15	467.42
544.51	470.11
544.87	472.87
545.22	475.53
545.58	478.18
545.94	480.85
546.29	483.39
546.65	486.13
547.01	488.86
547.36	491.58
547.72	494.34
548.07	496.97
548.43	499.52
548.79	502.14
549.14	504.90
549.50	507.72
549.86	510.32
550.21	512.89
550.57	515.64
550.92	518.28
551.28	521.16
551.64	523.73
551.99	526.45
552.35	528.95
552.70	531.47
553.06	534.16
553.41	536.82
553.77	539.74
554.13	542.47
554.48	545.05
554.84	547.79
555.19	550.24
555.55	553.13
555.90	555.67
556.26	558.14
556.61	560.42
556.97	562.68
557.32	565.05
557.68	567.44
558.03	569.81
558.39	572.10
558.74	574.45
559.10	576.85
559.45	579.20
559.81	581.73
560.16	584.12
560.52	586.37
560.87	588.78
561.23	590.88
561.58	593.31
561.94	595.53
562.29	597.58
562.64	599.83
563.00	601.74
563.35	603.82
563.71	606.04
564.06	608.36
564.42	610.67
564.77	612.85
565.12	615.12
565.48	617.58
565.83	619.75
566.19	621.86
566.54	623.74
566.89	625.65
567.25	627.64
567.60	629.62
567.96	631.82
568.31	633.83
568.66	635.67
569.02	636.98
569.37	638.56
569.72	640.12
570.08	641.68
570.43	643.06
570.78	644.52
571.14	645.84
571.49	646.93
571.84	647.93
572.20	648.94
572.55	650.09
572.90	650.67
573.26	651.37
573.61	651.96
573.96	652.76
574.31	653.33
574.67	653.74
575.02	654.19
575.37	654.24
575.72	654.12
576.08	654.40
576.43	654.71
576.78	654.91
577.13	655.33
577.49	655.58
577.84	655.85
578.19	656.19
578.54	656.55
578.90	657.03
579.25	657.34
579.60	657.50
579.95	657.37
580.30	657.51
580.66	657.75
581.01	657.76
581.36	657.72
581.71	657.56
582.06	657.70
582.42	657.80
582.77	657.77
583.12	657.98
583.47	657.86
583.82	657.78
584.17	657.74
584.53	657.75
584.88	657.52
585.23	657.55
585.58	657.25
585.93	656.91
586.28	656.55
586.63	656.20
586.98	656.07
587.34	656.13
587.69	655.76
588.04	655.39
588.39	655.17
588.74	654.71
589.09	654.55
589.44	653.91
589.79	653.31
590.14	652.97
590.49	652.23
590.84	651.71
591.19	651.30
591.54	650.65
591.89	649.60
592.25	649.31
592.60	648.19
592.95	647.18
593.30	646.15
593.65	645.18
594.00	644.15
594.35	644.15
594.70	642.96
595.05	642.18
595.40	641.32
595.75	640.34
596.10	639.47
596.45	638.58
596.80	637.70
597.15	636.93
597.50	635.77
597.85	635.05
598.19	633.90
598.54	633.04
598.89	632.04
599.24	631.44
599.59	630.21
599.94	629.51
600.29	628.78
600.64	628.01
600.99	627.11
601.34	626.52
601.69	624.51
602.04	623.37
602.39	622.23
602.74	621.47
603.08	620.67
603.43	620.08
603.78	618.99
604.13	618.01
604.48	617.06
604.83	616.42
605.18	615.41
605.53	614.68
605.87	613.50
606.22	612.64
606.57	611.41
606.92	610.23
607.27	609.26
607.62	608.15
607.96	607.05
608.31	606.08
608.66	604.84
609.01	603.66
609.36	602.69
609.70	601.43
610.05	599.74
610.40	598.39
610.75	596.80
611.10	595.77
611.44	594.30
611.79	592.72
612.14	591.09
612.49	589.67
612.83	588.22
613.18	586.73
613.53	585.21
613.88	583.59
614.22	582.02
614.57	580.18
614.92	578.60
615.27	577.02
615.61	575.31
615.96	573.67
616.31	572.24
616.65	570.78
617.00	569.28
617.35	567.91
617.70	566.15
618.04	564.29
618.39	562.14
618.74	560.56
619.08	558.83
619.43	557.22
619.78	555.54
620.12	553.80
620.47	552.11
620.82	550.04
621.16	548.19
621.51	546.59
621.85	544.90
622.20	543.11
622.55	541.33
622.89	539.61
623.24	537.89
623.59	535.97
623.93	534.07
624.28	532.29
624.62	530.79
624.97	529.37
625.32	527.87
625.66	526.42
626.01	524.70
626.35	522.97
626.70	521.09
627.04	519.41
627.39	517.58
627.73	515.93
628.08	514.60
628.43	512.92
628.77	511.08
629.12	509.45
629.46	508.01
629.81	506.34
630.15	504.56
630.50	502.73
630.84	501.00
631.19	499.40
631.53	497.87
631.88	495.91
632.22	493.89
632.57	492.33
632.91	490.63
633.26	488.99
633.60	487.40
633.95	485.88
634.29	484.11
634.64	482.59
634.98	480.76
635.32	479.11
635.67	477.61
636.01	476.16
636.36	474.57
636.70	472.89
637.05	471.31
637.39	469.70
637.73	468.25
638.08	467.00
638.42	465.51
638.77	464.01
639.11	462.40
639.45	460.96
639.80	459.12
640.14	457.51
640.49	455.91
640.83	454.36
641.17	452.83
641.52	451.25
641.86	449.56
642.20	448.25
642.55	446.55
642.89	444.95
643.23	443.19
643.58	441.82
643.92	440.12
644.26	438.51
644.61	437.09
644.95	435.45
645.29	433.76
645.64	432.12
645.98	430.36
646.32	428.88
646.66	427.12
647.01	425.56
647.35	424.04
647.69	422.43
648.04	420.94
648.38	419.25
648.72	417.65
649.06	416.05
649.41	414.26
649.75	412.73
650.09	411.26
650.43	409.83
650.78	408.07
651.12	406.49
651.46	405.08
651.80	403.54
652.14	402.04
652.49	400.38
652.83	398.76
653.17	397.06
653.51	395.50
653.85	394.20
654.20	392.88
654.54	391.36
654.88	389.94
655.22	388.34
655.56	386.84
655.90	385.40
656.25	384.01
656.59	382.60
656.93	381.14
657.27	379.73
657.61	378.16
657.95	376.79
658.29	375.34
658.64	373.89
658.98	372.34
659.32	370.85
659.66	369.55
660.00	368.10
660.34	366.82
660.68	365.40
661.02	363.88
661.36	362.48
661.70	361.13
662.05	359.74
662.39	358.51
662.73	357.33
663.07	356.20
663.41	354.87
663.75	353.58
664.09	352.29
664.43	350.82
664.77	349.59
665.11	348.26
665.45	347.12
665.79	345.90
666.13	344.66
666.47	343.50
666.81	342.25
667.15	341.08
667.49	340.00
667.83	338.81
668.17	337.66
668.51	336.50
668.85	335.39
669.19	334.44
669.53	333.20
669.87	331.94
670.21	330.65
670.55	329.58
670.89	328.66
671.23	327.65
671.57	326.71
671.91	325.73
672.25	324.62
672.58	323.70
672.92	322.55
673.26	321.72
673.60	320.76
673.94	319.82
674.28	318.89
674.62	318.03
674.96	317.18
675.30	316.32
675.64	315.40
675.97	314.46
676.31	313.50
676.65	312.65
676.99	312.00
677.33	311.15
677.67	310.30
678.01	309.27
678.34	308.42
678.68	307.60
679.02	306.69
679.36	305.96
679.70	305.06
680.04	304.24
680.37	303.28
680.71	302.40
681.05	301.58
681.39	300.84
681.73	299.89
682.06	299.08
682.40	298.35
682.74	297.51
683.08	296.78
683.42	295.78
683.75	295.04
684.09	294.08
684.43	293.30
684.77	292.44
685.10	291.69
685.44	290.82
685.78	290.01
686.12	289.29
686.45	288.52
686.79	287.67
687.13	287.04
687.46	286.33
687.80	285.71
688.14	284.97
688.48	284.22
688.81	283.59
689.15	282.95
689.49	282.09
689.82	281.41
690.16	280.55
690.50	279.91
690.83	279.10
691.17	278.33
691.51	277.54
691.84	276.95
692.18	276.31
692.52	275.70
692.85	275.07
693.19	274.53
693.52	273.89
693.86	273.23
694.20	272.57
694.53	272.00
694.87	271.26
695.21	270.61
695.54	269.97
695.88	269.22
696.21	268.37
696.55	267.75
696.88	267.16
697.22	266.59
697.56	266.07
697.89	265.47
698.23	265.07
698.56	264.55
698.90	263.98
699.23	263.35
699.57	262.87
699.90	262.24
700.24	261.59
700.58	261.07
700.91	260.60
701.25	260.30
701.58	259.79
701.92	259.35
702.25	258.81
702.59	258.30
702.92	257.90
703.26	257.60
703.59	257.21
703.93	257.00
704.26	256.56
704.60	256.16
704.93	255.76
705.26	255.18
705.60	254.79
705.93	254.29
706.27	253.95
706.60	253.56
706.94	253.33
707.27	252.90
707.61	252.41
707.94	251.92
708.27	251.23
708.61	250.76
708.94	250.26
709.28	249.92
709.61	249.37
709.94	248.99
710.28	248.49
710.61	248.07
710.95	247.33
711.28	247.18
711.61	246.75
711.95	246.42
712.28	246.06
712.61	245.74
712.95	245.56
713.28	245.35
713.61	244.95
713.95	244.48
714.28	244.11
714.61	243.76
714.95	243.46
715.28	243.11
715.61	242.78
715.95	242.52
716.28	242.10
716.61	241.96
716.95	241.54
717.28	241.24
717.61	240.96
717.94	240.76
718.28	240.27
718.61	239.95
718.94	239.62
719.27	239.33
719.61	239.01
719.94	238.69
720.27	238.25
720.60	238.03
720.94	237.77
721.27	237.54
721.60	237.36
721.93	237.08
722.27	236.97
722.60	236.84
722.93	236.56
723.26	236.43
723.59	236.03
723.93	235.91
724.26	235.70
724.59	235.43
724.92	235.13
725.25	234.97
725.59	234.72
725.92	234.58
726.25	234.35
726.58	234.13
726.91	233.84
727.24	233.65
727.57	233.37
727.91	233.06
728.24	232.92
728.57	232.65
728.90	232.50
729.23	232.26
729.56	232.20
729.89	231.93
730.22	231.69
730.55	231.57
730.89	231.34
731.22	231.14
731.55	230.97
731.88	230.87
732.21	230.58
732.54	230.36
732.87	230.17
733.20	229.98
733.53	229.86
733.86	229.69
734.19	229.44
734.52	229.25
734.85	229.36
735.18	229.11
735.51	229.04
735.84	228.90
736.17	228.73
736.50	228.33
736.83	228.65
737.16	228.51
737.49	228.38
737.82	228.18
738.15	228.05
738.48	227.89
738.81	227.62
739.14	227.52
739.47	227.37
739.80	227.16
740.13	227.04
740.46	226.77
740.79	226.54
741.12	226.39
741.45	226.21
741.78	225.90
742.11	225.86
742.44	225.66
742.77	225.48
743.10	225.28
743.43	225.12
743.75	224.61
744.08	224.86
744.41	224.68
744.74	224.51
745.07	224.32
745.40	224.19
745.73	224.26
746.06	224.07
746.39	223.97
746.71	223.82
747.04	223.63
747.37	223.50
747.70	223.47
748.03	223.35
748.36	223.29
748.68	223.14
749.01	222.89
749.34	222.73
749.67	222.71
750.00	222.67
750.33	222.79
750.65	222.71
750.98	222.13
751.31	221.95
751.64	221.86
751.97	221.94
752.29	221.78
752.62	221.46
752.95	221.36
753.28	221.30
753.60	221.15
753.93	221.16
754.26	221.12
754.59	220.88
754.91	220.74
755.24	220.56
755.57	220.47
755.90	220.39
756.22	220.25
756.55	220.02
756.88	219.80
757.20	219.58
757.53	219.34
757.86	219.30
758.19	219.28
758.51	219.19
758.84	218.94
759.17	218.90
759.49	218.82
759.82	218.84
760.15	218.69
760.47	218.66
760.80	218.46
761.13	218.40
761.45	218.41
761.78	218.37
762.11	218.33
762.43	218.22
762.76	218.16
763.08	218.17
763.41	218.15
763.74	218.14
764.06	218.03
764.39	218.05
764.71	217.96
765.04	217.88
765.37	217.85
765.69	217.72
766.02	217.72
766.34	217.63
766.67	217.49
767.00	217.52
767.32	217.61
767.65	217.76
767.97	217.70
768.30	217.61
768.62	217.50
768.95	217.41
769.27	217.36
769.60	217.35
769.92	217.19
770.25	217.09
770.57	217.03
770.90	217.03
771.22	216.87
771.55	216.84
771.87	216.75
772.20	216.67
772.52	216.95
772.85	217.29
773.17	217.21
773.50	217.17
773.82	217.06
774.15	216.80
774.47	216.54
774.80	216.42
775.12	216.35
775.45	216.33
775.77	216.34
776.09	216.20
776.42	216.12
776.74	216.24
777.07	216.11
777.39	216.03
777.72	215.81
778.04	215.85
778.36	215.74
778.69	215.75
779.01	215.64
779.33	215.29
779.66	214.79
779.98	214.82
780.31	214.71
780.63	214.79
780.95	214.82
781.28	214.77
781.60	214.70
781.92	214.64
782.25	214.61
782.57	214.55
782.89	214.57
783.22	214.49
783.54	214.35
783.86	214.35
784.19	214.29
784.51	214.38
784.83	214.27
785.16	214.28
785.48	214.19
785.80	214.22
786.12	214.18
786.45	214.11
786.77	214.05
787.09	214.03
787.42	213.87
787.74	213.80
788.06	213.79
788.38	213.75
788.71	213.68
789.03	213.63
789.35	213.60
789.67	213.53
789.99	213.60
790.32	213.43
790.64	213.53
790.96	213.80
791.28	213.69
791.61	213.70
791.93	213.79
792.25	213.82
792.57	214.03
792.89	214.02
793.21	214.04
793.54	213.98
793.86	213.90
794.18	213.90
