SpectraSuite Data File
++++++++++++++++++++++++++++++++++++
Date: Mon Feb 25 17:04:26 EST 2013
User: group
Dark Spectrum Present: No
Reference Spectrum Present: No
Number of Sampled Component Spectra: 1
Spectrometers: USB2E7196
Integration Time (usec): 104000 (USB2E7196)
Spectra Averaged: 20 (USB2E7196)
Boxcar Smoothing: 10 (USB2E7196)
Correct for Electrical Dark: No (USB2E7196)
Strobe/Lamp Enabled: No (USB2E7196)
Correct for Detector Non-linearity: No (USB2E7196)
Correct for Stray Light: No (USB2E7196)
Number of Pixels in Processed Spectrum: 2048
>>>>>Begin Processed Spectral Data<<<<<
339.09	0.00
339.48	197.75
339.86	199.75
340.24	200.65
340.63	202.20
341.01	209.00
341.39	206.30
341.78	207.10
342.16	207.55
342.54	208.95
342.93	198.00
343.31	208.05
343.69	208.63
344.07	209.12
344.46	209.60
344.84	210.00
345.22	210.02
345.60	210.20
345.99	210.36
346.37	210.52
346.75	210.58
347.13	210.64
347.52	210.65
347.90	210.85
348.28	210.92
348.66	211.01
349.05	210.93
349.43	211.08
349.81	211.17
350.19	211.19
350.57	211.14
350.96	211.20
351.34	211.24
351.72	211.26
352.10	211.36
352.48	211.45
352.87	211.49
353.25	211.59
353.63	211.67
354.01	211.76
354.39	211.79
354.77	211.88
355.15	212.03
355.54	212.02
355.92	211.89
356.30	211.92
356.68	212.22
357.06	212.26
357.44	212.15
357.82	212.19
358.20	212.28
358.58	212.37
358.97	212.48
359.35	212.62
359.73	212.79
360.11	212.83
360.49	212.87
360.87	212.89
361.25	213.00
361.63	213.17
362.01	213.17
362.39	213.19
362.77	213.19
363.15	213.16
363.53	213.25
363.91	213.32
364.29	213.37
364.67	213.03
365.05	213.08
365.43	213.17
365.81	213.20
366.19	213.33
366.57	213.47
366.95	213.43
367.33	213.34
367.71	213.28
368.09	213.33
368.47	213.23
368.85	213.23
369.23	213.30
369.61	213.10
369.99	213.25
370.37	213.37
370.75	213.49
371.13	213.45
371.51	213.35
371.89	213.30
372.27	213.25
372.65	213.21
373.03	213.19
373.41	213.16
373.78	213.12
374.16	212.93
374.54	212.74
374.92	212.69
375.30	212.64
375.68	212.51
376.06	212.45
376.44	212.41
376.82	212.37
377.19	212.25
377.57	212.21
377.95	211.99
378.33	211.83
378.71	211.67
379.09	211.67
379.47	211.66
379.84	211.59
380.22	211.54
380.60	211.46
380.98	211.37
381.36	211.32
381.73	211.17
382.11	211.20
382.49	211.20
382.87	211.09
383.25	211.01
383.62	211.40
384.00	211.26
384.38	211.32
384.76	211.36
385.13	211.44
385.51	211.40
385.89	211.35
386.27	211.35
386.64	211.31
387.02	211.26
387.40	211.19
387.78	211.14
388.15	211.08
388.53	211.08
388.91	211.00
389.29	210.96
389.66	210.99
390.04	210.93
390.42	211.02
390.79	211.01
391.17	211.02
391.55	210.62
391.92	210.59
392.30	210.56
392.68	210.49
393.05	210.44
393.43	210.41
393.81	210.36
394.18	210.27
394.56	210.28
394.94	210.28
395.31	210.18
395.69	210.28
396.06	210.30
396.44	210.24
396.82	210.26
397.19	210.45
397.57	210.42
397.95	210.38
398.32	210.23
398.70	210.22
399.07	210.31
399.45	210.32
399.82	210.35
400.20	210.37
400.58	210.35
400.95	210.24
401.33	210.34
401.70	210.64
402.08	210.73
402.45	210.74
402.83	210.95
403.20	211.08
403.58	211.14
403.95	211.36
404.33	211.46
404.71	211.63
405.08	211.88
405.46	212.01
405.83	212.20
406.21	212.37
406.58	212.59
406.96	212.63
407.33	212.79
407.70	212.99
408.08	213.38
408.45	213.67
408.83	213.98
409.20	214.20
409.58	214.25
409.95	214.55
410.33	214.92
410.70	215.10
411.08	215.49
411.45	215.81
411.82	216.05
412.20	216.63
412.57	217.15
412.95	217.26
413.32	217.86
413.69	218.35
414.07	218.86
414.44	219.48
414.82	220.19
415.19	220.95
415.56	221.72
415.94	222.28
416.31	223.15
416.68	224.00
417.06	225.07
417.43	226.16
417.81	227.26
418.18	228.39
418.55	229.53
418.93	230.83
419.30	232.16
419.67	233.60
420.04	234.95
420.42	236.36
420.79	238.44
421.16	240.20
421.54	242.21
421.91	244.24
422.28	246.26
422.66	248.31
423.03	250.58
423.40	252.75
423.77	255.05
424.15	257.43
424.52	259.89
424.89	262.48
425.26	264.98
425.64	267.48
426.01	270.09
426.38	272.95
426.75	275.84
427.13	278.88
427.50	282.01
427.87	285.24
428.24	288.53
428.61	291.38
428.99	294.85
429.36	298.40
429.73	302.06
430.10	305.68
430.47	309.54
430.85	313.25
431.22	317.43
431.59	322.10
431.96	326.25
432.33	331.06
432.70	335.64
433.08	340.97
433.45	346.04
433.82	351.12
434.19	356.72
434.56	362.30
434.93	367.51
435.30	372.82
435.68	378.67
436.05	384.57
436.42	390.44
436.79	395.69
437.16	401.50
437.53	407.56
437.90	413.58
438.27	419.50
438.64	425.57
439.01	431.37
439.38	436.40
439.75	441.46
440.13	447.03
440.50	452.30
440.87	456.92
441.24	461.43
441.61	466.52
441.98	470.29
442.35	474.60
442.72	479.09
443.09	483.50
443.46	486.34
443.83	488.26
444.20	489.92
444.57	492.32
444.94	493.78
445.31	495.14
445.68	496.73
446.05	497.52
446.42	497.42
446.79	497.09
447.16	496.73
447.53	496.57
447.90	494.70
448.27	492.86
448.64	489.93
449.01	488.05
449.37	484.41
449.74	481.03
450.11	477.04
450.48	472.34
450.85	467.36
451.22	463.14
451.59	459.23
451.96	455.53
452.33	450.49
452.70	445.76
453.07	440.14
453.43	434.26
453.80	428.85
454.17	423.54
454.54	418.47
454.91	412.97
455.28	407.74
455.65	402.88
456.02	398.53
456.38	394.44
456.75	389.37
457.12	385.01
457.49	380.75
457.86	376.26
458.23	372.78
458.59	369.01
458.96	365.15
459.33	361.61
459.70	358.09
460.07	355.28
460.43	351.96
460.80	348.98
461.17	346.31
461.54	343.47
461.91	340.83
462.27	338.29
462.64	336.00
463.01	333.38
463.38	330.94
463.74	328.00
464.11	325.77
464.48	323.82
464.85	321.84
465.21	320.28
465.58	318.71
465.95	316.56
466.32	314.82
466.68	313.09
467.05	311.35
467.42	309.71
467.78	307.92
468.15	306.23
468.52	305.01
468.88	303.35
469.25	301.91
469.62	300.82
469.98	299.37
470.35	298.18
470.72	297.05
471.08	295.79
471.45	294.75
471.82	293.71
472.18	292.60
472.55	291.81
472.92	290.64
473.28	289.69
473.65	288.83
474.02	287.95
474.38	287.29
474.75	286.61
475.11	285.81
475.48	285.30
475.85	284.87
476.21	284.29
476.58	283.79
476.94	283.36
477.31	282.88
477.67	282.42
478.04	282.05
478.41	281.82
478.77	281.90
479.14	281.61
479.50	281.41
479.87	281.23
480.23	280.95
480.60	280.89
480.96	280.75
481.33	280.99
481.69	281.00
482.06	281.00
482.42	281.06
482.79	281.15
483.15	281.15
483.52	281.32
483.88	281.37
484.25	281.47
484.61	281.62
484.98	281.77
485.34	282.26
485.71	282.65
486.07	282.95
486.44	282.94
486.80	283.32
487.17	283.73
487.53	284.23
487.90	284.83
488.26	285.54
488.62	286.25
488.99	286.67
489.35	287.33
489.72	287.92
490.08	288.54
490.44	289.24
490.81	290.10
491.17	290.84
491.54	291.76
491.90	292.64
492.26	293.65
492.63	294.66
492.99	295.55
493.36	296.53
493.72	297.65
494.08	298.73
494.45	299.86
494.81	301.03
495.17	302.17
495.54	303.36
495.90	304.40
496.26	305.65
496.63	306.87
496.99	308.09
497.35	309.42
497.72	310.87
498.08	312.17
498.44	313.46
498.80	314.95
499.17	316.29
499.53	317.74
499.89	319.14
500.26	320.51
500.62	321.79
500.98	323.15
501.34	324.48
501.71	325.86
502.07	327.27
502.43	328.50
502.79	329.73
503.16	330.99
503.52	332.27
503.88	333.39
504.24	334.65
504.60	335.77
504.97	336.94
505.33	338.01
505.69	339.32
506.05	340.47
506.41	341.41
506.78	342.46
507.14	343.43
507.50	344.43
507.86	345.42
508.22	346.37
508.59	347.11
508.95	348.01
509.31	349.05
509.67	349.76
510.03	350.62
510.39	351.38
510.75	352.10
511.12	352.77
511.48	353.38
511.84	353.93
512.20	354.65
512.56	355.27
512.92	355.85
513.28	356.42
513.64	356.94
514.00	357.44
514.37	357.84
514.73	358.40
515.09	358.88
515.45	359.19
515.81	359.66
516.17	360.14
516.53	360.43
516.89	360.51
517.25	360.80
517.61	361.17
517.97	361.48
518.33	361.84
518.69	362.22
519.05	362.65
519.41	363.21
519.77	363.73
520.13	364.15
520.49	364.56
520.85	364.83
521.21	365.35
521.57	365.84
521.93	366.25
522.29	366.65
522.65	367.01
523.01	367.70
523.37	368.19
523.73	368.84
524.09	369.49
524.45	370.22
524.81	371.00
525.17	371.81
525.53	372.74
525.89	373.60
526.25	374.56
526.61	375.38
526.97	376.17
527.33	377.01
527.68	378.36
528.04	379.48
528.40	380.60
528.76	381.82
529.12	383.09
529.48	384.48
529.84	385.78
530.20	387.25
530.56	388.60
530.91	390.19
531.27	391.75
531.63	393.41
531.99	394.97
532.35	396.66
532.71	398.21
533.07	399.92
533.42	402.02
533.78	403.70
534.14	405.69
534.50	407.53
534.86	409.65
535.21	411.30
535.57	413.36
535.93	415.30
536.29	417.35
536.65	419.49
537.00	421.54
537.36	423.71
537.72	425.89
538.08	428.20
538.44	430.55
538.79	432.80
539.15	435.08
539.51	437.55
539.87	439.91
540.22	442.40
540.58	444.97
540.94	447.13
541.29	449.67
541.65	452.10
542.01	454.79
542.37	457.26
542.72	459.85
543.08	462.47
543.44	465.32
543.79	467.76
544.15	470.46
544.51	473.41
544.87	476.26
545.22	478.88
545.58	481.48
545.94	484.01
546.29	486.60
546.65	489.17
547.01	491.95
547.36	494.79
547.72	497.61
548.07	500.29
548.43	502.86
548.79	505.39
549.14	508.00
549.50	510.54
549.86	513.11
550.21	515.76
550.57	518.34
550.92	520.80
551.28	523.42
551.64	525.88
551.99	528.33
552.35	530.74
552.70	533.22
553.06	535.71
553.41	538.15
553.77	540.88
554.13	543.44
554.48	545.89
554.84	548.31
555.19	550.59
555.55	553.11
555.90	555.59
556.26	558.01
556.61	560.25
556.97	562.45
557.32	564.71
557.68	566.86
558.03	569.00
558.39	571.33
558.74	573.61
559.10	576.01
559.45	578.15
559.81	580.45
560.16	582.51
560.52	584.55
560.87	586.76
561.23	588.61
561.58	590.86
561.94	592.81
562.29	594.71
562.64	596.64
563.00	598.32
563.35	600.28
563.71	602.37
564.06	604.34
564.42	606.24
564.77	608.10
565.12	610.04
565.48	612.23
565.83	613.91
566.19	615.62
566.54	617.06
566.89	618.66
567.25	620.41
567.60	622.09
567.96	624.05
568.31	625.66
568.66	627.16
569.02	628.16
569.37	629.12
569.72	630.31
570.08	631.53
570.43	632.61
570.78	633.58
571.14	634.41
571.49	635.24
571.84	636.23
572.20	637.09
572.55	637.68
572.90	637.85
573.26	638.44
573.61	638.88
573.96	639.45
574.31	639.85
574.67	639.96
575.02	640.18
575.37	639.96
575.72	639.85
576.08	640.13
576.43	640.42
576.78	640.68
577.13	640.90
577.49	640.99
577.84	641.14
578.19	641.15
578.54	641.38
578.90	641.55
579.25	641.59
579.60	641.45
579.95	641.35
580.30	641.57
580.66	641.63
581.01	641.61
581.36	641.34
581.71	641.23
582.06	641.22
582.42	641.11
582.77	641.06
583.12	641.04
583.47	640.89
583.82	640.89
584.17	640.88
584.53	640.97
584.88	640.86
585.23	640.80
585.58	640.56
585.93	640.10
586.28	639.90
586.63	639.71
586.98	639.57
587.34	639.61
587.69	639.23
588.04	638.93
588.39	638.70
588.74	638.21
589.09	637.92
589.44	637.21
589.79	637.02
590.14	636.69
590.49	636.16
590.84	635.35
591.19	634.80
591.54	634.19
591.89	633.19
592.25	632.67
592.60	631.92
592.95	631.23
593.30	630.59
593.65	629.70
594.00	628.65
594.35	628.67
594.70	627.67
595.05	626.99
595.40	625.95
595.75	624.75
596.10	623.97
596.45	623.13
596.80	622.66
597.15	621.83
597.50	620.86
597.85	620.08
598.19	619.41
598.54	618.58
598.89	617.61
599.24	617.01
599.59	616.05
599.94	615.21
600.29	614.42
600.64	613.52
600.99	612.67
601.34	612.15
601.69	610.42
602.04	609.37
602.39	608.28
602.74	607.51
603.08	607.07
603.43	606.59
603.78	605.63
604.13	604.68
604.48	603.82
604.83	603.22
605.18	602.48
605.53	601.60
605.87	600.63
606.22	599.90
606.57	598.83
606.92	597.91
607.27	596.85
607.62	595.94
607.96	595.09
608.31	594.33
608.66	593.20
609.01	592.24
609.36	591.37
609.70	590.24
610.05	589.09
610.40	587.94
610.75	586.53
611.10	585.56
611.44	584.06
611.79	582.72
612.14	581.08
612.49	579.43
612.83	578.07
613.18	576.52
613.53	575.03
613.88	573.50
614.22	571.92
614.57	570.46
614.92	568.91
615.27	567.22
615.61	565.56
615.96	564.17
616.31	562.68
616.65	561.30
617.00	559.94
617.35	558.44
617.70	556.71
618.04	555.05
618.39	553.19
618.74	551.77
619.08	550.01
619.43	548.46
619.78	547.08
620.12	545.46
620.47	544.03
620.82	542.39
621.16	540.80
621.51	539.27
621.85	537.60
622.20	535.95
622.55	534.41
622.89	532.81
623.24	531.08
623.59	529.27
623.93	527.57
624.28	526.00
624.62	524.66
624.97	523.19
625.32	521.70
625.66	520.21
626.01	518.43
626.35	517.02
626.70	515.43
627.04	514.01
627.39	512.42
627.73	510.91
628.08	509.38
628.43	507.67
628.77	506.02
629.12	504.39
629.46	502.84
629.81	501.28
630.15	499.64
630.50	497.95
630.84	496.34
631.19	494.58
631.53	492.88
631.88	490.82
632.22	488.95
632.57	487.46
632.91	485.85
633.26	484.44
633.60	482.72
633.95	481.24
634.29	479.29
634.64	477.86
634.98	476.15
635.32	474.66
635.67	473.25
636.01	471.75
636.36	470.15
636.70	468.73
637.05	467.17
637.39	465.64
637.73	464.25
638.08	462.99
638.42	461.60
638.77	460.18
639.11	458.74
639.45	457.39
639.80	455.71
640.14	454.02
640.49	452.46
640.83	450.88
641.17	449.19
641.52	447.74
641.86	445.95
642.20	444.47
642.55	442.73
642.89	441.09
643.23	439.45
643.58	438.16
643.92	436.36
644.26	434.72
644.61	433.22
644.95	431.45
645.29	429.73
645.64	428.20
645.98	426.54
646.32	425.12
646.66	423.38
647.01	421.77
647.35	420.38
647.69	418.71
648.04	417.24
648.38	415.72
648.72	414.18
649.06	412.69
649.41	411.08
649.75	409.56
650.09	408.11
650.43	406.63
650.78	404.94
651.12	403.48
651.46	402.04
651.80	400.52
652.14	399.25
652.49	397.76
652.83	396.28
653.17	394.70
653.51	393.13
653.85	391.85
654.20	390.47
654.54	388.90
654.88	387.40
655.22	385.98
655.56	384.51
655.90	383.01
656.25	381.50
656.59	379.94
656.93	378.61
657.27	377.21
657.61	375.65
657.95	374.25
658.29	372.85
658.64	371.49
658.98	370.09
659.32	368.56
659.66	367.14
660.00	365.61
660.34	364.25
660.68	362.81
661.02	361.38
661.36	360.02
661.70	358.78
662.05	357.45
662.39	356.13
662.73	355.00
663.07	354.00
663.41	352.84
663.75	351.66
664.09	350.30
664.43	348.95
664.77	347.71
665.11	346.45
665.45	345.34
665.79	344.18
666.13	342.84
666.47	341.59
666.81	340.39
667.15	339.26
667.49	338.19
667.83	337.16
668.17	335.90
668.51	334.83
668.85	333.67
669.19	332.84
669.53	331.70
669.87	330.46
670.21	329.20
670.55	328.15
670.89	327.23
671.23	326.28
671.57	325.28
671.91	324.42
672.25	323.48
672.58	322.49
672.92	321.40
673.26	320.53
673.60	319.55
673.94	318.57
674.28	317.65
674.62	316.74
674.96	315.73
675.30	314.93
675.64	313.98
675.97	313.10
676.31	312.05
676.65	311.14
676.99	310.45
677.33	309.55
677.67	308.64
678.01	307.67
678.34	306.77
678.68	305.98
679.02	304.95
679.36	304.10
679.70	303.20
680.04	302.42
680.37	301.57
680.71	300.81
681.05	300.08
681.39	299.30
681.73	298.50
682.06	297.62
682.40	296.81
682.74	296.00
683.08	295.34
683.42	294.49
683.75	293.77
684.09	292.83
684.43	292.02
684.77	291.19
685.10	290.41
685.44	289.63
685.78	288.91
686.12	288.24
686.45	287.49
686.79	286.67
687.13	285.98
687.46	285.26
687.80	284.66
688.14	283.85
688.48	283.25
688.81	282.48
689.15	281.94
689.49	281.15
689.82	280.56
690.16	279.59
690.50	278.98
690.83	278.19
691.17	277.47
691.51	276.78
691.84	276.17
692.18	275.48
692.52	274.92
692.85	274.19
693.19	273.67
693.52	272.98
693.86	272.30
694.20	271.67
694.53	271.06
694.87	270.33
695.21	269.75
695.54	269.03
695.88	268.41
696.21	267.71
696.55	267.18
696.88	266.50
697.22	265.96
697.56	265.31
697.89	264.78
698.23	264.36
698.56	263.81
698.90	263.32
699.23	262.70
699.57	262.09
699.90	261.53
700.24	260.81
700.58	260.35
700.91	259.89
701.25	259.58
701.58	259.12
701.92	258.69
702.25	258.21
702.59	257.63
702.92	257.11
703.26	256.65
703.59	256.22
703.93	256.05
704.26	255.62
704.60	255.21
704.93	254.78
705.26	254.20
705.60	253.80
705.93	253.25
706.27	252.95
706.60	252.64
706.94	252.38
707.27	251.99
707.61	251.58
707.94	251.17
708.27	250.51
708.61	250.03
708.94	249.58
709.28	249.09
709.61	248.77
709.94	248.46
710.28	247.97
710.61	247.59
710.95	246.92
711.28	246.83
711.61	246.45
711.95	246.22
712.28	245.85
712.61	245.49
712.95	245.38
713.28	245.14
713.61	244.69
713.95	244.20
714.28	243.90
714.61	243.52
714.95	243.12
715.28	242.71
715.61	242.39
715.95	242.07
716.28	241.82
716.61	241.49
716.95	241.09
717.28	240.89
717.61	240.60
717.94	240.30
718.28	239.72
718.61	239.45
718.94	239.02
719.27	238.77
719.61	238.53
719.94	238.08
720.27	237.63
720.60	237.30
720.94	237.03
721.27	236.81
721.60	236.60
721.93	236.43
722.27	236.35
722.60	236.15
722.93	235.91
723.26	235.69
723.59	235.39
723.93	235.27
724.26	235.08
724.59	234.85
724.92	234.67
725.25	234.52
725.59	234.35
725.92	234.19
726.25	233.92
726.58	233.71
726.91	233.53
727.24	233.46
727.57	233.30
727.91	233.06
728.24	232.85
728.57	232.59
728.90	232.41
729.23	232.04
729.56	231.94
729.89	231.67
730.22	231.41
730.55	231.19
730.89	230.95
731.22	230.69
731.55	230.38
731.88	230.18
732.21	229.89
732.54	229.60
732.87	229.42
733.20	229.29
733.53	229.06
733.86	228.93
734.19	228.63
734.52	228.48
734.85	228.56
735.18	228.38
735.51	228.40
735.84	228.24
736.17	228.22
736.50	227.93
736.83	228.17
737.16	228.04
737.49	227.87
737.82	227.67
738.15	227.58
738.48	227.51
738.81	227.32
739.14	227.18
739.47	227.03
739.80	226.85
740.13	226.76
740.46	226.61
740.79	226.38
741.12	226.24
741.45	226.10
741.78	225.72
742.11	225.63
742.44	225.37
742.77	225.26
743.10	225.06
743.43	224.95
743.75	224.46
744.08	224.85
744.41	224.74
744.74	224.61
745.07	224.34
745.40	224.24
745.73	224.24
746.06	224.15
746.39	224.09
746.71	223.94
747.04	223.72
747.37	223.59
747.70	223.53
748.03	223.43
748.36	223.37
748.68	223.29
749.01	223.10
749.34	223.00
749.67	222.87
750.00	222.75
750.33	222.86
750.65	222.78
750.98	222.21
751.31	222.11
751.64	222.02
751.97	222.31
752.29	222.20
752.62	221.95
752.95	221.81
753.28	221.62
753.60	221.49
753.93	221.49
754.26	221.41
754.59	221.18
754.91	220.99
755.24	220.86
755.57	220.76
755.90	220.61
756.22	220.47
756.55	220.28
756.88	220.18
757.20	219.85
757.53	219.63
757.86	219.52
758.19	219.45
758.51	219.40
758.84	219.00
759.17	218.88
759.49	218.87
759.82	219.00
760.15	218.95
760.47	218.91
760.80	218.75
761.13	218.67
761.45	218.57
761.78	218.50
762.11	218.39
762.43	218.30
762.76	218.28
763.08	218.21
763.41	218.20
763.74	218.08
764.06	218.05
764.39	218.05
764.71	217.95
765.04	217.87
765.37	217.67
765.69	217.65
766.02	217.60
766.34	217.46
766.67	217.22
767.00	217.25
767.32	217.34
767.65	217.45
767.97	217.38
768.30	217.40
768.62	217.36
768.95	217.30
769.27	217.22
769.60	217.23
769.92	217.13
770.25	217.07
770.57	216.99
770.90	216.86
771.22	216.74
771.55	216.70
771.87	216.62
772.20	216.62
772.52	216.86
772.85	217.16
773.17	217.11
773.50	217.06
773.82	216.95
774.15	216.65
774.47	216.37
774.80	216.29
775.12	216.28
775.45	216.25
775.77	216.18
776.09	216.14
776.42	216.07
776.74	216.11
777.07	215.92
777.39	215.91
777.72	215.85
778.04	215.88
778.36	215.81
778.69	215.79
779.01	215.66
779.33	215.30
779.66	214.80
779.98	214.70
780.31	214.67
780.63	214.75
780.95	214.83
781.28	214.80
781.60	214.73
781.92	214.69
782.25	214.64
782.57	214.69
782.89	214.65
783.22	214.53
783.54	214.43
783.86	214.52
784.19	214.41
784.51	214.45
784.83	214.36
785.16	214.36
785.48	214.26
785.80	214.35
786.12	214.35
786.45	214.42
786.77	214.50
787.09	214.42
787.42	214.23
787.74	214.21
788.06	214.25
788.38	214.29
788.71	214.16
789.03	214.08
789.35	214.03
789.67	213.99
789.99	214.00
790.32	213.94
790.64	213.91
790.96	214.23
791.28	214.05
791.61	214.05
791.93	213.98
792.25	214.01
792.57	214.24
792.89	214.17
793.21	214.19
793.54	214.20
793.86	214.16
794.18	214.17
