SpectraSuite Data File
++++++++++++++++++++++++++++++++++++
Date: Mon Feb 25 17:07:49 EST 2013
User: group
Dark Spectrum Present: No
Reference Spectrum Present: No
Number of Sampled Component Spectra: 1
Spectrometers: USB2E7196
Integration Time (usec): 104000 (USB2E7196)
Spectra Averaged: 20 (USB2E7196)
Boxcar Smoothing: 10 (USB2E7196)
Correct for Electrical Dark: No (USB2E7196)
Strobe/Lamp Enabled: No (USB2E7196)
Correct for Detector Non-linearity: No (USB2E7196)
Correct for Stray Light: No (USB2E7196)
Number of Pixels in Processed Spectrum: 2048
>>>>>Begin Processed Spectral Data<<<<<
339.09	0.00
339.48	198.75
339.86	200.00
340.24	200.70
340.63	202.40
341.01	209.30
341.39	206.25
341.78	207.85
342.16	208.55
342.54	209.00
342.93	198.30
343.31	208.33
343.69	208.93
344.07	209.42
344.46	209.89
344.84	210.23
345.22	210.28
345.60	210.49
345.99	210.64
346.37	210.74
346.75	210.85
347.13	210.87
347.52	210.85
347.90	211.02
348.28	211.08
348.66	211.17
349.05	211.07
349.43	211.12
349.81	211.16
350.19	211.19
350.57	211.23
350.96	211.17
351.34	211.27
351.72	211.29
352.10	211.34
352.48	211.37
352.87	211.46
353.25	211.54
353.63	211.54
354.01	211.55
354.39	211.64
354.77	211.64
355.15	211.79
355.54	211.77
355.92	211.60
356.30	211.67
356.68	211.89
357.06	211.91
357.44	211.81
357.82	211.88
358.20	211.92
358.58	211.99
358.97	212.10
359.35	212.14
359.73	212.25
360.11	212.23
360.49	212.35
360.87	212.42
361.25	212.54
361.63	212.74
362.01	212.80
362.39	212.81
362.77	212.84
363.15	212.90
363.53	212.95
363.91	213.11
364.29	213.05
364.67	212.77
365.05	212.84
365.43	212.93
365.81	212.92
366.19	213.09
366.57	213.17
366.95	213.19
367.33	213.14
367.71	213.06
368.09	213.28
368.47	213.23
368.85	213.16
369.23	213.13
369.61	213.05
369.99	213.14
370.37	213.16
370.75	213.30
371.13	213.17
371.51	213.08
371.89	213.06
372.27	213.09
372.65	213.08
373.03	213.05
373.41	213.03
373.78	213.01
374.16	212.81
374.54	212.74
374.92	212.66
375.30	212.64
375.68	212.55
376.06	212.44
376.44	212.40
376.82	212.33
377.19	212.26
377.57	212.13
377.95	212.02
378.33	211.88
378.71	211.73
379.09	211.76
379.47	211.78
379.84	211.68
380.22	211.62
380.60	211.48
380.98	211.44
381.36	211.35
381.73	211.27
382.11	211.30
382.49	211.18
382.87	211.11
383.25	211.00
383.62	211.38
384.00	211.25
384.38	211.18
384.76	211.25
385.13	211.36
385.51	211.32
385.89	211.20
386.27	211.20
386.64	211.10
387.02	210.96
387.40	210.98
387.78	210.92
388.15	210.93
388.53	210.93
388.91	210.88
389.29	210.88
389.66	210.90
390.04	210.87
390.42	210.94
390.79	211.01
391.17	210.99
391.55	210.61
391.92	210.62
392.30	210.60
392.68	210.50
393.05	210.45
393.43	210.42
393.81	210.44
394.18	210.35
394.56	210.41
394.94	210.51
395.31	210.41
395.69	210.56
396.06	210.53
396.44	210.59
396.82	210.56
397.19	210.72
397.57	210.68
397.95	210.69
398.32	210.53
398.70	210.50
399.07	210.61
399.45	210.59
399.82	210.56
400.20	210.60
400.58	210.66
400.95	210.48
401.33	210.55
401.70	210.76
402.08	210.83
402.45	210.85
402.83	210.93
403.20	210.95
403.58	210.88
403.95	211.00
404.33	211.06
404.71	211.07
405.08	211.25
405.46	211.32
405.83	211.42
406.21	211.51
406.58	211.55
406.96	211.63
407.33	211.75
407.70	211.88
408.08	212.37
408.45	212.50
408.83	212.80
409.20	213.00
409.58	213.01
409.95	213.26
410.33	213.49
410.70	213.63
411.08	213.94
411.45	214.18
411.82	214.42
412.20	214.83
412.57	215.37
412.95	215.43
413.32	215.81
413.69	216.20
414.07	216.64
414.44	217.14
414.82	217.54
415.19	218.13
415.56	218.70
415.94	219.04
416.31	219.74
416.68	220.34
417.06	221.14
417.43	221.91
417.81	222.69
418.18	223.53
418.55	224.43
418.93	225.34
419.30	226.34
419.67	227.41
420.04	228.43
420.42	229.54
420.79	231.14
421.16	232.59
421.54	234.06
421.91	235.58
422.28	237.00
422.66	238.64
423.03	240.33
423.40	241.97
423.77	243.53
424.15	245.26
424.52	247.10
424.89	249.05
425.26	250.96
425.64	252.76
426.01	254.79
426.38	256.91
426.75	259.15
427.13	261.39
427.50	263.67
427.87	266.03
428.24	268.40
428.61	270.46
428.99	273.03
429.36	275.60
429.73	278.21
430.10	280.99
430.47	283.84
430.85	286.58
431.22	289.60
431.59	293.21
431.96	296.30
432.33	299.67
432.70	303.02
433.08	306.99
433.45	310.75
433.82	314.44
434.19	318.60
434.56	322.72
434.93	326.53
435.30	330.34
435.68	334.62
436.05	338.70
436.42	342.91
436.79	346.76
437.16	351.07
437.53	355.44
437.90	359.77
438.27	364.00
438.64	368.47
439.01	372.67
439.38	376.21
439.75	379.83
440.13	384.00
440.50	387.86
440.87	390.94
441.24	394.20
441.61	397.78
441.98	400.31
442.35	403.34
442.72	406.60
443.09	409.85
443.46	411.75
443.83	413.15
444.20	414.31
444.57	415.97
444.94	416.80
445.31	417.85
445.68	419.05
446.05	419.48
446.42	419.20
446.79	418.88
447.16	418.41
447.53	418.18
447.90	416.82
448.27	415.31
448.64	413.39
449.01	412.04
449.37	409.41
449.74	406.88
450.11	404.02
450.48	400.47
450.85	396.73
451.22	393.70
451.59	390.96
451.96	388.26
452.33	384.55
452.70	381.08
453.07	376.89
453.43	372.37
453.80	368.51
454.17	364.65
454.54	360.96
454.91	357.05
455.28	353.18
455.65	349.46
456.02	346.35
456.38	343.14
456.75	339.28
457.12	336.11
457.49	332.99
457.86	329.72
458.23	327.27
458.59	324.52
458.96	321.68
459.33	319.01
459.70	316.45
460.07	314.35
460.43	311.96
460.80	309.83
461.17	308.11
461.54	306.05
461.91	304.20
462.27	302.32
462.64	300.55
463.01	298.72
463.38	297.04
463.74	294.81
464.11	293.28
464.48	291.99
464.85	290.46
465.21	289.44
465.58	288.28
465.95	286.69
466.32	285.39
466.68	284.13
467.05	282.87
467.42	281.68
467.78	280.40
468.15	279.26
468.52	278.38
468.88	277.03
469.25	275.88
469.62	274.96
469.98	273.99
470.35	273.22
470.72	272.38
471.08	271.47
471.45	270.73
471.82	270.10
472.18	269.19
472.55	268.68
472.92	267.79
473.28	267.00
473.65	266.37
474.02	265.90
474.38	265.50
474.75	265.14
475.11	264.64
475.48	264.16
475.85	263.75
476.21	263.32
476.58	263.04
476.94	262.77
477.31	262.58
477.67	262.38
478.04	262.07
478.41	261.96
478.77	262.27
479.14	262.07
479.50	261.83
479.87	261.80
480.23	261.71
480.60	261.73
480.96	261.67
481.33	261.78
481.69	261.73
482.06	261.67
482.42	261.65
482.79	261.76
483.15	261.98
483.52	262.30
483.88	262.52
484.25	262.67
484.61	262.94
484.98	263.08
485.34	263.43
485.71	263.85
486.07	264.18
486.44	264.07
486.80	264.51
487.17	264.91
487.53	265.40
487.90	265.91
488.26	266.51
488.62	267.19
488.99	267.74
489.35	268.45
489.72	269.15
490.08	269.80
490.44	270.43
490.81	271.25
491.17	271.93
491.54	272.79
491.90	273.82
492.26	274.75
492.63	275.75
492.99	276.62
493.36	277.63
493.72	278.80
494.08	279.97
494.45	281.15
494.81	282.48
495.17	283.72
495.54	285.03
495.90	286.25
496.26	287.50
496.63	288.90
496.99	290.37
497.35	291.86
497.72	293.52
498.08	295.05
498.44	296.61
498.80	298.32
499.17	299.96
499.53	301.52
499.89	303.38
500.26	305.08
500.62	306.87
500.98	308.81
501.34	310.64
501.71	312.60
502.07	314.55
502.43	316.46
502.79	318.40
503.16	320.45
503.52	322.51
503.88	324.58
504.24	326.69
504.60	328.74
504.97	330.96
505.33	333.13
505.69	335.50
506.05	337.73
506.41	339.96
506.78	342.18
507.14	344.49
507.50	346.76
507.86	349.27
508.22	351.69
508.59	354.09
508.95	356.58
509.31	359.11
509.67	361.65
510.03	364.20
510.39	366.89
510.75	369.52
511.12	372.20
511.48	374.95
511.84	377.64
512.20	380.33
512.56	383.09
512.92	385.90
513.28	388.78
513.64	391.67
514.00	394.55
514.37	397.49
514.73	400.59
515.09	403.63
515.45	406.45
515.81	409.61
516.17	412.60
516.53	415.52
516.89	418.42
517.25	421.61
517.61	424.80
517.97	427.93
518.33	431.08
518.69	434.25
519.05	437.50
519.41	440.79
519.77	444.34
520.13	447.66
520.49	450.96
520.85	454.25
521.21	457.74
521.57	461.31
521.93	464.69
522.29	468.08
522.65	471.50
523.01	475.05
523.37	478.40
523.73	481.98
524.09	485.69
524.45	489.38
524.81	492.96
525.17	496.60
525.53	500.16
525.89	503.86
526.25	507.69
526.61	511.35
526.97	515.13
527.33	518.73
527.68	522.84
528.04	526.41
528.40	530.00
528.76	533.77
529.12	537.62
529.48	541.72
529.84	545.64
530.20	549.48
530.56	553.53
530.91	557.60
531.27	561.70
531.63	565.72
531.99	569.84
532.35	573.81
532.71	577.66
533.07	582.14
533.42	586.38
533.78	590.30
534.14	594.39
534.50	598.30
534.86	602.43
535.21	606.01
535.57	610.42
535.93	614.56
536.29	618.56
536.65	622.56
537.00	626.30
537.36	629.99
537.72	633.85
538.08	637.65
538.44	641.46
538.79	645.13
539.15	648.89
539.51	652.58
539.87	656.49
540.22	660.54
540.58	664.14
540.94	667.72
541.29	671.53
541.65	674.99
542.01	678.61
542.37	682.19
542.72	685.80
543.08	689.18
543.44	692.98
543.79	696.35
544.15	699.57
544.51	703.23
544.87	706.93
545.22	710.40
545.58	713.68
545.94	716.70
546.29	719.77
546.65	722.75
547.01	725.70
547.36	728.67
547.72	731.64
548.07	734.27
548.43	736.84
548.79	739.46
549.14	742.17
549.50	744.75
549.86	747.07
550.21	749.58
550.57	752.18
550.92	754.25
551.28	756.65
551.64	759.05
551.99	761.18
552.35	763.26
552.70	765.27
553.06	767.32
553.41	769.50
553.77	771.77
554.13	773.67
554.48	775.98
554.84	777.98
555.19	779.73
555.55	781.70
555.90	783.40
556.26	784.96
556.61	786.58
556.97	787.97
557.32	789.56
557.68	790.77
558.03	791.92
558.39	793.22
558.74	794.70
559.10	796.01
559.45	797.47
559.81	798.86
560.16	799.92
560.52	801.16
560.87	802.38
561.23	803.20
561.58	804.63
561.94	805.34
562.29	805.88
562.64	806.71
563.00	807.57
563.35	808.68
563.71	809.88
564.06	811.01
564.42	812.24
564.77	813.25
565.12	814.51
565.48	815.76
565.83	816.71
566.19	817.42
566.54	817.83
566.89	818.30
567.25	818.86
567.60	819.94
567.96	820.67
568.31	821.45
568.66	821.90
569.02	822.06
569.37	822.05
569.72	822.36
570.08	822.52
570.43	822.58
570.78	822.47
571.14	822.09
571.49	821.58
571.84	821.30
572.20	820.96
572.55	820.50
572.90	819.60
573.26	818.91
573.61	818.22
573.96	817.78
574.31	816.90
574.67	815.96
575.02	814.88
575.37	813.70
575.72	812.18
576.08	811.32
576.43	810.04
576.78	809.22
577.13	808.43
577.49	807.36
577.84	806.28
578.19	805.35
578.54	804.60
578.90	803.85
579.25	802.97
579.60	801.74
579.95	800.55
580.30	799.67
580.66	798.76
581.01	797.74
581.36	796.50
581.71	795.42
582.06	794.50
582.42	793.30
582.77	792.18
583.12	791.18
583.47	790.25
583.82	789.34
584.17	788.30
584.53	787.47
584.88	786.42
585.23	785.50
585.58	784.38
585.93	783.31
586.28	782.28
586.63	781.11
586.98	779.98
587.34	778.99
587.69	777.79
588.04	776.71
588.39	775.51
588.74	774.19
589.09	773.31
589.44	771.87
589.79	770.76
590.14	769.52
590.49	768.36
590.84	766.78
591.19	765.64
591.54	764.32
591.89	762.36
592.25	760.96
592.60	759.21
592.95	757.63
593.30	755.75
593.65	753.88
594.00	752.07
594.35	751.55
594.70	749.93
595.05	748.33
595.40	746.65
595.75	744.92
596.10	743.50
596.45	741.85
596.80	740.52
597.15	738.97
597.50	737.41
597.85	736.04
598.19	734.42
598.54	732.85
598.89	731.39
599.24	730.34
599.59	728.88
599.94	727.67
600.29	726.30
600.64	724.95
600.99	723.54
601.34	722.26
601.69	719.76
602.04	718.18
602.39	716.64
602.74	715.36
603.08	714.15
603.43	713.07
603.78	711.63
604.13	709.99
604.48	708.64
604.83	707.53
605.18	706.17
605.53	704.94
605.87	703.36
606.22	701.88
606.57	700.42
606.92	699.01
607.27	697.31
607.62	695.77
607.96	694.43
608.31	693.15
608.66	691.60
609.01	690.08
609.36	688.44
609.70	686.80
610.05	684.73
610.40	682.80
610.75	680.71
611.10	678.97
611.44	677.09
611.79	674.95
612.14	672.71
612.49	670.48
612.83	668.48
613.18	666.34
613.53	664.22
613.88	661.80
614.22	659.61
614.57	657.39
614.92	655.25
615.27	653.11
615.61	650.79
615.96	648.71
616.31	646.64
616.65	644.60
617.00	642.58
617.35	640.58
617.70	638.53
618.04	636.37
618.39	633.84
618.74	631.78
619.08	629.50
619.43	627.25
619.78	625.11
620.12	622.92
620.47	621.07
620.82	618.86
621.16	616.59
621.51	614.46
621.85	612.38
622.20	610.20
622.55	607.87
622.89	605.72
623.24	603.39
623.59	601.03
623.93	598.92
624.28	596.74
624.62	594.90
624.97	592.83
625.32	590.52
625.66	588.45
626.01	586.23
626.35	584.37
626.70	582.42
627.04	580.51
627.39	578.44
627.73	576.18
628.08	574.22
628.43	571.97
628.77	569.72
629.12	567.51
629.46	565.51
629.81	563.43
630.15	561.27
630.50	559.10
630.84	556.96
631.19	554.71
631.53	552.62
631.88	550.23
632.22	547.84
632.57	546.15
632.91	544.16
633.26	542.25
633.60	540.16
633.95	538.14
634.29	535.85
634.64	533.92
634.98	531.79
635.32	529.87
635.67	528.15
636.01	526.20
636.36	524.20
636.70	522.19
637.05	520.24
637.39	518.39
637.73	516.56
638.08	515.00
638.42	513.25
638.77	511.37
639.11	509.33
639.45	507.45
639.80	505.24
640.14	503.19
640.49	501.20
640.83	499.17
641.17	497.13
641.52	495.16
641.86	492.92
642.20	491.08
642.55	488.75
642.89	486.77
643.23	484.74
643.58	483.05
643.92	480.98
644.26	479.00
644.61	476.95
644.95	475.00
645.29	472.82
645.64	470.80
645.98	468.76
646.32	466.94
646.66	464.97
647.01	463.06
647.35	461.27
647.69	459.22
648.04	457.49
648.38	455.58
648.72	453.66
649.06	451.87
649.41	449.89
649.75	448.10
650.09	446.20
650.43	444.41
650.78	442.33
651.12	440.35
651.46	438.41
651.80	436.71
652.14	434.76
652.49	432.93
652.83	430.98
653.17	429.00
653.51	427.03
653.85	425.32
654.20	423.55
654.54	421.57
654.88	419.63
655.22	417.68
655.56	415.72
655.90	413.93
656.25	411.96
656.59	410.16
656.93	408.46
657.27	406.82
657.61	404.87
657.95	403.15
658.29	401.50
658.64	399.91
658.98	398.09
659.32	396.34
659.66	394.64
660.00	392.95
660.34	391.24
660.68	389.56
661.02	387.74
661.36	386.07
661.70	384.46
662.05	382.98
662.39	381.45
662.73	380.15
663.07	378.73
663.41	377.37
663.75	375.78
664.09	374.09
664.43	372.38
664.77	370.91
665.11	369.44
665.45	367.94
665.79	366.43
666.13	364.88
666.47	363.43
666.81	361.97
667.15	360.47
667.49	359.23
667.83	358.03
668.17	356.67
668.51	355.45
668.85	354.18
669.19	352.99
669.53	351.52
669.87	350.04
670.21	348.60
670.55	347.34
670.89	346.49
671.23	345.45
671.57	344.24
671.91	343.07
672.25	341.81
672.58	340.72
672.92	339.47
673.26	338.39
673.60	337.32
673.94	336.14
674.28	335.03
674.62	333.93
674.96	332.75
675.30	331.76
675.64	330.54
675.97	329.43
676.31	328.27
676.65	327.23
676.99	326.41
677.33	325.30
677.67	324.21
678.01	322.74
678.34	321.63
678.68	320.69
679.02	319.62
679.36	318.63
679.70	317.47
680.04	316.37
680.37	315.32
680.71	314.20
681.05	313.25
681.39	312.31
681.73	311.34
682.06	310.40
682.40	309.45
682.74	308.50
683.08	307.66
683.42	306.67
683.75	305.76
684.09	304.58
684.43	303.87
684.77	302.91
685.10	302.14
685.44	301.12
685.78	300.11
686.12	299.29
686.45	298.37
686.79	297.50
687.13	296.88
687.46	295.99
687.80	295.27
688.14	294.48
688.48	293.71
688.81	292.86
689.15	292.08
689.49	291.10
689.82	290.27
690.16	289.21
690.50	288.36
690.83	287.51
691.17	286.71
691.51	285.74
691.84	284.99
692.18	284.21
692.52	283.55
692.85	282.93
693.19	282.20
693.52	281.44
693.86	280.68
694.20	279.81
694.53	279.07
694.87	278.27
695.21	277.34
695.54	276.62
695.88	275.81
696.21	274.93
696.55	274.40
696.88	273.72
697.22	273.13
697.56	272.56
697.89	271.95
698.23	271.36
698.56	270.69
698.90	270.09
699.23	269.33
699.57	268.70
699.90	267.93
700.24	267.28
700.58	266.66
700.91	266.12
701.25	265.82
701.58	265.25
701.92	264.72
702.25	264.23
702.59	263.59
702.92	262.98
703.26	262.42
703.59	261.84
703.93	261.54
704.26	260.96
704.60	260.37
704.93	259.69
705.26	259.14
705.60	258.73
705.93	258.05
706.27	257.66
706.60	257.23
706.94	256.88
707.27	256.30
707.61	255.81
707.94	255.32
708.27	254.55
708.61	254.06
708.94	253.53
709.28	253.07
709.61	252.56
709.94	252.24
710.28	251.85
710.61	251.41
710.95	250.68
711.28	250.55
711.61	250.02
711.95	249.71
712.28	249.21
712.61	248.73
712.95	248.65
713.28	248.39
713.61	247.96
713.95	247.45
714.28	247.15
714.61	246.80
714.95	246.35
715.28	245.95
715.61	245.54
715.95	245.20
716.28	244.84
716.61	244.56
716.95	244.11
717.28	243.74
717.61	243.37
717.94	243.07
718.28	242.44
718.61	242.19
718.94	241.84
719.27	241.55
719.61	241.27
719.94	240.80
720.27	240.27
720.60	239.95
720.94	239.63
721.27	239.30
721.60	239.03
721.93	238.79
722.27	238.66
722.60	238.44
722.93	238.08
723.26	237.84
723.59	237.47
723.93	237.24
724.26	236.93
724.59	236.62
724.92	236.39
725.25	236.31
725.59	236.07
725.92	235.95
726.25	235.70
726.58	235.50
726.91	235.24
727.24	235.05
727.57	234.75
727.91	234.51
728.24	234.36
728.57	234.18
728.90	233.98
729.23	233.63
729.56	233.58
729.89	233.45
730.22	233.22
730.55	233.04
730.89	232.87
731.22	232.72
731.55	232.54
731.88	232.28
732.21	231.97
732.54	231.63
732.87	231.28
733.20	231.13
733.53	230.92
733.86	230.75
734.19	230.58
734.52	230.48
734.85	230.59
735.18	230.30
735.51	230.14
735.84	229.95
736.17	229.90
736.50	229.45
736.83	229.70
737.16	229.56
737.49	229.46
737.82	229.20
738.15	229.01
738.48	228.82
738.81	228.61
739.14	228.36
739.47	228.30
739.80	228.11
740.13	227.93
740.46	227.69
740.79	227.43
741.12	227.16
741.45	226.84
741.78	226.48
742.11	226.44
742.44	226.18
742.77	226.05
743.10	225.75
743.43	225.69
743.75	225.11
744.08	225.32
744.41	225.09
744.74	224.96
745.07	224.74
745.40	224.67
745.73	224.75
746.06	224.67
746.39	224.58
746.71	224.43
747.04	224.27
747.37	224.11
747.70	224.07
748.03	223.95
748.36	223.96
748.68	223.71
749.01	223.45
749.34	223.30
749.67	223.22
750.00	223.15
750.33	223.30
750.65	223.20
750.98	222.64
751.31	222.49
751.64	222.40
751.97	222.52
752.29	222.39
752.62	222.06
752.95	221.95
753.28	221.75
753.60	221.65
753.93	221.69
754.26	221.61
754.59	221.39
754.91	221.25
755.24	221.07
755.57	221.08
755.90	221.03
756.22	220.96
756.55	220.71
756.88	220.56
757.20	220.19
757.53	219.99
757.86	219.91
758.19	219.86
758.51	219.77
758.84	219.53
759.17	219.44
759.49	219.40
759.82	219.40
760.15	219.34
760.47	219.30
760.80	219.08
761.13	219.10
761.45	218.99
761.78	219.02
762.11	219.02
762.43	218.84
762.76	218.68
763.08	218.61
763.41	218.61
763.74	218.57
764.06	218.50
764.39	218.47
764.71	218.36
765.04	218.31
765.37	218.20
765.69	218.06
766.02	217.94
766.34	217.89
766.67	217.70
767.00	217.72
767.32	217.83
767.65	217.90
767.97	217.82
768.30	217.78
768.62	217.67
768.95	217.61
769.27	217.60
769.60	217.63
769.92	217.48
770.25	217.32
770.57	217.16
770.90	217.06
771.22	216.95
771.55	216.99
771.87	216.89
772.20	216.80
772.52	217.06
772.85	217.43
773.17	217.35
773.50	217.36
773.82	217.25
774.15	216.98
774.47	216.76
774.80	216.61
775.12	216.65
775.45	216.60
775.77	216.54
776.09	216.48
776.42	216.44
776.74	216.58
777.07	216.59
777.39	216.58
777.72	216.51
778.04	216.56
778.36	216.45
778.69	216.45
779.01	216.48
779.33	216.16
779.66	215.79
779.98	215.71
780.31	215.59
780.63	215.66
780.95	215.71
781.28	215.70
781.60	215.66
781.92	215.58
782.25	215.49
782.57	215.46
782.89	215.41
783.22	215.32
783.54	215.18
783.86	215.17
784.19	215.15
784.51	215.22
784.83	215.09
785.16	215.11
785.48	215.06
785.80	215.05
786.12	215.03
786.45	215.00
786.77	215.00
787.09	215.01
787.42	214.81
787.74	214.74
788.06	214.67
788.38	214.59
788.71	214.49
789.03	214.49
789.35	214.47
789.67	214.39
789.99	214.40
790.32	214.35
790.64	214.36
790.96	214.58
791.28	214.37
791.61	214.25
791.93	214.19
792.25	214.12
792.57	214.31
792.89	214.24
793.21	214.15
793.54	214.09
793.86	213.96
794.18	213.97
