SpectraSuite Data File
++++++++++++++++++++++++++++++++++++
Date: Mon Feb 25 17:08:55 EST 2013
User: group
Dark Spectrum Present: No
Reference Spectrum Present: No
Number of Sampled Component Spectra: 1
Spectrometers: USB2E7196
Integration Time (usec): 104000 (USB2E7196)
Spectra Averaged: 20 (USB2E7196)
Boxcar Smoothing: 10 (USB2E7196)
Correct for Electrical Dark: No (USB2E7196)
Strobe/Lamp Enabled: No (USB2E7196)
Correct for Detector Non-linearity: No (USB2E7196)
Correct for Stray Light: No (USB2E7196)
Number of Pixels in Processed Spectrum: 2048
>>>>>Begin Processed Spectral Data<<<<<
339.09	0.00
339.48	199.55
339.86	199.10
340.24	202.10
340.63	202.50
341.01	210.25
341.39	205.95
341.78	208.75
342.16	208.65
342.54	209.30
342.93	198.85
343.31	208.88
343.69	209.43
344.07	209.99
344.46	210.49
344.84	210.88
345.22	210.93
345.60	211.22
345.99	211.39
346.37	211.57
346.75	211.59
347.13	211.56
347.52	211.57
347.90	211.79
348.28	211.71
348.66	211.75
349.05	211.61
349.43	211.62
349.81	211.63
350.19	211.62
350.57	211.69
350.96	211.79
351.34	211.85
351.72	211.89
352.10	211.92
352.48	211.87
352.87	211.92
353.25	211.99
353.63	211.99
354.01	212.02
354.39	212.09
354.77	212.22
355.15	212.36
355.54	212.41
355.92	212.27
356.30	212.34
356.68	212.60
357.06	212.71
357.44	212.74
357.82	212.81
358.20	212.88
358.58	212.92
358.97	212.97
359.35	213.06
359.73	213.21
360.11	213.32
360.49	213.33
360.87	213.38
361.25	213.39
361.63	213.58
362.01	213.61
362.39	213.61
362.77	213.65
363.15	213.68
363.53	213.73
363.91	213.75
364.29	213.74
364.67	213.45
365.05	213.38
365.43	213.46
365.81	213.48
366.19	213.62
366.57	213.76
366.95	213.74
367.33	213.69
367.71	213.58
368.09	213.57
368.47	213.64
368.85	213.61
369.23	213.72
369.61	213.56
369.99	213.65
370.37	213.66
370.75	213.80
371.13	213.70
371.51	213.56
371.89	213.48
372.27	213.47
372.65	213.49
373.03	213.52
373.41	213.43
373.78	213.30
374.16	213.09
374.54	212.92
374.92	212.88
375.30	212.86
375.68	212.82
376.06	212.76
376.44	212.68
376.82	212.66
377.19	212.60
377.57	212.57
377.95	212.35
378.33	212.24
378.71	211.95
379.09	212.03
379.47	212.09
379.84	212.09
380.22	212.01
380.60	211.88
380.98	211.78
381.36	211.68
381.73	211.63
382.11	211.64
382.49	211.57
382.87	211.44
383.25	211.32
383.62	211.60
384.00	211.55
384.38	211.48
384.76	211.55
385.13	211.57
385.51	211.43
385.89	211.36
386.27	211.35
386.64	211.41
387.02	211.26
387.40	211.16
387.78	211.15
388.15	211.14
388.53	211.06
388.91	211.09
389.29	211.08
389.66	211.11
390.04	211.02
390.42	211.06
390.79	211.15
391.17	211.19
391.55	210.83
391.92	210.79
392.30	210.80
392.68	210.62
393.05	210.55
393.43	210.58
393.81	210.55
394.18	210.46
394.56	210.48
394.94	210.67
395.31	210.63
395.69	210.68
396.06	210.70
396.44	210.73
396.82	210.69
397.19	210.88
397.57	210.84
397.95	210.94
398.32	210.82
398.70	210.79
399.07	210.79
399.45	210.77
399.82	210.69
400.20	210.71
400.58	210.72
400.95	210.56
401.33	210.62
401.70	210.89
402.08	210.93
402.45	210.84
402.83	210.86
403.20	210.98
403.58	210.99
403.95	211.05
404.33	211.20
404.71	211.24
405.08	211.37
405.46	211.49
405.83	211.58
406.21	211.69
406.58	211.83
406.96	211.92
407.33	212.05
407.70	212.24
408.08	212.59
408.45	212.81
408.83	213.05
409.20	213.24
409.58	213.21
409.95	213.41
410.33	213.70
410.70	213.79
411.08	214.05
411.45	214.24
411.82	214.42
412.20	214.74
412.57	215.20
412.95	215.25
413.32	215.57
413.69	215.85
414.07	216.23
414.44	216.60
414.82	217.10
415.19	217.62
415.56	218.16
415.94	218.56
416.31	219.18
416.68	219.82
417.06	220.64
417.43	221.45
417.81	222.29
418.18	223.08
418.55	223.84
418.93	224.69
419.30	225.76
419.67	226.83
420.04	227.77
420.42	228.73
420.79	230.30
421.16	231.51
421.54	233.11
421.91	234.43
422.28	235.83
422.66	237.35
423.03	239.07
423.40	240.53
423.77	242.17
424.15	243.82
424.52	245.57
424.89	247.35
425.26	249.10
425.64	250.82
426.01	252.73
426.38	254.84
426.75	256.95
427.13	259.01
427.50	261.21
427.87	263.54
428.24	265.86
428.61	267.87
428.99	270.44
429.36	272.85
429.73	275.47
430.10	278.16
430.47	280.80
430.85	283.27
431.22	286.27
431.59	289.45
431.96	292.42
432.33	295.70
432.70	298.87
433.08	302.55
433.45	305.99
433.82	309.50
434.19	313.33
434.56	317.10
434.93	320.67
435.30	324.19
435.68	328.10
436.05	332.15
436.42	336.05
436.79	339.64
437.16	343.58
437.53	347.75
437.90	351.71
438.27	355.80
438.64	360.07
439.01	363.98
439.38	367.36
439.75	370.67
440.13	374.39
440.50	378.10
440.87	381.07
441.24	384.30
441.61	387.65
441.98	390.14
442.35	393.08
442.72	396.01
443.09	399.12
443.46	401.01
443.83	402.29
444.20	403.35
444.57	404.84
444.94	405.53
445.31	406.36
445.68	407.54
446.05	407.94
446.42	407.60
446.79	407.29
447.16	406.83
447.53	406.65
447.90	405.33
448.27	403.75
448.64	401.76
449.01	400.26
449.37	397.72
449.74	395.16
450.11	392.39
450.48	389.05
450.85	385.63
451.22	382.63
451.59	379.75
451.96	377.13
452.33	373.60
452.70	370.36
453.07	366.38
453.43	362.06
453.80	358.12
454.17	354.51
454.54	351.09
454.91	347.41
455.28	343.75
455.65	340.26
456.02	337.46
456.38	334.57
456.75	331.04
457.12	328.02
457.49	325.20
457.86	322.05
458.23	319.75
458.59	317.00
458.96	314.40
459.33	311.99
459.70	309.58
460.07	307.61
460.43	305.45
460.80	303.46
461.17	301.82
461.54	300.00
461.91	298.24
462.27	296.23
462.64	294.65
463.01	292.89
463.38	291.31
463.74	289.08
464.11	287.63
464.48	286.30
464.85	284.87
465.21	283.85
465.58	282.74
465.95	281.29
466.32	280.15
466.68	278.92
467.05	277.83
467.42	276.70
467.78	275.45
468.15	274.37
468.52	273.60
468.88	272.30
469.25	271.32
469.62	270.49
469.98	269.81
470.35	268.99
470.72	268.29
471.08	267.44
471.45	266.84
471.82	266.18
472.18	265.49
472.55	264.98
472.92	264.22
473.28	263.63
473.65	263.05
474.02	262.52
474.38	262.22
474.75	261.82
475.11	261.35
475.48	261.05
475.85	260.73
476.21	260.37
476.58	260.15
476.94	259.92
477.31	259.68
477.67	259.38
478.04	259.20
478.41	259.07
478.77	259.30
479.14	259.08
479.50	259.01
479.87	258.86
480.23	258.77
480.60	258.81
480.96	258.73
481.33	258.98
481.69	258.98
482.06	258.88
482.42	258.90
482.79	259.09
483.15	259.29
483.52	259.53
483.88	259.66
484.25	259.87
484.61	260.12
484.98	260.33
485.34	260.68
485.71	261.11
486.07	261.40
486.44	261.49
486.80	261.96
487.17	262.37
487.53	263.01
487.90	263.69
488.26	264.37
488.62	265.16
488.99	265.72
489.35	266.45
489.72	267.24
490.08	268.03
490.44	268.78
490.81	269.74
491.17	270.55
491.54	271.61
491.90	272.65
492.26	273.68
492.63	274.80
492.99	275.91
493.36	277.07
493.72	278.32
494.08	279.55
494.45	280.78
494.81	282.18
495.17	283.54
495.54	284.92
495.90	286.34
496.26	287.81
496.63	289.40
496.99	291.08
497.35	292.84
497.72	294.58
498.08	296.33
498.44	298.12
498.80	300.14
499.17	302.03
499.53	304.00
499.89	306.15
500.26	308.35
500.62	310.42
500.98	312.70
501.34	315.02
501.71	317.43
502.07	319.92
502.43	322.27
502.79	324.74
503.16	327.27
503.52	329.80
503.88	332.33
504.24	335.03
504.60	337.72
504.97	340.55
505.33	343.46
505.69	346.54
506.05	349.46
506.41	352.43
506.78	355.45
507.14	358.53
507.50	361.63
507.86	364.72
508.22	368.06
508.59	371.21
508.95	374.50
509.31	378.08
509.67	381.47
510.03	385.07
510.39	388.63
510.75	392.33
511.12	395.98
511.48	399.86
511.84	403.54
512.20	407.36
512.56	411.15
512.92	415.02
513.28	418.97
513.64	422.94
514.00	426.94
514.37	431.03
514.73	435.22
515.09	439.44
515.45	443.54
515.81	447.66
516.17	452.01
516.53	456.31
516.89	460.50
517.25	464.88
517.61	469.24
517.97	473.58
518.33	477.94
518.69	482.47
519.05	486.85
519.41	491.47
519.77	496.27
520.13	500.99
520.49	505.42
520.85	510.03
521.21	514.85
521.57	519.61
521.93	524.14
522.29	528.88
522.65	533.58
523.01	538.49
523.37	543.26
523.73	548.13
524.09	553.02
524.45	557.90
524.81	562.83
525.17	567.81
525.53	572.90
525.89	577.85
526.25	582.94
526.61	587.82
526.97	592.61
527.33	597.50
527.68	602.71
528.04	607.80
528.40	612.66
528.76	617.51
529.12	622.58
529.48	627.98
529.84	633.06
530.20	638.11
530.56	643.31
530.91	648.70
531.27	653.80
531.63	658.95
531.99	664.03
532.35	669.09
532.71	674.09
533.07	679.26
533.42	684.83
533.78	689.78
534.14	694.86
534.50	699.80
534.86	704.73
535.21	709.17
535.57	714.34
535.93	719.07
536.29	724.20
536.65	728.99
537.00	733.45
537.36	737.99
537.72	742.71
538.08	747.18
538.44	751.50
538.79	755.94
539.15	760.42
539.51	764.97
539.87	769.41
540.22	773.72
540.58	778.26
540.94	782.24
541.29	786.33
541.65	790.54
542.01	794.90
542.37	799.00
542.72	803.16
543.08	806.96
543.44	811.22
543.79	814.74
544.15	818.60
544.51	822.75
544.87	826.73
545.22	830.38
545.58	833.79
545.94	837.18
546.29	840.41
546.65	843.56
547.01	846.46
547.36	849.67
547.72	852.77
548.07	855.51
548.43	858.19
548.79	860.92
549.14	863.48
549.50	866.05
549.86	868.40
550.21	870.85
550.57	873.41
550.92	875.51
551.28	877.63
551.64	879.73
551.99	881.56
552.35	883.37
552.70	885.08
553.06	887.36
553.41	889.35
553.77	891.57
554.13	893.46
554.48	895.32
554.84	897.19
555.19	898.97
555.55	900.41
555.90	901.75
556.26	903.09
556.61	904.42
556.97	905.51
557.32	906.59
557.68	907.50
558.03	908.32
558.39	909.31
558.74	910.83
559.10	911.99
559.45	913.10
559.81	914.28
560.16	915.15
560.52	915.75
560.87	916.71
561.23	917.16
561.58	918.12
561.94	918.81
562.29	919.17
562.64	919.64
563.00	920.20
563.35	920.86
563.71	921.70
564.06	922.25
564.42	922.98
564.77	923.86
565.12	924.71
565.48	925.69
565.83	926.25
566.19	926.60
566.54	926.51
566.89	926.49
567.25	926.83
567.60	927.17
567.96	927.47
568.31	927.55
568.66	927.53
569.02	926.89
569.37	926.32
569.72	926.06
570.08	925.52
570.43	924.95
570.78	924.26
571.14	923.50
571.49	922.79
571.84	922.08
572.20	920.91
572.55	920.18
572.90	918.58
573.26	917.46
573.61	916.14
573.96	914.98
574.31	913.84
574.67	912.09
575.02	910.56
575.37	908.96
575.72	907.09
576.08	905.68
576.43	904.38
576.78	903.03
577.13	901.58
577.49	900.38
577.84	899.01
578.19	897.79
578.54	896.75
578.90	895.60
579.25	894.06
579.60	892.40
579.95	890.52
580.30	889.25
580.66	888.05
581.01	886.20
581.36	884.65
581.71	882.94
582.06	881.68
582.42	880.43
582.77	878.68
583.12	877.31
583.47	875.86
583.82	874.38
584.17	872.94
584.53	871.80
584.88	870.31
585.23	868.77
585.58	866.95
585.93	865.06
586.28	863.29
586.63	861.80
586.98	860.65
587.34	859.34
587.69	857.78
588.04	855.92
588.39	854.63
588.74	852.80
589.09	851.45
589.44	849.43
589.79	847.64
590.14	846.16
590.49	844.43
590.84	842.55
591.19	841.10
591.54	839.34
591.89	836.94
592.25	835.26
592.60	833.25
592.95	831.46
593.30	829.17
593.65	827.20
594.00	824.86
594.35	823.59
594.70	821.46
595.05	819.45
595.40	817.49
595.75	815.35
596.10	813.58
596.45	811.62
596.80	810.01
597.15	808.12
597.50	806.03
597.85	804.27
598.19	802.49
598.54	800.42
598.89	798.64
599.24	797.09
599.59	795.08
599.94	793.44
600.29	791.72
600.64	790.02
600.99	788.12
601.34	786.64
601.69	784.08
602.04	782.08
602.39	780.22
602.74	778.55
603.08	776.93
603.43	775.61
603.78	773.95
604.13	772.19
604.48	770.43
604.83	769.03
605.18	767.64
605.53	765.75
605.87	763.93
606.22	762.18
606.57	760.29
606.92	758.22
607.27	756.31
607.62	754.36
607.96	752.85
608.31	751.31
608.66	749.20
609.01	747.24
609.36	745.27
609.70	743.14
610.05	740.99
610.40	739.00
610.75	736.60
611.10	734.66
611.44	732.01
611.79	729.53
612.14	726.92
612.49	724.11
612.83	721.90
613.18	719.20
613.53	716.65
613.88	713.94
614.22	711.61
614.57	709.13
614.92	706.73
615.27	704.07
615.61	701.35
615.96	699.04
616.31	696.78
616.65	694.68
617.00	692.49
617.35	689.98
617.70	687.30
618.04	684.58
618.39	681.59
618.74	679.28
619.08	676.79
619.43	674.40
619.78	671.89
620.12	669.13
620.47	666.82
620.82	664.23
621.16	661.69
621.51	659.25
621.85	656.63
622.20	654.01
622.55	651.37
622.89	648.75
623.24	646.16
623.59	643.31
623.93	640.56
624.28	637.95
624.62	635.60
624.97	633.20
625.32	630.85
625.66	628.61
626.01	626.22
626.35	624.00
626.70	621.42
627.04	619.18
627.39	616.88
627.73	614.51
628.08	612.33
628.43	609.85
628.77	607.15
629.12	604.80
629.46	602.55
629.81	600.23
630.15	597.96
630.50	595.55
630.84	593.03
631.19	590.72
631.53	588.27
631.88	585.51
632.22	582.86
632.57	580.63
632.91	578.03
633.26	575.49
633.60	572.98
633.95	570.73
634.29	568.29
634.64	565.89
634.98	563.32
635.32	560.99
635.67	558.87
636.01	556.69
636.36	554.36
636.70	552.07
637.05	549.73
637.39	547.50
637.73	545.34
638.08	543.55
638.42	541.47
638.77	539.36
639.11	537.43
639.45	535.39
639.80	532.97
640.14	530.79
640.49	528.65
640.83	526.45
641.17	524.35
641.52	522.16
641.86	520.09
642.20	518.15
642.55	515.51
642.89	513.28
643.23	511.15
643.58	509.06
643.92	506.70
644.26	504.58
644.61	502.34
644.95	500.21
645.29	497.75
645.64	495.49
645.98	493.22
646.32	491.03
646.66	488.86
647.01	486.75
647.35	484.69
647.69	482.51
648.04	480.46
648.38	478.25
648.72	476.12
649.06	473.87
649.41	471.76
649.75	469.88
650.09	467.79
650.43	465.63
650.78	463.38
651.12	461.35
651.46	459.31
651.80	457.24
652.14	455.13
652.49	453.15
652.83	450.92
653.17	448.86
653.51	446.73
653.85	444.67
654.20	442.72
654.54	440.57
654.88	438.45
655.22	436.35
655.56	434.25
655.90	432.15
656.25	430.17
656.59	428.05
656.93	426.19
657.27	424.28
657.61	422.11
657.95	420.25
658.29	418.29
658.64	416.40
658.98	414.43
659.32	412.40
659.66	410.43
660.00	408.47
660.34	406.44
660.68	404.47
661.02	402.52
661.36	400.61
661.70	398.90
662.05	397.31
662.39	395.57
662.73	394.04
663.07	392.57
663.41	390.89
663.75	389.26
664.09	387.50
664.43	385.71
664.77	384.12
665.11	382.41
665.45	380.72
665.79	379.13
666.13	377.55
666.47	375.95
666.81	374.40
667.15	372.97
667.49	371.59
667.83	370.23
668.17	368.79
668.51	367.35
668.85	365.90
669.19	364.50
669.53	363.05
669.87	361.41
670.21	359.83
670.55	358.38
670.89	357.16
671.23	355.84
671.57	354.56
671.91	353.32
672.25	351.97
672.58	350.77
672.92	349.43
673.26	348.11
673.60	346.93
673.94	345.67
674.28	344.41
674.62	343.33
674.96	342.05
675.30	340.82
675.64	339.63
675.97	338.39
676.31	337.14
676.65	335.99
676.99	335.01
677.33	333.77
677.67	332.66
678.01	331.30
678.34	330.16
678.68	329.03
679.02	327.85
679.36	326.73
679.70	325.61
680.04	324.46
680.37	323.36
680.71	322.31
681.05	321.32
681.39	320.24
681.73	319.03
682.06	317.99
682.40	317.00
682.74	315.93
683.08	314.95
683.42	313.82
683.75	312.80
684.09	311.60
684.43	310.57
684.77	309.51
685.10	308.52
685.44	307.46
685.78	306.45
686.12	305.45
686.45	304.59
686.79	303.61
687.13	302.73
687.46	301.86
687.80	300.87
688.14	299.81
688.48	298.98
688.81	298.14
689.15	297.30
689.49	296.31
689.82	295.49
690.16	294.43
690.50	293.52
690.83	292.62
691.17	291.75
691.51	290.80
691.84	290.04
692.18	289.13
692.52	288.30
692.85	287.52
693.19	286.89
693.52	285.96
693.86	285.08
694.20	284.21
694.53	283.39
694.87	282.62
695.21	281.85
695.54	280.93
695.88	280.01
696.21	279.18
696.55	278.49
696.88	277.75
697.22	277.01
697.56	276.44
697.89	275.72
698.23	275.07
698.56	274.46
698.90	273.78
699.23	273.18
699.57	272.50
699.90	271.78
700.24	271.03
700.58	270.42
700.91	269.86
701.25	269.50
701.58	268.88
701.92	268.31
702.25	267.80
702.59	267.25
702.92	266.66
703.26	266.05
703.59	265.36
703.93	265.00
704.26	264.50
704.60	263.94
704.93	263.27
705.26	262.64
705.60	262.16
705.93	261.50
706.27	261.03
706.60	260.57
706.94	260.24
707.27	259.59
707.61	259.09
707.94	258.53
708.27	257.69
708.61	257.10
708.94	256.49
709.28	255.97
709.61	255.50
709.94	255.09
710.28	254.67
710.61	254.31
710.95	253.46
711.28	253.28
711.61	252.68
711.95	252.36
712.28	251.95
712.61	251.48
712.95	251.27
713.28	250.95
713.61	250.49
713.95	249.88
714.28	249.55
714.61	249.04
714.95	248.59
715.28	248.24
715.61	247.87
715.95	247.51
716.28	247.02
716.61	246.66
716.95	246.30
717.28	245.88
717.61	245.50
717.94	245.13
718.28	244.51
718.61	244.22
718.94	243.85
719.27	243.40
719.61	243.08
719.94	242.63
720.27	242.16
720.60	241.78
720.94	241.48
721.27	241.14
721.60	240.95
721.93	240.67
722.27	240.51
722.60	240.25
722.93	239.92
723.26	239.69
723.59	239.27
723.93	239.02
724.26	238.82
724.59	238.45
724.92	238.24
725.25	238.05
725.59	237.75
725.92	237.57
726.25	237.37
726.58	237.06
726.91	236.66
727.24	236.48
727.57	236.26
727.91	235.95
728.24	235.75
728.57	235.43
728.90	235.24
729.23	234.82
729.56	234.71
729.89	234.53
730.22	234.26
730.55	234.07
730.89	233.76
731.22	233.49
731.55	233.30
731.88	233.14
732.21	232.83
732.54	232.59
732.87	232.26
733.20	232.11
733.53	231.93
733.86	231.81
734.19	231.46
734.52	231.30
734.85	231.33
735.18	231.15
735.51	231.05
735.84	230.89
736.17	230.83
736.50	230.53
736.83	230.64
737.16	230.47
737.49	230.30
737.82	230.05
738.15	229.89
738.48	229.73
738.81	229.51
739.14	229.32
739.47	229.17
739.80	228.99
740.13	228.81
740.46	228.55
740.79	228.35
741.12	228.24
741.45	228.01
741.78	227.65
742.11	227.56
742.44	227.33
742.77	227.23
743.10	226.99
743.43	226.77
743.75	226.34
744.08	226.64
744.41	226.51
744.74	226.37
745.07	226.11
745.40	226.05
745.73	226.05
746.06	225.90
746.39	225.78
746.71	225.65
747.04	225.45
747.37	225.36
747.70	225.26
748.03	225.06
748.36	224.99
748.68	224.83
749.01	224.56
749.34	224.50
749.67	224.34
750.00	224.27
750.33	224.37
750.65	224.25
750.98	223.67
751.31	223.56
751.64	223.49
751.97	223.63
752.29	223.48
752.62	223.20
752.95	223.08
753.28	222.94
753.60	222.79
753.93	222.79
754.26	222.65
754.59	222.44
754.91	222.37
755.24	222.23
755.57	222.16
755.90	222.05
756.22	221.90
756.55	221.66
756.88	221.50
757.20	221.14
757.53	220.92
757.86	220.90
758.19	220.76
758.51	220.60
758.84	220.34
759.17	220.13
759.49	220.06
759.82	220.13
760.15	220.00
760.47	219.87
760.80	219.72
761.13	219.70
761.45	219.61
761.78	219.48
762.11	219.38
762.43	219.24
762.76	219.18
763.08	219.08
763.41	218.99
763.74	218.93
764.06	218.85
764.39	218.85
764.71	218.66
765.04	218.51
765.37	218.48
765.69	218.37
766.02	218.27
766.34	218.20
766.67	217.98
767.00	218.03
767.32	218.23
767.65	218.30
767.97	218.16
768.30	218.13
768.62	218.09
768.95	217.97
769.27	217.89
769.60	217.84
769.92	217.73
770.25	217.71
770.57	217.52
770.90	217.50
771.22	217.33
771.55	217.34
771.87	217.36
772.20	217.23
772.52	217.46
772.85	217.82
773.17	217.73
773.50	217.67
773.82	217.53
774.15	217.25
774.47	217.03
774.80	216.95
775.12	216.90
775.45	216.86
775.77	216.81
776.09	216.87
776.42	216.80
776.74	216.80
777.07	216.67
777.39	216.67
777.72	216.58
778.04	216.58
778.36	216.44
778.69	216.39
779.01	216.40
779.33	216.02
779.66	215.66
779.98	215.56
780.31	215.43
780.63	215.53
780.95	215.47
781.28	215.38
781.60	215.30
781.92	215.21
782.25	215.15
782.57	215.14
782.89	215.06
783.22	215.04
783.54	215.04
783.86	215.08
784.19	214.98
784.51	215.04
784.83	214.93
785.16	215.00
785.48	214.98
785.80	214.95
786.12	214.98
786.45	214.89
786.77	214.93
787.09	215.02
787.42	214.86
787.74	214.90
788.06	214.89
788.38	214.92
788.71	214.87
789.03	214.86
789.35	214.87
789.67	214.75
789.99	214.70
790.32	214.54
790.64	214.55
790.96	214.83
791.28	214.67
791.61	214.66
791.93	214.59
792.25	214.52
792.57	214.70
792.89	214.61
793.21	214.58
793.54	214.55
793.86	214.42
794.18	214.45
