SpectraSuite Data File
++++++++++++++++++++++++++++++++++++
Date: Mon Feb 25 16:57:13 EST 2013
User: group
Dark Spectrum Present: No
Reference Spectrum Present: No
Number of Sampled Component Spectra: 1
Spectrometers: USB2E7196
Integration Time (usec): 104000 (USB2E7196)
Spectra Averaged: 20 (USB2E7196)
Boxcar Smoothing: 10 (USB2E7196)
Correct for Electrical Dark: No (USB2E7196)
Strobe/Lamp Enabled: No (USB2E7196)
Correct for Detector Non-linearity: No (USB2E7196)
Correct for Stray Light: No (USB2E7196)
Number of Pixels in Processed Spectrum: 2048
>>>>>Begin Processed Spectral Data<<<<<
339.09	0.00
339.48	197.95
339.86	199.40
340.24	201.20
340.63	202.75
341.01	209.40
341.39	206.35
341.78	207.55
342.16	210.05
342.54	209.00
342.93	198.38
343.31	208.32
343.69	208.89
344.07	209.40
344.46	209.93
344.84	210.35
345.22	210.37
345.60	210.60
345.99	210.79
346.37	210.84
346.75	210.90
347.13	210.92
347.52	210.97
347.90	211.06
348.28	211.11
348.66	211.19
349.05	211.04
349.43	211.05
349.81	211.12
350.19	211.21
350.57	211.24
350.96	211.37
351.34	211.56
351.72	211.69
352.10	211.79
352.48	211.83
352.87	211.83
353.25	211.95
353.63	211.98
354.01	212.05
354.39	212.14
354.77	212.20
355.15	212.40
355.54	212.51
355.92	212.48
356.30	212.50
356.68	212.80
357.06	212.98
357.44	213.03
357.82	213.03
358.20	213.13
358.58	213.20
358.97	213.22
359.35	213.28
359.73	213.32
360.11	213.42
360.49	213.45
360.87	213.52
361.25	213.58
361.63	213.72
362.01	213.78
362.39	213.81
362.77	213.85
363.15	213.84
363.53	213.85
363.91	213.95
364.29	214.08
364.67	213.73
365.05	213.77
365.43	213.81
365.81	213.93
366.19	214.15
366.57	214.23
366.95	214.29
367.33	214.30
367.71	214.33
368.09	214.38
368.47	214.34
368.85	214.34
369.23	214.41
369.61	214.29
369.99	214.42
370.37	214.42
370.75	214.61
371.13	214.55
371.51	214.51
371.89	214.52
372.27	214.48
372.65	214.45
373.03	214.41
373.41	214.50
373.78	214.31
374.16	213.97
374.54	213.87
374.92	213.78
375.30	213.73
375.68	213.66
376.06	213.57
376.44	213.55
376.82	213.60
377.19	213.52
377.57	213.54
377.95	213.38
378.33	213.31
378.71	213.18
379.09	213.15
379.47	213.06
379.84	213.08
380.22	212.96
380.60	212.92
380.98	212.89
381.36	212.75
381.73	212.75
382.11	212.79
382.49	212.77
382.87	212.73
383.25	212.68
383.62	213.02
384.00	212.94
384.38	212.97
384.76	212.94
385.13	213.08
385.51	213.04
385.89	212.96
386.27	212.98
386.64	212.89
387.02	212.84
387.40	212.88
387.78	212.80
388.15	212.83
388.53	212.73
388.91	212.68
389.29	212.62
389.66	212.68
390.04	212.65
390.42	212.70
390.79	212.63
391.17	212.67
391.55	212.33
391.92	212.31
392.30	212.30
392.68	212.22
393.05	212.20
393.43	212.10
393.81	212.14
394.18	212.08
394.56	212.16
394.94	212.27
395.31	212.23
395.69	212.36
396.06	212.47
396.44	212.62
396.82	212.59
397.19	212.74
397.57	212.70
397.95	212.82
398.32	212.78
398.70	212.91
399.07	212.96
399.45	212.94
399.82	213.01
400.20	212.94
400.58	212.99
400.95	212.88
401.33	213.13
401.70	213.42
402.08	213.55
402.45	213.65
402.83	213.77
403.20	213.93
403.58	214.02
403.95	214.22
404.33	214.39
404.71	214.64
405.08	215.11
405.46	215.41
405.83	215.65
406.21	215.94
406.58	216.25
406.96	216.55
407.33	216.94
407.70	217.41
408.08	218.20
408.45	218.72
408.83	219.32
409.20	219.81
409.58	220.17
409.95	220.83
410.33	221.56
410.70	222.23
411.08	223.05
411.45	223.93
411.82	224.73
412.20	225.81
412.57	227.06
412.95	227.84
413.32	229.09
413.69	230.38
414.07	231.77
414.44	233.26
414.82	234.82
415.19	236.72
415.56	238.56
415.94	240.35
416.31	242.57
416.68	244.73
417.06	247.22
417.43	249.63
417.81	252.30
418.18	255.11
418.55	258.08
418.93	261.22
419.30	264.43
419.67	267.90
420.04	271.42
420.42	275.17
420.79	279.58
421.16	283.98
421.54	288.64
421.91	293.29
422.28	298.24
422.66	303.56
423.03	308.72
423.40	313.98
423.77	319.73
424.15	325.50
424.52	331.57
424.89	338.30
425.26	344.86
425.64	351.20
426.01	358.08
426.38	365.17
426.75	372.48
427.13	379.98
427.50	387.76
427.87	396.04
428.24	404.40
428.61	412.38
428.99	421.09
429.36	430.58
429.73	439.98
430.10	449.17
430.47	458.71
430.85	468.58
431.22	479.16
431.59	490.44
431.96	501.29
432.33	513.28
432.70	524.85
433.08	538.58
433.45	551.32
433.82	564.27
434.19	578.71
434.56	592.88
434.93	606.62
435.30	620.40
435.68	635.59
436.05	650.53
436.42	665.70
436.79	679.54
437.16	694.32
437.53	710.14
437.90	726.15
438.27	741.60
438.64	757.76
439.01	772.92
439.38	786.45
439.75	799.63
440.13	814.66
440.50	828.81
440.87	840.45
441.24	853.04
441.61	866.51
441.98	876.95
442.35	888.84
442.72	900.81
443.09	912.45
443.46	920.12
443.83	925.67
444.20	930.26
444.57	936.87
444.94	940.70
445.31	944.73
445.68	948.22
446.05	950.66
446.42	950.51
446.79	950.02
447.16	949.24
447.53	949.04
447.90	944.43
448.27	939.96
448.64	933.15
449.01	928.44
449.37	919.05
449.74	909.92
450.11	899.00
450.48	887.10
450.85	874.94
451.22	864.36
451.59	854.26
451.96	844.87
452.33	831.67
452.70	819.97
453.07	805.57
453.43	791.25
453.80	777.29
454.17	763.96
454.54	751.20
454.91	737.48
455.28	723.98
455.65	711.59
456.02	698.89
456.38	688.25
456.75	674.72
457.12	663.85
457.49	652.95
457.86	642.24
458.23	632.93
458.59	622.76
458.96	612.52
459.33	603.50
459.70	594.42
460.07	587.32
460.43	578.90
460.80	571.03
461.17	564.10
461.54	556.83
461.91	549.93
462.27	542.95
462.64	537.13
463.01	530.53
463.38	524.22
463.74	517.93
464.11	512.45
464.48	507.60
464.85	502.33
465.21	498.32
465.58	494.15
465.95	489.00
466.32	484.81
466.68	480.61
467.05	476.20
467.42	471.85
467.78	467.35
468.15	463.09
468.52	459.94
468.88	455.81
469.25	452.14
469.62	449.10
469.98	445.90
470.35	442.80
470.72	440.10
471.08	437.01
471.45	434.50
471.82	431.80
472.18	428.97
472.55	426.72
472.92	424.12
473.28	421.87
473.65	419.65
474.02	417.50
474.38	415.63
474.75	414.27
475.11	412.66
475.48	411.43
475.85	410.33
476.21	409.25
476.58	408.38
476.94	407.82
477.31	407.00
477.67	406.25
478.04	405.61
478.41	405.18
478.77	405.18
479.14	404.69
479.50	404.58
479.87	404.67
480.23	404.72
480.60	404.75
480.96	404.67
481.33	405.30
481.69	405.70
482.06	406.22
482.42	406.63
482.79	407.10
483.15	407.96
483.52	409.05
483.88	409.84
484.25	410.66
484.61	411.57
484.98	412.59
485.34	413.97
485.71	415.54
486.07	417.18
486.44	418.55
486.80	420.39
487.17	422.14
487.53	424.10
487.90	426.20
488.26	428.62
488.62	431.28
488.99	433.61
489.35	436.24
489.72	438.91
490.08	441.81
490.44	444.81
490.81	447.85
491.17	450.97
491.54	454.47
491.90	457.88
492.26	461.60
492.63	465.57
492.99	469.46
493.36	473.46
493.72	477.69
494.08	482.12
494.45	486.81
494.81	491.85
495.17	496.61
495.54	501.75
495.90	506.88
496.26	511.94
496.63	517.29
496.99	522.85
497.35	528.54
497.72	534.49
498.08	540.47
498.44	546.53
498.80	553.00
499.17	559.46
499.53	566.14
499.89	572.88
500.26	579.33
500.62	585.99
500.98	592.98
501.34	599.72
501.71	606.63
502.07	613.51
502.43	620.34
502.79	627.31
503.16	634.42
503.52	641.47
503.88	648.64
504.24	655.93
504.60	663.05
504.97	670.47
505.33	677.47
505.69	685.18
506.05	692.73
506.41	699.71
506.78	706.67
507.14	713.78
507.50	720.85
507.86	728.08
508.22	735.24
508.59	742.08
508.95	749.31
509.31	756.32
509.67	763.46
510.03	770.39
510.39	777.67
510.75	784.63
511.12	791.63
511.48	798.51
511.84	805.46
512.20	812.26
512.56	819.10
512.92	826.07
513.28	832.59
513.64	838.79
514.00	845.37
514.37	851.74
514.73	857.98
515.09	864.10
515.45	870.18
515.81	876.19
516.17	882.15
516.53	887.77
516.89	893.54
517.25	898.85
517.61	904.37
517.97	909.40
518.33	914.52
518.69	919.30
519.05	924.38
519.41	929.22
519.77	934.26
520.13	938.64
520.49	942.85
520.85	947.33
521.21	951.89
521.57	956.20
521.93	960.09
522.29	964.41
522.65	968.54
523.01	972.70
523.37	976.29
523.73	979.95
524.09	983.69
524.45	987.30
524.81	991.15
525.17	994.90
525.53	998.75
525.89	1002.31
526.25	1006.03
526.61	1008.85
526.97	1011.74
527.33	1014.78
527.68	1018.16
528.04	1021.42
528.40	1023.95
528.76	1026.63
529.12	1029.64
529.48	1033.14
529.84	1036.04
530.20	1038.86
530.56	1041.58
530.91	1045.08
531.27	1048.22
531.63	1051.07
531.99	1053.81
532.35	1056.28
532.71	1058.68
533.07	1061.42
533.42	1064.15
533.78	1067.02
534.14	1070.17
534.50	1072.72
534.86	1075.39
535.21	1077.55
535.57	1080.17
535.93	1082.74
536.29	1085.19
536.65	1087.72
537.00	1089.81
537.36	1091.77
537.72	1093.77
538.08	1095.77
538.44	1097.45
538.79	1099.56
539.15	1101.77
539.51	1104.07
539.87	1106.55
540.22	1108.80
540.58	1111.14
540.94	1113.29
541.29	1114.87
541.65	1116.23
542.01	1118.18
542.37	1120.04
542.72	1122.00
543.08	1123.59
543.44	1125.67
543.79	1127.37
544.15	1128.80
544.51	1130.95
544.87	1132.90
545.22	1134.78
545.58	1136.51
545.94	1137.91
546.29	1139.04
546.65	1140.13
547.01	1141.01
547.36	1141.93
547.72	1142.99
548.07	1143.72
548.43	1144.30
548.79	1144.93
549.14	1146.05
549.50	1147.24
549.86	1147.93
550.21	1148.72
550.57	1149.67
550.92	1150.25
551.28	1151.13
551.64	1151.92
551.99	1152.52
552.35	1153.11
552.70	1153.83
553.06	1154.63
553.41	1155.47
553.77	1156.59
554.13	1157.61
554.48	1158.86
554.84	1160.12
555.19	1161.05
555.55	1161.84
555.90	1162.51
556.26	1163.42
556.61	1163.94
556.97	1164.26
557.32	1164.81
557.68	1165.23
558.03	1165.51
558.39	1165.75
558.74	1166.29
559.10	1166.49
559.45	1166.78
559.81	1167.54
560.16	1167.69
560.52	1167.87
560.87	1168.26
561.23	1168.27
561.58	1168.59
561.94	1168.22
562.29	1167.70
562.64	1167.75
563.00	1167.71
563.35	1168.08
563.71	1168.54
564.06	1169.08
564.42	1169.55
564.77	1170.19
565.12	1170.74
565.48	1171.44
565.83	1171.67
566.19	1172.25
566.54	1172.40
566.89	1172.21
567.25	1172.34
567.60	1172.55
567.96	1172.87
568.31	1173.22
568.66	1173.21
569.02	1172.78
569.37	1172.48
569.72	1172.41
570.08	1171.96
570.43	1171.44
570.78	1170.82
571.14	1169.94
571.49	1168.97
571.84	1168.23
572.20	1166.76
572.55	1165.81
572.90	1164.35
573.26	1163.12
573.61	1161.23
573.96	1159.87
574.31	1158.34
574.67	1156.31
575.02	1154.13
575.37	1152.17
575.72	1149.58
576.08	1147.60
576.43	1145.22
576.78	1143.36
577.13	1141.40
577.49	1139.25
577.84	1137.14
578.19	1135.22
578.54	1133.69
578.90	1132.11
579.25	1129.80
579.60	1127.29
579.95	1124.43
580.30	1122.24
580.66	1120.16
581.01	1117.82
581.36	1115.13
581.71	1112.54
582.06	1109.96
582.42	1107.75
582.77	1104.75
583.12	1102.15
583.47	1099.57
583.82	1097.26
584.17	1094.40
584.53	1091.77
584.88	1089.05
585.23	1086.21
585.58	1083.06
585.93	1079.63
586.28	1076.41
586.63	1073.51
586.98	1070.93
587.34	1068.69
587.69	1065.67
588.04	1062.81
588.39	1059.77
588.74	1056.80
589.09	1053.98
589.44	1050.68
589.79	1047.71
590.14	1044.97
590.49	1042.04
590.84	1038.90
591.19	1036.32
591.54	1033.50
591.89	1029.81
592.25	1026.96
592.60	1023.69
592.95	1020.22
593.30	1016.67
593.65	1013.03
594.00	1009.53
594.35	1007.31
594.70	1003.58
595.05	1000.38
595.40	996.77
595.75	993.28
596.10	990.11
596.45	986.91
596.80	983.98
597.15	980.66
597.50	977.03
597.85	973.73
598.19	970.20
598.54	966.48
598.89	963.01
599.24	960.27
599.59	956.71
599.94	953.47
600.29	950.52
600.64	947.36
600.99	943.95
601.34	940.79
601.69	936.24
602.04	932.60
602.39	929.04
602.74	925.70
603.08	922.71
603.43	919.67
603.78	916.40
604.13	912.89
604.48	909.67
604.83	906.77
605.18	903.93
605.53	900.72
605.87	897.20
606.22	894.01
606.57	890.23
606.92	886.62
607.27	883.19
607.62	879.73
607.96	876.47
608.31	873.51
608.66	869.90
609.01	866.32
609.36	863.04
609.70	859.45
610.05	855.71
610.40	851.99
610.75	847.96
611.10	844.34
611.44	840.33
611.79	836.40
612.14	832.59
612.49	828.14
612.83	824.32
613.18	820.36
613.53	816.40
613.88	812.48
614.22	808.72
614.57	804.63
614.92	800.71
615.27	796.70
615.61	792.77
615.96	789.10
616.31	785.71
616.65	782.30
617.00	778.38
617.35	774.70
617.70	770.69
618.04	766.86
618.39	762.68
618.74	759.35
619.08	755.57
619.43	751.71
619.78	748.41
620.12	744.99
620.47	741.62
620.82	737.85
621.16	734.04
621.51	730.51
621.85	727.21
622.20	723.56
622.55	720.05
622.89	716.17
623.24	712.38
623.59	708.35
623.93	704.45
624.28	701.11
624.62	697.90
624.97	694.64
625.32	691.27
625.66	688.00
626.01	684.40
626.35	680.95
626.70	677.46
627.04	674.08
627.39	670.69
627.73	667.36
628.08	664.46
628.43	661.25
628.77	657.91
629.12	654.28
629.46	651.24
629.81	648.00
630.15	644.76
630.50	641.56
630.84	638.42
631.19	635.20
631.53	632.15
631.88	628.67
632.22	625.32
632.57	622.38
632.91	619.42
633.26	616.44
633.60	613.58
633.95	610.65
634.29	607.48
634.64	604.54
634.98	601.48
635.32	598.35
635.67	595.65
636.01	592.81
636.36	590.14
636.70	587.30
637.05	584.45
637.39	581.94
637.73	579.45
638.08	577.25
638.42	574.81
638.77	572.22
639.11	569.69
639.45	567.22
639.80	564.43
640.14	561.58
640.49	558.94
640.83	556.25
641.17	553.48
641.52	550.76
641.86	548.04
642.20	545.41
642.55	542.53
642.89	539.86
643.23	537.20
643.58	534.85
643.92	532.03
644.26	529.44
644.61	526.89
644.95	524.27
645.29	521.30
645.64	518.68
645.98	516.00
646.32	513.54
646.66	510.97
647.01	508.42
647.35	506.00
647.69	503.43
648.04	500.94
648.38	498.75
648.72	496.44
649.06	493.84
649.41	491.27
649.75	488.96
650.09	486.58
650.43	484.08
650.78	481.53
651.12	479.12
651.46	476.73
651.80	474.41
652.14	472.12
652.49	470.03
652.83	467.64
653.17	465.25
653.51	462.86
653.85	460.65
654.20	458.48
654.54	456.18
654.88	453.91
655.22	451.72
655.56	449.25
655.90	446.97
656.25	444.76
656.59	442.59
656.93	440.39
657.27	438.37
657.61	436.17
657.95	434.14
658.29	432.16
658.64	430.22
658.98	427.92
659.32	425.56
659.66	423.27
660.00	421.10
660.34	419.01
660.68	416.98
661.02	414.71
661.36	412.65
661.70	410.71
662.05	408.81
662.39	407.09
662.73	405.44
663.07	403.67
663.41	401.90
663.75	400.07
664.09	398.24
664.43	396.28
664.77	394.51
665.11	392.66
665.45	390.95
665.79	389.18
666.13	387.53
666.47	385.99
666.81	384.38
667.15	382.74
667.49	381.20
667.83	379.64
668.17	378.20
668.51	376.73
668.85	375.30
669.19	373.90
669.53	372.12
669.87	370.44
670.21	368.83
670.55	367.32
670.89	366.19
671.23	364.88
671.57	363.47
671.91	362.19
672.25	360.71
672.58	359.32
672.92	357.89
673.26	356.62
673.60	355.23
673.94	353.88
674.28	352.58
674.62	351.36
674.96	350.03
675.30	348.79
675.64	347.50
675.97	346.04
676.31	344.73
676.65	343.56
676.99	342.45
677.33	341.16
677.67	340.02
678.01	338.55
678.34	337.23
678.68	336.02
679.02	334.72
679.36	333.53
679.70	332.34
680.04	331.17
680.37	329.95
680.71	328.87
681.05	327.76
681.39	326.67
681.73	325.44
682.06	324.39
682.40	323.37
682.74	322.28
683.08	321.40
683.42	320.22
683.75	319.18
684.09	317.98
684.43	316.95
684.77	315.77
685.10	314.70
685.44	313.74
685.78	312.82
686.12	311.90
686.45	310.90
686.79	309.78
687.13	308.90
687.46	307.90
687.80	306.99
688.14	305.99
688.48	305.04
688.81	304.15
689.15	303.26
689.49	302.07
689.82	301.18
690.16	300.10
690.50	299.17
690.83	298.16
691.17	297.21
691.51	296.34
691.84	295.50
692.18	294.75
692.52	293.78
692.85	292.93
693.19	292.14
693.52	291.30
693.86	290.48
694.20	289.56
694.53	288.84
694.87	287.88
695.21	287.13
695.54	286.30
695.88	285.39
696.21	284.46
696.55	283.82
696.88	282.95
697.22	282.15
697.56	281.55
697.89	280.80
698.23	280.09
698.56	279.30
698.90	278.59
699.23	277.77
699.57	277.16
699.90	276.33
700.24	275.54
700.58	274.87
700.91	274.25
701.25	273.85
701.58	273.13
701.92	272.57
702.25	271.86
702.59	271.13
702.92	270.53
703.26	269.97
703.59	269.32
703.93	268.99
704.26	268.51
704.60	267.85
704.93	267.25
705.26	266.65
705.60	266.12
705.93	265.46
706.27	264.94
706.60	264.40
706.94	264.03
707.27	263.44
707.61	262.82
707.94	262.26
708.27	261.41
708.61	260.85
708.94	260.33
709.28	259.79
709.61	259.25
709.94	258.85
710.28	258.35
710.61	257.90
710.95	257.06
711.28	256.76
711.61	256.18
711.95	255.81
712.28	255.35
712.61	254.91
712.95	254.64
713.28	254.35
713.61	253.81
713.95	253.25
714.28	252.85
714.61	252.46
714.95	252.08
715.28	251.65
715.61	251.20
715.95	250.67
716.28	250.22
716.61	249.92
716.95	249.32
717.28	248.82
717.61	248.40
717.94	248.03
718.28	247.37
718.61	247.00
718.94	246.51
719.27	246.14
719.61	245.80
719.94	245.44
720.27	244.87
720.60	244.54
720.94	244.16
721.27	243.84
721.60	243.52
721.93	243.08
722.27	242.99
722.60	242.71
722.93	242.41
723.26	242.14
723.59	241.74
723.93	241.52
724.26	241.33
724.59	240.98
724.92	240.76
725.25	240.56
725.59	240.28
725.92	240.08
726.25	239.81
726.58	239.55
726.91	239.16
727.24	238.95
727.57	238.70
727.91	238.34
728.24	238.11
728.57	237.78
728.90	237.59
729.23	237.10
729.56	236.97
729.89	236.67
730.22	236.41
730.55	236.15
730.89	235.90
731.22	235.57
731.55	235.32
731.88	235.14
732.21	234.84
732.54	234.60
732.87	234.30
733.20	234.05
733.53	233.75
733.86	233.55
734.19	233.31
734.52	233.16
734.85	233.21
735.18	233.00
735.51	232.87
735.84	232.66
736.17	232.61
736.50	232.26
736.83	232.52
737.16	232.33
737.49	232.15
737.82	231.89
738.15	231.73
738.48	231.56
738.81	231.26
739.14	231.04
739.47	230.87
739.80	230.72
740.13	230.53
740.46	230.30
740.79	230.08
741.12	229.91
741.45	229.58
741.78	229.20
742.11	229.04
742.44	228.86
742.77	228.78
743.10	228.50
743.43	228.29
743.75	227.77
744.08	228.04
744.41	227.91
744.74	227.81
745.07	227.59
745.40	227.45
745.73	227.44
746.06	227.28
746.39	227.08
746.71	226.92
747.04	226.78
747.37	226.62
747.70	226.55
748.03	226.39
748.36	226.32
748.68	226.21
749.01	225.95
749.34	225.85
749.67	225.75
750.00	225.69
750.33	225.81
750.65	225.70
750.98	225.21
751.31	225.04
751.64	224.85
751.97	224.87
752.29	224.73
752.62	224.46
752.95	224.32
753.28	224.20
753.60	223.97
753.93	223.99
754.26	223.90
754.59	223.62
754.91	223.46
755.24	223.39
755.57	223.24
755.90	223.14
756.22	222.92
756.55	222.69
756.88	222.50
757.20	222.18
757.53	221.95
757.86	221.76
758.19	221.71
758.51	221.70
758.84	221.51
759.17	221.36
759.49	221.31
759.82	221.38
760.15	221.36
760.47	221.37
760.80	221.06
761.13	220.98
761.45	220.93
761.78	220.81
762.11	220.62
762.43	220.50
762.76	220.42
763.08	220.40
763.41	220.33
763.74	220.22
764.06	220.11
764.39	220.07
764.71	219.97
765.04	219.78
765.37	219.51
765.69	219.39
766.02	219.36
766.34	219.22
766.67	218.96
767.00	218.91
767.32	218.97
767.65	219.17
767.97	219.14
768.30	219.05
768.62	218.97
768.95	218.93
769.27	218.86
769.60	218.78
769.92	218.65
770.25	218.47
770.57	218.33
770.90	218.29
771.22	218.14
771.55	218.02
771.87	218.01
772.20	217.95
772.52	218.18
772.85	218.49
773.17	218.44
773.50	218.34
773.82	218.18
774.15	217.89
774.47	217.50
774.80	217.37
775.12	217.32
775.45	217.26
775.77	217.17
776.09	217.13
776.42	217.10
776.74	217.15
777.07	217.08
777.39	217.04
777.72	216.92
778.04	216.96
778.36	216.87
778.69	216.84
779.01	216.84
779.33	216.48
779.66	216.11
779.98	216.00
780.31	216.03
780.63	216.18
780.95	216.19
781.28	216.20
781.60	216.13
781.92	216.09
782.25	216.08
782.57	216.05
782.89	216.03
783.22	215.93
783.54	215.83
783.86	215.85
784.19	215.82
784.51	215.86
784.83	215.68
785.16	215.68
785.48	215.74
785.80	215.67
786.12	215.62
786.45	215.48
786.77	215.45
787.09	215.35
787.42	215.15
787.74	215.17
788.06	215.19
788.38	215.17
788.71	215.10
789.03	215.05
789.35	215.09
789.67	214.99
789.99	215.07
