SpectraSuite Data File
++++++++++++++++++++++++++++++++++++
Date: Mon Feb 25 17:14:23 EST 2013
User: group
Dark Spectrum Present: No
Reference Spectrum Present: No
Number of Sampled Component Spectra: 1
Spectrometers: USB2E7196
Integration Time (usec): 104000 (USB2E7196)
Spectra Averaged: 20 (USB2E7196)
Boxcar Smoothing: 10 (USB2E7196)
Correct for Electrical Dark: No (USB2E7196)
Strobe/Lamp Enabled: No (USB2E7196)
Correct for Detector Non-linearity: No (USB2E7196)
Correct for Stray Light: No (USB2E7196)
Number of Pixels in Processed Spectrum: 2048
>>>>>Begin Processed Spectral Data<<<<<
339.09	0.00
339.48	198.60
339.86	199.35
340.24	200.15
340.63	202.15
341.01	207.90
341.39	204.75
341.78	207.00
342.16	208.00
342.54	207.95
342.93	197.87
343.31	207.88
343.69	208.43
344.07	208.93
344.46	209.49
344.84	209.91
345.22	210.00
345.60	210.31
345.99	210.47
346.37	210.61
346.75	210.74
347.13	210.87
347.52	210.86
347.90	211.01
348.28	211.11
348.66	211.36
349.05	211.28
349.43	211.37
349.81	211.35
350.19	211.39
350.57	211.44
350.96	211.55
351.34	211.64
351.72	211.78
352.10	211.89
352.48	211.91
352.87	211.98
353.25	212.15
353.63	212.18
354.01	212.33
354.39	212.49
354.77	212.57
355.15	212.73
355.54	212.85
355.92	212.87
356.30	212.86
356.68	213.08
357.06	213.17
357.44	213.17
357.82	213.29
358.20	213.42
358.58	213.47
358.97	213.51
359.35	213.67
359.73	213.75
360.11	213.84
360.49	213.95
360.87	214.04
361.25	214.08
361.63	214.28
362.01	214.35
362.39	214.32
362.77	214.40
363.15	214.41
363.53	214.42
363.91	214.55
364.29	214.68
364.67	214.44
365.05	214.48
365.43	214.46
365.81	214.47
366.19	214.60
366.57	214.72
366.95	214.69
367.33	214.55
367.71	214.55
368.09	214.59
368.47	214.54
368.85	214.49
369.23	214.45
369.61	214.26
369.99	214.30
370.37	214.29
370.75	214.47
371.13	214.31
371.51	214.23
371.89	214.21
372.27	214.16
372.65	214.11
373.03	214.08
373.41	214.07
373.78	214.11
374.16	213.88
374.54	213.67
374.92	213.62
375.30	213.70
375.68	213.57
376.06	213.49
376.44	213.41
376.82	213.39
377.19	213.40
377.57	213.35
377.95	213.16
378.33	213.13
378.71	212.84
379.09	212.89
379.47	212.80
379.84	212.64
380.22	212.53
380.60	212.41
380.98	212.28
381.36	212.28
381.73	212.16
382.11	212.22
382.49	212.29
382.87	212.18
383.25	212.07
383.62	212.42
384.00	212.28
384.38	212.30
384.76	212.33
385.13	212.34
385.51	212.41
385.89	212.34
386.27	212.25
386.64	212.32
387.02	212.25
387.40	212.25
387.78	212.28
388.15	212.29
388.53	212.27
388.91	212.24
389.29	212.17
389.66	212.16
390.04	212.03
390.42	212.06
390.79	212.08
391.17	212.04
391.55	211.73
391.92	211.78
392.30	211.81
392.68	211.69
393.05	211.69
393.43	211.60
393.81	211.65
394.18	211.63
394.56	211.59
394.94	211.65
395.31	211.55
395.69	211.59
396.06	211.62
396.44	211.68
396.82	211.68
397.19	211.88
397.57	211.84
397.95	211.94
398.32	211.73
398.70	211.79
399.07	211.85
399.45	211.76
399.82	211.77
400.20	211.74
400.58	211.79
400.95	211.68
401.33	211.73
401.70	212.06
402.08	212.11
402.45	212.13
402.83	212.29
403.20	212.49
403.58	212.53
403.95	212.64
404.33	212.69
404.71	212.74
405.08	212.97
405.46	213.05
405.83	213.15
406.21	213.31
406.58	213.40
406.96	213.57
407.33	213.77
407.70	213.93
408.08	214.27
408.45	214.44
408.83	214.68
409.20	214.93
409.58	214.88
409.95	215.11
410.33	215.30
410.70	215.35
411.08	215.67
411.45	216.03
411.82	216.27
412.20	216.71
412.57	217.32
412.95	217.40
413.32	217.91
413.69	218.30
414.07	218.76
414.44	219.21
414.82	219.66
415.19	220.29
415.56	220.91
415.94	221.48
416.31	222.19
416.68	222.96
417.06	223.72
417.43	224.58
417.81	225.46
418.18	226.42
418.55	227.45
418.93	228.45
419.30	229.40
419.67	230.58
420.04	231.64
420.42	232.77
420.79	234.40
421.16	235.82
421.54	237.48
421.91	239.04
422.28	240.70
422.66	242.31
423.03	244.10
423.40	245.78
423.77	247.48
424.15	249.30
424.52	251.24
424.89	253.31
425.26	255.18
425.64	257.15
426.01	259.18
426.38	261.27
426.75	263.48
427.13	265.73
427.50	268.13
427.87	270.66
428.24	273.07
428.61	275.27
428.99	277.95
429.36	280.66
429.73	283.53
430.10	286.33
430.47	289.35
430.85	292.17
431.22	295.39
431.59	298.95
431.96	302.18
432.33	305.65
432.70	309.03
433.08	313.15
433.45	316.92
433.82	320.76
434.19	325.00
434.56	329.10
434.93	333.10
435.30	337.01
435.68	341.25
436.05	345.50
436.42	349.68
436.79	353.51
437.16	357.66
437.53	361.95
437.90	366.23
438.27	370.50
438.64	374.82
439.01	378.87
439.38	382.25
439.75	385.69
440.13	389.71
440.50	393.48
440.87	396.45
441.24	399.62
441.61	403.07
441.98	405.56
442.35	408.39
442.72	411.43
443.09	414.41
443.46	416.11
443.83	417.38
444.20	418.42
444.57	419.75
444.94	420.43
445.31	421.08
445.68	422.04
446.05	422.26
446.42	421.82
446.79	421.29
447.16	420.65
447.53	420.25
447.90	418.50
448.27	416.72
448.64	414.44
449.01	412.74
449.37	409.84
449.74	407.05
450.11	404.03
450.48	400.34
450.85	396.46
451.22	393.37
451.59	390.17
451.96	387.21
452.33	383.43
452.70	379.80
453.07	375.62
453.43	371.04
453.80	366.94
454.17	363.01
454.54	359.26
454.91	355.33
455.28	351.41
455.65	347.77
456.02	344.71
456.38	341.64
456.75	337.78
457.12	334.58
457.49	331.50
457.86	328.15
458.23	325.60
458.59	322.84
458.96	319.93
459.33	317.40
459.70	314.84
460.07	312.80
460.43	310.43
460.80	308.31
461.17	306.52
461.54	304.49
461.91	302.62
462.27	300.63
462.64	299.03
463.01	297.29
463.38	295.71
463.74	293.50
464.11	291.99
464.48	290.73
464.85	289.30
465.21	288.30
465.58	287.23
465.95	285.70
466.32	284.48
466.68	283.37
467.05	282.23
467.42	281.03
467.78	279.82
468.15	278.81
468.52	278.03
468.88	276.84
469.25	275.86
469.62	275.10
469.98	274.31
470.35	273.50
470.72	272.80
471.08	271.86
471.45	271.31
471.82	270.78
472.18	270.08
472.55	269.60
472.92	268.89
473.28	268.37
473.65	267.92
474.02	267.50
474.38	267.20
474.75	266.97
475.11	266.67
475.48	266.53
475.85	266.32
476.21	266.08
476.58	266.03
476.94	265.97
477.31	265.83
477.67	265.78
478.04	265.82
478.41	265.85
478.77	266.33
479.14	266.29
479.50	266.35
479.87	266.63
480.23	266.90
480.60	267.08
480.96	267.44
481.33	267.87
481.69	268.24
482.06	268.54
482.42	268.91
482.79	269.46
483.15	269.99
483.52	270.68
483.88	271.29
484.25	271.90
484.61	272.63
484.98	273.39
485.34	274.28
485.71	275.18
486.07	276.11
486.44	276.82
486.80	278.00
487.17	279.10
487.53	280.37
487.90	281.71
488.26	283.29
488.62	284.80
488.99	286.34
489.35	287.95
489.72	289.71
490.08	291.49
490.44	293.35
490.81	295.37
491.17	297.34
491.54	299.60
491.90	301.99
492.26	304.44
492.63	307.08
492.99	309.62
493.36	312.42
493.72	315.34
494.08	318.44
494.45	321.57
494.81	325.10
495.17	328.65
495.54	332.41
495.90	336.21
496.26	340.05
496.63	344.28
496.99	348.68
497.35	353.14
497.72	357.92
498.08	362.63
498.44	367.64
498.80	373.12
499.17	378.52
499.53	384.01
499.89	389.91
500.26	396.00
500.62	402.36
500.98	408.92
501.34	415.61
501.71	422.66
502.07	429.97
502.43	437.24
502.79	444.59
503.16	452.27
503.52	460.14
503.88	468.34
504.24	476.76
504.60	485.35
504.97	494.33
505.33	503.39
505.69	513.25
506.05	522.89
506.41	532.66
506.78	542.73
507.14	553.23
507.50	563.71
507.86	574.37
508.22	585.50
508.59	596.69
508.95	608.25
509.31	619.91
509.67	631.75
510.03	643.77
510.39	656.33
510.75	668.99
511.12	681.98
511.48	695.13
511.84	708.33
512.20	721.69
512.56	735.54
512.92	749.59
513.28	763.46
513.64	777.65
514.00	791.91
514.37	806.44
514.73	821.15
515.09	836.03
515.45	850.97
515.81	866.00
516.17	881.06
516.53	896.26
516.89	911.50
517.25	926.93
517.61	942.66
517.97	958.03
518.33	973.59
518.69	989.20
519.05	1005.08
519.41	1021.04
519.77	1037.43
520.13	1053.09
520.49	1068.73
520.85	1084.80
521.21	1101.00
521.57	1117.45
521.93	1133.42
522.29	1149.60
522.65	1165.93
523.01	1182.34
523.37	1198.11
523.73	1214.42
524.09	1230.61
524.45	1246.86
524.81	1263.05
525.17	1279.38
525.53	1295.62
525.89	1311.65
526.25	1327.73
526.61	1343.31
526.97	1358.87
527.33	1373.93
527.68	1389.97
528.04	1405.17
528.40	1419.82
528.76	1434.68
529.12	1449.85
529.48	1465.24
529.84	1480.22
530.20	1494.94
530.56	1509.38
530.91	1524.66
531.27	1539.54
531.63	1553.94
531.99	1568.25
532.35	1581.94
532.71	1595.59
533.07	1609.69
533.42	1623.35
533.78	1636.82
534.14	1649.99
534.50	1662.33
534.86	1675.57
535.21	1687.48
535.57	1700.62
535.93	1712.73
536.29	1724.87
536.65	1736.86
537.00	1748.01
537.36	1758.84
537.72	1769.22
538.08	1780.18
538.44	1790.57
538.79	1800.94
539.15	1811.34
539.51	1821.60
539.87	1832.36
540.22	1842.03
540.58	1852.03
540.94	1861.61
541.29	1870.36
541.65	1878.87
542.01	1887.80
542.37	1895.80
542.72	1904.16
543.08	1911.63
543.44	1920.34
543.79	1927.40
544.15	1933.83
544.51	1941.21
544.87	1948.59
545.22	1955.55
545.58	1961.51
545.94	1967.06
546.29	1972.02
546.65	1976.64
547.01	1980.95
547.36	1985.24
547.72	1989.74
548.07	1993.24
548.43	1996.56
548.79	1999.78
549.14	2003.16
549.50	2006.52
549.86	2009.37
550.21	2011.63
550.57	2014.50
550.92	2016.02
551.28	2017.72
551.64	2019.70
551.99	2021.57
552.35	2022.61
552.70	2023.95
553.06	2025.46
553.41	2026.38
553.77	2027.42
554.13	2028.24
554.48	2029.18
554.84	2029.70
555.19	2029.82
555.55	2029.56
555.90	2029.18
556.26	2028.95
556.61	2028.64
556.97	2027.45
557.32	2026.57
557.68	2025.40
558.03	2023.99
558.39	2023.11
558.74	2022.86
559.10	2021.89
559.45	2020.31
559.81	2019.41
560.16	2017.47
560.52	2015.91
560.87	2014.31
561.23	2012.18
561.58	2010.94
561.94	2008.85
562.29	2005.90
562.64	2003.55
563.00	2001.74
563.35	2000.06
563.71	1998.72
564.06	1996.75
564.42	1995.13
564.77	1993.52
565.12	1992.10
565.48	1990.06
565.83	1987.74
566.19	1985.54
566.54	1982.18
566.89	1979.05
567.25	1976.16
567.60	1973.53
567.96	1970.29
568.31	1967.44
568.66	1964.24
569.02	1960.30
569.37	1956.31
569.72	1953.22
570.08	1949.63
570.43	1945.22
570.78	1940.85
571.14	1936.00
571.49	1931.21
571.84	1927.11
572.20	1921.85
572.55	1917.26
572.90	1911.89
573.26	1906.64
573.61	1901.14
573.96	1896.34
574.31	1890.55
574.67	1884.54
575.02	1878.48
575.37	1872.40
575.72	1865.90
576.08	1860.27
576.43	1854.14
576.78	1848.54
577.13	1843.17
577.49	1837.63
577.84	1832.28
578.19	1826.84
578.54	1821.70
578.90	1816.69
579.25	1810.72
579.60	1804.63
579.95	1798.21
580.30	1792.86
580.66	1787.34
581.01	1781.24
581.36	1775.20
581.71	1769.60
582.06	1763.81
582.42	1758.40
582.77	1752.21
583.12	1746.64
583.47	1741.03
583.82	1736.07
584.17	1730.06
584.53	1724.23
584.88	1718.25
585.23	1712.15
585.58	1706.18
585.93	1699.86
586.28	1694.24
586.63	1688.09
586.98	1683.00
587.34	1677.90
587.69	1672.12
588.04	1666.58
588.39	1661.20
588.74	1655.10
589.09	1649.90
589.44	1644.01
589.79	1638.43
590.14	1633.45
590.49	1627.77
590.84	1622.03
591.19	1616.51
591.54	1611.27
591.89	1604.72
592.25	1599.02
592.60	1593.00
592.95	1586.75
593.30	1580.03
593.65	1573.08
594.00	1567.16
594.35	1562.10
594.70	1555.66
595.05	1550.03
595.40	1543.51
595.75	1536.99
596.10	1531.64
596.45	1525.57
596.80	1520.56
597.15	1515.14
597.50	1509.46
597.85	1503.89
598.19	1498.08
598.54	1492.19
598.89	1486.74
599.24	1482.16
599.59	1476.64
599.94	1471.95
600.29	1466.86
600.64	1462.24
600.99	1456.92
601.34	1451.87
601.69	1445.47
602.04	1439.99
602.39	1434.33
602.74	1429.55
603.08	1425.16
603.43	1420.46
603.78	1415.40
604.13	1410.10
604.48	1404.75
604.83	1400.36
605.18	1395.89
605.53	1390.77
605.87	1385.38
606.22	1380.17
606.57	1374.71
606.92	1369.35
607.27	1363.59
607.62	1358.34
607.96	1353.13
608.31	1348.72
608.66	1343.17
609.01	1337.73
609.36	1332.43
609.70	1326.53
610.05	1320.39
610.40	1314.26
610.75	1308.24
611.10	1303.01
611.44	1296.42
611.79	1290.34
612.14	1283.30
612.49	1276.34
612.83	1270.38
613.18	1263.90
613.53	1257.42
613.88	1250.65
614.22	1244.57
614.57	1238.18
614.92	1231.62
615.27	1225.12
615.61	1218.21
615.96	1212.29
616.31	1206.58
616.65	1200.91
617.00	1195.35
617.35	1189.60
617.70	1183.45
618.04	1176.87
618.39	1169.94
618.74	1164.14
619.08	1157.83
619.43	1152.02
619.78	1146.45
620.12	1140.21
620.47	1134.64
620.82	1128.26
621.16	1122.01
621.51	1115.99
621.85	1110.17
622.20	1104.25
622.55	1098.28
622.89	1092.28
623.24	1086.17
623.59	1079.78
623.93	1073.50
624.28	1067.37
624.62	1061.76
624.97	1056.00
625.32	1050.35
625.66	1044.84
626.01	1039.08
626.35	1033.71
626.70	1028.12
627.04	1022.72
627.39	1017.33
627.73	1011.74
628.08	1006.86
628.43	1001.46
628.77	995.71
629.12	990.05
629.46	985.09
629.81	979.79
630.15	974.57
630.50	969.20
630.84	963.81
631.19	958.36
631.53	953.21
631.88	947.43
632.22	941.98
632.57	936.93
632.91	931.69
633.26	926.50
633.60	921.07
633.95	916.02
634.29	910.71
634.64	905.71
634.98	900.34
635.32	895.11
635.67	890.50
636.01	885.74
636.36	880.67
636.70	875.65
637.05	870.74
637.39	866.04
637.73	861.35
638.08	857.01
638.42	852.64
638.77	848.01
639.11	843.45
639.45	838.73
639.80	833.84
640.14	828.99
640.49	824.14
640.83	819.64
641.17	814.79
641.52	809.84
641.86	804.98
642.20	800.57
642.55	795.59
642.89	790.58
643.23	785.55
643.58	781.18
643.92	776.18
644.26	771.56
644.61	766.73
644.95	761.99
645.29	757.05
645.64	752.18
645.98	747.34
646.32	742.82
646.66	738.18
647.01	733.76
647.35	729.34
647.69	724.68
648.04	720.07
648.38	715.45
648.72	711.01
649.06	706.64
649.41	702.08
649.75	697.71
650.09	693.50
650.43	689.30
650.78	684.75
651.12	680.47
651.46	676.15
651.80	671.91
652.14	667.52
652.49	663.16
652.83	658.87
653.17	654.30
653.51	649.84
653.85	645.84
654.20	641.50
654.54	637.07
654.88	632.96
655.22	628.69
655.56	624.57
655.90	620.47
656.25	616.12
656.59	611.89
656.93	607.86
657.27	603.87
657.61	599.62
657.95	595.57
658.29	591.72
658.64	587.96
658.98	583.99
659.32	580.07
659.66	576.25
660.00	572.44
660.34	568.62
660.68	564.82
661.02	560.84
661.36	557.28
661.70	553.71
662.05	550.21
662.39	546.84
662.73	543.48
663.07	540.30
663.41	537.00
663.75	533.67
664.09	530.29
664.43	526.79
664.77	523.50
665.11	520.35
665.45	517.03
665.79	513.68
666.13	510.63
666.47	507.61
666.81	504.57
667.15	501.46
667.49	498.74
667.83	495.96
668.17	493.11
668.51	490.26
668.85	487.51
669.19	485.00
669.53	482.09
669.87	479.14
670.21	476.18
670.55	473.40
670.89	471.08
671.23	468.70
671.57	466.14
671.91	463.58
672.25	460.92
672.58	458.47
672.92	455.91
673.26	453.44
673.60	450.96
673.94	448.43
674.28	446.02
674.62	443.68
674.96	441.22
675.30	438.92
675.64	436.60
675.97	434.33
676.31	431.97
676.65	429.82
676.99	427.89
677.33	425.59
677.67	423.40
678.01	420.89
678.34	418.60
678.68	416.48
679.02	414.35
679.36	412.40
679.70	410.26
680.04	408.25
680.37	406.02
680.71	403.91
681.05	402.06
681.39	400.09
681.73	398.04
682.06	396.20
682.40	394.39
682.74	392.32
683.08	390.48
683.42	388.35
683.75	386.35
684.09	384.26
684.43	382.37
684.77	380.48
685.10	378.62
685.44	376.61
685.78	374.77
686.12	373.10
686.45	371.25
686.79	369.48
687.13	367.85
687.46	366.26
687.80	364.73
688.14	362.93
688.48	361.27
688.81	359.50
689.15	357.77
689.49	355.99
689.82	354.38
690.16	352.53
690.50	350.92
690.83	349.30
691.17	347.53
691.51	346.02
691.84	344.53
692.18	343.03
692.52	341.71
692.85	340.31
693.19	338.83
693.52	337.20
693.86	335.70
694.20	334.18
694.53	332.67
694.87	331.16
695.21	329.69
695.54	328.14
695.88	326.66
696.21	325.19
696.55	323.92
696.88	322.63
697.22	321.33
697.56	320.08
697.89	318.86
698.23	317.63
698.56	316.44
698.90	315.24
699.23	313.93
699.57	312.66
699.90	311.33
700.24	310.10
700.58	309.01
700.91	307.88
701.25	307.02
701.58	305.95
701.92	304.74
702.25	303.68
702.59	302.67
702.92	301.75
703.26	300.74
703.59	299.64
703.93	298.82
704.26	297.85
704.60	296.77
704.93	295.71
705.26	294.81
705.60	293.80
705.93	292.74
706.27	291.87
706.60	290.97
706.94	290.28
707.27	289.33
707.61	288.44
707.94	287.52
708.27	286.22
708.61	285.29
708.94	284.49
709.28	283.66
709.61	282.80
709.94	281.93
710.28	281.10
710.61	280.34
710.95	279.28
711.28	278.69
711.61	277.95
711.95	277.19
712.28	276.38
712.61	275.65
712.95	275.07
713.28	274.48
713.61	273.68
713.95	272.82
714.28	272.18
714.61	271.41
714.95	270.73
715.28	270.05
715.61	269.35
715.95	268.66
716.28	268.01
716.61	267.37
716.95	266.71
717.28	266.09
717.61	265.48
717.94	264.86
718.28	264.00
718.61	263.42
718.94	262.79
719.27	262.19
719.61	261.61
719.94	260.95
720.27	260.22
720.60	259.67
720.94	259.13
721.27	258.51
721.60	258.03
721.93	257.55
722.27	257.19
722.60	256.71
722.93	256.21
723.26	255.70
723.59	255.20
723.93	254.74
724.26	254.19
724.59	253.68
724.92	253.28
725.25	252.86
725.59	252.41
725.92	252.02
726.25	251.57
726.58	251.15
726.91	250.76
727.24	250.44
727.57	250.05
727.91	249.59
728.24	249.26
728.57	248.92
728.90	248.55
729.23	248.03
729.56	247.87
729.89	247.48
730.22	247.05
730.55	246.62
730.89	246.25
731.22	245.96
731.55	245.59
731.88	245.20
732.21	244.80
732.54	244.25
732.87	243.83
733.20	243.49
733.53	243.11
733.86	242.77
734.19	242.28
734.52	241.96
734.85	241.86
735.18	241.46
735.51	241.19
735.84	240.84
736.17	240.64
736.50	240.07
736.83	240.18
737.16	239.86
737.49	239.62
737.82	239.31
738.15	239.05
738.48	238.68
738.81	238.34
739.14	238.03
739.47	237.82
739.80	237.62
740.13	237.34
740.46	236.98
740.79	236.60
741.12	236.38
741.45	236.01
741.78	235.54
742.11	235.45
742.44	235.02
742.77	234.84
743.10	234.48
743.43	234.21
743.75	233.55
744.08	233.75
744.41	233.53
744.74	233.24
745.07	232.90
745.40	232.76
745.73	232.60
746.06	232.41
746.39	232.26
746.71	232.00
747.04	231.72
747.37	231.51
747.70	231.34
748.03	231.15
748.36	231.02
748.68	230.78
749.01	230.41
749.34	230.26
749.67	230.06
750.00	229.96
750.33	230.02
750.65	229.80
750.98	229.20
751.31	228.96
751.64	228.85
751.97	228.87
752.29	228.67
752.62	228.38
752.95	228.12
753.28	227.90
753.60	227.67
753.93	227.61
754.26	227.52
754.59	227.30
754.91	227.11
755.24	226.88
755.57	226.69
755.90	226.53
756.22	226.33
756.55	226.04
756.88	225.80
757.20	225.39
757.53	225.24
757.86	225.04
758.19	224.89
758.51	224.67
758.84	224.40
759.17	224.21
759.49	224.17
759.82	224.20
760.15	224.07
760.47	223.92
760.80	223.69
761.13	223.55
761.45	223.32
761.78	223.19
762.11	223.05
762.43	222.90
762.76	222.73
763.08	222.65
763.41	222.55
763.74	222.36
764.06	222.29
764.39	222.14
764.71	222.09
765.04	221.91
765.37	221.77
765.69	221.59
766.02	221.42
766.34	221.23
766.67	220.95
767.00	220.90
767.32	220.96
767.65	221.09
767.97	220.94
768.30	220.88
768.62	220.71
768.95	220.65
769.27	220.55
769.60	220.50
769.92	220.36
770.25	220.21
770.57	220.12
770.90	219.96
771.22	219.83
771.55	219.73
771.87	219.75
772.20	219.67
772.52	219.86
772.85	220.24
773.17	220.16
773.50	220.10
773.82	219.94
774.15	219.65
774.47	219.34
774.80	219.25
775.12	219.22
775.45	219.12
775.77	219.06
776.09	219.01
776.42	218.89
776.74	218.85
777.07	218.78
777.39	218.71
777.72	218.64
778.04	218.63
778.36	218.47
778.69	218.32
779.01	218.24
779.33	217.81
779.66	217.37
779.98	217.23
780.31	217.18
780.63	217.32
780.95	217.37
781.28	217.27
781.60	217.16
781.92	217.05
782.25	216.99
782.57	216.90
782.89	216.85
783.22	216.80
783.54	216.74
783.86	216.67
784.19	216.55
784.51	216.64
784.83	216.50
785.16	216.47
785.48	216.47
785.80	216.44
786.12	216.50
786.45	216.46
786.77	216.45
787.09	216.35
787.42	216.18
787.74	216.14
