SpectraSuite Data File
++++++++++++++++++++++++++++++++++++
Date: Mon Feb 25 17:03:00 EST 2013
User: group
Dark Spectrum Present: No
Reference Spectrum Present: No
Number of Sampled Component Spectra: 1
Spectrometers: USB2E7196
Integration Time (usec): 104000 (USB2E7196)
Spectra Averaged: 20 (USB2E7196)
Boxcar Smoothing: 10 (USB2E7196)
Correct for Electrical Dark: No (USB2E7196)
Strobe/Lamp Enabled: No (USB2E7196)
Correct for Detector Non-linearity: No (USB2E7196)
Correct for Stray Light: No (USB2E7196)
Number of Pixels in Processed Spectrum: 2048
>>>>>Begin Processed Spectral Data<<<<<
339.09	0.00
339.48	198.80
339.86	199.35
340.24	202.10
340.63	202.20
341.01	209.90
341.39	205.80
341.78	207.50
342.16	208.40
342.54	209.00
342.93	198.50
343.31	208.48
343.69	209.07
344.07	209.62
344.46	210.05
344.84	210.40
345.22	210.43
345.60	210.67
345.99	210.85
346.37	210.95
346.75	211.04
347.13	211.08
347.52	211.05
347.90	211.10
348.28	211.10
348.66	211.13
349.05	210.97
349.43	210.95
349.81	211.03
350.19	211.05
350.57	211.00
350.96	211.10
351.34	211.17
351.72	211.13
352.10	211.08
352.48	211.08
352.87	211.22
353.25	211.27
353.63	211.27
354.01	211.30
354.39	211.40
354.77	211.43
355.15	211.54
355.54	211.52
355.92	211.45
356.30	211.45
356.68	211.74
357.06	211.82
357.44	211.80
357.82	211.79
358.20	211.82
358.58	211.95
358.97	212.01
359.35	212.06
359.73	212.20
360.11	212.26
360.49	212.29
360.87	212.28
361.25	212.32
361.63	212.45
362.01	212.42
362.39	212.41
362.77	212.40
363.15	212.35
363.53	212.40
363.91	212.50
364.29	212.51
364.67	212.15
365.05	212.13
365.43	212.19
365.81	212.22
366.19	212.45
366.57	212.55
366.95	212.46
367.33	212.37
367.71	212.32
368.09	212.42
368.47	212.46
368.85	212.45
369.23	212.43
369.61	212.30
369.99	212.32
370.37	212.31
370.75	212.50
371.13	212.39
371.51	212.33
371.89	212.31
372.27	212.24
372.65	212.23
373.03	212.23
373.41	212.21
373.78	212.14
374.16	211.84
374.54	211.63
374.92	211.58
375.30	211.58
375.68	211.47
376.06	211.44
376.44	211.35
376.82	211.29
377.19	211.30
377.57	211.20
377.95	211.15
378.33	211.05
378.71	210.81
379.09	210.88
379.47	210.88
379.84	210.79
380.22	210.77
380.60	210.70
380.98	210.68
381.36	210.60
381.73	210.53
382.11	210.57
382.49	210.53
382.87	210.47
383.25	210.46
383.62	210.80
384.00	210.71
384.38	210.70
384.76	210.77
385.13	210.91
385.51	210.90
385.89	210.85
386.27	210.94
386.64	210.92
387.02	210.82
387.40	210.77
387.78	210.74
388.15	210.72
388.53	210.70
388.91	210.62
389.29	210.55
389.66	210.54
390.04	210.51
390.42	210.62
390.79	210.68
391.17	210.64
391.55	210.27
391.92	210.20
392.30	210.23
392.68	210.14
393.05	210.08
393.43	210.14
393.81	210.15
394.18	210.03
394.56	210.08
394.94	210.16
395.31	210.16
395.69	210.28
396.06	210.35
396.44	210.32
396.82	210.32
397.19	210.47
397.57	210.53
397.95	210.65
398.32	210.55
398.70	210.53
399.07	210.63
399.45	210.61
399.82	210.63
400.20	210.63
400.58	210.68
400.95	210.54
401.33	210.64
401.70	210.94
402.08	211.00
402.45	210.99
402.83	211.10
403.20	211.22
403.58	211.23
403.95	211.42
404.33	211.60
404.71	211.70
405.08	212.03
405.46	212.17
405.83	212.20
406.21	212.37
406.58	212.54
406.96	212.67
407.33	212.91
407.70	213.22
408.08	213.68
408.45	213.89
408.83	214.13
409.20	214.35
409.58	214.35
409.95	214.71
410.33	215.13
410.70	215.41
411.08	215.79
411.45	216.24
411.82	216.50
412.20	217.11
412.57	217.83
412.95	218.07
413.32	218.62
413.69	219.20
414.07	219.85
414.44	220.58
414.82	221.38
415.19	222.29
415.56	223.16
415.94	223.88
416.31	224.99
416.68	226.08
417.06	227.31
417.43	228.60
417.81	229.92
418.18	231.27
418.55	232.70
418.93	234.20
419.30	235.74
419.67	237.52
420.04	239.14
420.42	240.96
420.79	243.29
421.16	245.45
421.54	247.85
421.91	250.12
422.28	252.54
422.66	255.11
423.03	257.80
423.40	260.35
423.77	263.10
424.15	265.88
424.52	268.85
424.89	272.08
425.26	275.13
425.64	278.08
426.01	281.25
426.38	284.63
426.75	288.23
427.13	291.90
427.50	295.64
427.87	299.71
428.24	303.58
428.61	307.22
428.99	311.45
429.36	315.88
429.73	320.41
430.10	325.01
430.47	329.64
430.85	334.18
431.22	339.23
431.59	344.77
431.96	349.84
432.33	355.64
432.70	361.17
433.08	367.58
433.45	373.79
433.82	379.93
434.19	386.76
434.56	393.44
434.93	399.83
435.30	406.28
435.68	413.37
436.05	420.49
436.42	427.60
436.79	434.15
437.16	441.15
437.53	448.60
437.90	455.81
438.27	463.03
438.64	470.55
439.01	477.58
439.38	483.71
439.75	489.92
440.13	496.83
440.50	503.33
440.87	508.87
441.24	514.65
441.61	520.88
441.98	525.69
442.35	531.16
442.72	536.62
443.09	542.07
443.46	545.35
443.83	547.87
444.20	550.07
444.57	552.95
444.94	554.68
445.31	556.36
445.68	558.17
446.05	559.11
446.42	558.88
446.79	558.54
447.16	558.06
447.53	558.05
447.90	555.75
448.27	553.65
448.64	550.37
449.01	548.14
449.37	543.85
449.74	539.50
450.11	534.56
450.48	529.09
450.85	523.15
451.22	518.23
451.59	513.45
451.96	508.96
452.33	502.82
452.70	497.23
453.07	490.45
453.43	483.45
453.80	476.98
454.17	470.76
454.54	464.75
454.91	458.20
455.28	451.80
455.65	445.97
456.02	440.34
456.38	435.30
456.75	428.87
457.12	423.52
457.49	418.39
457.86	413.02
458.23	408.62
458.59	403.97
458.96	399.23
459.33	394.94
459.70	390.55
460.07	387.19
460.43	383.26
460.80	379.52
461.17	376.27
461.54	372.70
461.91	369.43
462.27	366.15
462.64	363.61
463.01	360.43
463.38	357.48
463.74	354.11
464.11	351.50
464.48	349.11
464.85	346.68
465.21	344.82
465.58	342.88
465.95	340.36
466.32	338.19
466.68	336.08
467.05	333.91
467.42	331.78
467.78	329.56
468.15	327.46
468.52	325.90
468.88	323.86
469.25	322.10
469.62	320.61
469.98	318.97
470.35	317.29
470.72	315.86
471.08	314.22
471.45	312.91
471.82	311.57
472.18	310.19
472.55	309.15
472.92	307.74
473.28	306.55
473.65	305.45
474.02	304.46
474.38	303.60
474.75	302.87
475.11	302.11
475.48	301.51
475.85	300.89
476.21	300.36
476.58	299.91
476.94	299.47
477.31	298.99
477.67	298.51
478.04	298.17
478.41	297.93
478.77	298.03
479.14	297.68
479.50	297.47
479.87	297.36
480.23	297.30
480.60	297.12
480.96	296.86
481.33	297.06
481.69	297.10
482.06	297.04
482.42	297.06
482.79	297.06
483.15	297.07
483.52	297.40
483.88	297.50
484.25	297.58
484.61	297.73
484.98	297.96
485.34	298.39
485.71	298.81
486.07	299.23
486.44	299.32
486.80	299.80
487.17	300.32
487.53	300.99
487.90	301.62
488.26	302.54
488.62	303.46
488.99	304.01
489.35	304.79
489.72	305.77
490.08	306.67
490.44	307.62
490.81	308.76
491.17	309.66
491.54	310.86
491.90	312.14
492.26	313.40
492.63	314.67
492.99	315.90
493.36	317.13
493.72	318.51
494.08	319.86
494.45	321.34
494.81	322.86
495.17	324.33
495.54	325.73
495.90	327.11
496.26	328.53
496.63	330.19
496.99	331.78
497.35	333.30
497.72	334.95
498.08	336.56
498.44	338.17
498.80	339.95
499.17	341.55
499.53	343.07
499.89	344.73
500.26	346.27
500.62	347.76
500.98	349.50
501.34	350.97
501.71	352.63
502.07	354.11
502.43	355.49
502.79	356.91
503.16	358.46
503.52	359.91
503.88	361.25
504.24	362.67
504.60	363.96
504.97	365.37
505.33	366.64
505.69	368.11
506.05	369.32
506.41	370.45
506.78	371.42
507.14	372.44
507.50	373.54
507.86	374.67
508.22	375.73
508.59	376.36
508.95	377.22
509.31	378.13
509.67	379.13
510.03	379.96
510.39	380.63
510.75	381.16
511.12	381.85
511.48	382.60
511.84	382.99
512.20	383.43
512.56	383.88
512.92	384.25
513.28	384.50
513.64	384.65
514.00	384.87
514.37	385.14
514.73	385.47
515.09	385.54
515.45	385.53
515.81	385.58
516.17	385.70
516.53	385.80
516.89	385.62
517.25	385.41
517.61	385.29
517.97	385.17
518.33	385.13
518.69	384.94
519.05	384.82
519.41	384.74
519.77	384.86
520.13	384.55
520.49	384.28
520.85	384.12
521.21	384.10
521.57	384.04
521.93	383.87
522.29	383.73
522.65	383.58
523.01	383.58
523.37	383.47
523.73	383.49
524.09	383.34
524.45	383.39
524.81	383.58
525.17	383.73
525.53	383.98
525.89	384.06
526.25	384.37
526.61	384.46
526.97	384.75
527.33	384.92
527.68	385.73
528.04	386.32
528.40	386.68
528.76	387.22
529.12	387.75
529.48	388.56
529.84	389.22
530.20	390.04
530.56	390.85
530.91	391.86
531.27	392.92
531.63	393.97
531.99	394.99
532.35	395.94
532.71	397.07
533.07	398.25
533.42	399.97
533.78	401.22
534.14	402.74
534.50	403.96
534.86	405.49
535.21	406.52
535.57	408.14
535.93	409.83
536.29	411.55
536.65	413.29
537.00	414.79
537.36	416.51
537.72	418.23
538.08	420.16
538.44	421.87
538.79	423.70
539.15	425.65
539.51	427.77
539.87	429.82
540.22	431.98
540.58	434.16
540.94	436.01
541.29	438.04
541.65	440.15
542.01	442.67
542.37	445.07
542.72	447.67
543.08	449.91
543.44	452.52
543.79	454.79
544.15	457.30
544.51	460.10
544.87	462.80
545.22	465.65
545.58	468.24
545.94	471.00
546.29	473.65
546.65	476.35
547.01	478.95
547.36	481.77
547.72	484.39
548.07	487.19
548.43	489.84
548.79	492.71
549.14	495.47
549.50	498.23
549.86	500.74
550.21	503.42
550.57	506.25
550.92	508.77
551.28	511.62
551.64	514.31
551.99	516.97
552.35	519.58
552.70	521.98
553.06	524.46
553.41	527.00
553.77	529.78
554.13	532.47
554.48	535.29
554.84	537.92
555.19	540.60
555.55	543.37
555.90	545.98
556.26	548.46
556.61	550.83
556.97	553.08
557.32	555.52
557.68	557.77
558.03	560.19
558.39	562.45
558.74	564.71
559.10	567.09
559.45	569.46
559.81	571.85
560.16	574.13
560.52	576.57
560.87	579.01
561.23	581.19
561.58	583.62
561.94	585.61
562.29	587.60
562.64	589.82
563.00	591.64
563.35	593.83
563.71	596.12
564.06	598.27
564.42	600.61
564.77	602.95
565.12	605.20
565.48	607.54
565.83	609.75
566.19	611.77
566.54	613.56
566.89	615.38
567.25	617.38
567.60	619.30
567.96	621.42
568.31	623.42
568.66	625.25
569.02	626.51
569.37	627.92
569.72	629.63
570.08	631.12
570.43	632.53
570.78	633.82
571.14	634.85
571.49	636.04
571.84	637.01
572.20	637.86
572.55	638.88
572.90	639.52
573.26	640.24
573.61	640.95
573.96	641.61
574.31	642.13
574.67	642.52
575.02	643.00
575.37	642.88
575.72	642.81
576.08	643.00
576.43	643.29
576.78	643.70
577.13	643.84
577.49	643.92
577.84	644.11
578.19	644.23
578.54	644.65
578.90	645.16
579.25	645.37
579.60	645.32
579.95	645.20
580.30	645.18
580.66	645.43
581.01	645.55
581.36	645.65
581.71	645.73
582.06	645.86
582.42	645.88
582.77	645.88
583.12	645.88
583.47	645.94
583.82	645.86
584.17	645.76
584.53	645.94
584.88	645.79
585.23	645.82
585.58	645.72
585.93	645.42
586.28	644.98
586.63	644.79
586.98	644.74
587.34	644.73
587.69	644.35
588.04	644.00
588.39	643.70
588.74	643.26
589.09	643.03
589.44	642.44
589.79	642.15
590.14	641.89
590.49	641.61
590.84	640.95
591.19	640.68
591.54	640.16
591.89	639.12
592.25	638.76
592.60	638.00
592.95	637.24
593.30	636.38
593.65	635.57
594.00	634.65
594.35	634.69
594.70	633.74
595.05	633.01
595.40	632.07
595.75	631.14
596.10	630.39
596.45	629.43
596.80	628.63
597.15	627.71
597.50	626.71
597.85	625.82
598.19	624.85
598.54	623.87
598.89	622.86
599.24	622.40
599.59	621.35
599.94	620.40
600.29	619.54
600.64	618.73
600.99	617.88
601.34	616.91
601.69	615.07
602.04	614.05
602.39	613.05
602.74	612.21
603.08	611.51
603.43	610.95
603.78	610.02
604.13	609.19
604.48	608.18
604.83	607.71
605.18	606.93
605.53	606.14
605.87	605.16
606.22	604.48
606.57	603.30
606.92	602.14
607.27	601.13
607.62	600.08
607.96	599.13
608.31	598.21
608.66	597.31
609.01	596.21
609.36	595.08
609.70	593.95
610.05	592.56
610.40	591.26
610.75	589.66
611.10	588.60
611.44	587.11
611.79	585.86
612.14	584.07
612.49	582.30
612.83	580.96
613.18	579.49
613.53	577.85
613.88	576.09
614.22	574.66
614.57	573.02
614.92	571.47
615.27	569.88
615.61	567.98
615.96	566.55
616.31	565.12
616.65	563.74
617.00	562.23
617.35	560.71
617.70	559.03
618.04	557.27
618.39	555.46
618.74	553.99
619.08	552.15
619.43	550.50
619.78	548.95
620.12	547.25
620.47	545.62
620.82	543.86
621.16	542.22
621.51	540.81
621.85	539.21
622.20	537.59
622.55	535.71
622.89	534.18
623.24	532.32
623.59	530.52
623.93	528.85
624.28	527.18
624.62	525.86
624.97	524.25
625.32	522.72
625.66	520.95
626.01	519.31
626.35	517.73
626.70	516.16
627.04	514.75
627.39	513.11
627.73	511.64
628.08	510.20
628.43	508.70
628.77	506.87
629.12	505.06
629.46	503.54
629.81	502.02
630.15	500.41
630.50	498.69
630.84	496.92
631.19	495.19
631.53	493.62
631.88	491.63
632.22	489.87
632.57	488.44
632.91	486.88
633.26	485.25
633.60	483.71
633.95	482.07
634.29	480.20
634.64	478.64
634.98	476.98
635.32	475.32
635.67	473.92
636.01	472.31
636.36	470.94
636.70	469.42
637.05	468.02
637.39	466.42
637.73	465.16
638.08	464.12
638.42	462.74
638.77	461.30
639.11	459.85
639.45	458.31
639.80	456.54
640.14	454.96
640.49	453.36
640.83	451.67
641.17	450.14
641.52	448.55
641.86	446.88
642.20	445.39
642.55	443.65
642.89	441.91
643.23	440.32
643.58	438.95
643.92	437.18
644.26	435.52
644.61	434.12
644.95	432.45
645.29	430.53
645.64	428.90
645.98	427.17
646.32	425.59
646.66	423.91
647.01	422.34
647.35	420.96
647.69	419.34
648.04	417.96
648.38	416.42
648.72	414.92
649.06	413.42
649.41	411.74
649.75	410.28
650.09	408.87
650.43	407.34
650.78	405.51
651.12	403.99
651.46	402.45
651.80	401.05
652.14	399.53
652.49	398.18
652.83	396.73
653.17	395.19
653.51	393.61
653.85	392.40
654.20	391.11
654.54	389.50
654.88	388.05
655.22	386.59
655.56	385.05
655.90	383.51
656.25	381.91
656.59	380.39
656.93	379.03
657.27	377.59
657.61	376.14
657.95	374.95
658.29	373.49
658.64	372.22
658.98	370.64
659.32	369.08
659.66	367.63
660.00	366.09
660.34	364.73
660.68	363.44
661.02	361.92
661.36	360.43
661.70	359.04
662.05	357.67
662.39	356.41
662.73	355.28
663.07	354.33
663.41	353.14
663.75	351.90
664.09	350.60
664.43	349.30
664.77	348.08
665.11	346.69
665.45	345.62
665.79	344.32
666.13	343.13
666.47	342.02
666.81	340.70
667.15	339.58
667.49	338.48
667.83	337.42
668.17	336.31
668.51	335.18
668.85	334.22
669.19	333.31
669.53	332.05
669.87	330.90
670.21	329.55
670.55	328.55
670.89	327.76
671.23	326.87
671.57	325.80
671.91	324.77
672.25	323.89
672.58	322.94
672.92	321.93
673.26	320.93
673.60	320.03
673.94	319.21
674.28	318.22
674.62	317.29
674.96	316.31
675.30	315.47
675.64	314.60
675.97	313.64
676.31	312.68
676.65	311.85
676.99	311.16
677.33	310.30
677.67	309.49
678.01	308.36
678.34	307.42
678.68	306.64
679.02	305.78
679.36	304.84
679.70	303.94
680.04	303.05
680.37	302.23
680.71	301.22
681.05	300.39
681.39	299.58
681.73	298.74
682.06	297.90
682.40	297.04
682.74	296.28
683.08	295.56
683.42	294.75
683.75	293.98
684.09	292.98
684.43	292.27
684.77	291.40
685.10	290.60
685.44	289.79
685.78	289.01
686.12	288.29
686.45	287.52
686.79	286.74
687.13	286.09
687.46	285.36
687.80	284.73
688.14	284.00
688.48	283.34
688.81	282.65
689.15	282.00
689.49	281.22
689.82	280.50
690.16	279.65
690.50	278.89
690.83	278.26
691.17	277.57
691.51	276.79
691.84	276.15
692.18	275.56
692.52	275.00
692.85	274.34
693.19	273.86
693.52	273.20
693.86	272.54
694.20	271.95
694.53	271.33
694.87	270.75
695.21	270.05
695.54	269.44
695.88	268.78
696.21	268.12
696.55	267.64
696.88	267.05
697.22	266.53
697.56	266.09
697.89	265.45
698.23	264.94
698.56	264.41
698.90	263.85
699.23	263.25
699.57	262.59
699.90	262.08
700.24	261.35
700.58	260.87
700.91	260.39
701.25	260.12
701.58	259.72
701.92	259.26
702.25	258.84
702.59	258.35
702.92	257.93
703.26	257.40
703.59	256.88
703.93	256.72
704.26	256.31
704.60	255.79
704.93	255.30
705.26	254.70
705.60	254.32
705.93	253.88
706.27	253.47
706.60	253.19
706.94	252.87
707.27	252.41
707.61	251.96
707.94	251.49
708.27	250.78
708.61	250.21
708.94	249.80
709.28	249.40
709.61	248.88
709.94	248.53
710.28	248.25
710.61	247.92
710.95	247.14
711.28	246.93
711.61	246.54
711.95	246.23
712.28	245.91
712.61	245.53
712.95	245.36
713.28	245.27
713.61	244.85
713.95	244.40
714.28	244.16
714.61	243.78
714.95	243.45
715.28	243.12
715.61	242.77
715.95	242.40
716.28	241.98
716.61	241.78
716.95	241.38
717.28	241.01
717.61	240.65
717.94	240.39
718.28	239.86
718.61	239.53
718.94	239.15
719.27	238.91
719.61	238.68
719.94	238.29
720.27	237.78
720.60	237.49
720.94	237.18
721.27	236.94
721.60	236.79
721.93	236.49
722.27	236.35
722.60	236.17
722.93	235.90
723.26	235.75
723.59	235.40
723.93	235.17
724.26	234.99
724.59	234.72
724.92	234.57
725.25	234.43
725.59	234.20
725.92	234.09
726.25	233.84
726.58	233.60
726.91	233.34
727.24	233.19
727.57	232.99
727.91	232.79
728.24	232.57
728.57	232.27
728.90	232.20
729.23	231.83
729.56	231.78
729.89	231.61
730.22	231.39
730.55	231.18
730.89	230.98
731.22	230.73
731.55	230.54
731.88	230.32
732.21	230.06
732.54	229.88
732.87	229.66
733.20	229.49
733.53	229.29
733.86	229.09
734.19	228.82
734.52	228.67
734.85	228.62
735.18	228.35
735.51	228.28
735.84	228.03
736.17	228.02
736.50	227.64
736.83	227.81
737.16	227.72
737.49	227.60
737.82	227.44
738.15	227.32
738.48	227.09
738.81	226.90
739.14	226.69
739.47	226.55
739.80	226.42
740.13	226.29
740.46	226.09
740.79	225.91
741.12	225.79
741.45	225.63
741.78	225.39
742.11	225.38
742.44	225.16
742.77	225.07
743.10	224.83
743.43	224.72
743.75	224.21
744.08	224.41
744.41	224.22
744.74	224.00
745.07	223.81
745.40	223.84
745.73	223.86
746.06	223.77
746.39	223.65
746.71	223.45
747.04	223.29
747.37	223.23
747.70	223.30
748.03	223.18
748.36	223.08
748.68	222.95
749.01	222.79
749.34	222.71
749.67	222.57
750.00	222.51
750.33	222.65
750.65	222.67
750.98	222.20
751.31	222.15
751.64	222.12
751.97	222.21
752.29	222.15
752.62	221.87
752.95	221.70
753.28	221.51
753.60	221.42
753.93	221.40
754.26	221.31
754.59	221.02
754.91	220.91
755.24	220.74
755.57	220.65
755.90	220.56
756.22	220.54
756.55	220.41
756.88	220.32
757.20	220.01
757.53	219.74
757.86	219.61
758.19	219.56
758.51	219.49
758.84	219.24
759.17	219.08
759.49	218.97
759.82	219.13
760.15	219.17
760.47	219.09
760.80	218.90
761.13	218.83
761.45	218.73
761.78	218.66
762.11	218.62
762.43	218.50
762.76	218.36
763.08	218.21
763.41	218.17
763.74	218.13
764.06	218.06
764.39	218.09
764.71	218.01
765.04	217.92
765.37	217.81
765.69	217.75
766.02	217.65
766.34	217.56
766.67	217.36
767.00	217.32
767.32	217.47
767.65	217.65
767.97	217.54
768.30	217.50
768.62	217.48
768.95	217.46
769.27	217.42
769.60	217.45
769.92	217.32
770.25	217.17
770.57	217.04
770.90	216.91
771.22	216.79
771.55	216.78
771.87	216.73
772.20	216.78
772.52	216.99
772.85	217.36
773.17	217.43
773.50	217.36
773.82	217.31
774.15	217.08
774.47	216.83
774.80	216.81
775.12	216.76
775.45	216.70
775.77	216.62
776.09	216.60
776.42	216.48
776.74	216.54
777.07	216.54
777.39	216.45
777.72	216.42
778.04	216.43
778.36	216.31
778.69	216.25
779.01	216.11
779.33	215.81
779.66	215.44
779.98	215.29
780.31	215.24
780.63	215.31
780.95	215.35
781.28	215.29
781.60	215.22
781.92	215.21
782.25	215.10
782.57	215.06
782.89	214.96
783.22	214.94
783.54	214.77
783.86	214.80
784.19	214.79
784.51	214.92
784.83	214.89
785.16	214.87
785.48	214.90
785.80	214.88
786.12	214.85
786.45	214.78
786.77	214.80
787.09	214.76
787.42	214.60
787.74	214.54
788.06	214.49
788.38	214.39
788.71	214.32
789.03	214.33
789.35	214.37
789.67	214.41
789.99	214.39
790.32	214.36
790.64	214.34
790.96	214.56
791.28	214.36
791.61	214.28
791.93	214.24
792.25	214.15
792.57	214.41
792.89	214.35
793.21	214.25
793.54	214.14
793.86	214.03
794.18	214.03
