SpectraSuite Data File
++++++++++++++++++++++++++++++++++++
Date: Mon Feb 25 17:09:37 EST 2013
User: group
Dark Spectrum Present: No
Reference Spectrum Present: No
Number of Sampled Component Spectra: 1
Spectrometers: USB2E7196
Integration Time (usec): 104000 (USB2E7196)
Spectra Averaged: 20 (USB2E7196)
Boxcar Smoothing: 10 (USB2E7196)
Correct for Electrical Dark: No (USB2E7196)
Strobe/Lamp Enabled: No (USB2E7196)
Correct for Detector Non-linearity: No (USB2E7196)
Correct for Stray Light: No (USB2E7196)
Number of Pixels in Processed Spectrum: 2048
>>>>>Begin Processed Spectral Data<<<<<
339.09	0.00
339.48	198.20
339.86	199.20
340.24	202.75
340.63	201.85
341.01	209.30
341.39	207.10
341.78	206.65
342.16	208.05
342.54	208.05
342.93	198.16
343.31	208.19
343.69	208.82
344.07	209.32
344.46	209.74
344.84	210.15
345.22	210.21
345.60	210.40
345.99	210.57
346.37	210.71
346.75	210.80
347.13	210.82
347.52	210.88
347.90	211.02
348.28	211.04
348.66	211.05
349.05	210.92
349.43	210.96
349.81	210.93
350.19	210.91
350.57	211.02
350.96	211.11
351.34	211.16
351.72	211.20
352.10	211.27
352.48	211.29
352.87	211.37
353.25	211.45
353.63	211.46
354.01	211.46
354.39	211.51
354.77	211.62
355.15	211.85
355.54	211.89
355.92	211.80
356.30	211.86
356.68	212.20
357.06	212.32
357.44	212.33
357.82	212.46
358.20	212.57
358.58	212.57
358.97	212.65
359.35	212.76
359.73	212.80
360.11	212.91
360.49	212.95
360.87	213.00
361.25	213.05
361.63	213.25
362.01	213.36
362.39	213.36
362.77	213.42
363.15	213.39
363.53	213.38
363.91	213.46
364.29	213.43
364.67	213.16
365.05	213.23
365.43	213.34
365.81	213.37
366.19	213.54
366.57	213.68
366.95	213.67
367.33	213.63
367.71	213.67
368.09	213.68
368.47	213.69
368.85	213.67
369.23	213.72
369.61	213.57
369.99	213.69
370.37	213.80
370.75	213.88
371.13	213.86
371.51	213.83
371.89	213.84
372.27	213.85
372.65	213.84
373.03	213.79
373.41	213.66
373.78	213.59
374.16	213.42
374.54	213.30
374.92	213.22
375.30	213.17
375.68	213.07
376.06	213.05
376.44	212.98
376.82	212.89
377.19	212.83
377.57	212.80
377.95	212.65
378.33	212.49
378.71	212.25
379.09	212.27
379.47	212.30
379.84	212.17
380.22	212.15
380.60	211.95
380.98	211.86
381.36	211.80
381.73	211.69
382.11	211.70
382.49	211.61
382.87	211.51
383.25	211.43
383.62	211.75
384.00	211.62
384.38	211.54
384.76	211.63
385.13	211.73
385.51	211.62
385.89	211.48
386.27	211.53
386.64	211.62
387.02	211.49
387.40	211.40
387.78	211.47
388.15	211.45
388.53	211.38
388.91	211.35
389.29	211.29
389.66	211.28
390.04	211.21
390.42	211.23
390.79	211.25
391.17	211.24
391.55	210.88
391.92	210.86
392.30	210.87
392.68	210.69
393.05	210.59
393.43	210.64
393.81	210.76
394.18	210.72
394.56	210.70
394.94	210.75
395.31	210.68
395.69	210.72
396.06	210.68
396.44	210.83
396.82	210.83
397.19	211.09
397.57	211.11
397.95	211.16
398.32	211.06
398.70	211.01
399.07	211.12
399.45	211.14
399.82	211.12
400.20	211.11
400.58	211.17
400.95	211.08
401.33	211.18
401.70	211.37
402.08	211.35
402.45	211.39
402.83	211.51
403.20	211.58
403.58	211.52
403.95	211.67
404.33	211.71
404.71	211.80
405.08	211.96
405.46	212.05
405.83	212.13
406.21	212.21
406.58	212.43
406.96	212.44
407.33	212.49
407.70	212.66
408.08	213.06
408.45	213.21
408.83	213.43
409.20	213.54
409.58	213.51
409.95	213.71
410.33	213.89
410.70	213.93
411.08	214.16
411.45	214.45
411.82	214.65
412.20	214.96
412.57	215.43
412.95	215.48
413.32	215.84
413.69	216.09
414.07	216.51
414.44	216.93
414.82	217.45
415.19	217.98
415.56	218.46
415.94	218.86
416.31	219.53
416.68	220.13
417.06	220.79
417.43	221.57
417.81	222.38
418.18	223.18
418.55	224.05
418.93	225.00
419.30	226.00
419.67	226.98
420.04	227.99
420.42	228.98
420.79	230.41
421.16	231.65
421.54	233.18
421.91	234.47
422.28	235.78
422.66	237.20
423.03	238.92
423.40	240.40
423.77	241.95
424.15	243.47
424.52	245.16
424.89	247.15
425.26	248.84
425.64	250.52
426.01	252.27
426.38	254.20
426.75	256.25
427.13	258.25
427.50	260.36
427.87	262.60
428.24	264.71
428.61	266.58
428.99	269.04
429.36	271.32
429.73	273.83
430.10	276.36
430.47	279.00
430.85	281.48
431.22	284.35
431.59	287.57
431.96	290.43
432.33	293.60
432.70	296.56
433.08	300.12
433.45	303.52
433.82	306.96
434.19	310.72
434.56	314.35
434.93	317.86
435.30	321.36
435.68	325.31
436.05	329.17
436.42	333.01
436.79	336.47
437.16	340.35
437.53	344.27
437.90	348.29
438.27	352.23
438.64	356.19
439.01	359.87
439.38	362.93
439.75	366.16
440.13	369.80
440.50	373.36
440.87	376.19
441.24	379.04
441.61	382.40
441.98	384.88
442.35	387.71
442.72	390.47
443.09	393.48
443.46	395.05
443.83	396.36
444.20	397.40
444.57	398.80
444.94	399.49
445.31	400.43
445.68	401.45
446.05	401.80
446.42	401.57
446.79	401.22
447.16	400.83
447.53	400.66
447.90	399.36
448.27	397.84
448.64	395.95
449.01	394.65
449.37	392.05
449.74	389.57
450.11	386.97
450.48	383.87
450.85	380.37
451.22	377.58
451.59	374.78
451.96	372.31
452.33	368.83
452.70	365.77
453.07	361.91
453.43	357.70
453.80	353.95
454.17	350.48
454.54	347.19
454.91	343.73
455.28	340.22
455.65	336.89
456.02	334.09
456.38	331.30
456.75	327.90
457.12	325.04
457.49	322.22
457.86	319.11
458.23	316.77
458.59	314.12
458.96	311.55
459.33	309.24
459.70	306.90
460.07	305.17
460.43	303.01
460.80	301.12
461.17	299.51
461.54	297.67
461.91	295.81
462.27	294.09
462.64	292.54
463.01	290.93
463.38	289.51
463.74	287.44
464.11	286.00
464.48	284.71
464.85	283.28
465.21	282.23
465.58	281.10
465.95	279.67
466.32	278.64
466.68	277.51
467.05	276.43
467.42	275.29
467.78	274.06
468.15	273.00
468.52	272.22
468.88	271.07
469.25	270.12
469.62	269.47
469.98	268.62
470.35	267.86
470.72	267.09
471.08	266.05
471.45	265.52
471.82	264.88
472.18	264.15
472.55	263.65
472.92	262.97
473.28	262.36
473.65	261.82
474.02	261.29
474.38	260.83
474.75	260.43
475.11	260.00
475.48	259.70
475.85	259.39
476.21	259.02
476.58	258.83
476.94	258.60
477.31	258.33
477.67	258.18
478.04	257.98
478.41	257.84
478.77	258.18
479.14	257.95
479.50	257.95
479.87	257.93
480.23	258.00
480.60	258.05
480.96	258.04
481.33	258.27
481.69	258.35
482.06	258.51
482.42	258.70
482.79	258.85
483.15	259.00
483.52	259.28
483.88	259.38
484.25	259.57
484.61	259.93
484.98	260.14
485.34	260.50
485.71	260.90
486.07	261.24
486.44	261.37
486.80	261.84
487.17	262.25
487.53	262.99
487.90	263.58
488.26	264.31
488.62	265.15
488.99	265.80
489.35	266.56
489.72	267.27
490.08	268.04
490.44	268.97
490.81	269.98
491.17	270.89
491.54	271.98
491.90	273.15
492.26	274.22
492.63	275.42
492.99	276.55
493.36	277.78
493.72	279.25
494.08	280.55
494.45	282.01
494.81	283.61
495.17	284.99
495.54	286.67
495.90	288.21
496.26	289.90
496.63	291.73
496.99	293.61
497.35	295.56
497.72	297.59
498.08	299.59
498.44	301.61
498.80	303.85
499.17	306.16
499.53	308.29
499.89	310.72
500.26	313.23
500.62	315.79
500.98	318.39
501.34	320.89
501.71	323.72
502.07	326.53
502.43	329.28
502.79	332.16
503.16	335.10
503.52	338.12
503.88	341.09
504.24	344.22
504.60	347.44
504.97	350.83
505.33	354.14
505.69	357.80
506.05	361.34
506.41	364.88
506.78	368.43
507.14	372.21
507.50	376.00
507.86	379.80
508.22	383.71
508.59	387.61
508.95	391.68
509.31	395.83
509.67	399.89
510.03	404.20
510.39	408.56
510.75	412.95
511.12	417.37
511.48	422.05
511.84	426.48
512.20	431.16
512.56	435.79
512.92	440.57
513.28	445.30
513.64	450.10
514.00	455.10
514.37	460.12
514.73	465.27
515.09	470.39
515.45	475.47
515.81	480.44
516.17	485.65
516.53	490.85
516.89	496.14
517.25	501.55
517.61	506.90
517.97	512.22
518.33	517.42
518.69	522.95
519.05	528.37
519.41	534.15
519.77	540.00
520.13	545.49
520.49	551.01
520.85	556.47
521.21	562.22
521.57	567.91
521.93	573.50
522.29	579.28
522.65	584.96
523.01	590.85
523.37	596.67
523.73	602.53
524.09	608.36
524.45	614.11
524.81	620.04
525.17	625.93
525.53	632.01
525.89	638.23
526.25	644.25
526.61	650.07
526.97	655.82
527.33	661.48
527.68	667.90
528.04	673.81
528.40	679.64
528.76	685.47
529.12	691.43
529.48	697.70
529.84	703.43
530.20	709.40
530.56	715.43
530.91	721.61
531.27	727.80
531.63	733.70
531.99	739.80
532.35	745.57
532.71	751.44
533.07	757.43
533.42	763.49
533.78	769.29
534.14	775.16
534.50	780.60
534.86	786.36
535.21	791.49
535.57	797.23
535.93	802.88
536.29	808.59
536.65	814.03
537.00	819.11
537.36	824.60
537.72	829.86
538.08	834.99
538.44	839.90
538.79	844.84
539.15	849.85
539.51	854.61
539.87	859.80
540.22	864.80
540.58	869.64
540.94	874.04
541.29	878.52
541.65	882.92
542.01	887.63
542.37	891.93
542.72	896.55
543.08	900.73
543.44	905.37
543.79	909.35
544.15	913.33
544.51	917.57
544.87	921.57
545.22	925.32
545.58	928.90
545.94	932.45
546.29	935.68
546.65	939.24
547.01	942.52
547.36	945.60
547.72	948.60
548.07	951.39
548.43	954.22
548.79	957.00
549.14	959.69
549.50	962.32
549.86	964.71
550.21	966.85
550.57	969.37
550.92	971.12
551.28	973.17
551.64	975.10
551.99	977.10
552.35	978.76
552.70	980.75
553.06	982.69
553.41	984.66
553.77	986.69
554.13	988.18
554.48	990.05
554.84	991.80
555.19	993.15
555.55	994.65
555.90	996.02
556.26	997.21
556.61	998.19
556.97	999.00
557.32	1000.01
557.68	1000.79
558.03	1001.62
558.39	1002.47
558.74	1003.85
559.10	1004.96
559.45	1005.76
559.81	1006.73
560.16	1007.16
560.52	1007.68
560.87	1008.05
561.23	1008.48
561.58	1009.32
561.94	1009.43
562.29	1009.19
562.64	1009.59
563.00	1009.76
563.35	1010.14
563.71	1010.69
564.06	1011.29
564.42	1011.82
564.77	1012.50
565.12	1013.07
565.48	1013.41
565.83	1013.83
566.19	1013.70
566.54	1013.41
566.89	1013.02
567.25	1013.03
567.60	1013.09
567.96	1012.99
568.31	1013.11
568.66	1012.67
569.02	1011.86
569.37	1011.19
569.72	1010.93
570.08	1010.15
570.43	1009.40
570.78	1008.12
571.14	1006.93
571.49	1005.70
571.84	1004.90
572.20	1003.25
572.55	1002.11
572.90	1000.71
573.26	998.94
573.61	997.21
573.96	995.55
574.31	993.95
574.67	991.90
575.02	989.76
575.37	987.78
575.72	985.52
576.08	983.80
576.43	981.67
576.78	979.83
577.13	978.17
577.49	976.39
577.84	974.59
578.19	973.17
578.54	971.62
578.90	970.10
579.25	968.06
579.60	966.15
579.95	963.86
580.30	961.84
580.66	960.35
581.01	958.38
581.36	956.40
581.71	954.41
582.06	952.72
582.42	951.11
582.77	949.06
583.12	947.18
583.47	945.41
583.82	943.89
584.17	942.26
584.53	940.60
584.88	938.53
585.23	936.69
585.58	934.60
585.93	932.43
586.28	930.64
586.63	928.61
586.98	926.75
587.34	925.17
587.69	923.16
588.04	921.18
588.39	919.34
588.74	917.30
589.09	915.64
589.44	913.39
589.79	911.51
590.14	909.63
590.49	907.51
590.84	905.18
591.19	903.34
591.54	900.99
591.89	898.14
592.25	896.25
592.60	893.73
592.95	891.41
593.30	888.99
593.65	886.20
594.00	883.81
594.35	882.67
594.70	880.28
595.05	878.10
595.40	875.51
595.75	872.97
596.10	870.86
596.45	868.56
596.80	866.75
597.15	864.47
597.50	862.11
597.85	860.12
598.19	857.95
598.54	855.67
598.89	853.63
599.24	851.98
599.59	849.72
599.94	847.96
600.29	845.82
600.64	843.77
600.99	841.61
601.34	839.73
601.69	836.55
602.04	834.17
602.39	831.98
602.74	830.07
603.08	828.47
603.43	826.84
603.78	824.73
604.13	822.36
604.48	820.21
604.83	818.45
605.18	816.80
605.53	814.71
605.87	812.35
606.22	810.37
606.57	808.08
606.92	805.96
607.27	803.61
607.62	801.47
607.96	799.54
608.31	797.75
608.66	795.44
609.01	793.08
609.36	791.02
609.70	788.75
610.05	786.25
610.40	783.81
610.75	781.00
611.10	778.94
611.44	776.14
611.79	773.55
612.14	770.87
612.49	767.74
612.83	765.19
613.18	762.48
613.53	759.70
613.88	756.73
614.22	753.99
614.57	751.15
614.92	748.39
615.27	745.40
615.61	742.37
615.96	739.76
616.31	737.18
616.65	734.65
617.00	731.90
617.35	729.15
617.70	726.08
618.04	723.15
618.39	719.74
618.74	717.15
619.08	714.17
619.43	711.35
619.78	708.59
620.12	705.62
620.47	702.87
620.82	699.71
621.16	696.91
621.51	694.07
621.85	691.25
622.20	688.40
622.55	685.55
622.89	682.67
623.24	679.66
623.59	676.57
623.93	673.59
624.28	670.86
624.62	668.35
624.97	665.80
625.32	663.11
625.66	660.49
626.01	657.79
626.35	655.27
626.70	652.55
627.04	650.15
627.39	647.65
627.73	645.15
628.08	642.80
628.43	640.15
628.77	637.27
629.12	634.51
629.46	631.98
629.81	629.45
630.15	626.90
630.50	624.18
630.84	621.62
631.19	618.92
631.53	616.19
631.88	613.14
632.22	610.16
632.57	607.66
632.91	605.16
633.26	602.47
633.60	599.84
633.95	597.18
634.29	594.25
634.64	591.68
634.98	588.85
635.32	586.36
635.67	583.97
636.01	581.70
636.36	579.22
636.70	576.76
637.05	574.22
637.39	571.72
637.73	569.57
638.08	567.48
638.42	565.26
638.77	562.99
639.11	560.77
639.45	558.48
639.80	556.05
640.14	553.44
640.49	551.11
640.83	548.59
641.17	546.27
641.52	543.97
641.86	541.41
642.20	539.20
642.55	536.65
642.89	534.16
643.23	531.65
643.58	529.44
643.92	526.96
644.26	524.63
644.61	522.27
644.95	519.80
645.29	517.25
645.64	514.81
645.98	512.30
646.32	510.02
646.66	507.70
647.01	505.34
647.35	503.32
647.69	501.01
648.04	498.72
648.38	496.35
648.72	493.96
649.06	491.61
649.41	489.32
649.75	487.01
650.09	484.71
650.43	482.50
650.78	480.08
651.12	477.68
651.46	475.42
651.80	473.24
652.14	470.92
652.49	468.74
652.83	466.42
653.17	464.05
653.51	461.68
653.85	459.52
654.20	457.36
654.54	454.90
654.88	452.55
655.22	450.45
655.56	448.34
655.90	446.06
656.25	443.88
656.59	441.60
656.93	439.52
657.27	437.45
657.61	435.19
657.95	433.08
658.29	431.12
658.64	429.07
658.98	426.86
659.32	424.73
659.66	422.60
660.00	420.44
660.34	418.53
660.68	416.50
661.02	414.37
661.36	412.27
661.70	410.40
662.05	408.51
662.39	406.71
662.73	404.84
663.07	403.22
663.41	401.45
663.75	399.55
664.09	397.64
664.43	395.77
664.77	394.02
665.11	392.24
665.45	390.56
665.79	388.75
666.13	387.10
666.47	385.43
666.81	383.78
667.15	382.21
667.49	380.71
667.83	379.20
668.17	377.71
668.51	376.33
668.85	374.77
669.19	373.53
669.53	371.81
669.87	370.32
670.21	368.68
670.55	367.23
670.89	366.10
671.23	364.79
671.57	363.38
671.91	361.97
672.25	360.66
672.58	359.36
672.92	357.94
673.26	356.71
673.60	355.40
673.94	353.95
674.28	352.66
674.62	351.37
674.96	350.05
675.30	348.75
675.64	347.33
675.97	346.01
676.31	344.51
676.65	343.44
676.99	342.36
677.33	341.19
677.67	339.99
678.01	338.47
678.34	337.25
678.68	336.21
679.02	334.92
679.36	333.60
679.70	332.27
680.04	331.15
680.37	330.02
680.71	328.78
681.05	327.78
681.39	326.55
681.73	325.34
682.06	324.13
682.40	323.10
682.74	322.06
683.08	321.09
683.42	319.94
683.75	318.79
684.09	317.57
684.43	316.45
684.77	315.37
685.10	314.40
685.44	313.21
685.78	311.97
686.12	311.03
686.45	310.17
686.79	309.17
687.13	308.27
687.46	307.10
687.80	306.16
688.14	305.06
688.48	304.11
688.81	303.16
689.15	302.32
689.49	301.21
689.82	300.20
690.16	299.08
690.50	298.13
690.83	297.12
691.17	296.02
691.51	295.09
691.84	294.11
692.18	293.31
692.52	292.50
692.85	291.78
693.19	290.97
693.52	290.06
693.86	289.19
694.20	288.27
694.53	287.50
694.87	286.72
695.21	285.84
695.54	285.00
695.88	284.04
696.21	283.14
696.55	282.41
696.88	281.62
697.22	280.88
697.56	280.26
697.89	279.44
698.23	278.76
698.56	277.99
698.90	277.30
699.23	276.45
699.57	275.71
699.90	274.80
700.24	274.07
700.58	273.35
700.91	272.70
701.25	272.27
701.58	271.65
701.92	271.01
702.25	270.40
702.59	269.75
702.92	269.16
703.26	268.52
703.59	267.90
703.93	267.59
704.26	266.98
704.60	266.31
704.93	265.80
705.26	265.11
705.60	264.61
705.93	263.93
706.27	263.38
706.60	262.93
706.94	262.63
707.27	262.01
707.61	261.43
707.94	260.80
708.27	259.96
708.61	259.32
708.94	258.73
709.28	258.23
709.61	257.68
709.94	257.24
710.28	256.76
710.61	256.28
710.95	255.49
711.28	255.26
711.61	254.74
711.95	254.31
712.28	253.87
712.61	253.43
712.95	253.20
713.28	252.91
713.61	252.41
713.95	251.79
714.28	251.39
714.61	250.96
714.95	250.55
715.28	250.09
715.61	249.65
715.95	249.16
716.28	248.69
716.61	248.30
716.95	247.86
717.28	247.46
717.61	247.00
717.94	246.60
718.28	245.96
718.61	245.58
718.94	245.20
719.27	244.80
719.61	244.50
719.94	244.03
720.27	243.50
720.60	243.00
720.94	242.66
721.27	242.30
721.60	241.96
721.93	241.70
722.27	241.57
722.60	241.31
722.93	241.06
723.26	240.79
723.59	240.50
723.93	240.20
724.26	239.93
724.59	239.69
724.92	239.50
725.25	239.34
725.59	239.06
725.92	238.82
726.25	238.57
726.58	238.18
726.91	237.88
727.24	237.65
727.57	237.48
727.91	237.26
728.24	237.11
728.57	236.82
728.90	236.57
729.23	236.19
729.56	236.12
729.89	235.85
730.22	235.60
730.55	235.38
730.89	235.18
731.22	234.92
731.55	234.65
731.88	234.30
732.21	233.94
732.54	233.71
732.87	233.40
733.20	233.14
733.53	232.96
733.86	232.81
734.19	232.58
734.52	232.46
734.85	232.43
735.18	232.16
735.51	232.06
735.84	231.84
736.17	231.81
736.50	231.40
736.83	231.67
737.16	231.42
737.49	231.17
737.82	230.84
738.15	230.68
738.48	230.54
738.81	230.42
739.14	230.21
739.47	229.99
739.80	229.88
740.13	229.82
740.46	229.57
740.79	229.34
741.12	229.09
741.45	228.85
741.78	228.45
742.11	228.29
742.44	228.01
742.77	227.88
743.10	227.59
743.43	227.46
743.75	226.95
744.08	227.33
744.41	227.13
744.74	227.07
745.07	226.88
745.40	226.73
745.73	226.70
746.06	226.62
746.39	226.55
746.71	226.31
747.04	226.07
747.37	225.92
747.70	225.74
748.03	225.67
748.36	225.53
748.68	225.42
749.01	225.18
749.34	224.99
749.67	224.82
750.00	224.76
750.33	224.80
750.65	224.55
750.98	223.93
751.31	223.80
751.64	223.65
751.97	223.72
752.29	223.52
752.62	223.24
752.95	223.04
753.28	222.82
753.60	222.71
753.93	222.62
754.26	222.51
754.59	222.36
754.91	222.17
755.24	221.95
755.57	221.80
755.90	221.67
756.22	221.62
756.55	221.48
756.88	221.29
757.20	220.95
757.53	220.79
757.86	220.72
758.19	220.58
758.51	220.50
758.84	220.10
759.17	220.03
759.49	219.94
759.82	220.02
760.15	219.92
760.47	219.74
760.80	219.56
761.13	219.50
761.45	219.38
761.78	219.28
762.11	219.30
762.43	219.18
762.76	219.12
763.08	219.04
763.41	218.96
763.74	218.81
764.06	218.71
764.39	218.69
764.71	218.62
765.04	218.54
765.37	218.42
765.69	218.40
766.02	218.30
766.34	218.11
766.67	217.97
767.00	218.03
767.32	218.20
767.65	218.36
767.97	218.30
768.30	218.25
768.62	218.20
768.95	218.06
769.27	218.00
769.60	217.99
769.92	217.91
770.25	217.83
770.57	217.78
770.90	217.73
771.22	217.57
771.55	217.50
771.87	217.47
772.20	217.38
772.52	217.60
772.85	217.87
773.17	217.90
773.50	217.79
773.82	217.65
774.15	217.35
774.47	217.06
774.80	216.92
775.12	216.83
775.45	216.79
775.77	216.82
776.09	216.82
776.42	216.77
776.74	216.75
777.07	216.62
777.39	216.60
777.72	216.48
778.04	216.57
778.36	216.49
778.69	216.52
779.01	216.52
779.33	216.20
779.66	215.88
779.98	215.84
780.31	215.75
780.63	215.79
780.95	215.81
781.28	215.77
781.60	215.72
781.92	215.70
782.25	215.66
782.57	215.58
782.89	215.54
783.22	215.47
783.54	215.38
783.86	215.36
784.19	215.25
784.51	215.33
784.83	215.23
785.16	215.19
785.48	215.12
785.80	215.14
786.12	215.17
786.45	215.07
786.77	215.03
787.09	214.97
787.42	214.91
787.74	214.89
788.06	214.90
788.38	214.91
788.71	214.80
789.03	214.74
789.35	214.80
789.67	214.64
789.99	214.63
790.32	214.59
790.64	214.65
790.96	214.89
791.28	214.72
791.61	214.62
791.93	214.56
792.25	214.50
792.57	214.70
792.89	214.49
793.21	214.49
