SpectraSuite Data File
++++++++++++++++++++++++++++++++++++
Date: Mon Feb 25 16:55:58 EST 2013
User: group
Dark Spectrum Present: No
Reference Spectrum Present: No
Number of Sampled Component Spectra: 1
Spectrometers: USB2E7196
Integration Time (usec): 104000 (USB2E7196)
Spectra Averaged: 20 (USB2E7196)
Boxcar Smoothing: 10 (USB2E7196)
Correct for Electrical Dark: No (USB2E7196)
Strobe/Lamp Enabled: No (USB2E7196)
Correct for Detector Non-linearity: No (USB2E7196)
Correct for Stray Light: No (USB2E7196)
Number of Pixels in Processed Spectrum: 2048
>>>>>Begin Processed Spectral Data<<<<<
339.09	0.00
339.48	199.35
339.86	199.00
340.24	202.25
340.63	202.35
341.01	209.95
341.39	206.50
341.78	207.25
342.16	210.20
342.54	207.90
342.93	198.43
343.31	208.45
343.69	208.98
344.07	209.58
344.46	210.01
344.84	210.44
345.22	210.48
345.60	210.73
345.99	210.87
346.37	210.95
346.75	211.14
347.13	211.24
347.52	211.44
347.90	211.64
348.28	211.70
348.66	211.83
349.05	211.78
349.43	211.88
349.81	211.90
350.19	211.98
350.57	212.00
350.96	212.09
351.34	212.18
351.72	212.23
352.10	212.24
352.48	212.29
352.87	212.36
353.25	212.46
353.63	212.51
354.01	212.63
354.39	212.72
354.77	212.84
355.15	212.96
355.54	212.96
355.92	212.92
356.30	213.05
356.68	213.30
357.06	213.36
357.44	213.34
357.82	213.47
358.20	213.56
358.58	213.61
358.97	213.65
359.35	213.74
359.73	213.89
360.11	214.00
360.49	214.10
360.87	214.10
361.25	214.13
361.63	214.26
362.01	214.32
362.39	214.26
362.77	214.25
363.15	214.31
363.53	214.27
363.91	214.25
364.29	214.22
364.67	213.99
365.05	214.03
365.43	214.14
365.81	214.15
366.19	214.29
366.57	214.49
366.95	214.49
367.33	214.46
367.71	214.44
368.09	214.45
368.47	214.43
368.85	214.43
369.23	214.55
369.61	214.45
369.99	214.51
370.37	214.58
370.75	214.69
371.13	214.54
371.51	214.59
371.89	214.62
372.27	214.65
372.65	214.65
373.03	214.61
373.41	214.54
373.78	214.51
374.16	214.30
374.54	214.08
374.92	214.00
375.30	214.02
375.68	213.96
376.06	213.95
376.44	213.86
376.82	213.86
377.19	213.80
377.57	213.75
377.95	213.65
378.33	213.57
378.71	213.37
379.09	213.43
379.47	213.40
379.84	213.33
380.22	213.27
380.60	213.11
380.98	213.07
381.36	213.00
381.73	212.85
382.11	212.93
382.49	212.96
382.87	212.87
383.25	212.74
383.62	213.06
384.00	212.90
384.38	212.89
384.76	212.95
385.13	212.98
385.51	212.86
385.89	212.76
386.27	212.76
386.64	212.73
387.02	212.64
387.40	212.48
387.78	212.48
388.15	212.44
388.53	212.45
388.91	212.37
389.29	212.28
389.66	212.30
390.04	212.17
390.42	212.22
390.79	212.19
391.17	212.20
391.55	211.81
391.92	211.83
392.30	211.90
392.68	211.78
393.05	211.79
393.43	211.97
393.81	212.00
394.18	211.99
394.56	212.08
394.94	212.17
395.31	212.29
395.69	212.43
396.06	212.50
396.44	212.60
396.82	212.66
397.19	212.92
397.57	213.01
397.95	213.23
398.32	213.10
398.70	213.24
399.07	213.33
399.45	213.40
399.82	213.50
400.20	213.49
400.58	213.59
400.95	213.55
401.33	213.68
401.70	214.04
402.08	214.23
402.45	214.40
402.83	214.65
403.20	214.75
403.58	214.87
403.95	215.09
404.33	215.29
404.71	215.56
405.08	216.04
405.46	216.34
405.83	216.58
406.21	216.96
406.58	217.31
406.96	217.77
407.33	218.28
407.70	218.83
408.08	219.67
408.45	220.28
408.83	221.00
409.20	221.54
409.58	221.98
409.95	222.78
410.33	223.49
410.70	224.18
411.08	225.17
411.45	226.18
411.82	227.16
412.20	228.34
412.57	229.84
412.95	230.83
413.32	232.27
413.69	233.75
414.07	235.36
414.44	237.10
414.82	238.87
415.19	240.91
415.56	242.92
415.94	245.01
416.31	247.49
416.68	249.87
417.06	252.80
417.43	255.60
417.81	258.65
418.18	261.89
418.55	265.30
418.93	268.87
419.30	272.74
419.67	276.77
420.04	280.90
420.42	285.11
420.79	290.19
421.16	295.36
421.54	300.56
421.91	305.91
422.28	311.59
422.66	317.76
423.03	323.76
423.40	330.06
423.77	336.73
424.15	343.56
424.52	350.76
424.89	358.39
425.26	365.90
425.64	373.14
426.01	381.03
426.38	389.27
426.75	397.76
427.13	406.35
427.50	415.58
427.87	425.20
428.24	434.75
428.61	443.91
428.99	453.81
429.36	464.91
429.73	475.76
430.10	486.59
430.47	497.60
430.85	509.12
431.22	521.23
431.59	534.06
431.96	546.43
432.33	560.11
432.70	573.52
433.08	589.41
433.45	604.39
433.82	619.25
434.19	635.95
434.56	652.31
434.93	668.10
435.30	683.88
435.68	701.48
436.05	718.96
436.42	736.45
436.79	752.55
437.16	769.80
437.53	788.09
437.90	806.24
438.27	824.15
438.64	843.10
439.01	860.60
439.38	876.62
439.75	891.97
440.13	909.45
440.50	925.91
440.87	939.73
441.24	953.92
441.61	969.65
441.98	981.68
442.35	995.46
442.72	1009.44
443.09	1022.91
443.46	1031.58
443.83	1037.72
444.20	1043.06
444.57	1050.62
444.94	1054.86
445.31	1059.60
445.68	1063.66
446.05	1066.21
446.42	1065.69
446.79	1064.87
447.16	1063.80
447.53	1063.39
447.90	1058.23
448.27	1053.02
448.64	1044.71
449.01	1039.27
449.37	1028.55
449.74	1018.27
450.11	1005.57
450.48	991.58
450.85	977.43
451.22	965.27
451.59	953.95
451.96	943.15
452.33	928.12
452.70	914.58
453.07	897.85
453.43	881.39
453.80	865.33
454.17	849.60
454.54	835.06
454.91	819.11
455.28	803.76
455.65	789.40
456.02	774.73
456.38	762.57
456.75	746.99
457.12	734.20
457.49	721.29
457.86	708.90
458.23	698.24
458.59	686.55
458.96	674.79
459.33	664.17
459.70	653.71
460.07	645.35
460.43	635.78
460.80	626.78
461.17	618.75
461.54	610.59
461.91	602.82
462.27	594.81
462.64	588.09
463.01	580.46
463.38	573.01
463.74	565.84
464.11	559.42
464.48	554.00
464.85	547.94
465.21	543.39
465.58	538.43
465.95	532.50
466.32	527.38
466.68	522.38
467.05	517.47
467.42	512.48
467.78	507.25
468.15	502.29
468.52	498.67
468.88	494.04
469.25	489.73
469.62	486.29
469.98	482.54
470.35	479.07
470.72	475.79
471.08	472.19
471.45	469.22
471.82	466.20
472.18	462.88
472.55	460.38
472.92	457.39
473.28	454.95
473.65	452.57
474.02	450.27
474.38	448.34
474.75	446.86
475.11	445.03
475.48	443.68
475.85	442.46
476.21	441.09
476.58	440.02
476.94	439.21
477.31	438.35
477.67	437.56
478.04	436.77
478.41	436.41
478.77	436.48
479.14	436.04
479.50	435.79
479.87	435.82
480.23	435.93
480.60	435.97
480.96	436.08
481.33	436.76
481.69	437.28
482.06	437.62
482.42	437.89
482.79	438.55
483.15	439.52
483.52	440.65
483.88	441.77
484.25	442.80
484.61	444.10
484.98	445.40
485.34	447.05
485.71	448.92
486.07	450.73
486.44	452.44
486.80	454.54
487.17	457.01
487.53	459.58
487.90	462.38
488.26	465.46
488.62	468.59
488.99	471.58
489.35	474.78
489.72	478.40
490.08	482.17
490.44	485.91
490.81	489.89
491.17	493.89
491.54	498.18
491.90	502.74
492.26	507.55
492.63	512.37
492.99	517.31
493.36	522.63
493.72	528.15
494.08	533.69
494.45	539.70
494.81	545.64
495.17	551.76
495.54	558.15
495.90	564.65
496.26	571.11
496.63	577.89
496.99	584.97
497.35	592.24
497.72	599.55
498.08	607.00
498.44	614.60
498.80	622.77
499.17	631.04
499.53	639.28
499.89	647.82
500.26	656.40
500.62	664.85
500.98	673.47
501.34	682.17
501.71	691.22
502.07	700.10
502.43	709.13
502.79	718.19
503.16	727.52
503.52	736.83
503.88	746.40
504.24	756.11
504.60	765.85
504.97	775.58
505.33	785.14
505.69	795.63
506.05	805.65
506.41	815.41
506.78	825.04
507.14	834.85
507.50	844.63
507.86	854.45
508.22	864.65
508.59	874.53
508.95	884.50
509.31	894.51
509.67	904.43
510.03	914.48
510.39	924.78
510.75	934.60
511.12	944.60
511.48	954.35
511.84	963.91
512.20	973.36
512.56	983.07
512.92	993.00
513.28	1002.33
513.64	1011.73
514.00	1021.15
514.37	1030.58
514.73	1040.15
515.09	1049.19
515.45	1058.37
515.81	1067.24
516.17	1075.93
516.53	1084.69
516.89	1092.91
517.25	1101.19
517.61	1109.21
517.97	1117.00
518.33	1124.80
518.69	1132.49
519.05	1140.42
519.41	1148.11
519.77	1156.08
520.13	1163.43
520.49	1170.42
520.85	1177.35
521.21	1184.37
521.57	1191.27
521.93	1197.39
522.29	1203.80
522.65	1210.55
523.01	1216.72
523.37	1222.50
523.73	1228.93
524.09	1234.63
524.45	1240.84
524.81	1246.93
525.17	1253.03
525.53	1258.89
525.89	1264.69
526.25	1270.23
526.61	1275.00
526.97	1280.05
527.33	1284.71
527.68	1289.78
528.04	1294.48
528.40	1299.09
528.76	1303.21
529.12	1307.93
529.48	1313.31
529.84	1317.76
530.20	1321.66
530.56	1326.02
530.91	1330.77
531.27	1335.06
531.63	1339.26
531.99	1343.27
532.35	1346.98
532.71	1350.62
533.07	1354.64
533.42	1358.09
533.78	1361.58
534.14	1365.59
534.50	1368.84
534.86	1372.68
535.21	1375.62
535.57	1379.37
535.93	1382.48
536.29	1385.83
536.65	1388.61
537.00	1390.98
537.36	1393.39
537.72	1395.88
538.08	1398.31
538.44	1400.67
538.79	1402.88
539.15	1405.48
539.51	1407.74
539.87	1410.40
540.22	1412.62
540.58	1415.20
540.94	1417.82
541.29	1419.80
541.65	1421.08
542.01	1423.06
542.37	1424.49
542.72	1426.16
543.08	1427.51
543.44	1429.20
543.79	1430.50
544.15	1431.80
544.51	1433.81
544.87	1435.62
545.22	1437.30
545.58	1438.43
545.94	1439.25
546.29	1439.78
546.65	1439.75
547.01	1440.28
547.36	1440.51
547.72	1441.15
548.07	1440.86
548.43	1440.21
548.79	1439.99
549.14	1440.19
549.50	1440.18
549.86	1439.98
550.21	1439.90
550.57	1440.18
550.92	1439.68
551.28	1439.41
551.64	1439.00
551.99	1438.48
552.35	1437.81
552.70	1436.95
553.06	1436.79
553.41	1436.56
553.77	1436.59
554.13	1436.93
554.48	1436.97
554.84	1437.28
555.19	1436.86
555.55	1436.56
555.90	1436.22
556.26	1435.83
556.61	1435.26
556.97	1434.34
557.32	1433.88
557.68	1432.79
558.03	1431.53
558.39	1430.44
558.74	1429.99
559.10	1429.10
559.45	1428.01
559.81	1427.43
560.16	1426.31
560.52	1425.23
560.87	1424.39
561.23	1423.02
561.58	1422.08
561.94	1420.46
562.29	1418.30
562.64	1417.18
563.00	1415.92
563.35	1415.01
563.71	1414.35
564.06	1413.68
564.42	1413.12
564.77	1412.47
565.12	1412.24
565.48	1411.83
565.83	1411.11
566.19	1410.50
566.54	1409.53
566.89	1408.47
567.25	1407.53
567.60	1407.03
567.96	1406.31
568.31	1405.59
568.66	1404.47
569.02	1402.78
569.37	1401.15
569.72	1400.11
570.08	1398.39
570.43	1396.69
570.78	1394.96
571.14	1392.76
571.49	1390.68
571.84	1388.79
572.20	1386.10
572.55	1383.90
572.90	1380.83
573.26	1378.17
573.61	1375.18
573.96	1372.67
574.31	1369.47
574.67	1366.19
575.02	1362.53
575.37	1358.90
575.72	1355.04
576.08	1352.02
576.43	1348.56
576.78	1345.53
577.13	1342.01
577.49	1338.78
577.84	1335.43
578.19	1332.28
578.54	1329.61
578.90	1326.76
579.25	1323.18
579.60	1319.62
579.95	1315.27
580.30	1311.96
580.66	1308.99
581.01	1305.24
581.36	1301.17
581.71	1297.56
582.06	1294.17
582.42	1290.76
582.77	1286.81
583.12	1282.71
583.47	1278.90
583.82	1275.11
584.17	1271.18
584.53	1267.66
584.88	1263.55
585.23	1259.76
585.58	1255.49
585.93	1250.89
586.28	1246.49
586.63	1242.71
586.98	1238.99
587.34	1235.77
587.69	1231.72
588.04	1227.69
588.39	1223.92
588.74	1219.82
589.09	1216.27
589.44	1211.60
589.79	1207.83
590.14	1204.14
590.49	1200.25
590.84	1195.83
591.19	1192.53
591.54	1188.52
591.89	1183.91
592.25	1180.13
592.60	1175.49
592.95	1171.21
593.30	1166.55
593.65	1161.78
594.00	1157.04
594.35	1153.51
594.70	1148.78
595.05	1144.67
595.40	1140.15
595.75	1135.41
596.10	1131.27
596.45	1126.75
596.80	1123.13
597.15	1118.78
597.50	1114.15
597.85	1110.08
598.19	1105.87
598.54	1101.18
598.89	1097.13
599.24	1093.62
599.59	1089.26
599.94	1085.33
600.29	1081.18
600.64	1077.05
600.99	1073.01
601.34	1068.95
601.69	1063.93
602.04	1059.44
602.39	1054.96
602.74	1050.89
603.08	1047.07
603.43	1043.49
603.78	1039.12
604.13	1034.52
604.48	1030.39
604.83	1026.82
605.18	1022.89
605.53	1018.68
605.87	1014.28
606.22	1010.06
606.57	1005.05
606.92	1000.41
607.27	995.80
607.62	991.57
607.96	987.58
608.31	983.56
608.66	979.28
609.01	974.66
609.36	970.27
609.70	965.68
610.05	960.82
610.40	955.94
610.75	950.83
611.10	946.69
611.44	941.82
611.79	936.99
612.14	931.95
612.49	926.81
612.83	922.14
613.18	917.34
613.53	912.34
613.88	907.62
614.22	903.15
614.57	898.48
614.92	893.57
615.27	888.75
615.61	884.01
615.96	879.47
616.31	875.16
616.65	871.21
617.00	866.80
617.35	862.50
617.70	858.31
618.04	853.78
618.39	848.64
618.74	844.15
619.08	839.40
619.43	835.04
619.78	831.03
620.12	826.88
620.47	822.70
620.82	818.22
621.16	813.58
621.51	809.21
621.85	804.99
622.20	800.81
622.55	796.37
622.89	791.87
623.24	787.34
623.59	782.71
623.93	778.01
624.28	773.86
624.62	769.87
624.97	765.55
625.32	761.33
625.66	757.48
626.01	753.52
626.35	749.71
626.70	745.58
627.04	741.59
627.39	737.59
627.73	733.81
628.08	730.19
628.43	726.63
628.77	722.59
629.12	718.46
629.46	714.75
629.81	711.23
630.15	707.49
630.50	703.70
630.84	700.13
631.19	696.68
631.53	693.01
631.88	688.88
632.22	684.98
632.57	681.66
632.91	678.17
633.26	674.59
633.60	671.08
633.95	667.51
634.29	663.67
634.64	660.18
634.98	656.30
635.32	652.86
635.67	649.66
636.01	646.51
636.36	643.30
636.70	640.05
637.05	636.74
637.39	633.61
637.73	630.65
638.08	627.75
638.42	624.74
638.77	621.68
639.11	618.57
639.45	615.82
639.80	612.38
640.14	609.14
640.49	605.94
640.83	602.73
641.17	599.81
641.52	596.86
641.86	593.67
642.20	590.91
642.55	587.40
642.89	584.15
643.23	580.88
643.58	578.17
643.92	575.04
644.26	571.93
644.61	569.05
644.95	565.76
645.29	562.55
645.64	559.45
645.98	556.41
646.32	553.60
646.66	550.42
647.01	547.69
647.35	544.92
647.69	542.01
648.04	539.22
648.38	536.26
648.72	533.39
649.06	530.48
649.41	527.62
649.75	524.99
650.09	522.27
650.43	519.45
650.78	516.35
651.12	513.47
651.46	510.79
651.80	508.10
652.14	505.60
652.49	502.97
652.83	500.23
653.17	497.35
653.51	494.70
653.85	492.28
654.20	489.70
654.54	486.95
654.88	484.38
655.22	481.89
655.56	479.20
655.90	476.54
656.25	473.95
656.59	471.45
656.93	469.01
657.27	466.50
657.61	463.96
657.95	461.54
658.29	459.10
658.64	456.71
658.98	454.12
659.32	451.51
659.66	449.06
660.00	446.56
660.34	444.13
660.68	441.77
661.02	439.27
661.36	436.82
661.70	434.56
662.05	432.49
662.39	430.40
662.73	428.54
663.07	426.61
663.41	424.61
663.75	422.39
664.09	420.29
664.43	418.21
664.77	416.23
665.11	414.15
665.45	412.25
665.79	410.25
666.13	408.36
666.47	406.52
666.81	404.49
667.15	402.60
667.49	400.93
667.83	399.10
668.17	397.30
668.51	395.59
668.85	393.94
669.19	392.34
669.53	390.33
669.87	388.35
670.21	386.57
670.55	384.84
670.89	383.36
671.23	381.83
671.57	380.28
671.91	378.65
672.25	377.20
672.58	375.72
672.92	374.20
673.26	372.65
673.60	371.14
673.94	369.70
674.28	368.28
674.62	366.91
674.96	365.47
675.30	363.95
675.64	362.54
675.97	361.06
676.31	359.50
676.65	358.19
676.99	357.03
677.33	355.63
677.67	354.25
678.01	352.77
678.34	351.40
678.68	350.04
679.02	348.72
679.36	347.41
679.70	346.00
680.04	344.58
680.37	343.19
680.71	341.88
681.05	340.71
681.39	339.38
681.73	338.06
682.06	336.92
682.40	335.88
682.74	334.70
683.08	333.52
683.42	332.18
683.75	331.05
684.09	329.63
684.43	328.37
684.77	327.08
685.10	325.85
685.44	324.63
685.78	323.40
686.12	322.28
686.45	321.04
686.79	319.95
687.13	319.06
687.46	318.04
687.80	317.06
688.14	315.81
688.48	314.87
688.81	313.74
689.15	312.68
689.49	311.48
689.82	310.46
690.16	309.30
690.50	308.30
690.83	307.23
691.17	306.22
691.51	305.20
691.84	304.25
692.18	303.25
692.52	302.26
692.85	301.35
693.19	300.41
693.52	299.49
693.86	298.37
694.20	297.25
694.53	296.24
694.87	295.21
695.21	294.36
695.54	293.30
695.88	292.36
696.21	291.39
696.55	290.57
696.88	289.59
697.22	288.69
697.56	287.92
697.89	287.02
698.23	286.19
698.56	285.34
698.90	284.63
699.23	283.82
699.57	282.96
699.90	282.10
700.24	281.31
700.58	280.51
700.91	279.90
701.25	279.44
701.58	278.80
701.92	278.11
702.25	277.35
702.59	276.66
702.92	276.01
703.26	275.23
703.59	274.43
703.93	274.06
704.26	273.47
704.60	272.80
704.93	272.05
705.26	271.41
705.60	270.90
705.93	270.08
706.27	269.55
706.60	269.04
706.94	268.65
707.27	268.00
707.61	267.58
707.94	266.88
708.27	266.05
708.61	265.40
708.94	264.81
709.28	264.26
709.61	263.62
709.94	263.04
710.28	262.52
710.61	262.00
710.95	261.18
711.28	260.88
711.61	260.28
711.95	259.95
712.28	259.37
712.61	258.74
712.95	258.42
713.28	257.99
713.61	257.46
713.95	256.82
714.28	256.37
714.61	255.74
714.95	255.26
715.28	254.78
715.61	254.22
715.95	253.71
716.28	253.16
716.61	252.77
716.95	252.30
717.28	251.79
717.61	251.42
717.94	251.05
718.28	250.26
718.61	249.83
718.94	249.32
719.27	248.89
719.61	248.53
719.94	248.06
720.27	247.50
720.60	247.09
720.94	246.73
721.27	246.36
721.60	246.08
721.93	245.77
722.27	245.52
722.60	245.31
722.93	245.00
723.26	244.78
723.59	244.38
723.93	244.08
724.26	243.84
724.59	243.48
724.92	243.10
725.25	242.97
725.59	242.68
725.92	242.42
726.25	242.09
726.58	241.77
726.91	241.45
727.24	241.24
727.57	240.93
727.91	240.48
728.24	240.24
728.57	239.86
728.90	239.57
729.23	239.20
729.56	239.02
729.89	238.76
730.22	238.48
730.55	238.22
730.89	237.98
731.22	237.71
731.55	237.41
731.88	237.13
732.21	236.73
732.54	236.46
732.87	236.16
733.20	235.98
733.53	235.77
733.86	235.58
734.19	235.20
734.52	234.98
734.85	234.98
735.18	234.69
735.51	234.58
735.84	234.30
736.17	234.16
736.50	233.68
736.83	233.79
737.16	233.50
737.49	233.34
737.82	233.04
738.15	232.80
738.48	232.58
738.81	232.34
739.14	232.20
739.47	232.05
739.80	231.86
740.13	231.72
740.46	231.44
740.79	231.16
741.12	230.98
741.45	230.73
741.78	230.42
742.11	230.36
742.44	230.05
742.77	229.96
743.10	229.71
743.43	229.57
743.75	228.98
744.08	229.27
744.41	229.02
744.74	228.78
745.07	228.51
745.40	228.40
745.73	228.45
746.06	228.23
746.39	227.97
746.71	227.70
747.04	227.43
747.37	227.27
747.70	227.24
748.03	227.09
748.36	227.02
748.68	226.70
749.01	226.37
749.34	226.27
749.67	226.05
750.00	225.89
750.33	226.04
750.65	225.98
750.98	225.35
751.31	225.22
751.64	225.17
751.97	225.25
752.29	225.05
752.62	224.66
752.95	224.45
753.28	224.28
753.60	224.16
753.93	224.11
754.26	223.93
754.59	223.70
754.91	223.50
755.24	223.33
755.57	223.40
755.90	223.33
756.22	223.17
756.55	223.03
756.88	222.90
757.20	222.51
757.53	222.30
757.86	222.22
758.19	222.19
758.51	222.05
758.84	221.78
759.17	221.70
759.49	221.62
759.82	221.79
760.15	221.69
760.47	221.52
760.80	221.36
761.13	221.46
761.45	221.26
761.78	221.24
762.11	221.18
762.43	220.96
762.76	220.84
763.08	220.85
763.41	220.78
763.74	220.68
764.06	220.60
764.39	220.50
764.71	220.41
765.04	220.32
765.37	220.16
765.69	220.07
766.02	219.95
766.34	219.82
766.67	219.51
767.00	219.60
767.32	219.76
767.65	219.89
767.97	219.64
768.30	219.60
768.62	219.51
768.95	219.31
769.27	219.23
769.60	219.13
769.92	218.97
770.25	218.78
770.57	218.60
770.90	218.50
771.22	218.33
771.55	218.28
771.87	218.19
772.20	218.12
772.52	218.35
772.85	218.73
773.17	218.79
773.50	218.76
773.82	218.62
774.15	218.35
774.47	218.05
774.80	217.98
775.12	217.92
775.45	217.83
775.77	217.83
776.09	217.83
776.42	217.80
776.74	217.79
777.07	217.80
777.39	217.77
777.72	217.71
778.04	217.76
778.36	217.65
778.69	217.51
779.01	217.47
779.33	217.12
779.66	216.63
779.98	216.50
780.31	216.49
780.63	216.54
780.95	216.61
781.28	216.51
781.60	216.43
781.92	216.36
782.25	216.32
782.57	216.25
782.89	216.11
783.22	216.13
783.54	216.01
783.86	215.93
784.19	215.81
784.51	215.78
784.83	215.70
785.16	215.66
785.48	215.60
785.80	215.59
786.12	215.61
786.45	215.54
786.77	215.52
787.09	215.42
787.42	215.21
787.74	215.20
788.06	215.19
