SpectraSuite Data File
++++++++++++++++++++++++++++++++++++
Date: Mon Feb 25 16:58:44 EST 2013
User: group
Dark Spectrum Present: No
Reference Spectrum Present: No
Number of Sampled Component Spectra: 1
Spectrometers: USB2E7196
Integration Time (usec): 104000 (USB2E7196)
Spectra Averaged: 20 (USB2E7196)
Boxcar Smoothing: 10 (USB2E7196)
Correct for Electrical Dark: No (USB2E7196)
Strobe/Lamp Enabled: No (USB2E7196)
Correct for Detector Non-linearity: No (USB2E7196)
Correct for Stray Light: No (USB2E7196)
Number of Pixels in Processed Spectrum: 2048
>>>>>Begin Processed Spectral Data<<<<<
339.09	0.00
339.48	197.95
339.86	200.20
340.24	201.65
340.63	203.05
341.01	208.80
341.39	205.65
341.78	207.30
342.16	208.15
342.54	209.25
342.93	198.32
343.31	208.34
343.69	208.89
344.07	209.36
344.46	209.80
344.84	210.19
345.22	210.28
345.60	210.53
345.99	210.65
346.37	210.79
346.75	210.90
347.13	210.91
347.52	210.90
347.90	211.08
348.28	211.10
348.66	211.22
349.05	211.11
349.43	211.21
349.81	211.34
350.19	211.45
350.57	211.42
350.96	211.58
351.34	211.66
351.72	211.78
352.10	211.90
352.48	212.04
352.87	212.08
353.25	212.12
353.63	212.22
354.01	212.36
354.39	212.48
354.77	212.55
355.15	212.70
355.54	212.74
355.92	212.72
356.30	212.84
356.68	213.05
357.06	213.16
357.44	213.17
357.82	213.26
358.20	213.30
358.58	213.34
358.97	213.35
359.35	213.50
359.73	213.66
360.11	213.61
360.49	213.65
360.87	213.68
361.25	213.79
361.63	213.94
362.01	214.00
362.39	213.95
362.77	214.00
363.15	213.95
363.53	213.95
363.91	213.98
364.29	213.95
364.67	213.73
365.05	213.82
365.43	213.82
365.81	213.85
366.19	214.00
366.57	214.12
366.95	214.25
367.33	214.13
367.71	214.12
368.09	214.27
368.47	214.24
368.85	214.24
369.23	214.37
369.61	214.16
369.99	214.25
370.37	214.33
370.75	214.38
371.13	214.35
371.51	214.34
371.89	214.33
372.27	214.42
372.65	214.40
373.03	214.31
373.41	214.27
373.78	214.19
374.16	214.01
374.54	213.85
374.92	213.70
375.30	213.73
375.68	213.53
376.06	213.48
376.44	213.37
376.82	213.40
377.19	213.25
377.57	213.26
377.95	213.10
378.33	212.99
378.71	212.81
379.09	212.87
379.47	212.82
379.84	212.70
380.22	212.48
380.60	212.36
380.98	212.27
381.36	212.11
381.73	212.04
382.11	212.02
382.49	211.95
382.87	211.89
383.25	211.76
383.62	212.16
384.00	212.09
384.38	211.99
384.76	211.96
385.13	212.10
385.51	212.06
385.89	211.94
386.27	211.89
386.64	211.89
387.02	211.76
387.40	211.70
387.78	211.71
388.15	211.77
388.53	211.74
388.91	211.69
389.29	211.68
389.66	211.74
390.04	211.63
390.42	211.67
390.79	211.68
391.17	211.63
391.55	211.22
391.92	211.13
392.30	211.23
392.68	211.15
393.05	211.08
393.43	211.00
393.81	211.04
394.18	211.00
394.56	211.09
394.94	211.17
395.31	211.17
395.69	211.32
396.06	211.36
396.44	211.43
396.82	211.46
397.19	211.71
397.57	211.62
397.95	211.76
398.32	211.71
398.70	211.68
399.07	211.89
399.45	211.90
399.82	211.97
400.20	211.92
400.58	211.97
400.95	211.86
401.33	212.01
401.70	212.31
402.08	212.43
402.45	212.38
402.83	212.52
403.20	212.68
403.58	212.68
403.95	212.88
404.33	213.00
404.71	213.13
405.08	213.53
405.46	213.77
405.83	213.99
406.21	214.27
406.58	214.60
406.96	214.87
407.33	215.23
407.70	215.65
408.08	216.31
408.45	216.78
408.83	217.29
409.20	217.73
409.58	217.90
409.95	218.45
410.33	219.09
410.70	219.59
411.08	220.26
411.45	220.96
411.82	221.58
412.20	222.47
412.57	223.60
412.95	224.12
413.32	225.15
413.69	226.15
414.07	227.15
414.44	228.35
414.82	229.49
415.19	230.99
415.56	232.33
415.94	233.80
416.31	235.45
416.68	237.19
417.06	239.18
417.43	241.26
417.81	243.40
418.18	245.60
418.55	248.03
418.93	250.60
419.30	253.22
419.67	256.05
420.04	258.94
420.42	261.88
420.79	265.51
421.16	269.10
421.54	272.94
421.91	276.84
422.28	280.80
422.66	285.13
423.03	289.33
423.40	293.78
423.77	298.48
424.15	303.24
424.52	308.16
424.89	313.57
425.26	318.69
425.64	323.74
426.01	329.26
426.38	335.13
426.75	340.96
427.13	347.06
427.50	353.51
427.87	360.26
428.24	366.98
428.61	373.31
428.99	380.41
429.36	387.98
429.73	395.55
430.10	403.20
430.47	410.90
430.85	418.93
431.22	427.62
431.59	436.65
431.96	445.31
432.33	455.10
432.70	464.47
433.08	475.60
433.45	486.19
433.82	496.61
434.19	508.12
434.56	519.50
434.93	530.62
435.30	541.62
435.68	553.98
436.05	566.18
436.42	578.31
436.79	589.37
437.16	601.57
437.53	614.34
437.90	626.92
438.27	639.50
438.64	652.54
439.01	664.61
439.38	675.58
439.75	686.36
440.13	698.34
440.50	709.82
440.87	719.43
441.24	729.19
441.61	740.08
441.98	748.35
442.35	758.08
442.72	767.63
443.09	777.05
443.46	782.89
443.83	787.09
444.20	790.98
444.57	796.37
444.94	799.10
445.31	802.22
445.68	805.15
446.05	806.93
446.42	806.68
446.79	806.05
447.16	805.27
447.53	804.96
447.90	801.22
448.27	797.57
448.64	791.78
449.01	788.00
449.37	780.55
449.74	773.37
450.11	764.65
450.48	754.90
450.85	744.96
451.22	736.67
451.59	728.72
451.96	721.08
452.33	710.50
452.70	701.14
453.07	689.54
453.43	677.93
453.80	666.82
454.17	656.02
454.54	645.81
454.91	634.77
455.28	623.94
455.65	613.93
456.02	603.91
456.38	595.42
456.75	584.62
457.12	575.76
457.49	566.87
457.86	558.09
458.23	550.80
458.59	542.69
458.96	534.28
459.33	527.11
459.70	519.83
460.07	514.05
460.43	507.42
460.80	501.09
461.17	495.64
461.54	489.60
461.91	484.01
462.27	478.41
462.64	473.65
463.01	468.39
463.38	463.25
463.74	458.05
464.11	453.69
464.48	449.77
464.85	445.36
465.21	442.19
465.58	438.71
465.95	434.51
466.32	430.98
466.68	427.42
467.05	423.81
467.42	420.32
467.78	416.52
468.15	413.00
468.52	410.48
468.88	407.08
469.25	404.14
469.62	401.71
469.98	399.03
470.35	396.54
470.72	394.35
471.08	391.87
471.45	389.64
471.82	387.40
472.18	385.01
472.55	383.29
472.92	381.11
473.28	379.30
473.65	377.45
474.02	375.56
474.38	374.09
474.75	372.87
475.11	371.47
475.48	370.56
475.85	369.55
476.21	368.57
476.58	367.76
476.94	367.17
477.31	366.47
477.67	365.80
478.04	365.21
478.41	364.77
478.77	364.68
479.14	364.22
479.50	364.07
479.87	364.06
480.23	364.08
480.60	364.06
480.96	363.87
481.33	364.30
481.69	364.62
482.06	364.86
482.42	364.98
482.79	365.38
483.15	365.75
483.52	366.37
483.88	366.96
484.25	367.48
484.61	368.17
484.98	368.80
485.34	369.79
485.71	370.98
486.07	371.98
486.44	372.83
486.80	374.08
487.17	375.27
487.53	376.88
487.90	378.53
488.26	380.30
488.62	382.26
488.99	384.00
489.35	385.89
489.72	387.99
490.08	390.10
490.44	392.20
490.81	394.42
491.17	396.60
491.54	399.03
491.90	401.59
492.26	404.32
492.63	407.05
492.99	409.76
493.36	412.52
493.72	415.48
494.08	418.61
494.45	421.97
494.81	425.45
495.17	428.70
495.54	432.08
495.90	435.68
496.26	439.20
496.63	442.79
496.99	446.62
497.35	450.57
497.72	454.62
498.08	458.59
498.44	462.75
498.80	467.17
499.17	471.56
499.53	475.87
499.89	480.15
500.26	484.54
500.62	488.94
500.98	493.56
501.34	498.27
501.71	502.74
502.07	507.25
502.43	511.71
502.79	516.08
503.16	520.69
503.52	525.25
503.88	529.68
504.24	534.28
504.60	538.76
504.97	543.23
505.33	547.65
505.69	552.46
506.05	557.07
506.41	561.48
506.78	565.73
507.14	569.90
507.50	574.18
507.86	578.50
508.22	582.87
508.59	586.77
508.95	590.59
509.31	594.73
509.67	598.51
510.03	602.31
510.39	606.43
510.75	610.22
511.12	613.84
511.48	617.60
511.84	621.10
512.20	624.56
512.56	628.16
512.92	631.69
513.28	634.88
513.64	637.94
514.00	641.05
514.37	644.10
514.73	647.25
515.09	650.40
515.45	653.10
515.81	655.66
516.17	658.55
516.53	661.11
516.89	663.58
517.25	666.09
517.61	668.57
517.97	670.68
518.33	672.76
518.69	674.87
519.05	677.00
519.41	679.17
519.77	681.50
520.13	683.37
520.49	685.07
520.85	686.71
521.21	688.59
521.57	690.36
521.93	691.92
522.29	693.67
522.65	695.03
523.01	696.86
523.37	698.33
523.73	699.87
524.09	701.34
524.45	702.87
524.81	704.50
525.17	705.99
525.53	707.53
525.89	708.99
526.25	710.56
526.61	711.63
526.97	712.76
527.33	714.01
527.68	715.51
528.04	716.82
528.40	718.04
528.76	719.30
529.12	720.73
529.48	722.43
529.84	723.58
530.20	725.15
530.56	726.80
530.91	728.57
531.27	730.10
531.63	731.88
531.99	733.45
532.35	734.97
532.71	736.63
533.07	738.39
533.42	740.42
533.78	742.12
534.14	744.17
534.50	746.00
534.86	747.87
535.21	749.43
535.57	751.55
535.93	753.52
536.29	755.43
536.65	757.32
537.00	758.99
537.36	760.86
537.72	762.57
538.08	764.10
538.44	765.81
538.79	767.78
539.15	769.85
539.51	771.93
539.87	774.22
540.22	776.30
540.58	778.62
540.94	780.64
541.29	782.52
541.65	784.39
542.01	786.47
542.37	788.57
542.72	790.47
543.08	792.50
543.44	795.03
543.79	797.09
544.15	799.11
544.51	801.45
544.87	804.17
545.22	806.46
545.58	808.71
545.94	810.74
546.29	812.62
546.65	814.44
547.01	816.39
547.36	818.30
547.72	820.30
548.07	822.23
548.43	823.97
548.79	825.86
549.14	827.98
549.50	830.18
549.86	832.09
550.21	834.34
550.57	836.63
550.92	838.37
551.28	840.62
551.64	842.69
551.99	844.73
552.35	846.47
552.70	848.43
553.06	850.52
553.41	852.90
553.77	855.34
554.13	857.71
554.48	859.94
554.84	862.13
555.19	864.22
555.55	866.30
555.90	868.35
556.26	870.30
556.61	871.97
556.97	873.65
557.32	875.45
557.68	877.10
558.03	878.43
558.39	879.87
558.74	881.48
559.10	883.21
559.45	885.07
559.81	886.92
560.16	888.51
560.52	890.05
560.87	891.69
561.23	892.83
561.58	894.43
561.94	895.68
562.29	896.82
562.64	898.26
563.00	899.55
563.35	900.95
563.71	902.71
564.06	904.39
564.42	906.06
564.77	907.90
565.12	909.63
565.48	911.45
565.83	913.08
566.19	914.73
566.54	915.98
566.89	917.03
567.25	918.34
567.60	920.00
567.96	921.68
568.31	923.07
568.66	924.43
569.02	925.07
569.37	925.95
569.72	927.05
570.08	927.89
570.43	928.60
570.78	929.44
571.14	929.76
571.49	930.00
571.84	930.40
572.20	930.36
572.55	930.51
572.90	930.49
573.26	930.40
573.61	930.10
573.96	930.07
574.31	929.76
574.67	929.35
575.02	928.62
575.37	927.78
575.72	926.59
576.08	925.91
576.43	925.18
576.78	924.70
577.13	923.99
577.49	923.38
577.84	922.76
578.19	921.97
578.54	921.56
578.90	921.46
579.25	920.81
579.60	919.81
579.95	918.59
580.30	917.71
580.66	916.92
581.01	915.72
581.36	914.50
581.71	913.35
582.06	912.14
582.42	910.97
582.77	909.52
583.12	908.34
583.47	907.13
583.82	906.08
584.17	904.73
584.53	903.39
584.88	901.77
585.23	900.24
585.58	898.64
585.93	896.85
586.28	895.09
586.63	893.25
586.98	891.70
587.34	890.66
587.69	888.76
588.04	887.20
588.39	885.93
588.74	884.12
589.09	882.54
589.44	880.65
589.79	878.99
590.14	877.46
590.49	875.89
590.84	873.91
591.19	872.43
591.54	870.61
591.89	868.33
592.25	866.74
592.60	864.66
592.95	862.51
593.30	860.26
593.65	857.84
594.00	855.55
594.35	854.42
594.70	851.83
595.05	849.82
595.40	847.56
595.75	844.77
596.10	842.92
596.45	840.99
596.80	838.97
597.15	836.89
597.50	834.45
597.85	832.23
598.19	830.06
598.54	827.55
598.89	825.36
599.24	823.63
599.59	821.08
599.94	818.87
600.29	816.64
600.64	814.51
600.99	812.22
601.34	810.22
601.69	807.01
602.04	804.73
602.39	802.33
602.74	800.19
603.08	798.24
603.43	796.17
603.78	793.72
604.13	791.45
604.48	789.12
604.83	787.35
605.18	785.49
605.53	783.24
605.87	780.95
606.22	778.63
606.57	776.00
606.92	773.59
607.27	771.05
607.62	768.65
607.96	766.43
608.31	764.33
608.66	761.87
609.01	759.21
609.36	756.72
609.70	754.12
610.05	751.26
610.40	748.55
610.75	745.54
611.10	742.97
611.44	739.92
611.79	736.88
612.14	733.75
612.49	730.40
612.83	727.51
613.18	724.28
613.53	721.47
613.88	718.47
614.22	715.55
614.57	712.81
614.92	709.99
615.27	707.11
615.61	704.08
615.96	701.35
616.31	698.77
616.65	696.16
617.00	693.37
617.35	690.66
617.70	687.72
618.04	684.77
618.39	681.53
618.74	678.84
619.08	676.15
619.43	673.38
619.78	670.66
620.12	667.98
620.47	665.46
620.82	662.17
621.16	659.36
621.51	656.65
621.85	653.84
622.20	651.01
622.55	648.05
622.89	645.11
623.24	642.15
623.59	639.14
623.93	636.29
624.28	633.65
624.62	631.18
624.97	628.69
625.32	625.85
625.66	623.28
626.01	620.55
626.35	617.84
626.70	615.02
627.04	612.54
627.39	609.73
627.73	607.26
628.08	605.01
628.43	602.30
628.77	599.59
629.12	596.85
629.46	594.25
629.81	591.77
630.15	589.26
630.50	586.59
630.84	584.03
631.19	581.39
631.53	578.80
631.88	575.97
632.22	573.27
632.57	571.04
632.91	568.52
633.26	566.10
633.60	563.51
633.95	561.23
634.29	558.59
634.64	556.35
634.98	553.71
635.32	551.37
635.67	549.27
636.01	546.87
636.36	544.52
636.70	542.39
637.05	539.99
637.39	537.80
637.73	535.58
638.08	533.56
638.42	531.40
638.77	529.38
639.11	527.08
639.45	524.85
639.80	522.52
640.14	520.33
640.49	518.02
640.83	515.92
641.17	513.69
641.52	511.44
641.86	509.06
642.20	507.04
642.55	504.64
642.89	502.35
643.23	500.09
643.58	498.05
643.92	495.61
644.26	493.41
644.61	491.17
644.95	489.00
645.29	486.64
645.64	484.37
645.98	482.06
646.32	480.04
646.66	477.78
647.01	475.73
647.35	473.74
647.69	471.68
648.04	469.55
648.38	467.40
648.72	465.32
649.06	463.28
649.41	461.06
649.75	458.90
650.09	456.92
650.43	454.99
650.78	452.80
651.12	450.79
651.46	448.79
651.80	446.81
652.14	444.84
652.49	442.87
652.83	440.95
653.17	438.73
653.51	436.69
653.85	434.87
654.20	432.90
654.54	430.68
654.88	428.71
655.22	426.75
655.56	424.68
655.90	422.64
656.25	420.54
656.59	418.54
656.93	416.70
657.27	414.79
657.61	412.83
657.95	410.97
658.29	409.18
658.64	407.37
658.98	405.54
659.32	403.60
659.66	401.80
660.00	399.93
660.34	398.14
660.68	396.27
661.02	394.39
661.36	392.57
661.70	390.98
662.05	389.26
662.39	387.81
662.73	386.33
663.07	384.93
663.41	383.38
663.75	381.65
664.09	380.03
664.43	378.31
664.77	376.83
665.11	375.22
665.45	373.72
665.79	372.27
666.13	370.66
666.47	369.18
666.81	367.66
667.15	366.19
667.49	364.91
667.83	363.63
668.17	362.26
668.51	360.89
668.85	359.52
669.19	358.30
669.53	356.61
669.87	355.16
670.21	353.83
670.55	352.57
670.89	351.61
671.23	350.45
671.57	349.31
671.91	348.02
672.25	346.89
672.58	345.67
672.92	344.35
673.26	343.23
673.60	342.10
673.94	341.02
674.28	339.81
674.62	338.64
674.96	337.46
675.30	336.40
675.64	335.29
675.97	334.11
676.31	332.98
676.65	331.95
676.99	331.03
677.33	329.81
677.67	328.74
678.01	327.41
678.34	326.24
678.68	325.20
679.02	324.01
679.36	322.77
679.70	321.71
680.04	320.68
680.37	319.55
680.71	318.46
681.05	317.46
681.39	316.50
681.73	315.45
682.06	314.46
682.40	313.49
682.74	312.54
683.08	311.75
683.42	310.63
683.75	309.79
684.09	308.67
684.43	307.71
684.77	306.73
685.10	305.82
685.44	304.97
685.78	303.92
686.12	303.13
686.45	302.35
686.79	301.41
687.13	300.68
687.46	299.88
687.80	299.14
688.14	298.17
688.48	297.34
688.81	296.48
689.15	295.71
689.49	294.81
689.82	293.97
690.16	292.90
690.50	292.09
690.83	291.20
691.17	290.27
691.51	289.43
691.84	288.66
692.18	287.87
692.52	287.06
692.85	286.38
693.19	285.72
693.52	284.89
693.86	283.98
694.20	283.14
694.53	282.36
694.87	281.53
695.21	280.80
695.54	280.04
695.88	279.25
696.21	278.37
696.55	277.73
696.88	276.94
697.22	276.32
697.56	275.72
697.89	275.02
698.23	274.50
698.56	273.85
698.90	273.23
699.23	272.51
699.57	271.83
699.90	271.15
700.24	270.33
700.58	269.74
700.91	269.30
701.25	268.91
701.58	268.43
701.92	267.91
702.25	267.26
702.59	266.65
702.92	266.05
703.26	265.47
703.59	264.87
703.93	264.66
704.26	264.10
704.60	263.44
704.93	262.83
705.26	262.12
705.60	261.57
705.93	260.92
706.27	260.46
706.60	260.11
706.94	259.79
707.27	259.23
707.61	258.73
707.94	258.23
708.27	257.42
708.61	256.77
708.94	256.28
709.28	255.81
709.61	255.33
709.94	254.96
710.28	254.51
710.61	254.10
710.95	253.29
711.28	253.02
711.61	252.68
711.95	252.43
712.28	252.01
712.61	251.68
712.95	251.39
713.28	251.18
713.61	250.68
713.95	250.14
714.28	249.86
714.61	249.41
714.95	248.91
715.28	248.50
715.61	248.11
715.95	247.68
716.28	247.30
716.61	247.00
716.95	246.64
717.28	246.30
717.61	245.86
717.94	245.60
718.28	245.05
718.61	244.58
718.94	244.13
719.27	243.85
719.61	243.47
719.94	243.11
720.27	242.55
720.60	242.20
720.94	241.84
721.27	241.48
721.60	241.25
721.93	240.92
722.27	240.76
722.60	240.59
722.93	240.32
723.26	240.13
723.59	239.70
723.93	239.33
724.26	239.08
724.59	238.77
724.92	238.42
725.25	238.32
725.59	238.12
725.92	237.95
726.25	237.74
726.58	237.55
726.91	237.29
727.24	237.13
727.57	236.80
727.91	236.46
728.24	236.26
728.57	235.98
728.90	235.85
729.23	235.45
729.56	235.29
729.89	234.98
730.22	234.69
730.55	234.47
730.89	234.23
731.22	233.89
731.55	233.64
731.88	233.49
732.21	233.06
732.54	232.78
732.87	232.46
733.20	232.21
733.53	231.99
733.86	231.81
734.19	231.50
734.52	231.46
734.85	231.51
735.18	231.24
735.51	231.10
735.84	230.91
736.17	230.87
736.50	230.50
736.83	230.80
737.16	230.55
737.49	230.43
737.82	230.23
738.15	230.15
738.48	229.92
738.81	229.68
739.14	229.51
739.47	229.32
739.80	229.17
740.13	228.96
740.46	228.63
740.79	228.28
741.12	228.15
741.45	227.82
741.78	227.49
742.11	227.39
742.44	227.13
742.77	226.96
743.10	226.74
743.43	226.60
743.75	225.99
744.08	226.26
744.41	226.07
744.74	225.95
745.07	225.61
745.40	225.59
745.73	225.58
746.06	225.42
746.39	225.29
746.71	225.08
747.04	224.92
747.37	224.83
747.70	224.90
748.03	224.66
748.36	224.58
748.68	224.40
749.01	224.19
749.34	224.11
749.67	224.03
750.00	223.91
750.33	224.00
750.65	223.89
750.98	223.40
751.31	223.25
751.64	223.16
751.97	223.31
752.29	223.08
752.62	222.78
752.95	222.64
753.28	222.47
753.60	222.37
753.93	222.39
754.26	222.30
754.59	222.02
754.91	221.95
755.24	221.89
755.57	221.80
755.90	221.74
756.22	221.61
756.55	221.39
756.88	221.30
757.20	220.91
757.53	220.75
757.86	220.70
758.19	220.64
758.51	220.52
758.84	220.27
759.17	220.23
759.49	220.13
759.82	220.33
760.15	220.30
760.47	220.18
760.80	220.05
761.13	219.99
761.45	219.94
761.78	219.88
762.11	219.77
762.43	219.70
762.76	219.58
763.08	219.54
763.41	219.50
763.74	219.37
764.06	219.32
764.39	219.18
764.71	218.98
765.04	218.84
765.37	218.69
765.69	218.58
766.02	218.43
766.34	218.37
766.67	218.10
767.00	218.09
767.32	218.16
767.65	218.18
767.97	218.08
768.30	218.02
768.62	217.96
768.95	217.87
769.27	217.76
769.60	217.74
769.92	217.57
770.25	217.44
770.57	217.28
770.90	217.22
771.22	217.18
771.55	217.21
771.87	217.23
772.20	217.21
772.52	217.47
772.85	217.83
773.17	217.74
773.50	217.73
773.82	217.63
774.15	217.44
774.47	217.22
774.80	217.11
775.12	217.05
775.45	216.95
775.77	216.83
776.09	216.84
776.42	216.70
776.74	216.83
777.07	216.77
777.39	216.82
777.72	216.73
778.04	216.68
778.36	216.56
778.69	216.50
779.01	216.41
779.33	216.07
779.66	215.68
779.98	215.65
780.31	215.48
780.63	215.61
780.95	215.65
781.28	215.58
781.60	215.55
781.92	215.54
782.25	215.48
782.57	215.40
782.89	215.34
783.22	215.32
783.54	215.18
783.86	215.13
784.19	215.00
784.51	215.05
784.83	215.06
785.16	215.00
785.48	214.99
785.80	214.99
786.12	214.97
786.45	214.88
786.77	214.86
787.09	214.82
787.42	214.57
787.74	214.48
788.06	214.45
788.38	214.40
788.71	214.26
789.03	214.30
789.35	214.40
789.67	214.32
789.99	214.34
790.32	214.25
790.64	214.27
790.96	214.55
791.28	214.41
791.61	214.30
791.93	214.35
792.25	214.26
792.57	214.55
792.89	214.50
793.21	214.57
793.54	214.55
793.86	214.53
794.18	214.56
