SpectraSuite Data File
++++++++++++++++++++++++++++++++++++
Date: Mon Feb 25 17:16:40 EST 2013
User: group
Dark Spectrum Present: No
Reference Spectrum Present: No
Number of Sampled Component Spectra: 1
Spectrometers: USB2E7196
Integration Time (usec): 104000 (USB2E7196)
Spectra Averaged: 20 (USB2E7196)
Boxcar Smoothing: 10 (USB2E7196)
Correct for Electrical Dark: No (USB2E7196)
Strobe/Lamp Enabled: No (USB2E7196)
Correct for Detector Non-linearity: No (USB2E7196)
Correct for Stray Light: No (USB2E7196)
Number of Pixels in Processed Spectrum: 2048
>>>>>Begin Processed Spectral Data<<<<<
339.09	0.00
339.48	197.60
339.86	200.10
340.24	201.65
340.63	203.70
341.01	210.55
341.39	205.70
341.78	208.15
342.16	209.90
342.54	208.50
342.93	198.36
343.31	208.39
343.69	208.97
344.07	209.41
344.46	209.87
344.84	210.22
345.22	210.22
345.60	210.54
345.99	210.74
346.37	210.83
346.75	210.89
347.13	210.97
347.52	211.04
347.90	211.13
348.28	211.22
348.66	211.35
349.05	211.36
349.43	211.40
349.81	211.54
350.19	211.52
350.57	211.60
350.96	211.72
351.34	211.82
351.72	211.86
352.10	212.01
352.48	212.10
352.87	212.20
353.25	212.31
353.63	212.26
354.01	212.25
354.39	212.36
354.77	212.44
355.15	212.61
355.54	212.62
355.92	212.63
356.30	212.65
356.68	212.91
357.06	212.94
357.44	212.96
357.82	213.00
358.20	213.07
358.58	213.10
358.97	213.17
359.35	213.30
359.73	213.56
360.11	213.58
360.49	213.59
360.87	213.59
361.25	213.66
361.63	213.80
362.01	213.91
362.39	213.83
362.77	213.96
363.15	213.91
363.53	214.00
363.91	213.99
364.29	214.04
364.67	213.71
365.05	213.71
365.43	213.85
365.81	213.92
366.19	214.10
366.57	214.24
366.95	214.22
367.33	214.11
367.71	214.03
368.09	214.12
368.47	214.14
368.85	214.11
369.23	214.18
369.61	214.08
369.99	214.17
370.37	214.27
370.75	214.40
371.13	214.39
371.51	214.33
371.89	214.37
372.27	214.35
372.65	214.39
373.03	214.38
373.41	214.29
373.78	214.18
374.16	213.96
374.54	213.80
374.92	213.75
375.30	213.71
375.68	213.58
376.06	213.55
376.44	213.47
376.82	213.47
377.19	213.38
377.57	213.35
377.95	213.21
378.33	213.14
378.71	212.95
379.09	212.95
379.47	212.94
379.84	212.81
380.22	212.71
380.60	212.63
380.98	212.58
381.36	212.52
381.73	212.53
382.11	212.65
382.49	212.58
382.87	212.54
383.25	212.51
383.62	212.98
384.00	212.91
384.38	212.94
384.76	213.04
385.13	213.13
385.51	213.12
385.89	213.02
386.27	212.94
386.64	212.90
387.02	212.86
387.40	212.82
387.78	212.79
388.15	212.79
388.53	212.76
388.91	212.76
389.29	212.77
389.66	212.63
390.04	212.53
390.42	212.62
390.79	212.55
391.17	212.50
391.55	212.06
391.92	211.94
392.30	211.89
392.68	211.73
393.05	211.66
393.43	211.67
393.81	211.73
394.18	211.74
394.56	211.70
394.94	211.75
395.31	211.69
395.69	211.92
396.06	211.98
396.44	212.01
396.82	211.94
397.19	212.04
397.57	212.17
397.95	212.25
398.32	212.17
398.70	212.34
399.07	212.50
399.45	212.53
399.82	212.61
400.20	212.63
400.58	212.72
400.95	212.61
401.33	212.70
401.70	212.92
402.08	212.97
402.45	213.07
402.83	213.16
403.20	213.30
403.58	213.19
403.95	213.36
404.33	213.46
404.71	213.56
405.08	213.87
405.46	213.93
405.83	214.03
406.21	214.09
406.58	214.17
406.96	214.26
407.33	214.47
407.70	214.67
408.08	215.09
408.45	215.27
408.83	215.59
409.20	215.84
409.58	215.90
409.95	216.13
410.33	216.48
410.70	216.66
411.08	217.03
411.45	217.42
411.82	217.68
412.20	218.25
412.57	218.88
412.95	219.05
413.32	219.51
413.69	220.03
414.07	220.67
414.44	221.30
414.82	221.92
415.19	222.60
415.56	223.42
415.94	224.09
416.31	225.02
416.68	225.89
417.06	226.88
417.43	227.92
417.81	229.12
418.18	230.16
418.55	231.40
418.93	232.61
419.30	234.02
419.67	235.48
420.04	236.79
420.42	238.23
420.79	240.19
421.16	242.06
421.54	244.06
421.91	245.93
422.28	247.86
422.66	249.94
423.03	252.18
423.40	254.23
423.77	256.40
424.15	258.63
424.52	261.00
424.89	263.63
425.26	266.03
425.64	268.32
426.01	270.85
426.38	273.64
426.75	276.47
427.13	279.25
427.50	282.18
427.87	285.29
428.24	288.45
428.61	291.23
428.99	294.55
429.36	297.88
429.73	301.44
430.10	305.00
430.47	308.61
430.85	312.12
431.22	315.94
431.59	320.24
431.96	324.14
432.33	328.50
432.70	332.65
433.08	337.54
433.45	342.18
433.82	346.85
434.19	352.00
434.56	356.99
434.93	361.74
435.30	366.57
435.68	371.75
436.05	376.86
436.42	381.99
436.79	386.60
437.16	391.74
437.53	396.95
437.90	402.07
438.27	407.25
438.64	412.54
439.01	417.66
439.38	421.95
439.75	426.35
440.13	431.15
440.50	435.74
440.87	439.53
441.24	443.53
441.61	447.78
441.98	450.80
442.35	454.55
442.72	458.32
443.09	461.98
443.46	464.13
443.83	465.63
444.20	466.88
444.57	468.67
444.94	469.42
445.31	470.37
445.68	471.59
446.05	471.83
446.42	471.28
446.79	470.56
447.16	469.73
447.53	469.05
447.90	467.07
448.27	464.99
448.64	462.24
449.01	460.09
449.37	456.60
449.74	453.22
450.11	449.18
450.48	444.58
450.85	439.91
451.22	435.87
451.59	432.09
451.96	428.53
452.33	423.78
452.70	419.38
453.07	414.22
453.43	408.64
453.80	403.67
454.17	398.89
454.54	394.29
454.91	389.47
455.28	384.75
455.65	380.26
456.02	376.18
456.38	372.39
456.75	367.73
457.12	363.82
457.49	359.93
457.86	356.06
458.23	352.94
458.59	349.43
458.96	346.05
459.33	342.87
459.70	339.69
460.07	337.21
460.43	334.41
460.80	331.66
461.17	329.39
461.54	326.87
461.91	324.54
462.27	322.11
462.64	320.10
463.01	317.91
463.38	315.92
463.74	313.44
464.11	311.55
464.48	309.96
464.85	308.11
465.21	306.81
465.58	305.46
465.95	303.74
466.32	302.33
466.68	300.95
467.05	299.53
467.42	298.11
467.78	296.57
468.15	295.33
468.52	294.40
468.88	293.01
469.25	291.84
469.62	290.99
469.98	290.10
470.35	289.20
470.72	288.34
471.08	287.32
471.45	286.55
471.82	285.88
472.18	285.04
472.55	284.58
472.92	283.82
473.28	283.11
473.65	282.58
474.02	281.99
474.38	281.59
474.75	281.38
475.11	281.03
475.48	280.84
475.85	280.55
476.21	280.38
476.58	280.23
476.94	280.30
477.31	280.21
477.67	280.16
478.04	280.27
478.41	280.39
478.77	280.84
479.14	281.04
479.50	281.21
479.87	281.67
480.23	282.04
480.60	282.30
480.96	282.70
481.33	283.30
481.69	283.85
482.06	284.40
482.42	284.96
482.79	285.65
483.15	286.43
483.52	287.40
483.88	288.26
484.25	289.28
484.61	290.28
484.98	291.29
485.34	292.58
485.71	293.91
486.07	295.30
486.44	296.47
486.80	298.02
487.17	299.67
487.53	301.49
487.90	303.37
488.26	305.59
488.62	307.82
488.99	309.96
489.35	312.28
489.72	314.72
490.08	317.27
490.44	319.96
490.81	322.89
491.17	325.78
491.54	328.96
491.90	332.29
492.26	335.76
492.63	339.49
492.99	343.17
493.36	347.12
493.72	351.30
494.08	355.65
494.45	360.19
494.81	365.10
495.17	369.92
495.54	375.19
495.90	380.67
496.26	386.38
496.63	392.34
496.99	398.43
497.35	404.86
497.72	411.55
498.08	418.47
498.44	425.47
498.80	433.08
499.17	440.77
499.53	448.78
499.89	457.12
500.26	465.56
500.62	474.42
500.98	483.68
501.34	493.21
501.71	503.27
502.07	513.45
502.43	523.67
502.79	534.28
503.16	545.23
503.52	556.55
503.88	567.95
504.24	579.85
504.60	592.25
504.97	605.19
505.33	618.19
505.69	632.04
506.05	646.05
506.41	660.15
506.78	674.59
507.14	689.23
507.50	704.35
507.86	719.76
508.22	735.65
508.59	751.57
508.95	768.19
509.31	784.84
509.67	802.02
510.03	819.58
510.39	837.79
510.75	855.98
511.12	874.41
511.48	893.39
511.84	912.46
512.20	931.78
512.56	951.32
512.92	971.48
513.28	991.54
513.64	1011.92
514.00	1032.24
514.37	1052.96
514.73	1074.40
515.09	1095.50
515.45	1116.90
515.81	1138.37
516.17	1160.25
516.53	1181.66
516.89	1203.40
517.25	1225.16
517.61	1247.20
517.97	1269.08
518.33	1291.09
518.69	1313.11
519.05	1335.64
519.41	1358.52
519.77	1381.41
520.13	1403.48
520.49	1425.57
520.85	1448.04
521.21	1470.51
521.57	1493.65
521.93	1515.85
522.29	1538.80
522.65	1561.71
523.01	1584.29
523.37	1606.26
523.73	1628.26
524.09	1650.66
524.45	1673.09
524.81	1695.54
525.17	1717.99
525.53	1740.25
525.89	1762.24
526.25	1784.58
526.61	1805.49
526.97	1826.46
527.33	1847.38
527.68	1869.25
528.04	1889.95
528.40	1910.03
528.76	1930.60
529.12	1950.75
529.48	1971.93
529.84	1991.64
530.20	2011.54
530.56	2031.50
530.91	2052.36
531.27	2072.74
531.63	2092.09
531.99	2111.45
532.35	2130.07
532.71	2148.19
533.07	2167.00
533.42	2185.11
533.78	2202.72
534.14	2220.79
534.50	2237.37
534.86	2254.77
535.21	2270.62
535.57	2288.19
535.93	2304.47
536.29	2320.13
536.65	2336.16
537.00	2350.55
537.36	2364.95
537.72	2378.93
538.08	2393.15
538.44	2406.71
538.79	2420.31
539.15	2434.05
539.51	2447.26
539.87	2461.30
540.22	2474.30
540.58	2487.35
540.94	2499.84
541.29	2511.41
541.65	2522.30
542.01	2534.00
542.37	2544.35
542.72	2555.72
543.08	2565.09
543.44	2576.05
543.79	2585.24
544.15	2593.74
544.51	2603.36
544.87	2612.86
545.22	2621.49
545.58	2628.81
545.94	2635.46
546.29	2641.76
546.65	2647.42
547.01	2653.16
547.36	2657.95
547.72	2663.03
548.07	2666.75
548.43	2670.96
548.79	2674.70
549.14	2679.09
549.50	2682.71
549.86	2685.60
550.21	2687.62
550.57	2690.76
550.92	2692.06
551.28	2693.97
551.64	2695.81
551.99	2697.71
552.35	2698.52
552.70	2699.32
553.06	2700.80
553.41	2701.96
553.77	2702.74
554.13	2703.51
554.48	2704.40
554.84	2705.12
555.19	2704.96
555.55	2704.32
555.90	2703.11
556.26	2702.26
556.61	2700.68
556.97	2698.59
557.32	2697.72
557.68	2695.69
558.03	2693.36
558.39	2691.16
558.74	2690.14
559.10	2688.67
559.45	2685.88
559.81	2684.05
560.16	2680.89
560.52	2678.22
560.87	2675.35
561.23	2671.54
561.58	2668.83
561.94	2664.66
562.29	2659.93
562.64	2656.70
563.00	2653.58
563.35	2650.92
563.71	2648.34
564.06	2645.28
564.42	2642.65
564.77	2639.54
565.12	2636.86
565.48	2633.33
565.83	2630.28
566.19	2626.74
566.54	2621.67
566.89	2617.22
567.25	2612.44
567.60	2608.70
567.96	2604.15
568.31	2599.87
568.66	2595.29
569.02	2589.61
569.37	2583.57
569.72	2579.05
570.08	2573.28
570.43	2567.30
570.78	2561.04
571.14	2554.06
571.49	2547.22
571.84	2541.44
572.20	2533.92
572.55	2527.20
572.90	2520.06
573.26	2512.45
573.61	2504.41
573.96	2497.19
574.31	2489.17
574.67	2480.94
575.02	2472.25
575.37	2463.59
575.72	2454.32
576.08	2446.70
576.43	2438.25
576.78	2430.57
577.13	2422.82
577.49	2414.84
577.84	2406.45
578.19	2398.97
578.54	2392.08
578.90	2384.99
579.25	2376.24
579.60	2367.70
579.95	2358.94
580.30	2351.07
580.66	2343.52
581.01	2334.79
581.36	2326.31
581.71	2317.98
582.06	2309.75
582.42	2302.16
582.77	2293.72
583.12	2285.42
583.47	2277.25
583.82	2269.93
584.17	2261.98
584.53	2253.66
584.88	2245.46
585.23	2237.54
585.58	2228.80
585.93	2219.59
586.28	2211.33
586.63	2203.04
586.98	2194.85
587.34	2187.29
587.69	2178.93
588.04	2170.33
588.39	2162.62
588.74	2153.90
589.09	2146.27
589.44	2137.89
589.79	2129.92
590.14	2122.37
590.49	2114.86
590.84	2106.73
591.19	2099.29
591.54	2091.16
591.89	2081.91
592.25	2073.39
592.60	2064.75
592.95	2056.04
593.30	2047.06
593.65	2037.56
594.00	2029.10
594.35	2022.56
594.70	2014.05
595.05	2006.28
595.40	1998.23
595.75	1989.65
596.10	1982.43
596.45	1974.79
596.80	1967.45
597.15	1960.12
597.50	1952.19
597.85	1944.29
598.19	1936.24
598.54	1927.98
598.89	1920.75
599.24	1914.40
599.59	1907.25
599.94	1900.85
600.29	1893.80
600.64	1886.85
600.99	1879.42
601.34	1872.26
601.69	1863.34
602.04	1855.47
602.39	1847.65
602.74	1840.37
603.08	1834.27
603.43	1827.78
603.78	1820.25
604.13	1813.11
604.48	1805.78
604.83	1799.76
605.18	1793.84
605.53	1786.80
605.87	1779.38
606.22	1772.38
606.57	1764.78
606.92	1757.58
607.27	1749.62
607.62	1742.15
607.96	1735.50
608.31	1729.55
608.66	1721.90
609.01	1714.66
609.36	1707.58
609.70	1699.50
610.05	1691.70
610.40	1683.64
610.75	1675.23
611.10	1668.29
611.44	1659.60
611.79	1650.69
612.14	1641.45
612.49	1631.90
612.83	1623.50
613.18	1614.72
613.53	1606.02
613.88	1596.92
614.22	1588.59
614.57	1579.96
614.92	1571.72
615.27	1562.89
615.61	1553.69
615.96	1545.53
616.31	1537.80
616.65	1530.05
617.00	1522.56
617.35	1514.53
617.70	1505.75
618.04	1496.90
618.39	1487.44
618.74	1479.32
619.08	1471.21
619.43	1463.20
619.78	1455.38
620.12	1447.47
620.47	1439.87
620.82	1431.29
621.16	1422.96
621.51	1414.30
621.85	1406.43
622.20	1397.85
622.55	1389.60
622.89	1381.49
623.24	1373.57
623.59	1364.95
623.93	1356.42
624.28	1348.54
624.62	1340.64
624.97	1333.03
625.32	1325.80
625.66	1318.56
626.01	1311.41
626.35	1303.92
626.70	1296.09
627.04	1289.19
627.39	1281.86
627.73	1274.52
628.08	1267.77
628.43	1260.17
628.77	1252.85
629.12	1245.35
629.46	1238.83
629.81	1231.95
630.15	1224.71
630.50	1217.12
630.84	1209.89
631.19	1202.90
631.53	1195.67
631.88	1187.90
632.22	1180.25
632.57	1173.14
632.91	1165.86
633.26	1158.39
633.60	1151.53
633.95	1144.90
634.29	1137.41
634.64	1130.46
634.98	1123.15
635.32	1116.11
635.67	1110.09
636.01	1103.55
636.36	1096.69
636.70	1089.92
637.05	1083.30
637.39	1077.20
637.73	1071.16
638.08	1065.29
638.42	1059.43
638.77	1053.08
639.11	1047.15
639.45	1041.13
639.80	1034.59
640.14	1027.96
640.49	1021.40
640.83	1014.88
641.17	1008.34
641.52	1001.89
641.86	995.10
642.20	989.06
642.55	982.42
642.89	975.80
643.23	969.20
643.58	963.23
643.92	956.60
644.26	950.04
644.61	943.43
644.95	937.00
645.29	930.48
645.64	923.53
645.98	917.29
646.32	911.22
646.66	904.77
647.01	898.76
647.35	892.94
647.69	886.69
648.04	880.83
648.38	874.75
648.72	868.76
649.06	862.89
649.41	856.66
649.75	850.81
650.09	845.03
650.43	839.46
650.78	833.18
651.12	827.30
651.46	821.58
651.80	815.87
652.14	810.10
652.49	804.24
652.83	798.42
653.17	792.28
653.51	786.24
653.85	780.94
654.20	775.10
654.54	769.35
654.88	763.91
655.22	758.12
655.56	752.39
655.90	746.71
656.25	741.15
656.59	735.68
656.93	730.18
657.27	724.86
657.61	719.17
657.95	714.13
658.29	708.87
658.64	703.74
658.98	698.42
659.32	693.16
659.66	688.12
660.00	683.13
660.34	678.04
660.68	672.91
661.02	667.67
661.36	662.83
661.70	657.91
662.05	653.34
662.39	649.06
662.73	644.63
663.07	640.37
663.41	635.90
663.75	631.26
664.09	626.83
664.43	622.16
664.77	617.87
665.11	613.37
665.45	609.18
665.79	605.00
666.13	600.79
666.47	596.45
666.81	592.24
667.15	587.99
667.49	584.35
667.83	580.56
668.17	576.77
668.51	572.94
668.85	569.33
669.19	565.75
669.53	561.77
669.87	558.08
670.21	554.22
670.55	550.47
670.89	547.34
671.23	544.01
671.57	540.65
671.91	537.19
672.25	533.87
672.58	530.35
672.92	526.83
673.26	523.70
673.60	520.64
673.94	517.41
674.28	514.51
674.62	511.20
674.96	508.01
675.30	504.99
675.64	501.96
675.97	498.85
676.31	495.78
676.65	492.80
676.99	489.98
677.33	487.09
677.67	484.28
678.01	481.15
678.34	478.26
678.68	475.43
679.02	472.64
679.36	469.76
679.70	466.93
680.04	464.08
680.37	461.12
680.71	458.34
681.05	455.75
681.39	453.01
681.73	450.52
682.06	448.12
682.40	445.59
682.74	443.00
683.08	440.55
683.42	437.96
683.75	435.48
684.09	432.70
684.43	430.15
684.77	427.68
685.10	425.25
685.44	422.60
685.78	420.10
686.12	417.85
686.45	415.51
686.79	413.26
687.13	411.19
687.46	408.98
687.80	406.81
688.14	404.55
688.48	402.42
688.81	400.05
689.15	397.89
689.49	395.59
689.82	393.37
690.16	390.91
690.50	388.62
690.83	386.44
691.17	384.47
691.51	382.36
691.84	380.40
692.18	378.37
692.52	376.61
692.85	374.94
693.19	373.05
693.52	371.16
693.86	369.26
694.20	367.30
694.53	365.50
694.87	363.56
695.21	361.63
695.54	359.53
695.88	357.72
696.21	355.77
696.55	354.11
696.88	352.35
697.22	350.79
697.56	349.35
697.89	347.60
698.23	345.97
698.56	344.37
698.90	342.77
699.23	341.11
699.57	339.46
699.90	337.70
700.24	336.01
700.58	334.42
700.91	332.93
701.25	331.65
701.58	330.26
701.92	328.83
702.25	327.40
702.59	326.10
702.92	324.74
703.26	323.39
703.59	322.04
703.93	321.09
704.26	319.73
704.60	318.33
704.93	317.10
705.26	315.67
705.60	314.44
705.93	313.19
706.27	312.05
706.60	310.86
706.94	309.87
707.27	308.70
707.61	307.54
707.94	306.45
708.27	305.09
708.61	303.76
708.94	302.66
709.28	301.49
709.61	300.37
709.94	299.39
710.28	298.35
710.61	297.42
710.95	296.09
711.28	295.24
711.61	294.24
711.95	293.36
712.28	292.45
712.61	291.51
712.95	290.66
713.28	289.86
713.61	288.92
713.95	287.92
714.28	287.02
714.61	286.03
714.95	285.16
715.28	284.28
715.61	283.45
715.95	282.67
716.28	281.91
716.61	281.21
716.95	280.19
717.28	279.33
717.61	278.43
717.94	277.54
718.28	276.62
718.61	275.84
718.94	274.95
719.27	274.15
719.61	273.43
719.94	272.71
720.27	271.77
720.60	271.05
720.94	270.29
721.27	269.60
721.60	269.09
721.93	268.33
722.27	267.77
722.60	267.19
722.93	266.48
723.26	265.87
723.59	265.12
723.93	264.62
724.26	264.06
724.59	263.40
724.92	262.92
725.25	262.46
725.59	261.88
725.92	261.43
726.25	260.88
726.58	260.38
726.91	259.74
727.24	259.26
727.57	258.73
727.91	258.17
728.24	257.71
728.57	257.16
728.90	256.75
729.23	256.14
729.56	255.82
729.89	255.33
730.22	254.85
730.55	254.41
730.89	253.92
731.22	253.45
731.55	252.99
731.88	252.60
732.21	252.03
732.54	251.50
732.87	250.99
733.20	250.65
733.53	250.17
733.86	249.81
734.19	249.35
734.52	249.03
734.85	248.90
735.18	248.45
735.51	248.19
735.84	247.80
736.17	247.46
736.50	246.91
736.83	246.95
737.16	246.53
737.49	246.18
737.82	245.74
738.15	245.41
738.48	244.97
738.81	244.56
739.14	244.16
739.47	243.83
739.80	243.48
740.13	243.13
740.46	242.69
740.79	242.31
741.12	242.02
741.45	241.55
741.78	240.99
742.11	240.73
742.44	240.32
742.77	240.06
743.10	239.70
743.43	239.32
743.75	238.64
744.08	238.84
744.41	238.45
744.74	238.14
745.07	237.76
745.40	237.63
745.73	237.51
746.06	237.27
746.39	237.07
746.71	236.80
747.04	236.47
747.37	236.15
747.70	235.93
748.03	235.61
748.36	235.36
748.68	235.14
749.01	234.80
749.34	234.51
749.67	234.26
750.00	234.13
750.33	234.15
750.65	233.89
750.98	233.18
751.31	233.01
751.64	232.83
751.97	232.80
752.29	232.50
752.62	232.06
752.95	231.81
753.28	231.46
753.60	231.29
753.93	231.21
754.26	231.05
754.59	230.70
754.91	230.42
755.24	230.28
755.57	229.97
755.90	229.84
756.22	229.57
756.55	229.28
756.88	228.91
757.20	228.54
757.53	228.16
757.86	227.95
758.19	227.76
758.51	227.53
758.84	227.18
759.17	227.01
759.49	226.85
759.82	226.73
760.15	226.63
760.47	226.39
760.80	226.02
761.13	225.93
761.45	225.81
761.78	225.73
762.11	225.52
762.43	225.46
762.76	225.16
763.08	225.09
763.41	224.93
763.74	224.87
764.06	224.63
764.39	224.58
764.71	224.46
765.04	224.24
765.37	224.15
765.69	224.08
766.02	223.91
766.34	223.74
766.67	223.54
767.00	223.45
767.32	223.53
767.65	223.64
767.97	223.44
768.30	223.30
768.62	223.15
768.95	223.00
769.27	222.80
769.60	222.77
769.92	222.62
770.25	222.45
770.57	222.32
770.90	222.21
771.22	222.10
771.55	221.95
771.87	221.87
772.20	221.75
772.52	221.81
772.85	222.16
773.17	222.04
773.50	221.90
773.82	221.76
774.15	221.37
774.47	221.02
774.80	220.90
775.12	220.82
775.45	220.74
775.77	220.65
776.09	220.58
776.42	220.49
776.74	220.43
777.07	220.34
777.39	220.22
777.72	220.10
778.04	220.01
778.36	219.93
778.69	219.82
779.01	219.73
779.33	219.36
779.66	218.86
779.98	218.76
780.31	218.75
780.63	218.80
780.95	218.91
781.28	218.86
781.60	218.80
781.92	218.71
782.25	218.59
782.57	218.48
782.89	218.38
783.22	218.31
783.54	218.20
783.86	218.17
784.19	218.07
784.51	218.13
784.83	218.03
785.16	217.93
785.48	217.84
785.80	217.73
786.12	217.64
786.45	217.53
