SpectraSuite Data File
++++++++++++++++++++++++++++++++++++
Date: Mon Feb 25 17:18:40 EST 2013
User: group
Dark Spectrum Present: No
Reference Spectrum Present: No
Number of Sampled Component Spectra: 1
Spectrometers: USB2E7196
Integration Time (usec): 104000 (USB2E7196)
Spectra Averaged: 20 (USB2E7196)
Boxcar Smoothing: 10 (USB2E7196)
Correct for Electrical Dark: No (USB2E7196)
Strobe/Lamp Enabled: No (USB2E7196)
Correct for Detector Non-linearity: No (USB2E7196)
Correct for Stray Light: No (USB2E7196)
Number of Pixels in Processed Spectrum: 2048
>>>>>Begin Processed Spectral Data<<<<<
339.09	0.00
339.48	198.50
339.86	200.60
340.24	201.40
340.63	202.30
341.01	209.80
341.39	206.90
341.78	208.00
342.16	209.55
342.54	208.85
342.93	198.54
343.31	208.58
343.69	209.15
344.07	209.67
344.46	210.16
344.84	210.62
345.22	210.67
345.60	210.94
345.99	211.06
346.37	211.17
346.75	211.29
347.13	211.35
347.52	211.40
347.90	211.54
348.28	211.51
348.66	211.58
349.05	211.54
349.43	211.61
349.81	211.74
350.19	211.73
350.57	211.90
350.96	212.09
351.34	212.23
351.72	212.33
352.10	212.39
352.48	212.37
352.87	212.42
353.25	212.46
353.63	212.49
354.01	212.56
354.39	212.62
354.77	212.76
355.15	212.90
355.54	212.96
355.92	212.95
356.30	213.01
356.68	213.33
357.06	213.42
357.44	213.39
357.82	213.45
358.20	213.64
358.58	213.70
358.97	213.72
359.35	213.77
359.73	213.88
360.11	213.90
360.49	214.02
360.87	214.05
361.25	214.18
361.63	214.36
362.01	214.45
362.39	214.50
362.77	214.53
363.15	214.60
363.53	214.66
363.91	214.69
364.29	214.78
364.67	214.41
365.05	214.53
365.43	214.61
365.81	214.80
366.19	214.95
366.57	215.00
366.95	215.03
367.33	214.98
367.71	215.03
368.09	215.19
368.47	215.18
368.85	215.23
369.23	215.32
369.61	215.15
369.99	215.23
370.37	215.30
370.75	215.49
371.13	215.38
371.51	215.37
371.89	215.42
372.27	215.36
372.65	215.40
373.03	215.37
373.41	215.35
373.78	215.23
374.16	215.02
374.54	214.89
374.92	214.84
375.30	214.84
375.68	214.70
376.06	214.57
376.44	214.49
376.82	214.48
377.19	214.39
377.57	214.34
377.95	214.20
378.33	214.06
378.71	213.80
379.09	213.82
379.47	213.75
379.84	213.70
380.22	213.66
380.60	213.58
380.98	213.52
381.36	213.47
381.73	213.33
382.11	213.34
382.49	213.32
382.87	213.19
383.25	213.13
383.62	213.44
384.00	213.42
384.38	213.47
384.76	213.49
385.13	213.60
385.51	213.58
385.89	213.58
386.27	213.47
386.64	213.47
387.02	213.37
387.40	213.35
387.78	213.30
388.15	213.28
388.53	213.25
388.91	213.17
389.29	213.09
389.66	213.11
390.04	213.07
390.42	213.11
390.79	213.13
391.17	213.14
391.55	212.75
391.92	212.67
392.30	212.68
392.68	212.60
393.05	212.55
393.43	212.49
393.81	212.45
394.18	212.53
394.56	212.56
394.94	212.71
395.31	212.60
395.69	212.75
396.06	212.78
396.44	212.80
396.82	212.75
397.19	213.02
397.57	213.06
397.95	213.14
398.32	213.09
398.70	213.10
399.07	213.18
399.45	213.23
399.82	213.26
400.20	213.24
400.58	213.22
400.95	213.05
401.33	213.25
401.70	213.57
402.08	213.61
402.45	213.65
402.83	213.73
403.20	213.93
403.58	213.89
403.95	214.15
404.33	214.34
404.71	214.45
405.08	214.66
405.46	214.76
405.83	214.90
406.21	215.05
406.58	215.29
406.96	215.48
407.33	215.81
407.70	216.16
408.08	216.68
408.45	217.02
408.83	217.46
409.20	217.72
409.58	217.80
409.95	218.26
410.33	218.60
410.70	218.92
411.08	219.36
411.45	219.86
411.82	220.17
412.20	220.74
412.57	221.58
412.95	221.84
413.32	222.50
413.69	223.13
414.07	223.86
414.44	224.64
414.82	225.36
415.19	226.17
415.56	227.01
415.94	227.85
416.31	229.02
416.68	230.14
417.06	231.39
417.43	232.71
417.81	234.05
418.18	235.46
418.55	236.94
418.93	238.53
419.30	240.06
419.67	241.78
420.04	243.51
420.42	245.22
420.79	247.62
421.16	249.77
421.54	252.03
421.91	254.39
422.28	256.76
422.66	259.30
423.03	261.97
423.40	264.58
423.77	267.23
424.15	269.94
424.52	272.80
424.89	275.95
425.26	278.92
425.64	281.92
426.01	285.20
426.38	288.67
426.75	292.04
427.13	295.65
427.50	299.45
427.87	303.29
428.24	307.16
428.61	310.67
428.99	314.83
429.36	319.18
429.73	323.45
430.10	327.77
430.47	332.31
430.85	336.70
431.22	341.56
431.59	346.89
431.96	351.78
432.33	357.15
432.70	362.38
433.08	368.51
433.45	374.20
433.82	379.99
434.19	386.23
434.56	392.56
434.93	398.59
435.30	404.51
435.68	411.17
436.05	417.66
436.42	424.08
436.79	429.90
437.16	436.34
437.53	443.10
437.90	449.72
438.27	456.25
438.64	462.96
439.01	469.26
439.38	474.67
439.75	479.88
440.13	486.03
440.50	491.80
440.87	496.47
441.24	501.35
441.61	506.57
441.98	510.40
442.35	514.90
442.72	519.30
443.09	523.77
443.46	526.36
443.83	528.11
444.20	529.70
444.57	531.85
444.94	532.71
445.31	533.66
445.68	534.80
446.05	534.98
446.42	534.25
446.79	533.33
447.16	532.27
447.53	531.71
447.90	529.09
448.27	526.41
448.64	522.90
449.01	520.20
449.37	515.82
449.74	511.59
450.11	506.60
450.48	501.15
450.85	495.39
451.22	490.41
451.59	485.81
451.96	481.18
452.33	475.34
452.70	469.98
453.07	463.50
453.43	456.87
453.80	450.68
454.17	444.80
454.54	439.19
454.91	433.25
455.28	427.29
455.65	421.81
456.02	416.84
456.38	412.16
456.75	406.46
457.12	401.46
457.49	396.72
457.86	391.90
458.23	388.04
458.59	383.76
458.96	379.48
459.33	375.54
459.70	371.78
460.07	368.58
460.43	365.00
460.80	361.83
461.17	358.92
461.54	355.95
461.91	353.04
462.27	350.07
462.64	347.58
463.01	344.79
463.38	342.27
463.74	339.24
464.11	336.93
464.48	334.92
464.85	332.85
465.21	331.22
465.58	329.51
465.95	327.24
466.32	325.43
466.68	323.70
467.05	321.93
467.42	320.18
467.78	318.50
468.15	316.83
468.52	315.53
468.88	313.89
469.25	312.35
469.62	311.15
469.98	309.86
470.35	308.67
470.72	307.72
471.08	306.44
471.45	305.48
471.82	304.59
472.18	303.54
472.55	302.85
472.92	302.02
473.28	301.26
473.65	300.58
474.02	299.90
474.38	299.39
474.75	299.06
475.11	298.70
475.48	298.40
475.85	298.17
476.21	298.02
476.58	297.94
476.94	297.97
477.31	298.05
477.67	298.11
478.04	298.24
478.41	298.50
478.77	299.13
479.14	299.34
479.50	299.66
479.87	300.22
480.23	300.70
480.60	301.15
480.96	301.75
481.33	302.64
481.69	303.44
482.06	304.20
482.42	305.11
482.79	305.98
483.15	307.02
483.52	308.33
483.88	309.50
484.25	310.81
484.61	312.25
484.98	313.69
485.34	315.36
485.71	317.14
486.07	318.97
486.44	320.66
486.80	322.70
487.17	324.85
487.53	327.26
487.90	329.76
488.26	332.55
488.62	335.37
488.99	338.19
489.35	341.25
489.72	344.60
490.08	347.88
490.44	351.47
490.81	355.34
491.17	359.16
491.54	363.38
491.90	367.69
492.26	372.22
492.63	376.98
492.99	381.89
493.36	387.10
493.72	392.70
494.08	398.39
494.45	404.39
494.81	410.76
495.17	417.17
495.54	424.04
495.90	431.08
496.26	438.52
496.63	446.20
496.99	454.24
497.35	462.47
497.72	471.21
498.08	480.24
498.44	489.64
498.80	499.79
499.17	510.04
499.53	520.58
499.89	531.71
500.26	542.98
500.62	554.60
500.98	566.85
501.34	579.42
501.71	592.45
502.07	606.14
502.43	619.89
502.79	633.94
503.16	648.71
503.52	663.88
503.88	679.30
504.24	695.07
504.60	711.33
504.97	728.28
505.33	745.52
505.69	763.96
506.05	782.56
506.41	801.16
506.78	819.98
507.14	839.45
507.50	859.34
507.86	879.75
508.22	900.62
508.59	921.65
508.95	943.08
509.31	964.92
509.67	987.45
510.03	1010.65
510.39	1034.67
510.75	1058.57
511.12	1082.78
511.48	1107.62
511.84	1133.03
512.20	1158.33
512.56	1184.38
512.92	1210.73
513.28	1237.02
513.64	1263.23
514.00	1289.89
514.37	1317.07
514.73	1344.56
515.09	1372.11
515.45	1399.53
515.81	1427.47
516.17	1455.42
516.53	1483.95
516.89	1512.80
517.25	1541.08
517.61	1569.46
517.97	1597.38
518.33	1625.92
518.69	1654.56
519.05	1683.07
519.41	1711.85
519.77	1741.00
520.13	1769.49
520.49	1797.79
520.85	1826.04
521.21	1855.01
521.57	1883.98
521.93	1912.00
522.29	1941.43
522.65	1970.16
523.01	1999.20
523.37	2027.20
523.73	2056.01
524.09	2084.43
524.45	2112.72
524.81	2140.87
525.17	2169.29
525.53	2197.74
525.89	2225.58
526.25	2253.16
526.61	2280.10
526.97	2306.88
527.33	2333.81
527.68	2360.71
528.04	2386.94
528.40	2412.39
528.76	2438.00
529.12	2463.83
529.48	2490.83
529.84	2516.30
530.20	2541.65
530.56	2566.49
530.91	2592.61
531.27	2617.76
531.63	2642.03
531.99	2666.01
532.35	2689.42
532.71	2712.25
533.07	2735.85
533.42	2757.98
533.78	2780.77
534.14	2802.84
534.50	2823.47
534.86	2845.14
535.21	2864.97
535.57	2886.51
535.93	2907.15
536.29	2926.84
536.65	2946.52
537.00	2964.61
537.36	2981.87
537.72	2999.21
538.08	3016.76
538.44	3033.93
538.79	3050.72
539.15	3067.46
539.51	3083.63
539.87	3100.76
540.22	3116.81
540.58	3132.98
540.94	3148.50
541.29	3162.11
541.65	3175.80
542.01	3189.99
542.37	3202.61
542.72	3216.62
543.08	3228.35
543.44	3241.58
543.79	3252.85
544.15	3263.49
544.51	3275.25
544.87	3287.13
545.22	3297.22
545.58	3306.65
545.94	3314.47
546.29	3322.04
546.65	3328.61
547.01	3335.53
547.36	3342.07
547.72	3348.29
548.07	3352.80
548.43	3357.84
548.79	3362.74
549.14	3367.46
549.50	3372.15
549.86	3375.32
550.21	3377.90
550.57	3381.69
550.92	3382.84
551.28	3384.60
551.64	3386.65
551.99	3388.46
552.35	3389.23
552.70	3390.66
553.06	3391.86
553.41	3393.19
553.77	3393.68
554.13	3394.63
554.48	3395.32
554.84	3395.42
555.19	3394.83
555.55	3393.61
555.90	3391.76
556.26	3390.22
556.61	3388.02
556.97	3385.07
557.32	3383.76
557.68	3380.74
558.03	3377.16
558.39	3374.79
558.74	3373.51
559.10	3371.50
559.45	3368.22
559.81	3365.02
560.16	3361.03
560.52	3357.74
560.87	3353.34
561.23	3348.58
561.58	3344.73
561.94	3339.38
562.29	3333.27
562.64	3328.21
563.00	3323.90
563.35	3320.62
563.71	3316.95
564.06	3313.04
564.42	3309.51
564.77	3305.08
565.12	3301.42
565.48	3297.26
565.83	3292.64
566.19	3288.01
566.54	3281.18
566.89	3274.84
567.25	3269.45
567.60	3264.27
567.96	3257.92
568.31	3252.46
568.66	3246.48
569.02	3239.36
569.37	3232.06
569.72	3225.84
570.08	3218.93
570.43	3211.15
570.78	3202.60
571.14	3194.11
571.49	3185.62
571.84	3177.77
572.20	3168.23
572.55	3160.00
572.90	3150.35
573.26	3140.45
573.61	3130.36
573.96	3121.01
574.31	3110.68
574.67	3099.32
575.02	3087.95
575.37	3077.30
575.72	3066.01
576.08	3056.53
576.43	3045.50
576.78	3035.63
577.13	3025.73
577.49	3015.24
577.84	3004.54
578.19	2995.07
578.54	2985.62
578.90	2976.54
579.25	2965.58
579.60	2954.60
579.95	2942.90
580.30	2932.96
580.66	2923.49
581.01	2912.19
581.36	2901.05
581.71	2890.38
582.06	2880.19
582.42	2870.26
582.77	2858.67
583.12	2847.65
583.47	2836.86
583.82	2827.01
584.17	2816.49
584.53	2805.58
584.88	2795.02
585.23	2784.40
585.58	2773.33
585.93	2761.65
586.28	2750.59
586.63	2739.79
586.98	2729.82
587.34	2720.05
587.69	2709.18
588.04	2698.18
588.39	2688.47
588.74	2677.55
589.09	2667.65
589.44	2656.93
589.79	2646.95
590.14	2637.52
590.49	2627.59
590.84	2616.65
591.19	2607.32
591.54	2597.01
591.89	2585.18
592.25	2574.01
592.60	2563.04
592.95	2551.51
593.30	2539.93
593.65	2528.03
594.00	2516.92
594.35	2507.72
594.70	2496.78
595.05	2486.26
595.40	2475.75
595.75	2463.83
596.10	2454.10
596.45	2443.93
596.80	2434.43
597.15	2424.28
597.50	2413.60
597.85	2403.45
598.19	2393.15
598.54	2382.71
598.89	2373.17
599.24	2364.94
599.59	2356.01
599.94	2347.67
600.29	2338.78
600.64	2329.87
600.99	2320.40
601.34	2311.41
601.69	2300.41
602.04	2290.39
602.39	2280.92
602.74	2271.61
603.08	2263.73
603.43	2255.45
603.78	2246.34
604.13	2237.00
604.48	2227.72
604.83	2220.33
605.18	2212.46
605.53	2203.44
605.87	2193.65
606.22	2184.69
606.57	2175.20
606.92	2165.92
607.27	2155.80
607.62	2146.34
607.96	2137.77
608.31	2129.78
608.66	2120.00
609.01	2110.55
609.36	2101.26
609.70	2091.09
610.05	2081.01
610.40	2070.93
610.75	2060.34
611.10	2051.03
611.44	2039.60
611.79	2028.78
612.14	2016.89
612.49	2005.36
612.83	1995.05
613.18	1984.01
613.53	1972.83
613.88	1961.19
614.22	1950.67
614.57	1940.15
614.92	1929.42
615.27	1918.06
615.61	1906.86
615.96	1896.71
616.31	1886.75
616.65	1877.20
617.00	1867.34
617.35	1857.16
617.70	1846.42
618.04	1835.31
618.39	1823.68
618.74	1813.91
619.08	1803.45
619.43	1793.44
619.78	1783.45
620.12	1773.34
620.47	1763.75
620.82	1753.12
621.16	1742.89
621.51	1732.33
621.85	1722.29
622.20	1711.70
622.55	1701.57
622.89	1690.86
623.24	1680.30
623.59	1669.52
623.93	1658.93
624.28	1649.17
624.62	1639.22
624.97	1629.64
625.32	1620.53
625.66	1611.08
626.01	1601.65
626.35	1592.56
626.70	1583.13
627.04	1574.05
627.39	1564.79
627.73	1555.32
628.08	1546.43
628.43	1536.92
628.77	1527.53
629.12	1517.70
629.46	1509.23
629.81	1500.11
630.15	1491.49
630.50	1482.60
630.84	1473.52
631.19	1464.26
631.53	1454.83
631.88	1445.27
632.22	1435.69
632.57	1426.76
632.91	1417.64
633.26	1408.57
633.60	1399.76
633.95	1391.22
634.29	1382.04
634.64	1373.36
634.98	1364.19
635.32	1355.59
635.67	1347.79
636.01	1339.55
636.36	1331.09
636.70	1322.79
637.05	1314.44
637.39	1306.46
637.73	1298.56
638.08	1291.23
638.42	1283.63
638.77	1275.77
639.11	1267.99
639.45	1260.00
639.80	1251.40
640.14	1243.02
640.49	1234.91
640.83	1226.42
641.17	1218.12
641.52	1210.07
641.86	1201.44
642.20	1193.85
642.55	1185.22
642.89	1176.56
643.23	1167.98
643.58	1160.35
643.92	1151.74
644.26	1143.64
644.61	1135.34
644.95	1126.94
645.29	1118.53
645.64	1110.22
645.98	1102.43
646.32	1094.75
646.66	1087.00
647.01	1079.63
647.35	1072.36
647.69	1064.35
648.04	1056.79
648.38	1048.91
648.72	1041.13
649.06	1033.43
649.41	1025.37
649.75	1018.06
650.09	1010.70
650.43	1003.35
650.78	995.32
651.12	987.66
651.46	980.11
651.80	972.84
652.14	965.73
652.49	958.43
652.83	951.03
653.17	942.98
653.51	935.32
653.85	928.17
654.20	920.85
654.54	913.29
654.88	906.28
655.22	898.99
655.56	891.68
655.90	884.57
656.25	877.60
656.59	870.74
656.93	863.95
657.27	857.33
657.61	850.31
657.95	843.82
658.29	837.44
658.64	831.09
658.98	824.14
659.32	817.03
659.66	810.46
660.00	803.85
660.34	797.66
660.68	791.18
661.02	784.47
661.36	778.16
661.70	772.19
662.05	766.24
662.39	760.51
662.73	754.96
663.07	749.33
663.41	743.71
663.75	737.90
664.09	731.96
664.43	725.97
664.77	720.49
665.11	714.85
665.45	709.50
665.79	704.22
666.13	698.99
666.47	693.95
666.81	688.73
667.15	683.55
667.49	678.63
667.83	673.69
668.17	668.89
668.51	664.19
668.85	659.45
669.19	654.81
669.53	649.97
669.87	645.04
670.21	640.12
670.55	635.45
670.89	631.34
671.23	627.28
671.57	623.05
671.91	618.63
672.25	614.30
672.58	609.88
672.92	605.47
673.26	601.31
673.60	597.31
673.94	593.05
674.28	589.02
674.62	585.21
674.96	581.21
675.30	577.52
675.64	573.48
675.97	569.45
676.31	565.63
676.65	561.92
676.99	558.53
677.33	554.80
677.67	551.15
678.01	547.34
678.34	543.45
678.68	539.87
679.02	536.27
679.36	532.82
679.70	529.28
680.04	525.81
680.37	522.20
680.71	518.79
681.05	515.55
681.39	512.25
681.73	508.90
682.06	505.92
682.40	502.57
682.74	499.31
683.08	496.22
683.42	492.84
683.75	489.68
684.09	486.44
684.43	483.36
684.77	480.12
685.10	476.95
685.44	473.81
685.78	470.62
686.12	467.72
686.45	464.69
686.79	461.65
687.13	458.88
687.46	456.22
687.80	453.35
688.14	450.41
688.48	447.61
688.81	444.58
689.15	441.68
689.49	438.90
689.82	436.23
690.16	433.38
690.50	430.64
690.83	427.99
691.17	425.18
691.51	422.39
691.84	419.96
692.18	417.56
692.52	415.16
692.85	413.03
693.19	410.75
693.52	408.28
693.86	405.87
694.20	403.39
694.53	401.03
694.87	398.72
695.21	396.40
695.54	394.06
695.88	391.86
696.21	389.56
696.55	387.35
696.88	385.15
697.22	382.98
697.56	381.03
697.89	378.74
698.23	376.74
698.56	374.88
698.90	372.91
699.23	370.81
699.57	368.74
699.90	366.51
700.24	364.36
700.58	362.45
700.91	360.73
701.25	359.07
701.58	357.25
701.92	355.42
702.25	353.73
702.59	351.98
702.92	350.15
703.26	348.46
703.59	346.84
703.93	345.49
704.26	343.90
704.60	342.26
704.93	340.72
705.26	339.09
705.60	337.55
705.93	335.93
706.27	334.47
706.60	333.10
706.94	331.90
707.27	330.42
707.61	329.02
707.94	327.45
708.27	325.87
708.61	324.37
708.94	322.95
709.28	321.52
709.61	320.20
709.94	318.98
710.28	317.70
710.61	316.40
710.95	314.79
711.28	313.72
711.61	312.44
711.95	311.37
712.28	310.00
712.61	308.81
712.95	307.81
713.28	306.77
713.61	305.57
713.95	304.27
714.28	303.27
714.61	302.16
714.95	301.10
715.28	299.92
715.61	298.85
715.95	297.80
716.28	296.65
716.61	295.55
716.95	294.41
717.28	293.39
717.61	292.43
717.94	291.55
718.28	290.32
718.61	289.39
718.94	288.38
719.27	287.55
719.61	286.60
719.94	285.70
720.27	284.49
720.60	283.55
720.94	282.65
721.27	281.78
721.60	280.99
721.93	280.12
722.27	279.54
722.60	278.83
722.93	278.08
723.26	277.39
723.59	276.69
723.93	276.04
724.26	275.32
724.59	274.53
724.92	273.89
725.25	273.37
725.59	272.61
725.92	271.96
726.25	271.20
726.58	270.52
726.91	269.77
727.24	269.35
727.57	268.82
727.91	268.12
728.24	267.54
728.57	266.88
728.90	266.40
729.23	265.56
729.56	265.09
729.89	264.53
730.22	263.93
730.55	263.31
730.89	262.68
731.22	262.05
731.55	261.43
731.88	260.83
732.21	260.23
732.54	259.66
732.87	259.07
733.20	258.65
733.53	258.10
733.86	257.52
734.19	256.95
734.52	256.44
734.85	256.29
735.18	255.73
735.51	255.32
735.84	254.78
736.17	254.42
736.50	253.77
736.83	253.60
737.16	253.13
737.49	252.72
737.82	252.27
738.15	251.89
738.48	251.45
738.81	250.88
739.14	250.35
739.47	249.93
739.80	249.48
740.13	249.10
740.46	248.64
740.79	248.24
741.12	247.74
741.45	247.20
741.78	246.55
742.11	246.23
742.44	245.82
742.77	245.55
743.10	245.20
743.43	244.81
743.75	244.07
744.08	244.12
744.41	243.65
744.74	243.24
745.07	242.78
745.40	242.54
745.73	242.37
746.06	242.01
746.39	241.69
746.71	241.30
747.04	240.92
747.37	240.67
747.70	240.40
748.03	240.16
748.36	239.92
748.68	239.66
749.01	239.28
749.34	238.92
749.67	238.54
750.00	238.25
750.33	238.20
750.65	237.89
750.98	237.16
751.31	236.91
751.64	236.70
751.97	236.65
752.29	236.21
752.62	235.71
752.95	235.38
753.28	235.09
753.60	234.81
753.93	234.61
754.26	234.32
754.59	233.92
754.91	233.59
755.24	233.36
755.57	233.08
755.90	232.77
756.22	232.48
756.55	232.15
756.88	231.77
757.20	231.28
757.53	230.92
757.86	230.68
758.19	230.47
758.51	230.18
758.84	229.77
759.17	229.53
759.49	229.39
759.82	229.40
760.15	229.21
760.47	229.01
760.80	228.75
761.13	228.54
761.45	228.30
761.78	228.03
762.11	227.83
762.43	227.61
762.76	227.48
763.08	227.41
763.41	227.27
763.74	227.13
764.06	226.95
764.39	226.81
764.71	226.71
765.04	226.49
765.37	226.22
765.69	226.06
766.02	225.91
766.34	225.73
766.67	225.42
767.00	225.39
767.32	225.44
767.65	225.46
767.97	225.42
768.30	225.30
768.62	225.20
768.95	224.97
769.27	224.85
769.60	224.66
769.92	224.40
770.25	224.27
770.57	224.11
770.90	223.93
771.22	223.79
771.55	223.60
771.87	223.48
772.20	223.41
772.52	223.55
772.85	223.89
773.17	223.76
773.50	223.66
773.82	223.47
774.15	223.15
774.47	222.78
774.80	222.61
775.12	222.50
775.45	222.43
775.77	222.28
776.09	222.14
776.42	222.06
776.74	222.02
777.07	221.84
777.39	221.68
777.72	221.46
778.04	221.40
778.36	221.26
778.69	221.15
779.01	221.06
779.33	220.63
779.66	220.12
779.98	220.00
780.31	219.86
780.63	219.80
780.95	219.77
781.28	219.69
781.60	219.45
781.92	219.40
782.25	219.30
782.57	219.30
782.89	219.24
783.22	219.14
783.54	219.06
783.86	218.99
784.19	218.92
784.51	219.02
784.83	218.89
785.16	218.78
785.48	218.69
785.80	218.63
