SpectraSuite Data File
++++++++++++++++++++++++++++++++++++
Date: Mon Feb 25 17:08:45 EST 2013
User: group
Dark Spectrum Present: No
Reference Spectrum Present: No
Number of Sampled Component Spectra: 1
Spectrometers: USB2E7196
Integration Time (usec): 104000 (USB2E7196)
Spectra Averaged: 20 (USB2E7196)
Boxcar Smoothing: 10 (USB2E7196)
Correct for Electrical Dark: No (USB2E7196)
Strobe/Lamp Enabled: No (USB2E7196)
Correct for Detector Non-linearity: No (USB2E7196)
Correct for Stray Light: No (USB2E7196)
Number of Pixels in Processed Spectrum: 2048
>>>>>Begin Processed Spectral Data<<<<<
339.09	0.00
339.48	198.20
339.86	199.55
340.24	199.95
340.63	203.20
341.01	209.15
341.39	205.60
341.78	205.50
342.16	208.75
342.54	208.05
342.93	197.81
343.31	207.80
343.69	208.39
344.07	208.90
344.46	209.50
344.84	209.85
345.22	209.87
345.60	210.13
345.99	210.40
346.37	210.45
346.75	210.49
347.13	210.50
347.52	210.61
347.90	210.70
348.28	210.75
348.66	210.90
349.05	210.84
349.43	210.87
349.81	210.93
350.19	210.99
350.57	211.05
350.96	211.15
351.34	211.24
351.72	211.29
352.10	211.35
352.48	211.31
352.87	211.37
353.25	211.48
353.63	211.53
354.01	211.60
354.39	211.68
354.77	211.83
355.15	212.10
355.54	212.14
355.92	212.10
356.30	212.15
356.68	212.44
357.06	212.53
357.44	212.50
357.82	212.50
358.20	212.55
358.58	212.57
358.97	212.60
359.35	212.70
359.73	212.80
360.11	212.83
360.49	212.90
360.87	212.96
361.25	213.06
361.63	213.22
362.01	213.21
362.39	213.28
362.77	213.40
363.15	213.35
363.53	213.37
363.91	213.43
364.29	213.40
364.67	213.12
365.05	213.14
365.43	213.15
365.81	213.27
366.19	213.44
366.57	213.60
366.95	213.62
367.33	213.55
367.71	213.55
368.09	213.63
368.47	213.59
368.85	213.58
369.23	213.58
369.61	213.38
369.99	213.52
370.37	213.54
370.75	213.68
371.13	213.57
371.51	213.50
371.89	213.53
372.27	213.63
372.65	213.63
373.03	213.60
373.41	213.62
373.78	213.54
374.16	213.34
374.54	213.11
374.92	212.98
375.30	212.99
375.68	212.88
376.06	212.83
376.44	212.75
376.82	212.71
377.19	212.65
377.57	212.68
377.95	212.52
378.33	212.46
378.71	212.15
379.09	212.14
379.47	212.13
379.84	212.05
380.22	211.92
380.60	211.78
380.98	211.74
381.36	211.68
381.73	211.61
382.11	211.61
382.49	211.68
382.87	211.57
383.25	211.47
383.62	211.76
384.00	211.69
384.38	211.67
384.76	211.67
385.13	211.73
385.51	211.68
385.89	211.51
386.27	211.43
386.64	211.47
387.02	211.41
387.40	211.32
387.78	211.27
388.15	211.25
388.53	211.22
388.91	211.13
389.29	211.05
389.66	211.02
390.04	210.98
390.42	210.95
390.79	210.97
391.17	210.98
391.55	210.72
391.92	210.66
392.30	210.71
392.68	210.59
393.05	210.55
393.43	210.55
393.81	210.61
394.18	210.53
394.56	210.42
394.94	210.42
395.31	210.47
395.69	210.60
396.06	210.66
396.44	210.70
396.82	210.69
397.19	210.88
397.57	210.86
397.95	210.87
398.32	210.76
398.70	210.84
399.07	210.94
399.45	210.84
399.82	210.82
400.20	210.79
400.58	210.82
400.95	210.68
401.33	210.79
401.70	211.04
402.08	211.13
402.45	211.21
402.83	211.38
403.20	211.37
403.58	211.32
403.95	211.33
404.33	211.39
404.71	211.44
405.08	211.66
405.46	211.75
405.83	211.85
406.21	212.02
406.58	212.12
406.96	212.11
407.33	212.29
407.70	212.45
408.08	212.86
408.45	213.04
408.83	213.28
409.20	213.36
409.58	213.37
409.95	213.61
410.33	213.87
410.70	214.03
411.08	214.35
411.45	214.62
411.82	214.88
412.20	215.26
412.57	215.74
412.95	215.76
413.32	216.15
413.69	216.44
414.07	216.78
414.44	217.17
414.82	217.71
415.19	218.19
415.56	218.71
415.94	218.99
416.31	219.67
416.68	220.30
417.06	221.05
417.43	221.81
417.81	222.59
418.18	223.32
418.55	224.13
418.93	225.01
419.30	225.98
419.67	227.01
420.04	228.00
420.42	228.97
420.79	230.46
421.16	231.70
421.54	233.26
421.91	234.64
422.28	236.05
422.66	237.52
423.03	239.23
423.40	240.81
423.77	242.49
424.15	244.09
424.52	245.84
424.89	247.72
425.26	249.44
425.64	251.12
426.01	252.98
426.38	254.95
426.75	257.07
427.13	259.12
427.50	261.27
427.87	263.59
428.24	265.83
428.61	267.90
428.99	270.52
429.36	272.98
429.73	275.63
430.10	278.21
430.47	280.84
430.85	283.31
431.22	286.18
431.59	289.52
431.96	292.47
432.33	295.76
432.70	298.95
433.08	302.63
433.45	306.24
433.82	309.83
434.19	313.79
434.56	317.70
434.93	321.44
435.30	325.23
435.68	329.20
436.05	333.34
436.42	337.32
436.79	340.92
437.16	344.76
437.53	348.79
437.90	352.92
438.27	356.94
438.64	361.16
439.01	365.05
439.38	368.29
439.75	371.65
440.13	375.47
440.50	379.02
440.87	382.06
441.24	385.14
441.61	388.54
441.98	391.09
442.35	393.90
442.72	396.73
443.09	399.65
443.46	401.44
443.83	402.61
444.20	403.70
444.57	405.08
444.94	406.07
445.31	406.93
445.68	408.05
446.05	408.55
446.42	408.29
446.79	408.10
447.16	407.73
447.53	407.56
447.90	406.15
448.27	404.78
448.64	402.74
449.01	401.29
449.37	398.76
449.74	396.14
450.11	393.36
450.48	390.14
450.85	386.61
451.22	383.62
451.59	380.92
451.96	378.28
452.33	374.71
452.70	371.27
453.07	367.35
453.43	363.08
453.80	359.22
454.17	355.62
454.54	352.04
454.91	348.33
455.28	344.70
455.65	341.25
456.02	338.39
456.38	335.56
456.75	331.99
457.12	328.86
457.49	325.96
457.86	322.88
458.23	320.46
458.59	317.77
458.96	315.12
459.33	312.58
459.70	310.09
460.07	308.21
460.43	306.04
460.80	304.08
461.17	302.20
461.54	300.24
461.91	298.39
462.27	296.44
462.64	294.74
463.01	293.01
463.38	291.51
463.74	289.24
464.11	287.71
464.48	286.44
464.85	285.08
465.21	284.08
465.58	282.81
465.95	281.35
466.32	280.23
466.68	279.07
467.05	277.95
467.42	276.87
467.78	275.59
468.15	274.47
468.52	273.64
468.88	272.51
469.25	271.61
469.62	270.89
469.98	270.15
470.35	269.44
470.72	268.60
471.08	267.64
471.45	267.06
471.82	266.49
472.18	265.66
472.55	265.10
472.92	264.37
473.28	263.85
473.65	263.30
474.02	262.70
474.38	262.33
474.75	261.99
475.11	261.48
475.48	261.19
475.85	260.84
476.21	260.47
476.58	260.35
476.94	260.13
477.31	259.84
477.67	259.62
478.04	259.42
478.41	259.31
478.77	259.46
479.14	259.26
479.50	259.10
479.87	259.14
480.23	259.12
480.60	259.06
480.96	259.03
481.33	259.18
481.69	259.25
482.06	259.25
482.42	259.30
482.79	259.46
483.15	259.67
483.52	259.95
483.88	260.01
484.25	260.16
484.61	260.41
484.98	260.59
485.34	260.90
485.71	261.27
486.07	261.56
486.44	261.64
486.80	262.11
487.17	262.52
487.53	262.98
487.90	263.57
488.26	264.21
488.62	264.92
488.99	265.55
489.35	266.29
489.72	267.02
490.08	267.73
490.44	268.39
490.81	269.20
491.17	269.99
491.54	270.99
491.90	272.01
492.26	272.96
492.63	274.03
492.99	275.02
493.36	276.25
493.72	277.53
494.08	278.79
494.45	280.15
494.81	281.62
495.17	283.04
495.54	284.45
495.90	285.85
496.26	287.34
496.63	288.82
496.99	290.38
497.35	292.07
497.72	293.88
498.08	295.70
498.44	297.49
498.80	299.54
499.17	301.55
499.53	303.40
499.89	305.53
500.26	307.70
500.62	309.85
500.98	312.03
501.34	314.28
501.71	316.64
502.07	318.92
502.43	321.21
502.79	323.47
503.16	325.93
503.52	328.52
503.88	331.06
504.24	333.68
504.60	336.29
504.97	339.06
505.33	341.70
505.69	344.73
506.05	347.75
506.41	350.55
506.78	353.47
507.14	356.41
507.50	359.37
507.86	362.47
508.22	365.73
508.59	368.83
508.95	372.09
509.31	375.53
509.67	378.90
510.03	382.20
510.39	385.83
510.75	389.41
511.12	392.97
511.48	396.56
511.84	400.21
512.20	403.88
512.56	407.65
512.92	411.53
513.28	415.35
513.64	419.16
514.00	422.98
514.37	426.82
514.73	430.88
515.09	434.98
515.45	438.89
515.81	442.78
516.17	446.70
516.53	450.76
516.89	454.73
517.25	458.94
517.61	463.24
517.97	467.33
518.33	471.55
518.69	475.77
519.05	479.99
519.41	484.37
519.77	489.03
520.13	493.29
520.49	497.54
520.85	501.81
521.21	506.34
521.57	511.05
521.93	515.33
522.29	519.99
522.65	524.44
523.01	528.94
523.37	533.59
523.73	538.38
524.09	543.02
524.45	547.68
524.81	552.30
525.17	557.18
525.53	562.05
525.89	566.84
526.25	571.60
526.61	576.40
526.97	581.15
527.33	585.87
527.68	591.07
528.04	595.86
528.40	600.62
528.76	605.35
529.12	610.17
529.48	615.38
529.84	620.18
530.20	625.20
530.56	630.43
530.91	635.67
531.27	640.67
531.63	645.71
531.99	650.74
532.35	655.42
532.71	660.05
533.07	665.26
533.42	670.43
533.78	675.49
534.14	680.35
534.50	684.89
534.86	689.60
535.21	693.98
535.57	698.97
535.93	703.53
536.29	708.25
536.65	712.96
537.00	717.24
537.36	721.68
537.72	725.98
538.08	730.35
538.44	734.50
538.79	738.97
539.15	743.25
539.51	747.66
539.87	752.45
540.22	756.84
540.58	760.99
540.94	764.89
541.29	768.80
541.65	772.73
542.01	777.11
542.37	781.07
542.72	785.15
543.08	789.02
543.44	793.13
543.79	796.59
544.15	800.27
544.51	804.36
544.87	808.30
545.22	811.97
545.58	815.44
545.94	818.75
546.29	821.94
546.65	825.08
547.01	828.01
547.36	830.92
547.72	833.86
548.07	836.66
548.43	839.34
548.79	841.95
549.14	844.73
549.50	847.39
549.86	849.79
550.21	852.13
550.57	854.55
550.92	856.71
551.28	859.14
551.64	861.25
551.99	863.36
552.35	865.12
552.70	867.09
553.06	869.16
553.41	871.13
553.77	873.07
554.13	874.92
554.48	876.79
554.84	878.66
555.19	880.42
555.55	882.11
555.90	883.68
556.26	884.99
556.61	886.34
556.97	887.38
557.32	888.68
557.68	889.75
558.03	890.82
558.39	892.00
558.74	893.31
559.10	894.50
559.45	895.40
559.81	896.77
560.16	897.60
560.52	898.55
560.87	899.43
561.23	899.91
561.58	900.99
561.94	901.61
562.29	901.85
562.64	902.39
563.00	902.65
563.35	903.40
563.71	904.61
564.06	905.25
564.42	905.93
564.77	906.73
565.12	907.55
565.48	908.33
565.83	908.88
566.19	909.30
566.54	909.37
566.89	909.50
567.25	909.81
567.60	910.14
567.96	910.20
568.31	910.50
568.66	910.61
569.02	910.34
569.37	910.17
569.72	910.30
570.08	910.04
570.43	909.70
570.78	909.12
571.14	908.29
571.49	907.78
571.84	907.34
572.20	906.36
572.55	905.64
572.90	904.62
573.26	903.45
573.61	902.26
573.96	901.45
574.31	900.42
574.67	898.91
575.02	897.54
575.37	896.05
575.72	894.39
576.08	893.27
576.43	891.72
576.78	890.26
577.13	888.82
577.49	887.53
577.84	886.37
578.19	885.10
578.54	883.83
578.90	882.68
579.25	881.16
579.60	879.75
579.95	877.83
580.30	876.37
580.66	875.39
581.01	873.86
581.36	872.19
581.71	870.64
582.06	869.27
582.42	867.91
582.77	866.32
583.12	864.78
583.47	863.23
583.82	861.85
584.17	860.35
584.53	859.01
584.88	857.48
585.23	855.77
585.58	854.40
585.93	852.69
586.28	850.95
586.63	849.51
586.98	848.09
587.34	847.00
587.69	845.31
588.04	843.53
588.39	842.13
588.74	840.34
589.09	838.92
589.44	837.05
589.79	835.36
590.14	833.92
590.49	832.42
590.84	830.75
591.19	829.40
591.54	827.97
591.89	825.85
592.25	824.28
592.60	822.37
592.95	820.30
593.30	818.31
593.65	816.25
594.00	814.16
594.35	812.97
594.70	810.86
595.05	809.12
595.40	807.11
595.75	804.91
596.10	803.22
596.45	801.37
596.80	799.73
597.15	798.15
597.50	796.17
597.85	794.42
598.19	792.52
598.54	790.50
598.89	788.55
599.24	786.93
599.59	784.88
599.94	783.55
600.29	781.96
600.64	780.40
600.99	778.56
601.34	776.95
601.69	774.37
602.04	772.49
602.39	770.56
602.74	769.05
603.08	767.83
603.43	766.73
603.78	765.02
604.13	763.21
604.48	761.44
604.83	760.05
605.18	758.53
605.53	756.88
605.87	755.04
606.22	753.41
606.57	751.77
606.92	749.99
607.27	748.02
607.62	746.19
607.96	744.63
608.31	743.32
608.66	741.57
609.01	739.68
609.36	737.78
609.70	735.68
610.05	733.56
610.40	731.31
610.75	728.71
611.10	726.73
611.44	724.32
611.79	721.97
612.14	719.45
612.49	716.81
612.83	714.48
613.18	712.07
613.53	709.44
613.88	706.68
614.22	704.28
614.57	701.77
614.92	699.15
615.27	696.45
615.61	693.53
615.96	691.00
616.31	688.81
616.65	686.74
617.00	684.60
617.35	682.06
617.70	679.55
618.04	676.92
618.39	674.03
618.74	671.64
619.08	668.98
619.43	666.54
619.78	664.19
620.12	661.67
620.47	659.34
620.82	656.85
621.16	654.31
621.51	652.02
621.85	649.55
622.20	647.19
622.55	644.64
622.89	642.18
623.24	639.61
623.59	636.75
623.93	634.10
624.28	631.60
624.62	629.39
624.97	627.00
625.32	624.59
625.66	622.38
626.01	620.01
626.35	617.80
626.70	615.40
627.04	613.15
627.39	610.87
627.73	608.58
628.08	606.38
628.43	604.06
628.77	601.57
629.12	599.13
629.46	596.84
629.81	594.62
630.15	592.31
630.50	589.96
630.84	587.67
631.19	585.20
631.53	582.79
631.88	580.09
632.22	577.53
632.57	575.36
632.91	572.99
633.26	570.76
633.60	568.30
633.95	566.12
634.29	563.65
634.64	561.44
634.98	558.78
635.32	556.57
635.67	554.60
636.01	552.31
636.36	550.10
636.70	547.93
637.05	545.67
637.39	543.67
637.73	541.57
638.08	539.71
638.42	537.74
638.77	535.72
639.11	533.78
639.45	531.79
639.80	529.49
640.14	527.27
640.49	525.16
640.83	523.04
641.17	520.87
641.52	518.65
641.86	516.31
642.20	514.44
642.55	512.02
642.89	509.67
643.23	507.57
643.58	505.49
643.92	503.18
644.26	501.05
644.61	498.81
644.95	496.54
645.29	494.16
645.64	492.00
645.98	489.83
646.32	487.68
646.66	485.35
647.01	483.28
647.35	481.23
647.69	478.90
648.04	476.94
648.38	474.78
648.72	472.68
649.06	470.61
649.41	468.37
649.75	466.37
650.09	464.37
650.43	462.27
650.78	460.09
651.12	458.00
651.46	455.90
651.80	453.84
652.14	451.87
652.49	449.87
652.83	447.81
653.17	445.60
653.51	443.41
653.85	441.48
654.20	439.43
654.54	437.34
654.88	435.35
655.22	433.40
655.56	431.26
655.90	429.29
656.25	427.36
656.59	425.42
656.93	423.46
657.27	421.63
657.61	419.45
657.95	417.60
658.29	415.53
658.64	413.69
658.98	411.68
659.32	409.64
659.66	407.78
660.00	405.83
660.34	404.03
660.68	402.22
661.02	400.43
661.36	398.69
661.70	396.98
662.05	395.31
662.39	393.57
662.73	391.94
663.07	390.37
663.41	388.69
663.75	386.91
664.09	385.28
664.43	383.48
664.77	382.06
665.11	380.38
665.45	378.97
665.79	377.46
666.13	375.94
666.47	374.44
666.81	372.84
667.15	371.19
667.49	369.71
667.83	368.37
668.17	366.79
668.51	365.34
668.85	364.02
669.19	362.73
669.53	361.23
669.87	359.82
670.21	358.38
670.55	357.01
670.89	355.94
671.23	354.68
671.57	353.37
671.91	352.01
672.25	350.68
672.58	349.41
672.92	348.09
673.26	346.80
673.60	345.66
673.94	344.42
674.28	343.31
674.62	342.24
674.96	340.85
675.30	339.73
675.64	338.53
675.97	337.24
676.31	336.04
676.65	334.79
676.99	333.84
677.33	332.65
677.67	331.47
678.01	330.11
678.34	328.92
678.68	327.86
679.02	326.73
679.36	325.67
679.70	324.46
680.04	323.10
680.37	321.98
680.71	320.81
681.05	319.84
681.39	318.79
681.73	317.58
682.06	316.68
682.40	315.66
682.74	314.67
683.08	313.74
683.42	312.57
683.75	311.69
684.09	310.57
684.43	309.56
684.77	308.49
685.10	307.59
685.44	306.50
685.78	305.56
686.12	304.65
686.45	303.71
686.79	302.85
687.13	302.12
687.46	301.16
687.80	300.30
688.14	299.26
688.48	298.30
688.81	297.42
689.15	296.56
689.49	295.66
689.82	294.73
690.16	293.77
690.50	292.93
690.83	291.98
691.17	290.93
691.51	290.07
691.84	289.25
692.18	288.36
692.52	287.61
692.85	286.75
693.19	285.99
693.52	285.05
693.86	284.07
694.20	283.18
694.53	282.45
694.87	281.59
695.21	280.87
695.54	280.13
695.88	279.24
696.21	278.29
696.55	277.50
696.88	276.76
697.22	275.93
697.56	275.26
697.89	274.54
698.23	273.91
698.56	273.16
698.90	272.61
699.23	271.88
699.57	271.18
699.90	270.44
700.24	269.70
700.58	269.17
700.91	268.71
701.25	268.35
701.58	267.85
701.92	267.28
702.25	266.64
702.59	265.96
702.92	265.45
703.26	264.91
703.59	264.24
703.93	263.86
704.26	263.39
704.60	262.77
704.93	262.17
705.26	261.56
705.60	261.14
705.93	260.48
706.27	260.12
706.60	259.76
706.94	259.41
707.27	258.88
707.61	258.32
707.94	257.74
708.27	256.95
708.61	256.31
708.94	255.85
709.28	255.35
709.61	254.85
709.94	254.45
710.28	254.04
710.61	253.71
710.95	252.94
711.28	252.67
711.61	252.19
711.95	251.80
712.28	251.33
712.61	250.85
712.95	250.62
713.28	250.19
713.61	249.65
713.95	249.10
714.28	248.67
714.61	248.26
714.95	247.76
715.28	247.38
715.61	246.99
715.95	246.65
716.28	246.27
716.61	245.99
716.95	245.46
717.28	245.11
717.61	244.83
717.94	244.54
718.28	243.95
718.61	243.57
718.94	243.15
719.27	242.86
719.61	242.54
719.94	242.04
720.27	241.54
720.60	241.23
720.94	240.85
721.27	240.61
721.60	240.41
721.93	240.21
722.27	240.02
722.60	239.82
722.93	239.46
723.26	239.17
723.59	238.77
723.93	238.64
724.26	238.33
724.59	237.99
724.92	237.72
725.25	237.52
725.59	237.34
725.92	237.14
726.25	236.93
726.58	236.69
726.91	236.51
727.24	236.33
727.57	236.05
727.91	235.78
728.24	235.57
728.57	235.25
728.90	235.05
729.23	234.78
729.56	234.62
729.89	234.41
730.22	234.23
730.55	233.99
730.89	233.71
731.22	233.43
731.55	233.14
731.88	232.93
732.21	232.67
732.54	232.48
732.87	232.30
733.20	232.05
733.53	231.81
733.86	231.59
734.19	231.36
734.52	231.27
734.85	231.40
735.18	231.16
735.51	231.08
735.84	230.90
736.17	230.73
736.50	230.37
736.83	230.60
737.16	230.36
737.49	230.30
737.82	230.05
738.15	229.93
738.48	229.83
738.81	229.67
739.14	229.47
739.47	229.19
739.80	228.96
740.13	228.84
740.46	228.62
740.79	228.42
741.12	228.24
741.45	228.01
741.78	227.62
742.11	227.52
742.44	227.23
742.77	227.15
743.10	226.97
743.43	226.74
743.75	226.14
744.08	226.48
744.41	226.28
744.74	226.12
745.07	225.91
745.40	225.72
745.73	225.71
746.06	225.50
746.39	225.41
746.71	225.22
747.04	225.04
747.37	224.87
747.70	224.73
748.03	224.60
748.36	224.51
748.68	224.34
749.01	224.13
749.34	223.97
749.67	223.82
750.00	223.75
750.33	223.92
750.65	223.84
750.98	223.22
751.31	223.06
751.64	223.01
751.97	223.15
752.29	223.00
752.62	222.68
752.95	222.60
753.28	222.44
753.60	222.38
753.93	222.35
754.26	222.22
754.59	222.01
754.91	221.82
755.24	221.65
755.57	221.57
755.90	221.37
756.22	221.37
756.55	221.20
756.88	221.00
757.20	220.69
757.53	220.50
757.86	220.36
758.19	220.27
758.51	220.20
758.84	219.82
759.17	219.71
759.49	219.64
759.82	219.70
760.15	219.62
760.47	219.48
760.80	219.19
761.13	219.15
761.45	219.11
761.78	219.10
762.11	219.05
762.43	218.89
762.76	218.81
763.08	218.70
763.41	218.57
763.74	218.52
764.06	218.33
764.39	218.23
764.71	218.21
765.04	218.13
765.37	217.95
765.69	217.91
766.02	217.89
766.34	217.87
766.67	217.71
767.00	217.70
767.32	217.87
767.65	218.08
767.97	218.04
768.30	217.94
768.62	217.84
768.95	217.67
769.27	217.68
769.60	217.71
769.92	217.57
770.25	217.42
770.57	217.34
770.90	217.42
771.22	217.36
771.55	217.31
771.87	217.29
772.20	217.18
772.52	217.39
772.85	217.62
773.17	217.53
773.50	217.41
773.82	217.30
774.15	217.06
774.47	216.81
774.80	216.65
775.12	216.60
775.45	216.54
775.77	216.57
776.09	216.51
776.42	216.47
776.74	216.53
777.07	216.52
777.39	216.45
777.72	216.29
778.04	216.27
778.36	216.18
778.69	216.15
779.01	216.19
779.33	215.81
779.66	215.40
779.98	215.30
780.31	215.27
780.63	215.36
780.95	215.32
781.28	215.24
781.60	215.20
781.92	215.13
782.25	215.10
782.57	215.02
782.89	214.95
783.22	214.85
783.54	214.72
783.86	214.74
784.19	214.62
784.51	214.76
784.83	214.65
785.16	214.57
785.48	214.53
785.80	214.46
786.12	214.53
786.45	214.57
786.77	214.55
787.09	214.57
787.42	214.39
787.74	214.40
788.06	214.41
788.38	214.41
788.71	214.35
789.03	214.36
789.35	214.40
789.67	214.35
789.99	214.31
790.32	214.28
790.64	214.28
790.96	214.59
791.28	214.35
791.61	214.37
791.93	214.42
792.25	214.36
792.57	214.63
792.89	214.47
793.21	214.44
793.54	214.41
793.86	214.31
794.18	214.40
