SpectraSuite Data File
++++++++++++++++++++++++++++++++++++
Date: Mon Feb 25 17:17:46 EST 2013
User: group
Dark Spectrum Present: No
Reference Spectrum Present: No
Number of Sampled Component Spectra: 1
Spectrometers: USB2E7196
Integration Time (usec): 104000 (USB2E7196)
Spectra Averaged: 20 (USB2E7196)
Boxcar Smoothing: 10 (USB2E7196)
Correct for Electrical Dark: No (USB2E7196)
Strobe/Lamp Enabled: No (USB2E7196)
Correct for Detector Non-linearity: No (USB2E7196)
Correct for Stray Light: No (USB2E7196)
Number of Pixels in Processed Spectrum: 2048
>>>>>Begin Processed Spectral Data<<<<<
339.09	0.00
339.48	200.70
339.86	200.55
340.24	202.90
340.63	203.50
341.01	210.10
341.39	205.85
341.78	208.10
342.16	209.65
342.54	209.45
342.93	198.87
343.31	208.97
343.69	209.43
344.07	209.94
344.46	210.36
344.84	210.80
345.22	210.86
345.60	211.14
345.99	211.36
346.37	211.50
346.75	211.62
347.13	211.72
347.52	211.76
347.90	211.95
348.28	211.95
348.66	212.03
349.05	211.93
349.43	211.96
349.81	212.04
350.19	212.10
350.57	212.17
350.96	212.24
351.34	212.23
351.72	212.33
352.10	212.37
352.48	212.33
352.87	212.24
353.25	212.30
353.63	212.34
354.01	212.28
354.39	212.25
354.77	212.25
355.15	212.40
355.54	212.40
355.92	212.30
356.30	212.36
356.68	212.56
357.06	212.60
357.44	212.62
357.82	212.58
358.20	212.58
358.58	212.63
358.97	212.66
359.35	212.75
359.73	212.80
360.11	212.82
360.49	212.86
360.87	212.96
361.25	212.98
361.63	213.14
362.01	213.12
362.39	213.15
362.77	213.19
363.15	213.16
363.53	213.18
363.91	213.23
364.29	213.29
364.67	213.04
365.05	213.09
365.43	213.13
365.81	213.22
366.19	213.35
366.57	213.51
366.95	213.49
367.33	213.44
367.71	213.51
368.09	213.55
368.47	213.63
368.85	213.57
369.23	213.64
369.61	213.53
369.99	213.71
370.37	213.68
370.75	213.89
371.13	213.81
371.51	213.75
371.89	213.71
372.27	213.72
372.65	213.77
373.03	213.76
373.41	213.76
373.78	213.74
374.16	213.60
374.54	213.51
374.92	213.49
375.30	213.50
375.68	213.40
376.06	213.40
376.44	213.36
376.82	213.35
377.19	213.35
377.57	213.30
377.95	213.20
378.33	213.22
378.71	213.01
379.09	213.09
379.47	213.17
379.84	213.12
380.22	213.07
380.60	212.96
380.98	212.89
381.36	212.84
381.73	212.70
382.11	212.81
382.49	212.69
382.87	212.62
383.25	212.60
383.62	212.98
384.00	212.91
384.38	212.90
384.76	213.05
385.13	213.10
385.51	213.10
385.89	213.05
386.27	213.08
386.64	213.03
387.02	212.96
387.40	212.82
387.78	212.83
388.15	212.78
388.53	212.80
388.91	212.77
389.29	212.71
389.66	212.77
390.04	212.63
390.42	212.71
390.79	212.72
391.17	212.70
391.55	212.31
391.92	212.30
392.30	212.30
392.68	212.14
393.05	212.13
393.43	212.08
393.81	212.11
394.18	212.02
394.56	212.11
394.94	212.19
395.31	212.22
395.69	212.28
396.06	212.39
396.44	212.31
396.82	212.32
397.19	212.52
397.57	212.48
397.95	212.53
398.32	212.52
398.70	212.66
399.07	212.80
399.45	212.78
399.82	212.81
400.20	212.80
400.58	212.89
400.95	212.79
401.33	212.91
401.70	213.19
402.08	213.34
402.45	213.38
402.83	213.50
403.20	213.54
403.58	213.62
403.95	213.72
404.33	213.92
404.71	213.98
405.08	214.27
405.46	214.51
405.83	214.70
406.21	214.77
406.58	214.87
406.96	215.00
407.33	215.17
407.70	215.39
408.08	215.86
408.45	216.12
408.83	216.40
409.20	216.64
409.58	216.72
409.95	217.06
410.33	217.39
410.70	217.64
411.08	218.07
411.45	218.49
411.82	218.79
412.20	219.31
412.57	220.02
412.95	220.30
413.32	220.84
413.69	221.41
414.07	222.11
414.44	222.78
414.82	223.47
415.19	224.40
415.56	225.22
415.94	225.91
416.31	227.01
416.68	228.04
417.06	229.15
417.43	230.25
417.81	231.48
418.18	232.75
418.55	234.09
418.93	235.60
419.30	237.08
419.67	238.71
420.04	240.34
420.42	242.06
420.79	244.24
421.16	246.26
421.54	248.46
421.91	250.55
422.28	252.74
422.66	254.99
423.03	257.35
423.40	259.73
423.77	262.29
424.15	264.76
424.52	267.42
424.89	270.37
425.26	273.20
425.64	275.86
426.01	278.73
426.38	281.81
426.75	284.86
427.13	288.00
427.50	291.39
427.87	294.79
428.24	298.20
428.61	301.35
428.99	305.05
429.36	308.83
429.73	312.76
430.10	316.62
430.47	320.67
430.85	324.64
431.22	328.95
431.59	333.68
431.96	337.85
432.33	342.71
432.70	347.42
433.08	352.89
433.45	358.01
433.82	363.15
434.19	368.83
434.56	374.55
434.93	379.84
435.30	385.25
435.68	391.27
436.05	397.06
436.42	402.77
436.79	407.97
437.16	413.71
437.53	419.71
437.90	425.68
438.27	431.41
438.64	437.50
439.01	443.15
439.38	447.91
439.75	453.05
440.13	458.59
440.50	463.60
440.87	467.75
441.24	472.27
441.61	477.16
441.98	480.70
442.35	484.63
442.72	488.98
443.09	493.05
443.46	495.40
443.83	497.09
444.20	498.53
444.57	500.66
444.94	501.48
445.31	502.42
445.68	503.59
446.05	504.07
446.42	503.35
446.79	502.61
447.16	501.81
447.53	501.21
447.90	498.80
448.27	496.59
448.64	493.42
449.01	490.96
449.37	486.81
449.74	482.89
450.11	478.51
450.48	473.39
450.85	468.00
451.22	463.43
451.59	459.18
451.96	455.05
452.33	449.55
452.70	444.72
453.07	439.00
453.43	432.79
453.80	427.19
454.17	421.81
454.54	416.64
454.91	411.26
455.28	405.73
455.65	400.80
456.02	396.27
456.38	392.11
456.75	387.01
457.12	382.73
457.49	378.44
457.86	374.04
458.23	370.47
458.59	366.58
458.96	362.72
459.33	359.18
459.70	355.67
460.07	352.93
460.43	349.74
460.80	346.72
461.17	344.23
461.54	341.43
461.91	338.88
462.27	336.28
462.64	333.91
463.01	331.49
463.38	329.17
463.74	326.30
464.11	324.13
464.48	322.21
464.85	320.23
465.21	318.69
465.58	317.14
465.95	315.17
466.32	313.66
466.68	312.06
467.05	310.53
467.42	309.04
467.78	307.41
468.15	305.85
468.52	304.68
468.88	303.20
469.25	301.78
469.62	300.82
469.98	299.74
470.35	298.69
470.72	297.76
471.08	296.71
471.45	295.96
471.82	295.21
472.18	294.32
472.55	293.71
472.92	292.93
473.28	292.33
473.65	291.85
474.02	291.20
474.38	290.77
474.75	290.40
475.11	289.94
475.48	289.70
475.85	289.52
476.21	289.41
476.58	289.31
476.94	289.51
477.31	289.46
477.67	289.45
478.04	289.61
478.41	289.83
478.77	290.30
479.14	290.46
479.50	290.77
479.87	291.23
480.23	291.67
480.60	292.14
480.96	292.64
481.33	293.34
481.69	294.10
482.06	294.89
482.42	295.53
482.79	296.41
483.15	297.40
483.52	298.54
483.88	299.59
484.25	300.71
484.61	301.77
484.98	302.96
485.34	304.46
485.71	306.05
486.07	307.66
486.44	309.11
486.80	310.96
487.17	312.78
487.53	314.88
487.90	317.13
488.26	319.65
488.62	322.10
488.99	324.61
489.35	327.17
489.72	330.04
490.08	333.05
490.44	336.22
490.81	339.57
491.17	343.02
491.54	346.64
491.90	350.39
492.26	354.47
492.63	358.78
492.99	363.06
493.36	367.60
493.72	372.55
494.08	377.62
494.45	382.90
494.81	388.66
495.17	394.33
495.54	400.44
495.90	406.72
496.26	413.29
496.63	420.10
496.99	427.40
497.35	434.79
497.72	442.63
498.08	450.56
498.44	458.74
498.80	467.64
499.17	476.81
499.53	486.22
499.89	495.93
500.26	505.90
500.62	516.23
500.98	527.17
501.34	538.26
501.71	549.80
502.07	561.61
502.43	573.68
502.79	586.08
503.16	599.04
503.52	612.43
503.88	626.03
504.24	640.19
504.60	654.50
504.97	669.41
505.33	684.66
505.69	700.96
506.05	717.27
506.41	733.57
506.78	750.17
507.14	767.34
507.50	784.92
507.86	802.98
508.22	821.46
508.59	839.86
508.95	859.04
509.31	878.63
509.67	898.71
510.03	918.99
510.39	940.04
510.75	961.14
511.12	982.49
511.48	1004.34
511.84	1026.65
512.20	1048.97
512.56	1072.16
512.92	1095.36
513.28	1118.54
513.64	1141.90
514.00	1165.69
514.37	1189.65
514.73	1214.15
515.09	1238.97
515.45	1263.61
515.81	1288.37
516.17	1313.72
516.53	1338.83
516.89	1364.27
517.25	1389.54
517.61	1415.17
517.97	1440.60
518.33	1465.90
518.69	1491.30
519.05	1517.39
519.41	1543.40
519.77	1569.72
520.13	1595.08
520.49	1620.55
520.85	1646.16
521.21	1672.33
521.57	1698.55
521.93	1724.11
522.29	1750.59
522.65	1776.78
523.01	1802.48
523.37	1827.71
523.73	1853.26
524.09	1878.71
524.45	1903.95
524.81	1929.51
525.17	1955.22
525.53	1980.63
525.89	2006.31
526.25	2031.62
526.61	2055.45
526.97	2079.65
527.33	2104.01
527.68	2128.61
528.04	2152.06
528.40	2175.28
528.76	2198.40
529.12	2221.65
529.48	2245.78
529.84	2268.50
530.20	2290.60
530.56	2313.24
530.91	2336.56
531.27	2359.41
531.63	2381.52
531.99	2403.52
532.35	2424.65
532.71	2445.22
533.07	2466.34
533.42	2486.56
533.78	2506.96
534.14	2527.34
534.50	2545.84
534.86	2565.20
535.21	2583.21
535.57	2603.22
535.93	2621.81
536.29	2639.65
536.65	2657.67
537.00	2674.19
537.36	2690.16
537.72	2705.94
538.08	2722.13
538.44	2738.08
538.79	2753.55
539.15	2768.99
539.51	2783.60
539.87	2799.20
540.22	2813.84
540.58	2828.68
540.94	2842.51
541.29	2855.29
541.65	2867.61
542.01	2880.78
542.37	2892.61
542.72	2905.05
543.08	2915.38
543.44	2927.43
543.79	2937.75
544.15	2947.15
544.51	2957.78
544.87	2968.48
545.22	2978.11
545.58	2986.57
545.94	2993.51
546.29	3000.06
546.65	3006.36
547.01	3012.85
547.36	3018.65
547.72	3024.24
548.07	3028.40
548.43	3032.94
548.79	3037.19
549.14	3041.54
549.50	3045.43
549.86	3048.37
550.21	3050.92
550.57	3054.40
550.92	3055.74
551.28	3057.94
551.64	3060.41
551.99	3062.57
552.35	3063.22
552.70	3064.76
553.06	3066.10
553.41	3067.40
553.77	3068.58
554.13	3069.26
554.48	3070.03
554.84	3070.38
555.19	3069.89
555.55	3068.99
555.90	3067.58
556.26	3066.00
556.61	3064.69
556.97	3062.54
557.32	3061.10
557.68	3058.72
558.03	3056.16
558.39	3053.59
558.74	3052.16
559.10	3049.65
559.45	3046.29
559.81	3043.94
560.16	3040.17
560.52	3037.07
560.87	3033.58
561.23	3029.12
561.58	3025.66
561.94	3020.78
562.29	3015.73
562.64	3011.99
563.00	3008.48
563.35	3005.03
563.71	3002.30
564.06	2998.32
564.42	2995.08
564.77	2991.69
565.12	2988.30
565.48	2984.20
565.83	2980.48
566.19	2976.33
566.54	2971.05
566.89	2965.68
567.25	2960.94
567.60	2956.41
567.96	2950.89
568.31	2946.22
568.66	2940.75
569.02	2934.59
569.37	2928.22
569.72	2922.51
570.08	2915.94
570.43	2908.95
570.78	2901.96
571.14	2894.23
571.49	2886.47
571.84	2879.31
572.20	2870.27
572.55	2862.88
572.90	2854.39
573.26	2845.66
573.61	2836.61
573.96	2827.89
574.31	2818.96
574.67	2808.67
575.02	2798.46
575.37	2788.73
575.72	2778.07
576.08	2769.57
576.43	2759.50
576.78	2750.38
577.13	2741.53
577.49	2732.21
577.84	2722.38
578.19	2713.69
578.54	2705.39
578.90	2697.26
579.25	2687.20
579.60	2677.47
579.95	2667.14
580.30	2658.15
580.66	2649.33
581.01	2639.12
581.36	2629.08
581.71	2619.31
582.06	2610.27
582.42	2601.24
582.77	2591.18
583.12	2581.60
583.47	2572.21
583.82	2563.58
584.17	2554.10
584.53	2544.35
584.88	2534.60
585.23	2525.32
585.58	2515.36
585.93	2504.92
586.28	2495.04
586.63	2485.61
586.98	2476.86
587.34	2468.25
587.69	2458.58
588.04	2448.91
588.39	2440.07
588.74	2430.61
589.09	2421.81
589.44	2411.98
589.79	2403.16
590.14	2394.75
590.49	2385.55
590.84	2375.60
591.19	2367.20
591.54	2358.40
591.89	2347.60
592.25	2337.71
592.60	2327.51
592.95	2317.28
593.30	2306.65
593.65	2296.21
594.00	2286.56
594.35	2278.43
594.70	2268.59
595.05	2259.15
595.40	2249.66
595.75	2239.47
596.10	2230.65
596.45	2221.19
596.80	2213.03
597.15	2203.98
597.50	2194.34
597.85	2185.84
598.19	2176.45
598.54	2166.95
598.89	2158.09
599.24	2150.80
599.59	2142.91
599.94	2135.51
600.29	2127.53
600.64	2119.98
600.99	2111.40
601.34	2103.21
601.69	2093.15
602.04	2084.12
602.39	2076.03
602.74	2067.60
603.08	2060.42
603.43	2053.13
603.78	2045.19
604.13	2036.91
604.48	2028.75
604.83	2021.85
605.18	2014.75
605.53	2006.97
605.87	1998.42
606.22	1990.62
606.57	1981.94
606.92	1973.32
607.27	1964.44
607.62	1955.80
607.96	1947.94
608.31	1940.83
608.66	1932.15
609.01	1923.57
609.36	1915.10
609.70	1905.55
610.05	1896.58
610.40	1887.48
610.75	1877.80
611.10	1869.34
611.44	1859.32
611.79	1849.59
612.14	1839.26
612.49	1828.39
612.83	1818.90
613.18	1809.01
613.53	1799.02
613.88	1788.53
614.22	1779.25
614.57	1769.79
614.92	1760.25
615.27	1750.05
615.61	1739.85
615.96	1730.34
616.31	1721.46
616.65	1712.71
617.00	1704.32
617.35	1695.47
617.70	1686.09
618.04	1676.03
618.39	1665.52
618.74	1656.30
619.08	1646.86
619.43	1637.66
619.78	1629.00
620.12	1620.00
620.47	1611.22
620.82	1601.29
621.16	1592.15
621.51	1582.47
621.85	1573.25
622.20	1563.60
622.55	1554.35
622.89	1544.85
623.24	1535.79
623.59	1526.25
623.93	1516.65
624.28	1507.45
624.62	1498.20
624.97	1488.97
625.32	1480.75
625.66	1472.45
626.01	1463.92
626.35	1455.57
626.70	1446.87
627.04	1438.49
627.39	1430.21
627.73	1421.76
628.08	1414.09
628.43	1405.65
628.77	1397.17
629.12	1388.61
629.46	1381.20
629.81	1372.95
630.15	1364.60
630.50	1356.18
630.84	1347.65
631.19	1339.45
631.53	1331.08
631.88	1322.28
632.22	1313.93
632.57	1305.77
632.91	1297.42
633.26	1289.11
633.60	1281.17
633.95	1273.46
634.29	1265.16
634.64	1257.08
634.98	1248.71
635.32	1240.88
635.67	1233.84
636.01	1226.57
636.36	1218.65
636.70	1210.97
637.05	1203.35
637.39	1196.11
637.73	1189.15
638.08	1182.81
638.42	1176.02
638.77	1168.93
639.11	1162.02
639.45	1154.80
639.80	1147.09
640.14	1139.66
640.49	1132.20
640.83	1124.70
641.17	1117.41
641.52	1110.10
641.86	1102.48
642.20	1095.45
642.55	1087.62
642.89	1079.94
643.23	1072.20
643.58	1065.54
643.92	1057.74
644.26	1050.78
644.61	1043.68
644.95	1036.05
645.29	1028.43
645.64	1020.83
645.98	1013.61
646.32	1006.76
646.66	999.75
647.01	993.00
647.35	986.26
647.69	979.15
648.04	972.23
648.38	965.12
648.72	958.27
649.06	951.39
649.41	944.56
649.75	937.94
650.09	931.35
650.43	924.75
650.78	917.77
651.12	911.06
651.46	904.04
651.80	897.57
652.14	891.18
652.49	884.77
652.83	878.12
653.17	871.01
653.51	864.25
653.85	857.93
654.20	851.41
654.54	844.68
654.88	838.30
655.22	831.87
655.56	825.42
655.90	818.89
656.25	812.58
656.59	806.29
656.93	800.13
657.27	794.00
657.61	787.50
657.95	781.47
658.29	775.64
658.64	770.09
658.98	763.83
659.32	757.66
659.66	751.63
660.00	745.80
660.34	740.06
660.68	734.12
661.02	728.13
661.36	722.55
661.70	717.04
662.05	711.96
662.39	706.83
662.73	701.83
663.07	696.95
663.41	691.87
663.75	686.68
664.09	681.48
664.43	676.18
664.77	671.37
665.11	666.42
665.45	661.67
665.79	656.72
666.13	652.03
666.47	647.29
666.81	642.60
667.15	637.83
667.49	633.64
667.83	629.40
668.17	625.03
668.51	620.82
668.85	616.69
669.19	612.39
669.53	608.00
669.87	603.54
670.21	599.25
670.55	595.05
670.89	591.29
671.23	587.58
671.57	583.74
671.91	580.01
672.25	576.00
672.58	571.97
672.92	568.02
673.26	564.29
673.60	560.78
673.94	556.94
674.28	553.38
674.62	549.71
674.96	546.03
675.30	542.55
675.64	539.02
675.97	535.44
676.31	532.10
676.65	528.65
676.99	525.52
677.33	522.08
677.67	518.79
678.01	515.21
678.34	511.85
678.68	508.59
679.02	505.10
679.36	502.00
679.70	498.91
680.04	495.78
680.37	492.62
680.71	489.50
681.05	486.71
681.39	483.68
681.73	480.68
682.06	477.92
682.40	474.95
682.74	472.11
683.08	469.37
683.42	466.33
683.75	463.55
684.09	460.61
684.43	457.84
684.77	454.84
685.10	452.08
685.44	449.14
685.78	446.38
686.12	443.92
686.45	441.16
686.79	438.43
687.13	435.89
687.46	433.42
687.80	430.81
688.14	428.01
688.48	425.64
688.81	422.99
689.15	420.45
689.49	418.03
689.82	415.35
690.16	412.61
690.50	410.07
690.83	407.60
691.17	404.95
691.51	402.55
691.84	400.33
692.18	398.15
692.52	396.05
692.85	393.94
693.19	391.77
693.52	389.67
693.86	387.47
694.20	385.40
694.53	383.31
694.87	381.21
695.21	379.18
695.54	377.02
695.88	375.02
696.21	372.86
696.55	370.94
696.88	369.06
697.22	367.21
697.56	365.65
697.89	363.77
698.23	362.04
698.56	360.18
698.90	358.56
699.23	356.71
699.57	354.91
699.90	353.12
700.24	351.29
700.58	349.53
700.91	348.03
701.25	346.48
701.58	344.83
701.92	343.25
702.25	341.69
702.59	340.10
702.92	338.53
703.26	336.99
703.59	335.45
703.93	334.24
704.26	332.87
704.60	331.22
704.93	329.79
705.26	328.30
705.60	326.96
705.93	325.43
706.27	324.07
706.60	322.81
706.94	321.59
707.27	320.29
707.61	318.97
707.94	317.59
708.27	316.07
708.61	314.69
708.94	313.40
709.28	312.08
709.61	310.85
709.94	309.67
710.28	308.58
710.61	307.45
710.95	305.92
711.28	304.95
711.61	303.80
711.95	302.76
712.28	301.63
712.61	300.47
712.95	299.49
713.28	298.53
713.61	297.39
713.95	296.25
714.28	295.25
714.61	294.32
714.95	293.28
715.28	292.28
715.61	291.33
715.95	290.32
716.28	289.39
716.61	288.45
716.95	287.42
717.28	286.41
717.61	285.49
717.94	284.67
718.28	283.49
718.61	282.62
718.94	281.68
719.27	280.80
719.61	279.99
719.94	279.10
720.27	278.13
720.60	277.27
720.94	276.47
721.27	275.68
721.60	274.96
721.93	274.30
722.27	273.70
722.60	273.06
722.93	272.35
723.26	271.64
723.59	270.86
723.93	270.31
724.26	269.66
724.59	269.00
724.92	268.33
725.25	267.87
725.59	267.18
725.92	266.65
726.25	266.11
726.58	265.50
726.91	264.95
727.24	264.45
727.57	263.93
727.91	263.30
728.24	262.76
728.57	262.13
728.90	261.59
729.23	260.88
729.56	260.50
729.89	259.99
730.22	259.43
730.55	259.02
730.89	258.52
731.22	258.02
731.55	257.45
731.88	256.97
732.21	256.37
732.54	255.87
732.87	255.32
733.20	254.88
733.53	254.44
733.86	253.96
734.19	253.42
734.52	253.05
734.85	252.82
735.18	252.32
735.51	251.89
735.84	251.40
736.17	251.09
736.50	250.40
736.83	250.37
737.16	249.99
737.49	249.62
737.82	249.12
738.15	248.77
738.48	248.38
738.81	248.00
739.14	247.52
739.47	247.09
739.80	246.65
740.13	246.21
740.46	245.77
740.79	245.32
741.12	244.98
741.45	244.46
741.78	243.99
742.11	243.74
742.44	243.33
742.77	243.04
743.10	242.63
743.43	242.33
743.75	241.63
744.08	241.78
744.41	241.31
744.74	241.01
745.07	240.65
745.40	240.41
745.73	240.21
746.06	239.95
746.39	239.77
746.71	239.48
747.04	239.19
747.37	238.95
747.70	238.72
748.03	238.42
748.36	238.24
748.68	237.84
749.01	237.43
749.34	237.16
749.67	236.90
750.00	236.68
750.33	236.61
750.65	236.27
750.98	235.57
751.31	235.31
751.64	235.05
751.97	234.95
752.29	234.60
752.62	234.15
752.95	233.84
753.28	233.48
753.60	233.16
753.93	233.02
754.26	232.80
754.59	232.48
754.91	232.18
755.24	231.92
755.57	231.78
755.90	231.56
756.22	231.33
756.55	231.07
756.88	230.77
757.20	230.27
757.53	229.98
757.86	229.65
758.19	229.49
758.51	229.18
758.84	228.72
759.17	228.47
759.49	228.31
759.82	228.28
760.15	228.11
760.47	227.94
760.80	227.51
761.13	227.37
761.45	227.17
761.78	227.00
762.11	226.85
762.43	226.61
762.76	226.40
763.08	226.21
763.41	226.01
763.74	225.84
764.06	225.73
764.39	225.64
764.71	225.50
765.04	225.31
765.37	225.12
765.69	224.98
766.02	224.88
766.34	224.69
766.67	224.44
767.00	224.40
767.32	224.41
767.65	224.54
767.97	224.30
768.30	224.21
768.62	224.09
768.95	223.81
769.27	223.63
769.60	223.57
769.92	223.38
770.25	223.18
770.57	222.98
770.90	222.86
771.22	222.67
771.55	222.56
771.87	222.42
772.20	222.30
772.52	222.49
772.85	222.74
773.17	222.66
773.50	222.50
773.82	222.29
774.15	222.01
774.47	221.66
774.80	221.53
775.12	221.41
775.45	221.17
775.77	221.19
776.09	221.15
776.42	221.00
776.74	221.08
777.07	221.00
777.39	220.93
777.72	220.86
778.04	220.80
778.36	220.71
778.69	220.62
779.01	220.65
779.33	220.27
779.66	219.82
779.98	219.72
780.31	219.64
780.63	219.70
780.95	219.72
781.28	219.69
781.60	219.59
781.92	219.42
782.25	219.43
782.57	219.36
782.89	219.21
783.22	219.10
783.54	218.88
783.86	218.77
784.19	218.61
784.51	218.61
784.83	218.48
785.16	218.36
785.48	218.35
785.80	218.32
786.12	218.25
