SpectraSuite Data File
++++++++++++++++++++++++++++++++++++
Date: Mon Feb 25 16:58:39 EST 2013
User: group
Dark Spectrum Present: No
Reference Spectrum Present: No
Number of Sampled Component Spectra: 1
Spectrometers: USB2E7196
Integration Time (usec): 104000 (USB2E7196)
Spectra Averaged: 20 (USB2E7196)
Boxcar Smoothing: 10 (USB2E7196)
Correct for Electrical Dark: No (USB2E7196)
Strobe/Lamp Enabled: No (USB2E7196)
Correct for Detector Non-linearity: No (USB2E7196)
Correct for Stray Light: No (USB2E7196)
Number of Pixels in Processed Spectrum: 2048
>>>>>Begin Processed Spectral Data<<<<<
339.09	0.00
339.48	198.10
339.86	199.90
340.24	201.80
340.63	203.35
341.01	210.10
341.39	205.45
341.78	207.85
342.16	207.85
342.54	209.10
342.93	198.28
343.31	208.29
343.69	208.88
344.07	209.36
344.46	209.85
344.84	210.24
345.22	210.27
345.60	210.51
345.99	210.62
346.37	210.77
346.75	210.79
347.13	210.83
347.52	210.88
347.90	211.01
348.28	210.94
348.66	211.14
349.05	211.05
349.43	211.10
349.81	211.05
350.19	211.10
350.57	211.07
350.96	211.13
351.34	211.16
351.72	211.15
352.10	211.20
352.48	211.11
352.87	211.14
353.25	211.19
353.63	211.20
354.01	211.33
354.39	211.43
354.77	211.56
355.15	211.69
355.54	211.63
355.92	211.64
356.30	211.71
356.68	211.97
357.06	212.05
357.44	212.07
357.82	212.21
358.20	212.26
358.58	212.31
358.97	212.44
359.35	212.59
359.73	212.74
360.11	212.79
360.49	212.90
360.87	212.94
361.25	213.04
361.63	213.21
362.01	213.26
362.39	213.21
362.77	213.26
363.15	213.20
363.53	213.32
363.91	213.36
364.29	213.43
364.67	213.05
365.05	213.10
365.43	213.17
365.81	213.20
366.19	213.36
366.57	213.58
366.95	213.53
367.33	213.41
367.71	213.41
368.09	213.52
368.47	213.54
368.85	213.53
369.23	213.58
369.61	213.46
369.99	213.52
370.37	213.59
370.75	213.78
371.13	213.75
371.51	213.64
371.89	213.64
372.27	213.58
372.65	213.61
373.03	213.62
373.41	213.57
373.78	213.48
374.16	213.31
374.54	213.14
374.92	213.06
375.30	213.06
375.68	212.93
376.06	212.87
376.44	212.77
376.82	212.74
377.19	212.57
377.57	212.57
377.95	212.43
378.33	212.39
378.71	212.07
379.09	212.07
379.47	212.05
379.84	212.00
380.22	211.97
380.60	211.89
380.98	211.77
381.36	211.74
381.73	211.68
382.11	211.64
382.49	211.63
382.87	211.52
383.25	211.55
383.62	211.97
384.00	211.92
384.38	211.96
384.76	211.99
385.13	212.13
385.51	212.11
385.89	212.04
386.27	211.98
386.64	212.03
387.02	212.01
387.40	212.06
387.78	212.00
388.15	211.97
388.53	211.94
388.91	211.89
389.29	211.82
389.66	211.84
390.04	211.82
390.42	211.84
390.79	211.88
391.17	211.78
391.55	211.39
391.92	211.35
392.30	211.33
392.68	211.27
393.05	211.27
393.43	211.21
393.81	211.27
394.18	211.27
394.56	211.20
394.94	211.30
395.31	211.18
395.69	211.33
396.06	211.40
396.44	211.48
396.82	211.46
397.19	211.67
397.57	211.70
397.95	211.83
398.32	211.82
398.70	211.88
399.07	212.04
399.45	212.07
399.82	212.08
400.20	212.06
400.58	212.19
400.95	212.11
401.33	212.25
401.70	212.52
402.08	212.65
402.45	212.77
402.83	212.94
403.20	213.11
403.58	213.08
403.95	213.30
404.33	213.45
404.71	213.74
405.08	214.09
405.46	214.36
405.83	214.55
406.21	214.76
406.58	215.06
406.96	215.35
407.33	215.68
407.70	216.10
408.08	216.75
408.45	217.16
408.83	217.65
409.20	218.04
409.58	218.30
409.95	218.82
410.33	219.45
410.70	219.92
411.08	220.58
411.45	221.41
411.82	222.10
412.20	223.01
412.57	224.04
412.95	224.59
413.32	225.60
413.69	226.67
414.07	227.72
414.44	229.01
414.82	230.24
415.19	231.75
415.56	233.24
415.94	234.73
416.31	236.51
416.68	238.29
417.06	240.37
417.43	242.35
417.81	244.59
418.18	246.86
418.55	249.30
418.93	252.00
419.30	254.69
419.67	257.48
420.04	260.41
420.42	263.45
420.79	267.27
421.16	270.89
421.54	274.61
421.91	278.51
422.28	282.45
422.66	286.73
423.03	290.96
423.40	295.31
423.77	299.96
424.15	304.79
424.52	309.74
424.89	315.18
425.26	320.52
425.64	325.58
426.01	331.18
426.38	337.08
426.75	343.03
427.13	349.20
427.50	355.79
427.87	362.60
428.24	369.30
428.61	375.76
428.99	382.93
429.36	390.66
429.73	398.43
430.10	406.06
430.47	413.94
430.85	422.16
431.22	430.91
431.59	440.12
431.96	448.81
432.33	458.71
432.70	468.29
433.08	479.49
433.45	489.96
433.82	500.46
434.19	512.12
434.56	523.59
434.93	534.72
435.30	545.94
435.68	558.24
436.05	570.52
436.42	582.65
436.79	593.97
437.16	606.26
437.53	619.24
437.90	632.15
438.27	644.71
438.64	657.76
439.01	670.08
439.38	681.10
439.75	691.92
440.13	704.05
440.50	715.60
440.87	725.08
441.24	735.15
441.61	746.25
441.98	754.69
442.35	764.51
442.72	774.13
443.09	783.58
443.46	789.64
443.83	794.05
444.20	798.00
444.57	803.36
444.94	806.42
445.31	809.44
445.68	812.52
446.05	814.45
446.42	814.25
446.79	813.73
447.16	812.93
447.53	812.69
447.90	809.11
448.27	805.45
448.64	799.90
449.01	796.09
449.37	788.40
449.74	781.14
450.11	772.13
450.48	762.53
450.85	752.35
451.22	743.89
451.59	735.74
451.96	728.10
452.33	717.24
452.70	707.57
453.07	695.82
453.43	683.96
453.80	672.55
454.17	661.61
454.54	651.05
454.91	640.04
455.28	629.07
455.65	618.73
456.02	608.44
456.38	599.75
456.75	588.72
457.12	579.85
457.49	570.85
457.86	562.05
458.23	554.49
458.59	546.30
458.96	537.92
459.33	530.65
459.70	523.13
460.07	517.23
460.43	510.39
460.80	504.12
461.17	498.49
461.54	492.65
461.91	487.03
462.27	481.51
462.64	476.70
463.01	471.47
463.38	466.39
463.74	461.08
464.11	456.59
464.48	452.74
464.85	448.35
465.21	444.95
465.58	441.45
465.95	437.06
466.32	433.49
466.68	429.97
467.05	426.37
467.42	422.78
467.78	419.13
468.15	415.64
468.52	413.04
468.88	409.67
469.25	406.62
469.62	404.25
469.98	401.60
470.35	399.08
470.72	396.58
471.08	393.95
471.45	391.81
471.82	389.61
472.18	387.12
472.55	385.31
472.92	383.37
473.28	381.59
473.65	379.85
474.02	378.08
474.38	376.63
474.75	375.46
475.11	374.10
475.48	373.05
475.85	372.10
476.21	371.08
476.58	370.19
476.94	369.56
477.31	368.71
477.67	367.94
478.04	367.35
478.41	367.03
478.77	367.10
479.14	366.57
479.50	366.30
479.87	366.40
480.23	366.41
480.60	366.22
480.96	366.08
481.33	366.59
481.69	366.89
482.06	367.04
482.42	367.07
482.79	367.46
483.15	368.03
483.52	368.84
483.88	369.37
484.25	369.98
484.61	370.59
484.98	371.29
485.34	372.28
485.71	373.39
486.07	374.41
486.44	375.15
486.80	376.42
487.17	377.81
487.53	379.37
487.90	380.95
488.26	382.69
488.62	384.65
488.99	386.16
489.35	387.98
489.72	390.19
490.08	392.51
490.44	394.80
490.81	397.07
491.17	399.29
491.54	401.85
491.90	404.32
492.26	407.11
492.63	409.94
492.99	412.78
493.36	415.67
493.72	418.82
494.08	422.09
494.45	425.58
494.81	429.00
495.17	432.30
495.54	436.02
495.90	439.72
496.26	443.17
496.63	447.18
496.99	451.04
497.35	454.85
497.72	458.92
498.08	462.89
498.44	467.04
498.80	471.46
499.17	475.89
499.53	480.27
499.89	484.82
500.26	489.27
500.62	493.73
500.98	498.58
501.34	503.20
501.71	507.91
502.07	512.43
502.43	517.01
502.79	521.52
503.16	526.00
503.52	530.52
503.88	535.24
504.24	539.80
504.60	544.36
504.97	549.05
505.33	553.59
505.69	558.53
506.05	563.28
506.41	567.63
506.78	571.81
507.14	576.26
507.50	580.63
507.86	585.12
508.22	589.37
508.59	593.25
508.95	597.46
509.31	601.58
509.67	605.75
510.03	609.79
510.39	613.99
510.75	617.98
511.12	621.90
511.48	625.71
511.84	629.26
512.20	633.08
512.56	636.90
512.92	640.54
513.28	643.89
513.64	647.11
514.00	650.54
514.37	653.94
514.73	657.23
515.09	660.34
515.45	663.11
515.81	666.05
516.17	668.90
516.53	671.68
516.89	674.24
517.25	676.63
517.61	679.06
517.97	681.22
518.33	683.42
518.69	685.71
519.05	687.94
519.41	690.30
519.77	692.64
520.13	694.36
520.49	696.10
520.85	698.02
521.21	700.08
521.57	701.71
521.93	703.10
522.29	704.87
522.65	706.42
523.01	708.21
523.37	709.68
523.73	711.49
524.09	712.89
524.45	714.28
524.81	715.97
525.17	717.68
525.53	719.37
525.89	720.92
526.25	722.49
526.61	723.74
526.97	725.09
527.33	726.34
527.68	728.16
528.04	729.61
528.40	730.73
528.76	731.91
529.12	733.36
529.48	735.33
529.84	736.76
530.20	738.43
530.56	739.83
530.91	741.81
531.27	743.32
531.63	745.11
531.99	746.99
532.35	748.58
532.71	750.08
533.07	752.03
533.42	754.06
533.78	755.81
534.14	757.74
534.50	759.21
534.86	761.08
535.21	762.53
535.57	764.64
535.93	766.70
536.29	768.77
536.65	770.91
537.00	772.67
537.36	774.46
537.72	776.15
538.08	778.09
538.44	779.81
538.79	781.84
539.15	783.65
539.51	785.46
539.87	787.73
540.22	789.94
540.58	792.13
540.94	794.23
541.29	796.15
541.65	798.00
542.01	800.30
542.37	802.36
542.72	804.51
543.08	806.38
543.44	808.56
543.79	810.32
544.15	812.49
544.51	814.81
544.87	817.19
545.22	819.42
545.58	821.87
545.94	823.97
546.29	825.90
546.65	828.04
547.01	830.16
547.36	832.13
547.72	834.11
548.07	835.95
548.43	837.77
548.79	839.71
549.14	841.86
549.50	844.08
549.86	845.82
550.21	848.00
550.57	850.29
550.92	851.99
551.28	854.23
551.64	856.04
551.99	858.17
552.35	860.06
552.70	861.94
553.06	863.74
553.41	865.76
553.77	867.93
554.13	870.13
554.48	872.38
554.84	874.70
555.19	876.82
555.55	879.09
555.90	880.92
556.26	882.70
556.61	884.49
556.97	886.04
557.32	888.11
557.68	889.65
558.03	891.27
558.39	893.10
558.74	894.73
559.10	896.38
559.45	897.75
559.81	899.58
560.16	901.11
560.52	902.73
560.87	904.37
561.23	905.59
561.58	907.03
561.94	908.28
562.29	909.11
562.64	910.36
563.00	911.46
563.35	912.85
563.71	914.65
564.06	916.17
564.42	918.01
564.77	919.63
565.12	921.17
565.48	922.70
565.83	924.14
566.19	925.82
566.54	927.09
566.89	928.17
567.25	929.56
567.60	931.11
567.96	932.60
568.31	934.00
568.66	935.31
569.02	936.28
569.37	937.10
569.72	938.34
570.08	939.35
570.43	939.94
570.78	940.45
571.14	940.59
571.49	940.96
571.84	941.25
572.20	941.13
572.55	941.30
572.90	941.23
573.26	941.08
573.61	940.83
573.96	940.63
574.31	940.45
574.67	939.82
575.02	939.06
575.37	938.19
575.72	937.07
576.08	936.36
576.43	935.24
576.78	934.62
577.13	933.90
577.49	932.81
577.84	932.15
578.19	931.71
578.54	931.40
578.90	930.92
579.25	929.98
579.60	928.86
579.95	927.61
580.30	926.49
580.66	925.55
581.01	924.12
581.36	922.99
581.71	921.72
582.06	920.38
582.42	919.16
582.77	917.60
583.12	916.15
583.47	914.91
583.82	913.88
584.17	912.27
584.53	910.72
584.88	909.26
585.23	907.50
585.58	905.67
585.93	903.83
586.28	901.98
586.63	900.12
586.98	898.85
587.34	897.61
587.69	895.84
588.04	894.15
588.39	892.76
588.74	890.85
589.09	889.35
589.44	887.44
589.79	885.91
590.14	884.48
590.49	882.91
590.84	881.07
591.19	879.32
591.54	877.52
591.89	875.29
592.25	873.60
592.60	871.50
592.95	869.18
593.30	866.84
593.65	864.36
594.00	862.00
594.35	860.75
594.70	858.29
595.05	856.31
595.40	854.03
595.75	851.33
596.10	849.30
596.45	847.21
596.80	845.42
597.15	843.23
597.50	840.80
597.85	838.60
598.19	836.03
598.54	833.71
598.89	831.52
599.24	829.79
599.59	827.33
599.94	825.34
600.29	823.27
600.64	821.02
600.99	818.86
601.34	816.99
601.69	813.63
602.04	811.10
602.39	808.50
602.74	806.19
603.08	804.25
603.43	802.27
603.78	799.47
604.13	796.80
604.48	794.34
604.83	792.20
605.18	790.14
605.53	788.05
605.87	785.62
606.22	783.19
606.57	780.43
606.92	777.87
607.27	775.10
607.62	772.67
607.96	770.50
608.31	768.35
608.66	765.66
609.01	763.07
609.36	760.70
609.70	758.17
610.05	755.42
610.40	752.67
610.75	749.48
611.10	747.24
611.44	744.31
611.79	741.26
612.14	738.28
612.49	734.87
612.83	731.81
613.18	728.74
613.53	725.90
613.88	722.72
614.22	719.98
614.57	717.04
614.92	714.12
615.27	711.10
615.61	708.07
615.96	705.35
616.31	702.59
616.65	699.95
617.00	697.15
617.35	694.30
617.70	691.36
618.04	688.44
618.39	685.14
618.74	682.35
619.08	679.45
619.43	676.60
619.78	674.05
620.12	671.21
620.47	668.55
620.82	665.45
621.16	662.64
621.51	659.74
621.85	657.04
622.20	654.07
622.55	650.95
622.89	648.09
623.24	645.11
623.59	642.14
623.93	639.10
624.28	636.40
624.62	633.97
624.97	631.29
625.32	628.50
625.66	625.95
626.01	623.15
626.35	620.60
626.70	617.89
627.04	615.30
627.39	612.78
627.73	610.20
628.08	607.87
628.43	605.35
628.77	602.73
629.12	600.04
629.46	597.70
629.81	595.26
630.15	592.55
630.50	589.84
630.84	587.13
631.19	584.49
631.53	581.80
631.88	578.88
632.22	576.15
632.57	573.88
632.91	571.37
633.26	569.00
633.60	566.48
633.95	564.08
634.29	561.46
634.64	559.09
634.98	556.41
635.32	554.01
635.67	551.76
636.01	549.23
636.36	546.89
636.70	544.59
637.05	542.20
637.39	539.97
637.73	537.80
638.08	535.90
638.42	534.02
638.77	531.86
639.11	529.72
639.45	527.71
639.80	525.37
640.14	523.09
640.49	520.82
640.83	518.51
641.17	516.32
641.52	514.00
641.86	511.63
642.20	509.55
642.55	506.85
642.89	504.43
643.23	502.32
643.58	500.31
643.92	497.93
644.26	495.87
644.61	493.74
644.95	491.62
645.29	489.25
645.64	486.91
645.98	484.62
646.32	482.45
646.66	480.02
647.01	477.73
647.35	475.59
647.69	473.34
648.04	471.31
648.38	469.04
648.72	466.94
649.06	464.73
649.41	462.45
649.75	460.57
650.09	458.54
650.43	456.45
650.78	454.16
651.12	452.00
651.46	449.93
651.80	447.94
652.14	445.81
652.49	443.84
652.83	441.69
653.17	439.65
653.51	437.63
653.85	435.86
654.20	434.00
654.54	431.97
654.88	430.05
655.22	428.11
655.56	426.08
655.90	424.07
656.25	422.06
656.59	420.17
656.93	418.25
657.27	416.48
657.61	414.46
657.95	412.62
658.29	410.84
658.64	409.03
658.98	407.00
659.32	405.02
659.66	403.16
660.00	401.20
660.34	399.40
660.68	397.46
661.02	395.48
661.36	393.73
661.70	391.98
662.05	390.32
662.39	388.67
662.73	387.33
663.07	385.92
663.41	384.33
663.75	382.78
664.09	381.25
664.43	379.50
664.77	378.02
665.11	376.44
665.45	374.88
665.79	373.25
666.13	371.80
666.47	370.43
666.81	368.87
667.15	367.45
667.49	366.13
667.83	364.83
668.17	363.51
668.51	362.10
668.85	360.74
669.19	359.56
669.53	358.02
669.87	356.37
670.21	354.85
670.55	353.59
670.89	352.32
671.23	351.06
671.57	349.83
671.91	348.56
672.25	347.28
672.58	346.10
672.92	344.85
673.26	343.62
673.60	342.36
673.94	341.13
674.28	339.98
674.62	338.86
674.96	337.72
675.30	336.60
675.64	335.43
675.97	334.31
676.31	332.97
676.65	332.00
676.99	331.09
677.33	329.92
677.67	328.89
678.01	327.74
678.34	326.62
678.68	325.58
679.02	324.37
679.36	323.36
679.70	322.22
680.04	321.19
680.37	320.11
680.71	319.12
681.05	318.14
681.39	317.09
681.73	315.90
682.06	314.88
682.40	313.92
682.74	312.95
683.08	312.05
683.42	311.04
683.75	310.05
684.09	308.97
684.43	308.09
684.77	307.01
685.10	306.11
685.44	305.16
685.78	304.13
686.12	303.28
686.45	302.39
686.79	301.42
687.13	300.63
687.46	299.79
687.80	299.00
688.14	298.15
688.48	297.41
688.81	296.61
689.15	295.83
689.49	294.98
689.82	294.22
690.16	293.18
690.50	292.33
690.83	291.43
691.17	290.58
691.51	289.72
691.84	288.93
692.18	288.07
692.52	287.25
692.85	286.66
693.19	286.07
693.52	285.20
693.86	284.41
694.20	283.55
694.53	282.79
694.87	281.97
695.21	281.22
695.54	280.41
695.88	279.60
696.21	278.73
696.55	277.90
696.88	277.16
697.22	276.48
697.56	275.89
697.89	275.13
698.23	274.47
698.56	273.74
698.90	273.16
699.23	272.50
699.57	271.81
699.90	270.98
700.24	270.19
700.58	269.66
700.91	269.13
701.25	268.78
701.58	268.25
701.92	267.67
702.25	267.06
702.59	266.44
702.92	265.85
703.26	265.23
703.59	264.68
703.93	264.34
704.26	263.83
704.60	263.15
704.93	262.66
705.26	262.06
705.60	261.63
705.93	261.04
706.27	260.57
706.60	260.16
706.94	259.88
707.27	259.35
707.61	258.73
707.94	258.23
708.27	257.50
708.61	256.90
708.94	256.36
709.28	255.83
709.61	255.38
709.94	254.90
710.28	254.49
710.61	254.20
710.95	253.50
711.28	253.29
711.61	252.91
711.95	252.55
712.28	252.15
712.61	251.77
712.95	251.48
713.28	251.20
713.61	250.73
713.95	250.21
714.28	249.83
714.61	249.44
714.95	249.02
715.28	248.57
715.61	248.16
715.95	247.81
716.28	247.41
716.61	247.16
716.95	246.77
717.28	246.37
717.61	245.84
717.94	245.49
718.28	244.83
718.61	244.48
718.94	244.07
719.27	243.70
719.61	243.35
719.94	242.93
720.27	242.49
720.60	242.14
720.94	241.75
721.27	241.42
721.60	241.22
721.93	240.93
722.27	240.77
722.60	240.50
722.93	240.17
723.26	239.89
723.59	239.48
723.93	239.28
724.26	239.09
724.59	238.85
724.92	238.59
725.25	238.50
725.59	238.24
725.92	238.06
726.25	237.78
726.58	237.51
726.91	237.32
727.24	237.10
727.57	236.83
727.91	236.54
728.24	236.36
728.57	236.10
728.90	235.92
729.23	235.52
729.56	235.45
729.89	235.27
730.22	235.06
730.55	234.79
730.89	234.57
731.22	234.35
731.55	234.13
731.88	233.83
732.21	233.53
732.54	233.28
732.87	233.03
733.20	232.91
733.53	232.71
733.86	232.51
734.19	232.21
734.52	232.13
734.85	232.14
735.18	231.84
735.51	231.70
735.84	231.48
736.17	231.37
736.50	231.00
736.83	231.22
737.16	231.07
737.49	230.92
737.82	230.62
738.15	230.44
738.48	230.27
738.81	230.12
739.14	229.88
739.47	229.67
739.80	229.46
740.13	229.26
740.46	228.94
740.79	228.71
741.12	228.57
741.45	228.29
741.78	228.02
742.11	228.00
742.44	227.75
742.77	227.60
743.10	227.45
743.43	227.29
743.75	226.71
744.08	226.94
744.41	226.69
744.74	226.62
745.07	226.41
745.40	226.29
745.73	226.31
746.06	226.19
746.39	226.02
746.71	225.91
747.04	225.70
747.37	225.66
747.70	225.54
748.03	225.38
748.36	225.32
748.68	225.09
749.01	224.83
749.34	224.69
749.67	224.57
750.00	224.45
750.33	224.58
750.65	224.48
750.98	224.01
751.31	223.93
751.64	223.84
751.97	223.92
752.29	223.71
752.62	223.35
752.95	223.21
753.28	223.15
753.60	222.99
753.93	223.01
754.26	222.86
754.59	222.68
754.91	222.52
755.24	222.36
755.57	222.31
755.90	222.26
756.22	222.11
756.55	221.95
756.88	221.74
757.20	221.37
757.53	221.13
757.86	220.99
758.19	220.94
758.51	220.80
758.84	220.50
759.17	220.41
759.49	220.39
759.82	220.42
760.15	220.32
760.47	220.21
760.80	219.94
761.13	219.95
761.45	219.75
761.78	219.71
762.11	219.55
762.43	219.34
762.76	219.17
763.08	219.18
763.41	219.10
763.74	219.08
764.06	219.05
764.39	219.01
764.71	218.87
765.04	218.74
765.37	218.63
765.69	218.58
766.02	218.45
766.34	218.33
766.67	218.11
767.00	218.11
767.32	218.24
767.65	218.37
767.97	218.18
768.30	218.22
768.62	218.12
768.95	218.05
769.27	218.08
769.60	218.09
769.92	217.89
770.25	217.80
770.57	217.65
770.90	217.55
771.22	217.48
771.55	217.47
771.87	217.41
772.20	217.33
772.52	217.55
772.85	217.99
773.17	218.01
773.50	217.95
773.82	217.75
774.15	217.47
774.47	217.24
774.80	217.18
775.12	217.05
775.45	217.01
775.77	217.02
776.09	216.94
776.42	216.84
776.74	216.94
777.07	216.83
777.39	216.75
777.72	216.64
778.04	216.61
778.36	216.46
778.69	216.42
779.01	216.43
779.33	216.01
779.66	215.56
779.98	215.47
780.31	215.48
780.63	215.67
780.95	215.70
781.28	215.65
781.60	215.61
781.92	215.57
782.25	215.54
782.57	215.48
782.89	215.45
783.22	215.45
783.54	215.31
783.86	215.33
784.19	215.27
784.51	215.32
784.83	215.25
785.16	215.25
785.48	215.18
785.80	215.12
786.12	215.10
786.45	215.06
786.77	214.99
787.09	214.94
787.42	214.78
787.74	214.79
788.06	214.75
788.38	214.72
788.71	214.74
789.03	214.69
789.35	214.69
789.67	214.62
789.99	214.57
790.32	214.57
790.64	214.57
790.96	214.87
791.28	214.76
791.61	214.69
791.93	214.69
792.25	214.71
792.57	214.94
792.89	214.86
793.21	214.85
793.54	214.80
793.86	214.67
794.18	214.65
