SpectraSuite Data File
++++++++++++++++++++++++++++++++++++
Date: Mon Feb 25 17:18:49 EST 2013
User: group
Dark Spectrum Present: No
Reference Spectrum Present: No
Number of Sampled Component Spectra: 1
Spectrometers: USB2E7196
Integration Time (usec): 104000 (USB2E7196)
Spectra Averaged: 20 (USB2E7196)
Boxcar Smoothing: 10 (USB2E7196)
Correct for Electrical Dark: No (USB2E7196)
Strobe/Lamp Enabled: No (USB2E7196)
Correct for Detector Non-linearity: No (USB2E7196)
Correct for Stray Light: No (USB2E7196)
Number of Pixels in Processed Spectrum: 2048
>>>>>Begin Processed Spectral Data<<<<<
339.09	0.00
339.48	199.75
339.86	201.65
340.24	202.05
340.63	202.80
341.01	210.35
341.39	205.85
341.78	208.35
342.16	209.30
342.54	208.60
342.93	198.94
343.31	208.99
343.69	209.48
344.07	209.95
344.46	210.49
344.84	211.00
345.22	211.10
345.60	211.42
345.99	211.64
346.37	211.79
346.75	211.94
347.13	212.08
347.52	212.24
347.90	212.42
348.28	212.41
348.66	212.55
349.05	212.45
349.43	212.49
349.81	212.55
350.19	212.63
350.57	212.70
350.96	212.76
351.34	212.86
351.72	212.99
352.10	213.05
352.48	213.04
352.87	213.04
353.25	213.04
353.63	213.07
354.01	213.10
354.39	213.11
354.77	213.15
355.15	213.24
355.54	213.26
355.92	213.17
356.30	213.21
356.68	213.41
357.06	213.49
357.44	213.43
357.82	213.40
358.20	213.47
358.58	213.46
358.97	213.53
359.35	213.65
359.73	213.72
360.11	213.75
360.49	213.75
360.87	213.67
361.25	213.72
361.63	213.79
362.01	213.75
362.39	213.75
362.77	213.88
363.15	213.82
363.53	213.79
363.91	213.88
364.29	213.89
364.67	213.58
365.05	213.56
365.43	213.58
365.81	213.71
366.19	213.84
366.57	213.94
366.95	213.85
367.33	213.70
367.71	213.69
368.09	213.72
368.47	213.71
368.85	213.71
369.23	213.72
369.61	213.62
369.99	213.74
370.37	213.72
370.75	213.81
371.13	213.70
371.51	213.56
371.89	213.54
372.27	213.60
372.65	213.58
373.03	213.53
373.41	213.56
373.78	213.46
374.16	213.33
374.54	213.21
374.92	213.21
375.30	213.18
375.68	213.10
376.06	213.06
376.44	213.00
376.82	212.99
377.19	212.98
377.57	212.88
377.95	212.75
378.33	212.77
378.71	212.58
379.09	212.73
379.47	212.84
379.84	212.78
380.22	212.67
380.60	212.52
380.98	212.52
381.36	212.43
381.73	212.42
382.11	212.40
382.49	212.40
382.87	212.29
383.25	212.31
383.62	212.74
384.00	212.68
384.38	212.73
384.76	212.85
385.13	212.99
385.51	213.07
385.89	213.04
386.27	213.06
386.64	213.06
387.02	212.93
387.40	212.87
387.78	212.96
388.15	212.93
388.53	213.07
388.91	213.05
389.29	213.08
389.66	213.16
390.04	213.12
390.42	213.11
390.79	213.16
391.17	213.15
391.55	212.77
391.92	212.80
392.30	212.70
392.68	212.63
393.05	212.60
393.43	212.63
393.81	212.70
394.18	212.63
394.56	212.65
394.94	212.80
395.31	212.82
395.69	212.90
396.06	212.97
396.44	212.98
396.82	213.04
397.19	213.21
397.57	213.14
397.95	213.24
398.32	213.18
398.70	213.26
399.07	213.39
399.45	213.35
399.82	213.37
400.20	213.51
400.58	213.57
400.95	213.41
401.33	213.48
401.70	213.74
402.08	213.80
402.45	213.86
402.83	213.97
403.20	214.00
403.58	214.03
403.95	214.24
404.33	214.41
404.71	214.53
405.08	214.75
405.46	214.95
405.83	215.09
406.21	215.35
406.58	215.55
406.96	215.73
407.33	215.95
407.70	216.28
408.08	216.73
408.45	217.02
408.83	217.46
409.20	217.75
409.58	217.84
409.95	218.24
410.33	218.63
410.70	218.90
411.08	219.44
411.45	219.87
411.82	220.29
412.20	220.90
412.57	221.68
412.95	222.01
413.32	222.66
413.69	223.34
414.07	224.03
414.44	224.85
414.82	225.68
415.19	226.65
415.56	227.56
415.94	228.42
416.31	229.55
416.68	230.60
417.06	231.90
417.43	233.28
417.81	234.72
418.18	236.17
418.55	237.67
418.93	239.26
419.30	240.91
419.67	242.65
420.04	244.37
420.42	246.11
420.79	248.55
421.16	250.74
421.54	253.07
421.91	255.38
422.28	257.81
422.66	260.35
423.03	263.01
423.40	265.60
423.77	268.44
424.15	271.27
424.52	274.35
424.89	277.60
425.26	280.65
425.64	283.64
426.01	286.83
426.38	290.25
426.75	293.85
427.13	297.49
427.50	301.26
427.87	305.22
428.24	309.19
428.61	312.80
428.99	316.97
429.36	321.34
429.73	325.69
430.10	330.04
430.47	334.47
430.85	338.97
431.22	343.93
431.59	349.15
431.96	354.00
432.33	359.48
432.70	364.79
433.08	370.95
433.45	376.73
433.82	382.60
434.19	388.97
434.56	395.05
434.93	401.11
435.30	407.14
435.68	413.77
436.05	420.30
436.42	426.82
436.79	432.78
437.16	439.17
437.53	446.12
437.90	452.85
438.27	459.45
438.64	466.22
439.01	472.48
439.38	478.17
439.75	483.63
440.13	489.79
440.50	495.57
440.87	500.24
441.24	505.28
441.61	510.68
441.98	514.81
442.35	519.63
442.72	524.35
443.09	528.87
443.46	531.50
443.83	533.36
444.20	534.96
444.57	537.22
444.94	538.29
445.31	539.24
445.68	540.50
446.05	540.91
446.42	540.19
446.79	539.39
447.16	538.30
447.53	537.61
447.90	534.92
448.27	532.22
448.64	528.73
449.01	526.04
449.37	521.47
449.74	516.97
450.11	511.92
450.48	506.07
450.85	500.23
451.22	495.22
451.59	490.41
451.96	485.77
452.33	479.69
452.70	474.24
453.07	467.69
453.43	460.87
453.80	454.56
454.17	448.55
454.54	442.80
454.91	436.53
455.28	430.55
455.65	424.99
456.02	419.84
456.38	415.08
456.75	409.24
457.12	404.34
457.49	399.56
457.86	394.60
458.23	390.72
458.59	386.24
458.96	381.80
459.33	377.95
459.70	373.98
460.07	370.79
460.43	367.19
460.80	363.93
461.17	361.01
461.54	357.87
461.91	354.98
462.27	351.95
462.64	349.48
463.01	346.75
463.38	344.20
463.74	341.14
464.11	338.80
464.48	336.76
464.85	334.60
465.21	333.00
465.58	331.29
465.95	329.00
466.32	327.36
466.68	325.71
467.05	323.85
467.42	322.15
467.78	320.48
468.15	318.77
468.52	317.53
468.88	315.78
469.25	314.36
469.62	313.20
469.98	312.03
470.35	310.89
470.72	309.83
471.08	308.64
471.45	307.84
471.82	306.86
472.18	305.80
472.55	305.20
472.92	304.27
473.28	303.54
473.65	302.90
474.02	302.24
474.38	301.78
474.75	301.44
475.11	301.05
475.48	300.81
475.85	300.58
476.21	300.36
476.58	300.34
476.94	300.40
477.31	300.38
477.67	300.37
478.04	300.64
478.41	300.91
478.77	301.42
479.14	301.53
479.50	302.03
479.87	302.55
480.23	302.98
480.60	303.42
480.96	304.03
481.33	305.02
481.69	305.80
482.06	306.49
482.42	307.41
482.79	308.35
483.15	309.48
483.52	310.79
483.88	312.00
484.25	313.30
484.61	314.72
484.98	316.22
485.34	317.93
485.71	319.63
486.07	321.45
486.44	323.03
486.80	325.17
487.17	327.31
487.53	329.76
487.90	332.30
488.26	335.06
488.62	337.95
488.99	340.77
489.35	343.84
489.72	347.24
490.08	350.61
490.44	354.20
490.81	357.99
491.17	361.79
491.54	365.95
491.90	370.28
492.26	374.92
492.63	379.75
492.99	384.70
493.36	389.83
493.72	395.53
494.08	401.54
494.45	407.81
494.81	414.32
495.17	420.90
495.54	427.97
495.90	435.35
496.26	442.87
496.63	450.61
496.99	458.91
497.35	467.52
497.72	476.50
498.08	485.78
498.44	495.24
498.80	505.51
499.17	516.14
499.53	526.84
499.89	538.12
500.26	549.68
500.62	561.59
500.98	574.19
501.34	587.01
501.71	600.29
502.07	613.91
502.43	627.90
502.79	642.34
503.16	657.36
503.52	672.58
503.88	688.28
504.24	704.79
504.60	721.28
504.97	738.49
505.33	755.91
505.69	774.51
506.05	793.47
506.41	812.28
506.78	831.34
507.14	851.27
507.50	871.50
507.86	892.24
508.22	913.81
508.59	935.41
508.95	957.47
509.31	980.03
509.67	1003.14
510.03	1026.52
510.39	1050.70
510.75	1075.12
511.12	1100.05
511.48	1125.35
511.84	1150.81
512.20	1176.59
512.56	1202.82
512.92	1229.81
513.28	1256.55
513.64	1283.38
514.00	1310.59
514.37	1338.37
514.73	1366.50
515.09	1394.48
515.45	1422.50
515.81	1450.57
516.17	1479.25
516.53	1507.99
516.89	1536.45
517.25	1564.89
517.61	1594.18
517.97	1622.83
518.33	1651.25
518.69	1680.11
519.05	1709.33
519.41	1738.58
519.77	1768.21
520.13	1797.23
520.49	1825.78
520.85	1854.85
521.21	1884.19
521.57	1914.14
521.93	1942.92
522.29	1972.82
522.65	2002.50
523.01	2031.77
523.37	2060.23
523.73	2088.98
524.09	2117.67
524.45	2146.59
524.81	2175.72
525.17	2204.41
525.53	2233.14
525.89	2262.15
526.25	2290.36
526.61	2317.45
526.97	2344.86
527.33	2372.14
527.68	2399.44
528.04	2426.00
528.40	2451.89
528.76	2477.75
529.12	2504.14
529.48	2531.23
529.84	2556.61
530.20	2582.03
530.56	2607.70
530.91	2634.13
531.27	2659.96
531.63	2684.57
531.99	2709.27
532.35	2732.93
532.71	2756.09
533.07	2780.22
533.42	2802.93
533.78	2825.86
534.14	2848.88
534.50	2869.67
534.86	2891.37
535.21	2911.89
535.57	2934.06
535.93	2955.01
536.29	2975.16
536.65	2994.90
537.00	3013.32
537.36	3031.35
537.72	3048.60
538.08	3066.21
538.44	3083.57
538.79	3100.38
539.15	3117.60
539.51	3134.14
539.87	3151.62
540.22	3167.95
540.58	3184.38
540.94	3200.09
541.29	3214.14
541.65	3227.19
542.01	3242.09
542.37	3255.48
542.72	3269.33
543.08	3281.36
543.44	3294.72
543.79	3305.92
544.15	3316.33
544.51	3328.14
544.87	3339.89
545.22	3350.65
545.58	3359.82
545.94	3368.20
546.29	3375.80
546.65	3382.64
547.01	3389.90
547.36	3395.99
547.72	3402.22
548.07	3406.27
548.43	3410.58
548.79	3415.28
549.14	3420.20
549.50	3424.45
549.86	3427.74
550.21	3430.63
550.57	3434.43
550.92	3435.66
551.28	3438.16
551.64	3440.62
551.99	3442.89
552.35	3443.71
552.70	3445.13
553.06	3446.75
553.41	3447.67
553.77	3448.46
554.13	3449.44
554.48	3450.12
554.84	3450.44
555.19	3449.79
555.55	3448.88
555.90	3447.17
556.26	3445.72
556.61	3444.00
556.97	3441.06
557.32	3439.08
557.68	3436.12
558.03	3432.58
558.39	3429.90
558.74	3428.31
559.10	3425.52
559.45	3421.27
559.81	3418.45
560.16	3414.01
560.52	3410.33
560.87	3406.29
561.23	3401.33
561.58	3397.21
561.94	3391.23
562.29	3384.94
562.64	3380.44
563.00	3375.98
563.35	3372.47
563.71	3369.04
564.06	3364.86
564.42	3361.13
564.77	3357.09
565.12	3353.42
565.48	3348.51
565.83	3343.91
566.19	3339.26
566.54	3332.81
566.89	3326.82
567.25	3320.81
567.60	3315.56
567.96	3309.37
568.31	3303.67
568.66	3297.32
569.02	3289.95
569.37	3282.65
569.72	3276.56
570.08	3269.03
570.43	3261.23
570.78	3253.17
571.14	3244.28
571.49	3235.42
571.84	3227.70
572.20	3217.98
572.55	3209.20
572.90	3199.87
573.26	3189.92
573.61	3179.38
573.96	3170.23
574.31	3159.64
574.67	3148.42
575.02	3137.09
575.37	3126.16
575.72	3114.35
576.08	3104.22
576.43	3093.08
576.78	3082.95
577.13	3072.44
577.49	3061.90
577.84	3051.14
578.19	3040.61
578.54	3031.04
578.90	3021.67
579.25	3010.29
579.60	2999.16
579.95	2986.96
580.30	2976.44
580.66	2966.84
581.01	2955.50
581.36	2944.21
581.71	2933.70
582.06	2923.25
582.42	2912.65
582.77	2901.37
583.12	2890.34
583.47	2880.03
583.82	2870.12
584.17	2859.25
584.53	2848.73
584.88	2837.89
585.23	2826.90
585.58	2815.87
585.93	2804.16
586.28	2793.28
586.63	2782.08
586.98	2771.77
587.34	2762.30
587.69	2751.56
588.04	2740.33
588.39	2730.01
588.74	2718.68
589.09	2708.67
589.44	2697.53
589.79	2687.55
590.14	2677.53
590.49	2667.34
590.84	2656.60
591.19	2646.84
591.54	2636.57
591.89	2624.30
592.25	2613.35
592.60	2602.15
592.95	2590.61
593.30	2578.40
593.65	2566.10
594.00	2555.05
594.35	2545.55
594.70	2534.34
595.05	2523.95
595.40	2513.05
595.75	2501.49
596.10	2491.65
596.45	2481.28
596.80	2471.90
597.15	2462.02
597.50	2451.48
597.85	2441.69
598.19	2431.07
598.54	2420.39
598.89	2410.59
599.24	2402.46
599.59	2392.74
599.94	2384.65
600.29	2376.15
600.64	2367.61
600.99	2357.87
601.34	2348.82
601.69	2337.80
602.04	2327.77
602.39	2318.04
602.74	2308.78
603.08	2300.52
603.43	2291.88
603.78	2282.28
604.13	2272.66
604.48	2263.11
604.83	2255.21
605.18	2247.13
605.53	2237.94
605.87	2228.53
606.22	2219.84
606.57	2210.05
606.92	2200.44
607.27	2190.33
607.62	2180.17
607.96	2171.27
608.31	2163.33
608.66	2153.64
609.01	2144.00
609.36	2134.40
609.70	2123.91
610.05	2113.38
610.40	2103.15
610.75	2092.66
611.10	2083.21
611.44	2071.87
611.79	2060.83
612.14	2049.07
612.49	2036.87
612.83	2026.12
613.18	2014.80
613.53	2003.28
613.88	1991.41
614.22	1980.86
614.57	1969.49
614.92	1958.73
615.27	1947.33
615.61	1935.83
615.96	1925.17
616.31	1915.38
616.65	1905.76
617.00	1895.79
617.35	1885.62
617.70	1874.83
618.04	1863.41
618.39	1851.57
618.74	1841.60
619.08	1831.00
619.43	1820.48
619.78	1810.69
620.12	1800.47
620.47	1790.85
620.82	1779.75
621.16	1769.09
621.51	1758.20
621.85	1748.03
622.20	1737.38
622.55	1726.64
622.89	1715.87
623.24	1705.51
623.59	1694.50
623.93	1683.72
624.28	1673.38
624.62	1663.29
624.97	1653.24
625.32	1643.74
625.66	1634.47
626.01	1624.82
626.35	1615.45
626.70	1605.73
627.04	1596.20
627.39	1586.88
627.73	1577.02
628.08	1568.45
628.43	1558.96
628.77	1549.47
629.12	1539.52
629.46	1530.93
629.81	1522.09
630.15	1513.25
630.50	1503.89
630.84	1494.36
631.19	1485.09
631.53	1475.95
631.88	1466.32
632.22	1456.84
632.57	1447.87
632.91	1438.51
633.26	1429.42
633.60	1420.43
633.95	1411.90
634.29	1402.58
634.64	1393.63
634.98	1384.31
635.32	1375.25
635.67	1367.54
636.01	1359.36
636.36	1351.06
636.70	1342.39
637.05	1333.89
637.39	1325.66
637.73	1317.58
638.08	1310.29
638.42	1302.52
638.77	1294.51
639.11	1286.25
639.45	1278.33
639.80	1269.70
640.14	1261.17
640.49	1252.69
640.83	1244.10
641.17	1235.72
641.52	1227.30
641.86	1218.82
642.20	1210.95
642.55	1202.30
642.89	1193.31
643.23	1184.71
643.58	1176.94
643.92	1168.19
644.26	1159.90
644.61	1151.68
644.95	1143.35
645.29	1134.70
645.64	1126.21
645.98	1118.01
646.32	1110.34
646.66	1102.14
647.01	1094.55
647.35	1086.95
647.69	1078.79
648.04	1071.30
648.38	1063.24
648.72	1055.42
649.06	1047.61
649.41	1039.85
649.75	1032.31
650.09	1024.90
650.43	1017.59
650.78	1009.43
651.12	1001.64
651.46	993.99
651.80	986.45
652.14	978.81
652.49	971.36
652.83	963.76
653.17	955.69
653.51	947.91
653.85	940.63
654.20	933.21
654.54	925.72
654.88	918.61
655.22	911.15
655.56	903.82
655.90	896.77
656.25	889.61
656.59	882.30
656.93	875.34
657.27	868.44
657.61	861.09
657.95	854.64
658.29	848.08
658.64	841.50
658.98	834.55
659.32	827.69
659.66	821.05
660.00	814.31
660.34	807.98
660.68	801.26
661.02	794.42
661.36	788.05
661.70	781.89
662.05	775.84
662.39	770.13
662.73	764.44
663.07	758.70
663.41	752.81
663.75	747.08
664.09	741.18
664.43	735.34
664.77	729.61
665.11	723.69
665.45	718.26
665.79	712.73
666.13	707.38
666.47	702.06
666.81	696.73
667.15	691.46
667.49	686.54
667.83	681.83
668.17	677.07
668.51	672.16
668.85	667.26
669.19	662.37
669.53	657.19
669.87	652.20
670.21	647.26
670.55	642.49
670.89	638.14
671.23	633.76
671.57	629.22
671.91	624.85
672.25	620.45
672.58	615.86
672.92	611.36
673.26	607.16
673.60	603.15
673.94	598.94
674.28	594.83
674.62	590.82
674.96	586.65
675.30	582.63
675.64	578.61
675.97	574.71
676.31	571.00
676.65	567.03
676.99	563.38
677.33	559.65
677.67	555.96
678.01	551.99
678.34	548.21
678.68	544.51
679.02	540.85
679.36	537.20
679.70	533.79
680.04	530.36
680.37	526.72
680.71	523.11
681.05	519.77
681.39	516.47
681.73	513.06
682.06	509.97
682.40	506.81
682.74	503.60
683.08	500.46
683.42	496.96
683.75	493.95
684.09	490.63
684.43	487.27
684.77	484.18
685.10	480.95
685.44	477.71
685.78	474.80
686.12	471.90
686.45	468.96
686.79	466.01
687.13	463.11
687.46	460.29
687.80	457.53
688.14	454.46
688.48	451.63
688.81	448.55
689.15	445.67
689.49	442.71
689.82	439.86
690.16	436.68
690.50	433.93
690.83	431.15
691.17	428.34
691.51	425.80
691.84	423.15
692.18	420.64
692.52	418.31
692.85	415.92
693.19	413.59
693.52	411.10
693.86	408.57
694.20	406.19
694.53	403.79
694.87	401.34
695.21	399.06
695.54	396.62
695.88	394.30
696.21	391.88
696.55	389.82
696.88	387.52
697.22	385.51
697.56	383.45
697.89	381.24
698.23	379.17
698.56	377.06
698.90	375.01
699.23	372.99
699.57	370.82
699.90	368.66
700.24	366.45
700.58	364.52
700.91	362.62
701.25	360.98
701.58	359.21
701.92	357.35
702.25	355.57
702.59	353.78
702.92	352.13
703.26	350.42
703.59	348.58
703.93	347.24
704.26	345.48
704.60	343.79
704.93	342.20
705.26	340.53
705.60	339.00
705.93	337.42
706.27	336.03
706.60	334.64
706.94	333.36
707.27	331.85
707.61	330.44
707.94	329.02
708.27	327.17
708.61	325.59
708.94	324.15
709.28	322.75
709.61	321.35
709.94	320.05
710.28	318.78
710.61	317.52
710.95	315.91
711.28	314.83
711.61	313.61
711.95	312.42
712.28	311.27
712.61	310.05
712.95	309.02
713.28	307.91
713.61	306.84
713.95	305.52
714.28	304.55
714.61	303.33
714.95	302.18
715.28	301.14
715.61	300.06
715.95	298.98
716.28	297.79
716.61	296.76
716.95	295.66
717.28	294.54
717.61	293.54
717.94	292.55
718.28	291.36
718.61	290.46
718.94	289.53
719.27	288.60
719.61	287.73
719.94	286.72
720.27	285.68
720.60	284.70
720.94	283.72
721.27	282.75
721.60	282.01
721.93	281.23
722.27	280.56
722.60	279.89
722.93	279.11
723.26	278.48
723.59	277.73
723.93	277.03
724.26	276.30
724.59	275.49
724.92	274.80
725.25	274.24
725.59	273.42
725.92	272.78
726.25	272.04
726.58	271.36
726.91	270.67
727.24	270.04
727.57	269.39
727.91	268.77
728.24	268.17
728.57	267.46
728.90	266.91
729.23	266.12
729.56	265.60
729.89	265.00
730.22	264.31
730.55	263.65
730.89	263.11
731.22	262.58
731.55	262.05
731.88	261.53
732.21	260.86
732.54	260.35
732.87	259.74
733.20	259.19
733.53	258.56
733.86	258.07
734.19	257.47
734.52	256.97
734.85	256.77
735.18	256.26
735.51	255.90
735.84	255.30
736.17	255.00
736.50	254.30
736.83	254.26
737.16	253.88
737.49	253.47
737.82	252.88
738.15	252.46
738.48	251.98
738.81	251.55
739.14	251.06
739.47	250.64
739.80	250.22
740.13	249.78
740.46	249.31
740.79	248.80
741.12	248.35
741.45	247.89
741.78	247.34
742.11	247.02
742.44	246.49
742.77	246.23
743.10	245.73
743.43	245.29
743.75	244.48
744.08	244.53
744.41	244.12
744.74	243.76
745.07	243.34
745.40	243.02
745.73	242.75
746.06	242.36
746.39	242.02
746.71	241.61
747.04	241.24
747.37	240.96
747.70	240.79
748.03	240.51
748.36	240.22
748.68	239.75
749.01	239.31
749.34	238.98
749.67	238.68
750.00	238.49
750.33	238.56
750.65	238.34
750.98	237.66
751.31	237.39
751.64	237.05
751.97	236.96
752.29	236.65
752.62	236.12
752.95	235.87
753.28	235.52
753.60	235.26
753.93	235.14
754.26	234.90
754.59	234.52
754.91	234.17
755.24	233.95
755.57	233.70
755.90	233.41
756.22	233.25
756.55	232.94
756.88	232.52
757.20	231.95
757.53	231.59
757.86	231.27
758.19	231.03
758.51	230.88
758.84	230.44
759.17	230.20
759.49	230.07
759.82	230.04
760.15	229.85
760.47	229.65
760.80	229.32
761.13	229.15
761.45	228.89
761.78	228.75
762.11	228.55
762.43	228.34
762.76	228.19
763.08	227.93
763.41	227.71
763.74	227.60
764.06	227.43
764.39	227.27
764.71	227.11
765.04	226.89
765.37	226.62
765.69	226.42
766.02	226.26
766.34	226.09
766.67	225.78
767.00	225.71
767.32	225.70
767.65	225.80
767.97	225.60
768.30	225.44
768.62	225.35
768.95	225.06
769.27	224.95
769.60	224.85
769.92	224.64
770.25	224.48
770.57	224.34
770.90	224.19
771.22	223.98
771.55	223.78
771.87	223.70
772.20	223.56
772.52	223.83
772.85	224.15
773.17	224.00
773.50	223.83
773.82	223.60
774.15	223.36
774.47	223.00
774.80	222.86
775.12	222.78
775.45	222.56
775.77	222.44
776.09	222.35
776.42	222.26
776.74	222.28
777.07	222.17
777.39	222.01
777.72	221.82
778.04	221.86
778.36	221.80
778.69	221.68
779.01	221.64
779.33	221.15
779.66	220.62
779.98	220.48
780.31	220.45
780.63	220.62
780.95	220.50
781.28	220.39
781.60	220.23
781.92	220.19
782.25	220.08
782.57	220.06
782.89	219.91
783.22	219.82
783.54	219.65
783.86	219.60
784.19	219.52
784.51	219.61
784.83	219.34
785.16	219.18
785.48	219.19
