SpectraSuite Data File
++++++++++++++++++++++++++++++++++++
Date: Mon Feb 25 17:07:44 EST 2013
User: group
Dark Spectrum Present: No
Reference Spectrum Present: No
Number of Sampled Component Spectra: 1
Spectrometers: USB2E7196
Integration Time (usec): 104000 (USB2E7196)
Spectra Averaged: 20 (USB2E7196)
Boxcar Smoothing: 10 (USB2E7196)
Correct for Electrical Dark: No (USB2E7196)
Strobe/Lamp Enabled: No (USB2E7196)
Correct for Detector Non-linearity: No (USB2E7196)
Correct for Stray Light: No (USB2E7196)
Number of Pixels in Processed Spectrum: 2048
>>>>>Begin Processed Spectral Data<<<<<
339.09	0.00
339.48	196.80
339.86	200.95
340.24	200.60
340.63	203.00
341.01	208.40
341.39	204.70
341.78	207.75
342.16	208.55
342.54	207.30
342.93	197.93
343.31	207.92
343.69	208.54
344.07	208.94
344.46	209.45
344.84	209.87
345.22	210.00
345.60	210.33
345.99	210.46
346.37	210.57
346.75	210.78
347.13	210.89
347.52	211.00
347.90	211.15
348.28	211.15
348.66	211.30
349.05	211.27
349.43	211.38
349.81	211.39
350.19	211.48
350.57	211.55
350.96	211.54
351.34	211.66
351.72	211.75
352.10	211.92
352.48	212.01
352.87	212.01
353.25	212.07
353.63	212.08
354.01	212.11
354.39	212.19
354.77	212.19
355.15	212.26
355.54	212.21
355.92	212.14
356.30	212.20
356.68	212.35
357.06	212.47
357.44	212.45
357.82	212.52
358.20	212.64
358.58	212.74
358.97	212.92
359.35	212.95
359.73	213.04
360.11	213.05
360.49	213.07
360.87	213.15
361.25	213.17
361.63	213.32
362.01	213.40
362.39	213.40
362.77	213.46
363.15	213.47
363.53	213.51
363.91	213.55
364.29	213.52
364.67	213.24
365.05	213.15
365.43	213.16
365.81	213.20
366.19	213.31
366.57	213.38
366.95	213.35
367.33	213.38
367.71	213.35
368.09	213.34
368.47	213.29
368.85	213.20
369.23	213.29
369.61	213.12
369.99	213.17
370.37	213.15
370.75	213.29
371.13	213.20
371.51	213.14
371.89	213.08
372.27	213.08
372.65	213.05
373.03	213.01
373.41	212.96
373.78	212.79
374.16	212.55
374.54	212.43
374.92	212.21
375.30	212.03
375.68	211.95
376.06	211.89
376.44	211.79
376.82	211.78
377.19	211.67
377.57	211.68
377.95	211.52
378.33	211.43
378.71	211.12
379.09	211.08
379.47	211.06
379.84	211.02
380.22	210.98
380.60	210.85
380.98	210.71
381.36	210.68
381.73	210.62
382.11	210.66
382.49	210.64
382.87	210.62
383.25	210.65
383.62	211.01
384.00	210.94
384.38	210.90
384.76	210.88
385.13	211.01
385.51	210.86
385.89	210.80
386.27	210.89
386.64	210.97
387.02	210.90
387.40	210.79
387.78	210.78
388.15	210.72
388.53	210.73
388.91	210.79
389.29	210.76
389.66	210.78
390.04	210.70
390.42	210.65
390.79	210.67
391.17	210.62
391.55	210.19
391.92	210.18
392.30	210.23
392.68	210.19
393.05	210.10
393.43	210.15
393.81	210.17
394.18	210.02
394.56	209.94
394.94	210.02
395.31	210.03
395.69	210.10
396.06	210.13
396.44	210.16
396.82	210.13
397.19	210.26
397.57	210.35
397.95	210.34
398.32	210.24
398.70	210.35
399.07	210.42
399.45	210.41
399.82	210.47
400.20	210.39
400.58	210.41
400.95	210.31
401.33	210.43
401.70	210.67
402.08	210.74
402.45	210.89
402.83	211.06
403.20	211.14
403.58	211.20
403.95	211.33
404.33	211.45
404.71	211.53
405.08	211.82
405.46	211.83
405.83	212.01
406.21	212.21
406.58	212.29
406.96	212.47
407.33	212.71
407.70	212.83
408.08	213.25
408.45	213.51
408.83	213.73
409.20	213.89
409.58	213.88
409.95	214.19
410.33	214.40
410.70	214.51
411.08	214.78
411.45	214.97
411.82	215.17
412.20	215.56
412.57	216.01
412.95	216.00
413.32	216.50
413.69	216.82
414.07	217.19
414.44	217.60
414.82	218.05
415.19	218.54
415.56	219.14
415.94	219.57
416.31	220.16
416.68	220.81
417.06	221.60
417.43	222.43
417.81	223.25
418.18	224.09
418.55	225.03
418.93	225.99
419.30	227.02
419.67	228.16
420.04	229.19
420.42	230.29
420.79	231.91
421.16	233.15
421.54	234.71
421.91	236.27
422.28	237.78
422.66	239.32
423.03	241.07
423.40	242.72
423.77	244.41
424.15	246.09
424.52	247.96
424.89	249.83
425.26	251.63
425.64	253.47
426.01	255.46
426.38	257.55
426.75	259.81
427.13	262.06
427.50	264.33
427.87	266.76
428.24	269.15
428.61	271.35
428.99	274.05
429.36	276.77
429.73	279.42
430.10	282.23
430.47	284.99
430.85	287.72
431.22	290.64
431.59	294.18
431.96	297.33
432.33	300.77
432.70	304.16
433.08	308.06
433.45	311.76
433.82	315.49
434.19	319.72
434.56	323.80
434.93	327.57
435.30	331.53
435.68	335.85
436.05	340.13
436.42	344.30
436.79	348.20
437.16	352.31
437.53	356.63
437.90	360.96
438.27	365.43
438.64	369.98
439.01	374.30
439.38	377.72
439.75	381.37
440.13	385.44
440.50	389.27
440.87	392.55
441.24	395.83
441.61	399.42
441.98	402.12
442.35	405.13
442.72	408.39
443.09	411.59
443.46	413.54
443.83	414.89
444.20	416.02
444.57	417.53
444.94	418.43
445.31	419.50
445.68	420.58
446.05	420.93
446.42	420.62
446.79	420.35
447.16	420.05
447.53	419.89
447.90	418.51
448.27	417.24
448.64	415.15
449.01	413.71
449.37	410.99
449.74	408.22
450.11	405.36
450.48	401.89
450.85	398.11
451.22	394.93
451.59	392.06
451.96	389.31
452.33	385.61
452.70	382.10
453.07	377.85
453.43	373.46
453.80	369.42
454.17	365.44
454.54	361.75
454.91	357.77
455.28	353.85
455.65	350.16
456.02	346.89
456.38	343.78
456.75	339.96
457.12	336.84
457.49	333.65
457.86	330.26
458.23	327.81
458.59	324.94
458.96	322.10
459.33	319.40
459.70	316.76
460.07	314.66
460.43	312.31
460.80	310.21
461.17	308.32
461.54	306.37
461.91	304.48
462.27	302.35
462.64	300.60
463.01	298.79
463.38	297.13
463.74	294.92
464.11	293.39
464.48	292.05
464.85	290.48
465.21	289.50
465.58	288.32
465.95	286.57
466.32	285.45
466.68	284.23
467.05	283.05
467.42	281.78
467.78	280.46
468.15	279.28
468.52	278.39
468.88	277.09
469.25	276.00
469.62	275.18
469.98	274.26
470.35	273.42
470.72	272.59
471.08	271.62
471.45	270.91
471.82	270.14
472.18	269.29
472.55	268.77
472.92	267.93
473.28	267.32
473.65	266.78
474.02	266.11
474.38	265.60
474.75	265.24
475.11	264.83
475.48	264.49
475.85	264.20
476.21	263.73
476.58	263.48
476.94	263.24
477.31	263.02
477.67	262.73
478.04	262.53
478.41	262.30
478.77	262.49
479.14	262.24
479.50	262.20
479.87	262.15
480.23	262.03
480.60	261.95
480.96	261.93
481.33	262.05
481.69	262.10
482.06	262.18
482.42	262.14
482.79	262.18
483.15	262.26
483.52	262.46
483.88	262.70
484.25	262.81
484.61	263.00
484.98	263.13
485.34	263.57
485.71	264.01
486.07	264.36
486.44	264.39
486.80	264.77
487.17	265.10
487.53	265.60
487.90	266.11
488.26	266.78
488.62	267.40
488.99	267.95
489.35	268.60
489.72	269.21
490.08	269.88
490.44	270.60
490.81	271.57
491.17	272.22
491.54	273.09
491.90	274.08
492.26	275.03
492.63	276.04
492.99	277.00
493.36	277.95
493.72	279.17
494.08	280.33
494.45	281.54
494.81	282.74
495.17	283.96
495.54	285.24
495.90	286.45
496.26	287.70
496.63	289.06
496.99	290.42
497.35	291.89
497.72	293.47
498.08	294.99
498.44	296.39
498.80	298.13
499.17	299.78
499.53	301.31
499.89	303.07
500.26	304.83
500.62	306.60
500.98	308.49
501.34	310.16
501.71	312.14
502.07	314.02
502.43	316.00
502.79	317.89
503.16	319.92
503.52	321.88
503.88	323.90
504.24	326.03
504.60	328.24
504.97	330.48
505.33	332.54
505.69	334.98
506.05	337.27
506.41	339.42
506.78	341.60
507.14	343.94
507.50	346.13
507.86	348.48
508.22	350.83
508.59	353.06
508.95	355.55
509.31	358.05
509.67	360.64
510.03	363.18
510.39	365.67
510.75	368.31
511.12	370.92
511.48	373.55
511.84	376.12
512.20	378.65
512.56	381.31
512.92	384.23
513.28	386.97
513.64	389.72
514.00	392.57
514.37	395.46
514.73	398.40
515.09	401.42
515.45	404.23
515.81	407.13
516.17	410.09
516.53	412.96
516.89	415.76
517.25	418.60
517.61	421.62
517.97	424.77
518.33	427.74
518.69	430.99
519.05	434.23
519.41	437.51
519.77	441.04
520.13	444.28
520.49	447.52
520.85	450.52
521.21	453.98
521.57	457.43
521.93	460.64
522.29	464.05
522.65	467.44
523.01	470.91
523.37	474.24
523.73	477.75
524.09	481.35
524.45	484.91
524.81	488.53
525.17	492.08
525.53	495.77
525.89	499.38
526.25	503.03
526.61	506.59
526.97	510.12
527.33	513.69
527.68	517.70
528.04	521.32
528.40	525.09
528.76	528.70
529.12	532.46
529.48	536.42
529.84	540.15
530.20	543.96
530.56	547.98
530.91	552.10
531.27	556.08
531.63	560.09
531.99	564.10
532.35	568.01
532.71	571.99
533.07	576.03
533.42	580.35
533.78	584.26
534.14	588.29
534.50	592.22
534.86	596.11
535.21	599.58
535.57	603.75
535.93	607.61
536.29	611.65
536.65	615.67
537.00	619.30
537.36	623.25
537.72	627.13
538.08	630.92
538.44	634.83
538.79	638.51
539.15	642.21
539.51	646.10
539.87	650.09
540.22	653.88
540.58	657.61
540.94	661.08
541.29	664.65
541.65	667.97
542.01	671.67
542.37	675.48
542.72	679.17
543.08	682.34
543.44	686.03
543.79	689.24
544.15	692.54
544.51	696.42
544.87	700.09
545.22	703.20
545.58	706.44
545.94	709.34
546.29	712.48
546.65	715.53
547.01	718.38
547.36	721.31
547.72	724.22
548.07	726.94
548.43	729.66
548.79	732.26
549.14	734.97
549.50	737.72
549.86	739.86
550.21	742.23
550.57	745.06
550.92	747.29
551.28	749.75
551.64	751.90
551.99	753.90
552.35	755.71
552.70	757.89
553.06	759.80
553.41	762.05
553.77	764.19
554.13	766.17
554.48	768.31
554.84	770.34
555.19	772.19
555.55	773.99
555.90	775.66
556.26	777.36
556.61	779.08
556.97	780.21
557.32	781.72
557.68	783.01
558.03	784.21
558.39	785.59
558.74	787.08
559.10	788.53
559.45	789.92
559.81	791.34
560.16	792.57
560.52	793.96
560.87	795.01
561.23	796.07
561.58	797.34
561.94	798.04
562.29	798.70
562.64	799.67
563.00	800.67
563.35	801.82
563.71	802.95
564.06	803.86
564.42	804.99
564.77	806.11
565.12	807.36
565.48	808.55
565.83	809.44
566.19	810.12
566.54	810.73
566.89	811.24
567.25	811.98
567.60	812.74
567.96	813.50
568.31	814.09
568.66	814.56
569.02	814.68
569.37	814.88
569.72	815.14
570.08	815.09
570.43	814.93
570.78	814.75
571.14	814.45
571.49	814.22
571.84	814.11
572.20	813.58
572.55	813.24
572.90	812.39
573.26	811.98
573.61	811.36
573.96	810.92
574.31	810.17
574.67	809.09
575.02	808.10
575.37	806.97
575.72	805.78
576.08	804.90
576.43	803.92
576.78	803.10
577.13	802.41
577.49	801.70
577.84	800.90
578.19	800.18
578.54	799.56
578.90	798.90
579.25	797.97
579.60	797.11
579.95	795.94
580.30	795.20
580.66	794.35
581.01	793.27
581.36	792.09
581.71	791.23
582.06	790.47
582.42	789.55
582.77	788.40
583.12	787.62
583.47	786.75
583.82	785.88
584.17	784.85
584.53	783.84
584.88	782.77
585.23	781.77
585.58	780.65
585.93	779.37
586.28	778.25
586.63	777.05
586.98	776.03
587.34	775.24
587.69	773.90
588.04	772.61
588.39	771.55
588.74	770.15
589.09	769.02
589.44	767.32
589.79	766.25
590.14	765.20
590.49	763.94
590.84	762.56
591.19	761.39
591.54	760.20
591.89	758.42
592.25	757.16
592.60	755.54
592.95	753.90
593.30	752.29
593.65	750.62
594.00	749.07
594.35	748.48
594.70	746.61
595.05	745.16
595.40	743.50
595.75	741.63
596.10	740.23
596.45	738.64
596.80	737.51
597.15	735.92
597.50	734.33
597.85	732.85
598.19	731.26
598.54	729.70
598.89	728.27
599.24	727.14
599.59	725.57
599.94	724.56
600.29	723.25
600.64	721.94
600.99	720.47
601.34	719.23
601.69	716.91
602.04	715.37
602.39	713.93
602.74	712.63
603.08	711.56
603.43	710.75
603.78	709.35
604.13	708.01
604.48	706.52
604.83	705.32
605.18	704.08
605.53	702.54
605.87	701.01
606.22	699.55
606.57	698.08
606.92	696.58
607.27	694.71
607.62	693.12
607.96	691.86
608.31	690.67
608.66	689.08
609.01	687.40
609.36	685.93
609.70	684.24
610.05	682.54
610.40	680.84
610.75	678.67
611.10	677.11
611.44	675.00
611.79	672.99
612.14	670.90
612.49	668.65
612.83	666.76
613.18	664.58
613.53	662.38
613.88	660.02
614.22	657.94
614.57	656.00
614.92	653.78
615.27	651.30
615.61	648.85
615.96	646.77
616.31	644.80
616.65	643.00
617.00	640.88
617.35	638.74
617.70	636.47
618.04	633.99
618.39	631.39
618.74	629.30
619.08	627.09
619.43	625.02
619.78	623.00
620.12	620.76
620.47	618.92
620.82	616.69
621.16	614.50
621.51	612.43
621.85	610.18
622.20	608.02
622.55	605.80
622.89	603.66
623.24	601.15
623.59	598.59
623.93	596.18
624.28	593.98
624.62	592.16
624.97	590.16
625.32	588.13
625.66	586.22
626.01	584.14
626.35	582.21
626.70	580.01
627.04	577.95
627.39	576.06
627.73	573.96
628.08	572.09
628.43	570.08
628.77	567.91
629.12	565.61
629.46	563.82
629.81	561.70
630.15	559.58
630.50	557.59
630.84	555.69
631.19	553.64
631.53	551.65
631.88	549.11
632.22	546.85
632.57	544.93
632.91	542.86
633.26	540.75
633.60	538.65
633.95	536.58
634.29	534.36
634.64	532.27
634.98	529.94
635.32	527.95
635.67	526.02
636.01	524.06
636.36	522.23
636.70	520.05
637.05	518.29
637.39	516.51
637.73	514.85
638.08	513.11
638.42	511.28
638.77	509.49
639.11	507.62
639.45	505.66
639.80	503.64
640.14	501.48
640.49	499.47
640.83	497.49
641.17	495.52
641.52	493.62
641.86	491.56
642.20	489.80
642.55	487.62
642.89	485.59
643.23	483.40
643.58	481.60
643.92	479.55
644.26	477.55
644.61	475.56
644.95	473.38
645.29	471.30
645.64	469.23
645.98	467.13
646.32	465.37
646.66	463.43
647.01	461.50
647.35	459.83
647.69	457.81
648.04	456.03
648.38	454.14
648.72	452.21
649.06	450.31
649.41	448.35
649.75	446.47
650.09	444.79
650.43	443.03
650.78	440.91
651.12	439.01
651.46	437.20
651.80	435.35
652.14	433.59
652.49	431.80
652.83	429.84
653.17	427.75
653.51	425.69
653.85	424.08
654.20	422.36
654.54	420.31
654.88	418.58
655.22	416.67
655.56	414.93
655.90	413.12
656.25	411.26
656.59	409.49
656.93	407.71
657.27	405.81
657.61	403.94
657.95	402.33
658.29	400.62
658.64	398.99
658.98	397.18
659.32	395.35
659.66	393.56
660.00	391.89
660.34	390.35
660.68	388.71
661.02	386.76
661.36	385.09
661.70	383.69
662.05	382.12
662.39	380.80
662.73	379.26
663.07	377.94
663.41	376.48
663.75	374.98
664.09	373.48
664.43	371.91
664.77	370.40
665.11	368.86
665.45	367.47
665.79	366.00
666.13	364.55
666.47	363.16
666.81	361.78
667.15	360.35
667.49	359.03
667.83	357.79
668.17	356.58
668.51	355.18
668.85	353.72
669.19	352.54
669.53	351.06
669.87	349.70
670.21	348.28
670.55	347.05
670.89	345.96
671.23	344.77
671.57	343.60
671.91	342.39
672.25	341.25
672.58	340.12
672.92	338.79
673.26	337.74
673.60	336.64
673.94	335.44
674.28	334.32
674.62	333.28
674.96	332.13
675.30	331.01
675.64	329.89
675.97	328.88
676.31	327.76
676.65	326.71
676.99	325.69
677.33	324.66
677.67	323.62
678.01	322.37
678.34	321.36
678.68	320.36
679.02	319.31
679.36	318.25
679.70	317.16
680.04	316.18
680.37	315.10
680.71	313.95
681.05	313.10
681.39	312.14
681.73	311.05
682.06	310.12
682.40	309.15
682.74	308.27
683.08	307.46
683.42	306.41
683.75	305.46
684.09	304.49
684.43	303.47
684.77	302.45
685.10	301.45
685.44	300.49
685.78	299.53
686.12	298.70
686.45	297.80
686.79	296.97
687.13	296.18
687.46	295.33
687.80	294.64
688.14	293.66
688.48	292.89
688.81	292.14
689.15	291.29
689.49	290.42
689.82	289.61
690.16	288.52
690.50	287.70
690.83	286.85
691.17	285.99
691.51	285.16
691.84	284.39
692.18	283.72
692.52	283.00
692.85	282.29
693.19	281.76
693.52	280.98
693.86	280.14
694.20	279.36
694.53	278.70
694.87	277.88
695.21	277.18
695.54	276.38
695.88	275.60
696.21	274.78
696.55	274.20
696.88	273.45
697.22	272.83
697.56	272.27
697.89	271.57
698.23	270.93
698.56	270.30
698.90	269.80
699.23	269.05
699.57	268.41
699.90	267.72
700.24	266.91
700.58	266.37
700.91	265.85
701.25	265.52
701.58	264.96
701.92	264.55
702.25	263.92
702.59	263.32
702.92	262.85
703.26	262.33
703.59	261.73
703.93	261.59
704.26	261.10
704.60	260.65
704.93	260.15
705.26	259.63
705.60	259.29
705.93	258.65
706.27	258.31
706.60	257.84
706.94	257.59
707.27	257.06
707.61	256.58
707.94	256.14
708.27	255.38
708.61	254.76
708.94	254.15
709.28	253.77
709.61	253.36
709.94	252.83
710.28	252.38
710.61	251.97
710.95	251.23
711.28	250.99
711.61	250.45
711.95	250.10
712.28	249.62
712.61	249.10
712.95	248.90
713.28	248.70
713.61	248.25
713.95	247.60
714.28	247.27
714.61	246.82
714.95	246.43
715.28	246.01
715.61	245.68
715.95	245.33
716.28	244.99
716.61	244.70
716.95	244.34
717.28	243.99
717.61	243.61
717.94	243.23
718.28	242.63
718.61	242.29
718.94	241.88
719.27	241.62
719.61	241.26
719.94	240.77
720.27	240.13
720.60	239.82
720.94	239.64
721.27	239.30
721.60	239.08
721.93	238.63
722.27	238.48
722.60	238.28
722.93	238.03
723.26	237.77
723.59	237.42
723.93	237.21
724.26	237.04
724.59	236.73
724.92	236.54
725.25	236.40
725.59	236.16
725.92	235.97
726.25	235.72
726.58	235.52
726.91	235.28
727.24	235.17
727.57	234.92
727.91	234.63
728.24	234.48
728.57	234.20
728.90	234.17
729.23	233.87
729.56	233.73
729.89	233.54
730.22	233.29
730.55	233.07
730.89	232.79
731.22	232.54
731.55	232.36
731.88	232.06
732.21	231.86
732.54	231.61
732.87	231.38
733.20	231.20
733.53	231.01
733.86	230.82
734.19	230.59
734.52	230.50
734.85	230.55
735.18	230.29
735.51	230.22
735.84	230.04
736.17	229.98
736.50	229.64
736.83	229.77
737.16	229.57
737.49	229.35
737.82	229.18
738.15	229.01
738.48	228.84
738.81	228.71
739.14	228.46
739.47	228.23
739.80	228.05
740.13	227.89
740.46	227.70
740.79	227.52
741.12	227.33
741.45	227.01
741.78	226.64
742.11	226.61
742.44	226.34
742.77	226.15
743.10	226.00
743.43	225.87
743.75	225.34
744.08	225.64
744.41	225.51
744.74	225.35
745.07	225.12
745.40	225.04
745.73	224.99
746.06	224.85
746.39	224.80
746.71	224.63
747.04	224.45
747.37	224.30
747.70	224.21
748.03	224.13
748.36	224.16
748.68	224.00
749.01	223.80
749.34	223.70
749.67	223.60
750.00	223.41
750.33	223.51
750.65	223.37
750.98	222.77
751.31	222.71
751.64	222.64
751.97	222.70
752.29	222.55
752.62	222.30
752.95	222.14
753.28	222.03
753.60	221.96
753.93	221.95
754.26	221.86
754.59	221.65
754.91	221.51
755.24	221.37
755.57	221.31
755.90	221.11
756.22	221.01
756.55	220.86
756.88	220.77
757.20	220.43
757.53	220.33
757.86	220.25
758.19	220.18
758.51	220.05
758.84	219.82
759.17	219.73
759.49	219.60
759.82	219.74
760.15	219.61
760.47	219.56
760.80	219.33
761.13	219.32
761.45	219.25
761.78	219.14
762.11	219.03
762.43	218.84
762.76	218.78
763.08	218.70
763.41	218.65
763.74	218.55
764.06	218.49
764.39	218.43
764.71	218.38
765.04	218.22
765.37	218.13
765.69	218.08
766.02	218.00
766.34	217.95
766.67	217.69
767.00	217.70
767.32	217.80
767.65	217.95
767.97	217.81
768.30	217.78
768.62	217.74
768.95	217.63
769.27	217.58
769.60	217.59
769.92	217.51
770.25	217.44
770.57	217.24
770.90	217.10
771.22	216.99
771.55	216.94
771.87	216.85
772.20	216.82
772.52	216.99
772.85	217.35
773.17	217.38
773.50	217.39
773.82	217.34
774.15	217.04
774.47	216.80
774.80	216.75
775.12	216.68
775.45	216.61
775.77	216.55
776.09	216.55
776.42	216.48
776.74	216.54
777.07	216.31
777.39	216.31
777.72	216.29
778.04	216.30
778.36	216.15
778.69	216.14
779.01	216.05
779.33	215.72
779.66	215.33
779.98	215.19
780.31	215.08
780.63	215.10
780.95	215.13
781.28	215.13
781.60	214.98
781.92	215.00
782.25	214.95
782.57	214.95
782.89	214.85
783.22	214.77
783.54	214.60
783.86	214.67
784.19	214.60
784.51	214.65
784.83	214.51
785.16	214.54
785.48	214.53
785.80	214.53
786.12	214.53
786.45	214.46
786.77	214.49
787.09	214.42
787.42	214.26
787.74	214.28
788.06	214.15
788.38	214.11
788.71	213.95
789.03	213.89
789.35	213.88
789.67	213.81
789.99	213.82
790.32	213.70
790.64	213.75
790.96	214.04
791.28	213.90
791.61	213.89
791.93	213.87
792.25	213.83
792.57	214.01
792.89	213.90
793.21	213.85
793.54	213.77
793.86	213.70
794.18	213.70
