SpectraSuite Data File
++++++++++++++++++++++++++++++++++++
Date: Mon Feb 25 17:00:19 EST 2013
User: group
Dark Spectrum Present: No
Reference Spectrum Present: No
Number of Sampled Component Spectra: 1
Spectrometers: USB2E7196
Integration Time (usec): 104000 (USB2E7196)
Spectra Averaged: 20 (USB2E7196)
Boxcar Smoothing: 10 (USB2E7196)
Correct for Electrical Dark: No (USB2E7196)
Strobe/Lamp Enabled: No (USB2E7196)
Correct for Detector Non-linearity: No (USB2E7196)
Correct for Stray Light: No (USB2E7196)
Number of Pixels in Processed Spectrum: 2048
>>>>>Begin Processed Spectral Data<<<<<
339.09	0.00
339.48	197.75
339.86	200.20
340.24	202.05
340.63	203.20
341.01	210.50
341.39	207.10
341.78	207.80
342.16	208.55
342.54	208.35
342.93	198.26
343.31	208.25
343.69	208.84
344.07	209.30
344.46	209.73
344.84	210.10
345.22	210.03
345.60	210.13
345.99	210.25
346.37	210.38
346.75	210.44
347.13	210.49
347.52	210.52
347.90	210.74
348.28	210.66
348.66	210.72
349.05	210.65
349.43	210.62
349.81	210.58
350.19	210.67
350.57	210.71
350.96	210.74
351.34	210.80
351.72	210.85
352.10	210.86
352.48	210.83
352.87	210.88
353.25	210.98
353.63	211.11
354.01	211.14
354.39	211.17
354.77	211.30
355.15	211.47
355.54	211.46
355.92	211.44
356.30	211.53
356.68	211.81
357.06	211.92
357.44	211.95
357.82	212.02
358.20	212.06
358.58	212.17
358.97	212.25
359.35	212.37
359.73	212.48
360.11	212.59
360.49	212.67
360.87	212.70
361.25	212.83
361.63	212.98
362.01	213.15
362.39	213.19
362.77	213.28
363.15	213.26
363.53	213.36
363.91	213.35
364.29	213.38
364.67	213.03
365.05	213.04
365.43	213.12
365.81	213.23
366.19	213.46
366.57	213.55
366.95	213.54
367.33	213.55
367.71	213.57
368.09	213.65
368.47	213.70
368.85	213.66
369.23	213.70
369.61	213.56
369.99	213.60
370.37	213.57
370.75	213.67
371.13	213.61
371.51	213.54
371.89	213.53
372.27	213.59
372.65	213.61
373.03	213.60
373.41	213.56
373.78	213.48
374.16	213.25
374.54	213.13
374.92	213.09
375.30	212.99
375.68	212.85
376.06	212.77
376.44	212.68
376.82	212.68
377.19	212.63
377.57	212.62
377.95	212.45
378.33	212.42
378.71	212.17
379.09	212.14
379.47	212.10
379.84	212.03
380.22	211.83
380.60	211.71
380.98	211.65
381.36	211.56
381.73	211.47
382.11	211.45
382.49	211.46
382.87	211.37
383.25	211.33
383.62	211.77
384.00	211.69
384.38	211.71
384.76	211.77
385.13	211.80
385.51	211.76
385.89	211.69
386.27	211.68
386.64	211.67
387.02	211.69
387.40	211.64
387.78	211.59
388.15	211.61
388.53	211.58
388.91	211.54
389.29	211.55
389.66	211.51
390.04	211.41
390.42	211.46
390.79	211.43
391.17	211.45
391.55	210.96
391.92	210.91
392.30	210.93
392.68	210.86
393.05	210.82
393.43	210.72
393.81	210.70
394.18	210.66
394.56	210.70
394.94	210.73
395.31	210.72
395.69	210.89
396.06	210.94
396.44	211.00
396.82	210.93
397.19	211.09
397.57	211.06
397.95	211.17
398.32	211.02
398.70	211.09
399.07	211.13
399.45	211.16
399.82	211.24
400.20	211.23
400.58	211.25
400.95	211.15
401.33	211.35
401.70	211.70
402.08	211.76
402.45	211.82
402.83	211.96
403.20	212.10
403.58	212.14
403.95	212.38
404.33	212.60
404.71	212.79
405.08	213.15
405.46	213.33
405.83	213.45
406.21	213.60
406.58	213.81
406.96	214.09
407.33	214.37
407.70	214.59
408.08	215.13
408.45	215.46
408.83	215.93
409.20	216.22
409.58	216.41
409.95	216.91
410.33	217.42
410.70	217.80
411.08	218.37
411.45	218.89
411.82	219.33
412.20	220.04
412.57	220.95
412.95	221.31
413.32	222.25
413.69	223.10
414.07	224.07
414.44	225.19
414.82	226.15
415.19	227.38
415.56	228.63
415.94	229.78
416.31	231.28
416.68	232.60
417.06	234.27
417.43	235.88
417.81	237.69
418.18	239.47
418.55	241.46
418.93	243.55
419.30	245.89
419.67	248.27
420.04	250.66
420.42	253.07
420.79	256.17
421.16	259.06
421.54	262.19
421.91	265.30
422.28	268.47
422.66	272.05
423.03	275.57
423.40	279.18
423.77	282.94
424.15	286.74
424.52	290.85
424.89	295.22
425.26	299.52
425.64	303.60
426.01	308.13
426.38	312.82
426.75	317.60
427.13	322.48
427.50	327.71
427.87	333.11
428.24	338.70
428.61	343.85
428.99	349.68
429.36	355.93
429.73	362.28
430.10	368.50
430.47	374.76
430.85	381.31
431.22	388.25
431.59	395.79
431.96	402.93
432.33	410.88
432.70	418.70
433.08	427.70
433.45	436.26
433.82	444.88
434.19	454.36
434.56	463.74
434.93	472.73
435.30	481.88
435.68	491.89
436.05	501.84
436.42	511.65
436.79	520.82
437.16	530.68
437.53	540.98
437.90	551.30
438.27	561.52
438.64	572.05
439.01	582.13
439.38	590.95
439.75	599.64
440.13	609.47
440.50	618.65
440.87	626.21
441.24	634.19
441.61	643.13
441.98	649.85
442.35	657.68
442.72	665.62
443.09	673.11
443.46	677.95
443.83	681.34
444.20	684.49
444.57	688.49
444.94	690.95
445.31	693.41
445.68	695.88
446.05	697.34
446.42	697.24
446.79	696.80
447.16	696.18
447.53	695.88
447.90	692.90
448.27	689.99
448.64	685.61
449.01	682.51
449.37	676.27
449.74	670.48
450.11	663.32
450.48	655.35
450.85	647.25
451.22	640.34
451.59	633.82
451.96	627.59
452.33	619.10
452.70	611.36
453.07	602.00
453.43	592.34
453.80	583.17
454.17	574.26
454.54	565.69
454.91	556.69
455.28	547.97
455.65	539.64
456.02	531.54
456.38	524.43
456.75	515.53
457.12	508.25
457.49	500.91
457.86	493.72
458.23	487.74
458.59	481.02
458.96	474.48
459.33	468.41
459.70	462.42
460.07	457.62
460.43	452.09
460.80	446.94
461.17	442.41
461.54	437.68
461.91	433.12
462.27	428.68
462.64	424.81
463.01	420.49
463.38	416.42
463.74	412.05
464.11	408.42
464.48	405.28
464.85	401.70
465.21	399.11
465.58	396.32
465.95	392.70
466.32	389.85
466.68	386.79
467.05	383.92
467.42	381.09
467.78	378.15
468.15	375.28
468.52	373.22
468.88	370.52
469.25	368.06
469.62	366.03
469.98	363.67
470.35	361.59
470.72	359.55
471.08	357.40
471.45	355.64
471.82	353.84
472.18	351.96
472.55	350.52
472.92	348.75
473.28	347.24
473.65	345.78
474.02	344.29
474.38	343.19
474.75	342.25
475.11	341.03
475.48	340.24
475.85	339.33
476.21	338.38
476.58	337.60
476.94	337.03
477.31	336.43
477.67	335.92
478.04	335.45
478.41	335.20
478.77	335.16
479.14	334.71
479.50	334.51
479.87	334.38
480.23	334.32
480.60	334.07
480.96	333.93
481.33	334.30
481.69	334.56
482.06	334.50
482.42	334.50
482.79	334.75
483.15	334.98
483.52	335.58
483.88	335.88
484.25	336.27
484.61	336.65
484.98	337.03
485.34	337.85
485.71	338.62
486.07	339.44
486.44	339.92
486.80	340.73
487.17	341.67
487.53	342.82
487.90	343.95
488.26	345.34
488.62	346.75
488.99	347.79
489.35	349.05
489.72	350.69
490.08	352.20
490.44	353.64
490.81	355.27
491.17	356.81
491.54	358.71
491.90	360.58
492.26	362.46
492.63	364.47
492.99	366.25
493.36	368.25
493.72	370.34
494.08	372.57
494.45	375.01
494.81	377.40
495.17	379.71
495.54	382.26
495.90	384.70
496.26	387.03
496.63	389.55
496.99	392.24
497.35	394.88
497.72	397.57
498.08	400.58
498.44	403.35
498.80	406.35
499.17	409.35
499.53	412.29
499.89	415.37
500.26	418.37
500.62	421.39
500.98	424.49
501.34	427.33
501.71	430.36
502.07	433.28
502.43	436.09
502.79	438.96
503.16	441.82
503.52	444.74
503.88	447.56
504.24	450.60
504.60	453.38
504.97	456.07
505.33	458.84
505.69	461.63
506.05	464.34
506.41	466.86
506.78	469.27
507.14	471.79
507.50	474.10
507.86	476.48
508.22	478.85
508.59	480.90
508.95	483.15
509.31	485.37
509.67	487.43
510.03	489.51
510.39	491.52
510.75	493.37
511.12	495.22
511.48	497.14
511.84	498.72
512.20	500.33
512.56	502.14
512.92	503.79
513.28	505.20
513.64	506.58
514.00	507.86
514.37	509.13
514.73	510.35
515.09	511.62
515.45	512.63
515.81	513.70
516.17	514.88
516.53	515.86
516.89	516.64
517.25	517.47
517.61	518.36
517.97	519.01
518.33	519.60
518.69	520.16
519.05	520.79
519.41	521.35
519.77	522.15
520.13	522.45
520.49	522.66
520.85	522.96
521.21	523.45
521.57	523.95
521.93	524.25
522.29	524.65
522.65	524.88
523.01	525.26
523.37	525.49
523.73	525.71
524.09	525.89
524.45	526.16
524.81	526.39
525.17	526.65
525.53	527.05
525.89	527.43
526.25	527.90
526.61	528.06
526.97	528.54
527.33	528.79
527.68	529.60
528.04	530.25
528.40	530.75
528.76	531.34
529.12	531.98
529.48	532.80
529.84	533.53
530.20	534.38
530.56	535.12
530.91	536.06
531.27	537.08
531.63	538.21
531.99	539.28
532.35	540.38
532.71	541.53
533.07	542.76
533.42	544.52
533.78	545.77
534.14	547.29
534.50	548.52
534.86	550.12
535.21	551.29
535.57	552.89
535.93	554.46
536.29	556.30
536.65	558.06
537.00	559.62
537.36	561.30
537.72	562.82
538.08	564.88
538.44	566.70
538.79	568.60
539.15	570.45
539.51	572.45
539.87	574.53
540.22	576.69
540.58	579.00
540.94	580.82
541.29	582.90
541.65	584.84
542.01	587.07
542.37	589.25
542.72	591.43
543.08	593.60
543.44	596.04
543.79	597.84
544.15	599.93
544.51	602.69
544.87	605.04
545.22	607.69
545.58	610.02
545.94	612.40
546.29	614.60
546.65	616.97
547.01	619.29
547.36	621.71
547.72	624.06
548.07	626.42
548.43	628.69
548.79	631.10
549.14	633.76
549.50	636.34
549.86	638.69
550.21	641.22
550.57	643.91
550.92	646.27
551.28	648.92
551.64	651.58
551.99	653.86
552.35	656.31
552.70	658.67
553.06	661.20
553.41	663.59
553.77	666.36
554.13	669.16
554.48	672.07
554.84	674.79
555.19	677.33
555.55	680.01
555.90	682.50
556.26	684.81
556.61	687.08
556.97	689.42
557.32	691.96
557.68	694.06
558.03	696.13
558.39	698.38
558.74	700.73
559.10	702.92
559.45	705.19
559.81	707.66
560.16	709.79
560.52	711.92
560.87	714.20
561.23	716.17
561.58	718.46
561.94	720.29
562.29	722.03
562.64	724.03
563.00	725.75
563.35	727.80
563.71	730.08
564.06	732.22
564.42	734.25
564.77	736.19
565.12	738.52
565.48	740.92
565.83	743.18
566.19	745.32
566.54	747.15
566.89	748.85
567.25	750.71
567.60	752.93
567.96	755.01
568.31	757.13
568.66	758.87
569.02	760.03
569.37	761.38
569.72	763.10
570.08	764.56
570.43	765.87
570.78	766.98
571.14	767.96
571.49	768.86
571.84	770.15
572.20	770.94
572.55	771.71
572.90	771.98
573.26	772.41
573.61	772.79
573.96	773.45
574.31	773.89
574.67	774.03
575.02	773.95
575.37	773.72
575.72	773.23
576.08	773.27
576.43	773.33
576.78	773.33
577.13	773.31
577.49	773.25
577.84	773.06
578.19	773.08
578.54	773.28
578.90	773.40
579.25	772.94
579.60	772.65
579.95	772.32
580.30	772.00
580.66	771.75
581.01	771.34
581.36	770.68
581.71	770.19
582.06	769.92
582.42	769.55
582.77	768.89
583.12	768.34
583.47	767.83
583.82	767.20
584.17	766.54
584.53	765.87
584.88	765.17
585.23	764.64
585.58	763.76
585.93	762.81
586.28	761.92
586.63	761.28
586.98	760.52
587.34	760.05
587.69	759.32
588.04	758.52
588.39	757.74
588.74	756.87
589.09	756.06
589.44	754.68
589.79	753.73
590.14	753.17
590.49	752.22
590.84	751.02
591.19	750.33
591.54	749.38
591.89	747.99
592.25	747.04
592.60	745.76
592.95	744.56
593.30	743.08
593.65	741.70
594.00	740.12
594.35	739.75
594.70	737.98
595.05	736.79
595.40	735.27
595.75	733.56
596.10	732.30
596.45	730.84
596.80	729.64
597.15	728.30
597.50	726.66
597.85	725.32
598.19	723.85
598.54	722.16
598.89	720.67
599.24	719.68
599.59	717.92
599.94	716.58
600.29	715.16
600.64	713.58
600.99	711.86
601.34	710.42
601.69	707.81
602.04	706.17
602.39	704.35
602.74	702.78
603.08	701.45
603.43	700.17
603.78	698.54
604.13	696.95
604.48	695.23
604.83	693.77
605.18	692.43
605.53	690.89
605.87	689.32
606.22	687.78
606.57	685.69
606.92	683.85
607.27	681.99
607.62	680.07
607.96	678.59
608.31	677.18
608.66	675.38
609.01	673.65
609.36	671.88
609.70	670.04
610.05	668.09
610.40	666.33
610.75	664.07
611.10	662.40
611.44	660.23
611.79	658.13
612.14	656.03
612.49	653.55
612.83	651.50
613.18	649.22
613.53	646.99
613.88	644.75
614.22	642.78
614.57	640.54
614.92	638.63
615.27	636.52
615.61	634.33
615.96	632.20
616.31	630.23
616.65	628.37
617.00	626.17
617.35	624.04
617.70	621.55
618.04	619.11
618.39	616.49
618.74	614.36
619.08	612.19
619.43	609.91
619.78	608.12
620.12	605.91
620.47	603.79
620.82	601.29
621.16	598.99
621.51	596.85
621.85	594.74
622.20	592.31
622.55	589.94
622.89	587.50
623.24	585.30
623.59	582.75
623.93	580.46
624.28	578.42
624.62	576.62
624.97	574.70
625.32	572.70
625.66	570.75
626.01	568.62
626.35	566.43
626.70	564.30
627.04	562.15
627.39	559.90
627.73	557.89
628.08	556.18
628.43	554.22
628.77	551.98
629.12	549.76
629.46	547.95
629.81	545.83
630.15	543.90
630.50	541.60
630.84	539.71
631.19	537.60
631.53	535.55
631.88	533.00
632.22	530.63
632.57	528.73
632.91	526.67
633.26	524.63
633.60	522.46
633.95	520.55
634.29	518.36
634.64	516.54
634.98	514.26
635.32	512.14
635.67	510.20
636.01	508.33
636.36	506.39
636.70	504.49
637.05	502.78
637.39	500.95
637.73	499.41
638.08	497.69
638.42	495.91
638.77	494.22
639.11	492.45
639.45	490.70
639.80	488.60
640.14	486.67
640.49	484.89
640.83	483.21
641.17	481.25
641.52	479.30
641.86	477.35
642.20	475.71
642.55	473.63
642.89	471.80
643.23	469.89
643.58	468.24
643.92	466.11
644.26	464.20
644.61	462.28
644.95	460.25
645.29	458.27
645.64	456.35
645.98	454.26
646.32	452.60
646.66	450.75
647.01	449.05
647.35	447.28
647.69	445.41
648.04	443.58
648.38	441.75
648.72	440.05
649.06	438.14
649.41	436.29
649.75	434.55
650.09	432.74
650.43	430.96
650.78	429.01
651.12	427.20
651.46	425.34
651.80	423.58
652.14	421.95
652.49	420.36
652.83	418.52
653.17	416.75
653.51	414.86
653.85	413.25
654.20	411.51
654.54	409.70
654.88	407.90
655.22	406.30
655.56	404.47
655.90	402.68
656.25	400.96
656.59	399.16
656.93	397.63
657.27	396.05
657.61	394.24
657.95	392.65
658.29	390.96
658.64	389.60
658.98	388.00
659.32	386.20
659.66	384.45
660.00	382.90
660.34	381.28
660.68	379.65
661.02	377.99
661.36	376.45
661.70	374.96
662.05	373.45
662.39	371.95
662.73	370.82
663.07	369.47
663.41	368.13
663.75	366.80
664.09	365.42
664.43	363.93
664.77	362.64
665.11	361.19
665.45	359.96
665.79	358.44
666.13	357.13
666.47	355.72
666.81	354.35
667.15	353.03
667.49	351.89
667.83	350.65
668.17	349.27
668.51	348.00
668.85	346.90
669.19	345.90
669.53	344.59
669.87	343.15
670.21	341.88
670.55	340.73
670.89	339.79
671.23	338.60
671.57	337.50
671.91	336.34
672.25	335.35
672.58	334.33
672.92	333.14
673.26	331.95
673.60	330.99
673.94	329.95
674.28	328.90
674.62	327.84
674.96	326.76
675.30	325.82
675.64	324.82
675.97	323.70
676.31	322.62
676.65	321.59
676.99	320.82
677.33	319.85
677.67	318.84
678.01	317.62
678.34	316.75
678.68	315.85
679.02	314.82
679.36	313.70
679.70	312.74
680.04	311.88
680.37	310.96
680.71	310.03
681.05	309.12
681.39	308.21
681.73	307.30
682.06	306.43
682.40	305.64
682.74	304.87
683.08	304.18
683.42	303.19
683.75	302.40
684.09	301.34
684.43	300.49
684.77	299.64
685.10	298.85
685.44	297.85
685.78	297.00
686.12	296.35
686.45	295.62
686.79	294.75
687.13	294.01
687.46	293.25
687.80	292.53
688.14	291.73
688.48	291.01
688.81	290.20
689.15	289.57
689.49	288.67
689.82	287.88
690.16	286.87
690.50	286.12
690.83	285.26
691.17	284.48
691.51	283.70
691.84	283.01
692.18	282.24
692.52	281.53
692.85	280.83
693.19	280.13
693.52	279.39
693.86	278.66
694.20	277.94
694.53	277.21
694.87	276.45
695.21	275.75
695.54	275.05
695.88	274.28
696.21	273.37
696.55	272.88
696.88	272.13
697.22	271.48
697.56	271.06
697.89	270.43
698.23	269.90
698.56	269.25
698.90	268.65
699.23	268.06
699.57	267.55
699.90	266.85
700.24	266.20
700.58	265.65
700.91	265.07
701.25	264.77
701.58	264.37
701.92	263.94
702.25	263.38
702.59	262.80
702.92	262.32
703.26	261.91
703.59	261.31
703.93	261.04
704.26	260.53
704.60	259.86
704.93	259.35
705.26	258.76
705.60	258.34
705.93	257.72
706.27	257.25
706.60	256.79
706.94	256.54
707.27	256.01
707.61	255.50
707.94	255.05
708.27	254.31
708.61	253.73
708.94	253.22
709.28	252.87
709.61	252.46
709.94	252.15
710.28	251.69
710.61	251.25
710.95	250.65
711.28	250.53
711.61	250.13
711.95	249.85
712.28	249.44
712.61	249.09
712.95	248.94
713.28	248.69
713.61	248.22
713.95	247.70
714.28	247.42
714.61	247.11
714.95	246.73
715.28	246.34
715.61	245.96
715.95	245.62
716.28	245.17
716.61	244.79
716.95	244.24
717.28	243.89
717.61	243.53
717.94	243.13
718.28	242.58
718.61	242.24
718.94	241.82
719.27	241.52
719.61	241.12
719.94	240.67
720.27	240.22
720.60	240.00
720.94	239.69
721.27	239.44
721.60	239.23
721.93	238.95
722.27	238.80
722.60	238.66
722.93	238.39
723.26	238.16
723.59	237.83
723.93	237.75
724.26	237.53
724.59	237.25
724.92	237.12
725.25	236.91
725.59	236.66
725.92	236.49
726.25	236.30
726.58	236.09
726.91	235.93
727.24	235.71
727.57	235.43
727.91	235.17
728.24	234.83
728.57	234.56
728.90	234.38
729.23	234.03
729.56	233.96
729.89	233.71
730.22	233.47
730.55	233.27
730.89	232.99
731.22	232.75
731.55	232.59
731.88	232.36
732.21	232.09
732.54	231.88
732.87	231.72
733.20	231.48
733.53	231.32
733.86	231.12
734.19	230.89
734.52	230.76
734.85	230.82
735.18	230.68
735.51	230.53
735.84	230.40
736.17	230.29
736.50	229.85
736.83	230.00
737.16	229.81
737.49	229.70
737.82	229.53
738.15	229.42
738.48	229.23
738.81	229.05
739.14	228.90
739.47	228.74
739.80	228.52
740.13	228.41
740.46	228.24
740.79	228.00
741.12	227.82
741.45	227.60
741.78	227.30
742.11	227.16
742.44	226.97
742.77	226.82
743.10	226.61
743.43	226.43
743.75	225.94
744.08	226.25
744.41	226.07
744.74	225.96
745.07	225.80
745.40	225.66
745.73	225.64
746.06	225.59
746.39	225.47
746.71	225.29
747.04	225.11
747.37	224.95
747.70	224.90
748.03	224.83
748.36	224.75
748.68	224.54
749.01	224.37
749.34	224.19
749.67	224.13
750.00	224.09
750.33	224.26
750.65	224.23
750.98	223.66
751.31	223.58
751.64	223.43
751.97	223.39
752.29	223.29
752.62	222.95
752.95	222.75
753.28	222.61
753.60	222.47
753.93	222.38
754.26	222.29
754.59	222.11
754.91	221.99
755.24	221.87
755.57	221.71
755.90	221.63
756.22	221.56
756.55	221.33
756.88	221.09
757.20	220.78
757.53	220.52
757.86	220.41
758.19	220.29
758.51	220.16
758.84	219.95
759.17	219.82
759.49	219.78
759.82	219.91
760.15	219.85
760.47	219.82
760.80	219.68
761.13	219.60
761.45	219.41
761.78	219.29
762.11	219.18
762.43	219.19
762.76	219.02
763.08	218.96
763.41	218.88
763.74	218.79
764.06	218.70
764.39	218.75
764.71	218.71
765.04	218.61
765.37	218.53
765.69	218.46
766.02	218.44
766.34	218.37
766.67	218.06
767.00	217.99
767.32	218.08
767.65	218.21
767.97	218.11
768.30	218.10
768.62	218.01
768.95	217.97
769.27	217.81
769.60	217.84
769.92	217.64
770.25	217.52
770.57	217.47
770.90	217.35
771.22	217.16
771.55	217.07
771.87	217.07
772.20	217.04
772.52	217.26
772.85	217.52
773.17	217.41
773.50	217.45
773.82	217.34
774.15	217.13
774.47	216.83
774.80	216.72
775.12	216.65
775.45	216.61
775.77	216.46
776.09	216.46
776.42	216.42
776.74	216.54
777.07	216.50
777.39	216.47
777.72	216.45
778.04	216.45
778.36	216.40
778.69	216.29
779.01	216.21
779.33	215.93
779.66	215.50
779.98	215.48
780.31	215.35
780.63	215.43
780.95	215.45
781.28	215.43
781.60	215.38
781.92	215.37
782.25	215.34
782.57	215.38
782.89	215.41
783.22	215.38
783.54	215.23
783.86	215.27
784.19	215.20
784.51	215.25
784.83	215.18
785.16	215.19
785.48	215.12
785.80	215.12
786.12	215.09
786.45	215.05
786.77	215.04
787.09	214.99
787.42	214.90
787.74	214.88
788.06	214.83
788.38	214.80
788.71	214.72
789.03	214.75
789.35	214.70
789.67	214.56
789.99	214.55
790.32	214.50
790.64	214.47
790.96	214.73
791.28	214.50
791.61	214.45
791.93	214.42
792.25	214.40
792.57	214.66
792.89	214.51
793.21	214.50
793.54	214.46
793.86	214.42
794.18	214.35
