SpectraSuite Data File
++++++++++++++++++++++++++++++++++++
Date: Mon Feb 25 17:20:24 EST 2013
User: group
Dark Spectrum Present: No
Reference Spectrum Present: No
Number of Sampled Component Spectra: 1
Spectrometers: USB2E7196
Integration Time (usec): 104000 (USB2E7196)
Spectra Averaged: 20 (USB2E7196)
Boxcar Smoothing: 10 (USB2E7196)
Correct for Electrical Dark: No (USB2E7196)
Strobe/Lamp Enabled: No (USB2E7196)
Correct for Detector Non-linearity: No (USB2E7196)
Correct for Stray Light: No (USB2E7196)
Number of Pixels in Processed Spectrum: 2048
>>>>>Begin Processed Spectral Data<<<<<
339.09	0.00
339.48	198.65
339.86	200.40
340.24	202.15
340.63	203.05
341.01	210.10
341.39	204.90
341.78	206.40
342.16	209.35
342.54	210.30
342.93	198.60
343.31	208.65
343.69	209.16
344.07	209.64
344.46	210.11
344.84	210.52
345.22	210.63
345.60	210.98
345.99	211.26
346.37	211.47
346.75	211.52
347.13	211.62
347.52	211.78
347.90	211.94
348.28	212.05
348.66	212.20
349.05	212.03
349.43	212.12
349.81	212.23
350.19	212.32
350.57	212.44
350.96	212.53
351.34	212.65
351.72	212.83
352.10	212.94
352.48	212.94
352.87	212.99
353.25	213.01
353.63	213.12
354.01	213.18
354.39	213.21
354.77	213.34
355.15	213.54
355.54	213.52
355.92	213.44
356.30	213.49
356.68	213.76
357.06	213.90
357.44	213.85
357.82	213.87
358.20	213.94
358.58	213.88
358.97	213.86
359.35	213.96
359.73	214.03
360.11	214.05
360.49	214.21
360.87	214.26
361.25	214.38
361.63	214.47
362.01	214.52
362.39	214.53
362.77	214.56
363.15	214.58
363.53	214.57
363.91	214.67
364.29	214.73
364.67	214.43
365.05	214.50
365.43	214.59
365.81	214.79
366.19	214.97
366.57	215.16
366.95	215.25
367.33	215.16
367.71	215.19
368.09	215.27
368.47	215.25
368.85	215.26
369.23	215.35
369.61	215.22
369.99	215.37
370.37	215.37
370.75	215.54
371.13	215.49
371.51	215.52
371.89	215.44
372.27	215.30
372.65	215.37
373.03	215.39
373.41	215.40
373.78	215.30
374.16	215.10
374.54	215.00
374.92	214.98
375.30	214.99
375.68	214.94
376.06	214.97
376.44	214.88
376.82	214.91
377.19	214.82
377.57	214.75
377.95	214.52
378.33	214.40
378.71	214.14
379.09	214.14
379.47	214.06
379.84	214.09
380.22	214.14
380.60	213.99
380.98	213.88
381.36	213.77
381.73	213.65
382.11	213.67
382.49	213.61
382.87	213.52
383.25	213.47
383.62	213.82
384.00	213.71
384.38	213.74
384.76	213.75
385.13	213.84
385.51	213.86
385.89	213.89
386.27	213.89
386.64	213.95
387.02	213.89
387.40	213.89
387.78	213.83
388.15	213.78
388.53	213.79
388.91	213.82
389.29	213.82
389.66	213.89
390.04	213.88
390.42	213.92
390.79	213.89
391.17	213.87
391.55	213.47
391.92	213.49
392.30	213.48
392.68	213.35
393.05	213.30
393.43	213.30
393.81	213.36
394.18	213.43
394.56	213.45
394.94	213.52
395.31	213.49
395.69	213.61
396.06	213.69
396.44	213.69
396.82	213.69
397.19	213.92
397.57	213.94
397.95	213.98
398.32	213.91
398.70	213.95
399.07	214.12
399.45	214.17
399.82	214.21
400.20	214.28
400.58	214.37
400.95	214.23
401.33	214.36
401.70	214.58
402.08	214.56
402.45	214.58
402.83	214.75
403.20	214.93
403.58	215.02
403.95	215.17
404.33	215.37
404.71	215.46
405.08	215.82
405.46	216.00
405.83	216.19
406.21	216.40
406.58	216.64
406.96	216.81
407.33	217.04
407.70	217.33
408.08	217.85
408.45	218.26
408.83	218.77
409.20	219.06
409.58	219.23
409.95	219.78
410.33	220.27
410.70	220.60
411.08	221.08
411.45	221.59
411.82	222.09
412.20	222.76
412.57	223.56
412.95	223.88
413.32	224.67
413.69	225.43
414.07	226.32
414.44	227.28
414.82	228.26
415.19	229.38
415.56	230.53
415.94	231.59
416.31	232.88
416.68	234.17
417.06	235.69
417.43	237.18
417.81	238.81
418.18	240.47
418.55	242.31
418.93	244.20
419.30	246.26
419.67	248.50
420.04	250.64
420.42	252.90
420.79	255.65
421.16	258.15
421.54	261.06
421.91	263.90
422.28	266.78
422.66	269.88
423.03	273.07
423.40	276.22
423.77	279.49
424.15	282.88
424.52	286.47
424.89	290.30
425.26	294.10
425.64	297.71
426.01	301.67
426.38	305.61
426.75	309.75
427.13	313.97
427.50	318.50
427.87	323.20
428.24	327.87
428.61	332.35
428.99	337.34
429.36	342.50
429.73	347.69
430.10	352.91
430.47	358.30
430.85	363.61
431.22	369.48
431.59	375.80
431.96	381.64
432.33	388.24
432.70	394.56
433.08	402.03
433.45	408.92
433.82	415.87
434.19	423.75
434.56	431.35
434.93	438.70
435.30	445.78
435.68	453.83
436.05	461.75
436.42	469.45
436.79	476.69
437.16	484.43
437.53	492.54
437.90	500.66
438.27	508.59
438.64	516.91
439.01	524.55
439.38	531.32
439.75	537.86
440.13	545.24
440.50	552.40
440.87	558.02
441.24	564.07
441.61	570.65
441.98	575.48
442.35	581.05
442.72	586.68
443.09	592.29
443.46	595.34
443.83	597.53
444.20	599.47
444.57	602.15
444.94	603.49
445.31	604.84
445.68	606.20
446.05	606.80
446.42	605.82
446.79	604.68
447.16	603.50
447.53	602.69
447.90	599.49
448.27	596.28
448.64	591.97
449.01	588.81
449.37	583.33
449.74	577.98
450.11	571.88
450.48	564.92
450.85	557.73
451.22	551.93
451.59	546.26
451.96	540.79
452.33	533.64
452.70	526.94
453.07	519.16
453.43	511.01
453.80	503.22
454.17	496.02
454.54	489.15
454.91	481.76
455.28	474.66
455.65	468.00
456.02	461.67
456.38	455.97
456.75	448.93
457.12	443.12
457.49	437.35
457.86	431.67
458.23	426.99
458.59	421.76
458.96	416.32
459.33	411.59
459.70	406.77
460.07	402.95
460.43	398.71
460.80	394.74
461.17	391.30
461.54	387.67
461.91	384.20
462.27	380.68
462.64	377.67
463.01	374.37
463.38	371.27
463.74	367.79
464.11	364.96
464.48	362.53
464.85	359.80
465.21	357.83
465.58	355.77
465.95	353.09
466.32	351.00
466.68	348.94
467.05	346.81
467.42	344.84
467.78	342.67
468.15	340.60
468.52	339.11
468.88	337.10
469.25	335.34
469.62	333.99
469.98	332.60
470.35	331.16
470.72	329.90
471.08	328.49
471.45	327.33
471.82	326.33
472.18	325.12
472.55	324.30
472.92	323.31
473.28	322.43
473.65	321.67
474.02	320.89
474.38	320.46
474.75	320.10
475.11	319.54
475.48	319.27
475.85	319.03
476.21	318.69
476.58	318.60
476.94	318.79
477.31	318.86
477.67	318.87
478.04	319.24
478.41	319.54
478.77	320.26
479.14	320.60
479.50	321.04
479.87	321.70
480.23	322.37
480.60	322.96
480.96	323.62
481.33	324.76
481.69	325.89
482.06	326.72
482.42	327.74
482.79	329.03
483.15	330.39
483.52	332.09
483.88	333.63
484.25	335.20
484.61	336.83
484.98	338.48
485.34	340.58
485.71	342.56
486.07	344.90
486.44	346.91
486.80	349.45
487.17	352.20
487.53	355.12
487.90	358.27
488.26	361.64
488.62	365.17
488.99	368.60
489.35	372.25
489.72	376.37
490.08	380.62
490.44	385.01
490.81	389.61
491.17	394.34
491.54	399.64
491.90	405.09
492.26	410.75
492.63	416.71
492.99	422.76
493.36	429.43
493.72	436.32
494.08	443.44
494.45	451.04
494.81	458.95
495.17	467.00
495.54	475.55
495.90	484.48
496.26	493.69
496.63	503.46
496.99	513.66
497.35	524.15
497.72	535.04
498.08	546.27
498.44	557.92
498.80	570.23
499.17	582.96
499.53	596.17
499.89	609.91
500.26	623.96
500.62	638.49
500.98	653.60
501.34	669.16
501.71	685.45
502.07	701.90
502.43	719.03
502.79	736.66
503.16	754.88
503.52	773.59
503.88	792.73
504.24	812.49
504.60	832.70
504.97	853.80
505.33	875.18
505.69	897.85
506.05	920.88
506.41	943.93
506.78	967.28
507.14	991.52
507.50	1016.23
507.86	1041.61
508.22	1067.51
508.59	1093.69
508.95	1120.50
509.31	1147.80
509.67	1176.04
510.03	1204.33
510.39	1233.78
510.75	1263.45
511.12	1293.67
511.48	1324.24
511.84	1355.27
512.20	1386.04
512.56	1417.89
512.92	1450.16
513.28	1482.23
513.64	1514.53
514.00	1547.12
514.37	1580.43
514.73	1613.95
515.09	1647.66
515.45	1681.28
515.81	1715.24
516.17	1749.20
516.53	1783.56
516.89	1817.71
517.25	1852.06
517.61	1886.95
517.97	1921.35
518.33	1955.59
518.69	1989.66
519.05	2024.45
519.41	2059.39
519.77	2095.11
520.13	2129.34
520.49	2163.47
520.85	2198.11
521.21	2233.55
521.57	2269.22
521.93	2303.46
522.29	2338.83
522.65	2374.00
523.01	2408.85
523.37	2442.76
523.73	2477.42
524.09	2511.54
524.45	2545.97
524.81	2579.69
525.17	2613.73
525.53	2647.58
525.89	2681.49
526.25	2714.92
526.61	2747.00
526.97	2779.27
527.33	2811.10
527.68	2843.64
528.04	2874.97
528.40	2905.62
528.76	2935.80
529.12	2966.86
529.48	2998.70
529.84	3028.66
530.20	3057.89
530.56	3087.86
530.91	3118.90
531.27	3148.76
531.63	3177.53
531.99	3206.10
532.35	3234.13
532.71	3261.27
533.07	3288.89
533.42	3315.07
533.78	3341.88
534.14	3368.17
534.50	3392.35
534.86	3417.92
535.21	3441.33
535.57	3466.59
535.93	3490.36
536.29	3513.56
536.65	3535.90
537.00	3557.08
537.36	3577.70
537.72	3598.50
538.08	3618.74
538.44	3638.51
538.79	3658.30
539.15	3678.49
539.51	3697.80
539.87	3717.83
540.22	3736.33
540.58	3754.85
540.94	3773.41
541.29	3789.80
541.65	3805.56
542.01	3822.42
542.37	3837.49
542.72	3853.41
543.08	3867.51
543.44	3882.82
543.79	3895.83
544.15	3908.25
544.51	3921.38
544.87	3935.00
545.22	3946.82
545.58	3957.69
545.94	3966.87
546.29	3975.29
546.65	3983.04
547.01	3990.69
547.36	3997.62
547.72	4004.75
548.07	4010.20
548.43	4014.69
548.79	4019.51
549.14	4024.82
549.50	4029.29
549.86	4032.56
550.21	4035.45
550.57	4039.15
550.92	4040.59
551.28	4042.81
551.64	4045.02
551.99	4047.32
552.35	4048.35
552.70	4049.42
553.06	4050.41
553.41	4051.53
553.77	4052.11
554.13	4052.68
554.48	4053.24
554.84	4053.55
555.19	4053.04
555.55	4051.61
555.90	4050.07
556.26	4048.31
556.61	4046.17
556.97	4043.01
557.32	4041.02
557.68	4038.25
558.03	4034.40
558.39	4031.32
558.74	4029.17
559.10	4026.42
559.45	4022.26
559.81	4018.67
560.16	4014.27
560.52	4010.38
560.87	4005.68
561.23	4000.14
561.58	3994.94
561.94	3988.61
562.29	3981.55
562.64	3975.49
563.00	3970.24
563.35	3965.61
563.71	3961.50
564.06	3956.40
564.42	3951.89
564.77	3947.01
565.12	3942.23
565.48	3936.76
565.83	3931.36
566.19	3925.79
566.54	3918.30
566.89	3910.94
567.25	3903.91
567.60	3897.01
567.96	3889.26
568.31	3882.35
568.66	3875.07
569.02	3866.68
569.37	3858.19
569.72	3850.30
570.08	3841.72
570.43	3832.26
570.78	3822.69
571.14	3812.36
571.49	3801.82
571.84	3793.03
572.20	3781.84
572.55	3771.74
572.90	3760.40
573.26	3748.90
573.61	3736.62
573.96	3725.49
574.31	3713.20
574.67	3700.34
575.02	3687.05
575.37	3674.36
575.72	3660.52
576.08	3648.91
576.43	3635.89
576.78	3623.71
577.13	3611.72
577.49	3599.40
577.84	3586.88
578.19	3575.25
578.54	3563.85
578.90	3552.99
579.25	3539.34
579.60	3525.75
579.95	3511.55
580.30	3499.63
580.66	3487.78
581.01	3474.40
581.36	3460.62
581.71	3447.44
582.06	3434.60
582.42	3422.90
582.77	3409.20
583.12	3395.83
583.47	3382.62
583.82	3370.81
584.17	3358.12
584.53	3345.10
584.88	3332.18
585.23	3319.36
585.58	3305.55
585.93	3291.52
586.28	3278.39
586.63	3265.35
586.98	3253.35
587.34	3241.21
587.69	3228.27
588.04	3215.01
588.39	3203.02
588.74	3189.94
589.09	3178.34
589.44	3165.64
589.79	3153.06
590.14	3141.41
590.49	3129.64
590.84	3116.78
591.19	3105.32
591.54	3093.03
591.89	3078.77
592.25	3065.55
592.60	3052.00
592.95	3038.28
593.30	3023.83
593.65	3009.40
594.00	2995.58
594.35	2983.91
594.70	2971.00
595.05	2958.59
595.40	2945.85
595.75	2932.31
596.10	2920.52
596.45	2908.11
596.80	2896.35
597.15	2884.69
597.50	2872.24
597.85	2860.27
598.19	2847.94
598.54	2835.08
598.89	2823.10
599.24	2813.53
599.59	2802.40
599.94	2792.29
600.29	2781.61
600.64	2771.24
600.99	2759.64
601.34	2749.25
601.69	2736.15
602.04	2724.20
602.39	2712.38
602.74	2700.95
603.08	2691.17
603.43	2680.76
603.78	2669.45
604.13	2658.07
604.48	2646.56
604.83	2636.85
605.18	2627.07
605.53	2616.12
605.87	2604.68
606.22	2594.06
606.57	2582.25
606.92	2570.85
607.27	2558.52
607.62	2547.15
607.96	2536.89
608.31	2527.14
608.66	2515.45
609.01	2504.07
609.36	2492.45
609.70	2480.05
610.05	2467.89
610.40	2455.60
610.75	2442.99
611.10	2431.88
611.44	2418.20
611.79	2405.19
612.14	2391.23
612.49	2377.22
612.83	2364.63
613.18	2351.29
613.53	2338.06
613.88	2324.14
614.22	2311.40
614.57	2298.65
614.92	2285.59
615.27	2271.53
615.61	2257.73
615.96	2245.39
616.31	2233.87
616.65	2222.30
617.00	2210.61
617.35	2198.40
617.70	2185.47
618.04	2172.15
618.39	2158.23
618.74	2146.58
619.08	2133.86
619.43	2121.67
619.78	2109.94
620.12	2097.88
620.47	2086.09
620.82	2072.81
621.16	2060.49
621.51	2047.81
621.85	2035.73
622.20	2023.20
622.55	2010.97
622.89	1998.63
623.24	1986.06
623.59	1972.92
623.93	1959.94
624.28	1947.74
624.62	1936.02
624.97	1924.10
625.32	1912.92
625.66	1901.87
626.01	1890.41
626.35	1879.66
626.70	1868.47
627.04	1857.50
627.39	1846.21
627.73	1835.04
628.08	1824.86
628.43	1813.38
628.77	1802.27
629.12	1790.94
629.46	1781.08
629.81	1770.55
630.15	1760.06
630.50	1749.28
630.84	1738.23
631.19	1727.57
631.53	1716.86
631.88	1705.19
632.22	1693.86
632.57	1683.46
632.91	1672.44
633.26	1661.71
633.60	1650.78
633.95	1640.55
634.29	1629.37
634.64	1618.93
634.98	1608.11
635.32	1597.75
635.67	1588.58
636.01	1578.68
636.36	1568.19
636.70	1557.75
637.05	1547.72
637.39	1537.84
637.73	1528.34
638.08	1519.55
638.42	1510.33
638.77	1500.88
639.11	1491.75
639.45	1482.32
639.80	1472.09
640.14	1462.03
640.49	1452.31
640.83	1442.41
641.17	1432.47
641.52	1422.75
641.86	1412.73
642.20	1403.32
642.55	1392.79
642.89	1382.32
643.23	1372.00
643.58	1362.95
643.92	1352.77
644.26	1343.07
644.61	1333.28
644.95	1323.15
645.29	1313.25
645.64	1303.22
645.98	1293.48
646.32	1284.04
646.66	1274.45
647.01	1265.32
647.35	1256.18
647.69	1246.05
648.04	1236.91
648.38	1227.39
648.72	1218.08
649.06	1208.70
649.41	1199.34
649.75	1190.30
650.09	1181.38
650.43	1172.56
650.78	1162.87
651.12	1153.65
651.46	1144.40
651.80	1135.64
652.14	1126.95
652.49	1117.76
652.83	1108.87
653.17	1099.17
653.51	1089.91
653.85	1081.22
654.20	1072.40
654.54	1063.41
654.88	1055.07
655.22	1046.20
655.56	1037.04
655.90	1028.25
656.25	1019.57
656.59	1010.86
656.93	1002.69
657.27	994.37
657.61	985.61
657.95	977.65
658.29	969.72
658.64	962.01
658.98	953.67
659.32	945.12
659.66	937.17
660.00	929.10
660.34	921.37
660.68	913.36
661.02	905.32
661.36	897.63
661.70	890.28
662.05	883.07
662.39	876.13
662.73	869.30
663.07	862.49
663.41	855.59
663.75	848.72
664.09	841.51
664.43	834.20
664.77	827.59
665.11	820.77
665.45	813.92
665.79	807.21
666.13	800.61
666.47	794.28
666.81	787.87
667.15	781.43
667.49	775.61
667.83	769.75
668.17	763.95
668.51	758.11
668.85	752.31
669.19	746.53
669.53	740.44
669.87	734.58
670.21	728.66
670.55	722.98
670.89	717.64
671.23	712.48
671.57	707.38
671.91	701.95
672.25	696.54
672.58	691.18
672.92	685.93
673.26	681.05
673.60	676.23
673.94	671.22
674.28	666.47
674.62	661.54
674.96	656.74
675.30	651.97
675.64	647.19
675.97	642.32
676.31	637.85
676.65	633.48
676.99	629.23
677.33	624.60
677.67	620.01
678.01	615.39
678.34	610.88
678.68	606.45
679.02	602.04
679.36	597.84
679.70	593.68
680.04	589.40
680.37	585.02
680.71	580.65
681.05	576.73
681.39	572.71
681.73	568.70
682.06	564.86
682.40	561.10
682.74	557.07
683.08	553.32
683.42	549.15
683.75	545.23
684.09	541.22
684.43	537.49
684.77	533.74
685.10	530.01
685.44	526.18
685.78	522.66
686.12	519.37
686.45	515.73
686.79	512.31
687.13	508.98
687.46	505.58
687.80	502.26
688.14	498.49
688.48	495.07
688.81	491.55
689.15	488.15
689.49	484.74
689.82	481.53
690.16	478.06
690.50	474.74
690.83	471.46
691.17	468.14
691.51	464.87
691.84	461.90
692.18	458.95
692.52	456.03
692.85	453.22
693.19	450.20
693.52	447.38
693.86	444.31
694.20	441.31
694.53	438.48
694.87	435.52
695.21	432.86
695.54	429.92
695.88	427.04
696.21	424.16
696.55	421.45
696.88	418.59
697.22	415.92
697.56	413.53
697.89	410.87
698.23	408.46
698.56	406.19
698.90	403.81
699.23	401.23
699.57	398.91
699.90	396.31
700.24	393.94
700.58	391.58
700.91	389.45
701.25	387.47
701.58	385.34
701.92	383.20
702.25	381.03
702.59	378.95
702.92	376.96
703.26	374.95
703.59	372.92
703.93	371.27
704.26	369.35
704.60	367.31
704.93	365.30
705.26	363.26
705.60	361.37
705.93	359.33
706.27	357.56
706.60	355.86
706.94	354.23
707.27	352.40
707.61	350.57
707.94	348.77
708.27	346.75
708.61	344.89
708.94	343.19
709.28	341.50
709.61	339.90
709.94	338.36
710.28	336.83
710.61	335.37
710.95	333.54
711.28	332.25
711.61	330.71
711.95	329.40
712.28	327.99
712.61	326.46
712.95	325.31
713.28	324.10
713.61	322.55
713.95	321.11
714.28	319.81
714.61	318.53
714.95	317.18
715.28	315.90
715.61	314.67
715.95	313.43
716.28	312.19
716.61	311.00
716.95	309.68
717.28	308.54
717.61	307.36
717.94	306.26
718.28	304.83
718.61	303.75
718.94	302.63
719.27	301.65
719.61	300.66
719.94	299.50
720.27	298.27
720.60	297.20
720.94	296.24
721.27	295.21
721.60	294.33
721.93	293.51
722.27	292.63
722.60	291.76
722.93	290.87
723.26	290.03
723.59	289.10
723.93	288.27
724.26	287.36
724.59	286.39
724.92	285.53
725.25	284.84
725.59	284.07
725.92	283.39
726.25	282.52
726.58	281.71
726.91	280.85
727.24	280.15
727.57	279.39
727.91	278.46
728.24	277.75
728.57	277.06
728.90	276.34
729.23	275.51
729.56	274.97
729.89	274.20
730.22	273.44
730.55	272.81
730.89	272.18
731.22	271.44
731.55	270.80
731.88	270.11
732.21	269.40
732.54	268.65
732.87	267.84
733.20	267.23
733.53	266.59
733.86	266.01
734.19	265.34
734.52	264.77
734.85	264.53
735.18	263.91
735.51	263.25
735.84	262.61
736.17	262.22
736.50	261.42
736.83	261.29
737.16	260.73
737.49	260.12
737.82	259.44
738.15	258.92
738.48	258.38
738.81	257.93
739.14	257.36
739.47	256.86
739.80	256.33
740.13	255.81
740.46	255.25
740.79	254.72
741.12	254.10
741.45	253.56
741.78	252.77
742.11	252.35
742.44	251.88
742.77	251.47
743.10	250.92
743.43	250.51
743.75	249.70
744.08	249.73
744.41	249.19
744.74	248.81
745.07	248.32
745.40	247.94
745.73	247.54
746.06	247.12
746.39	246.60
746.71	246.15
747.04	245.62
747.37	245.26
747.70	244.83
748.03	244.50
748.36	244.13
748.68	243.74
749.01	243.26
749.34	242.88
749.67	242.50
750.00	242.15
750.33	241.90
750.65	241.55
750.98	240.76
751.31	240.56
751.64	240.12
751.97	239.99
752.29	239.57
752.62	239.13
752.95	238.77
753.28	238.53
753.60	238.16
753.93	237.99
754.26	237.71
754.59	237.33
754.91	236.96
755.24	236.73
755.57	236.43
755.90	236.15
756.22	235.85
756.55	235.47
756.88	235.08
757.20	234.61
757.53	234.28
757.86	234.02
758.19	233.61
758.51	233.38
758.84	232.94
759.17	232.70
759.49	232.45
759.82	232.32
760.15	232.12
760.47	231.95
760.80	231.58
761.13	231.38
761.45	231.14
761.78	230.92
762.11	230.68
762.43	230.44
762.76	230.20
763.08	230.02
763.41	229.84
763.74	229.72
764.06	229.46
764.39	229.21
764.71	229.02
765.04	228.81
765.37	228.60
765.69	228.38
766.02	228.13
766.34	227.97
766.67	227.76
767.00	227.61
767.32	227.63
767.65	227.68
767.97	227.44
768.30	227.29
768.62	227.15
768.95	226.86
769.27	226.76
769.60	226.65
769.92	226.44
770.25	226.26
770.57	226.01
770.90	225.81
771.22	225.64
771.55	225.45
771.87	225.38
772.20	225.19
772.52	225.35
772.85	225.64
773.17	225.46
773.50	225.24
773.82	225.08
774.15	224.70
774.47	224.29
774.80	224.12
775.12	223.94
775.45	223.79
775.77	223.72
776.09	223.52
776.42	223.39
776.74	223.31
777.07	223.12
777.39	223.04
777.72	223.03
778.04	222.90
778.36	222.77
778.69	222.60
779.01	222.60
779.33	222.16
779.66	221.63
779.98	221.51
780.31	221.45
780.63	221.45
780.95	221.44
781.28	221.48
781.60	221.34
781.92	221.28
782.25	221.25
782.57	221.10
782.89	221.06
783.22	220.94
783.54	220.80
783.86	220.72
784.19	220.61
784.51	220.61
784.83	220.52
785.16	220.35
