SpectraSuite Data File
++++++++++++++++++++++++++++++++++++
Date: Mon Feb 25 17:03:43 EST 2013
User: group
Dark Spectrum Present: No
Reference Spectrum Present: No
Number of Sampled Component Spectra: 1
Spectrometers: USB2E7196
Integration Time (usec): 104000 (USB2E7196)
Spectra Averaged: 20 (USB2E7196)
Boxcar Smoothing: 10 (USB2E7196)
Correct for Electrical Dark: No (USB2E7196)
Strobe/Lamp Enabled: No (USB2E7196)
Correct for Detector Non-linearity: No (USB2E7196)
Correct for Stray Light: No (USB2E7196)
Number of Pixels in Processed Spectrum: 2048
>>>>>Begin Processed Spectral Data<<<<<
339.09	0.00
339.48	198.45
339.86	199.60
340.24	199.80
340.63	201.00
341.01	209.20
341.39	205.15
341.78	207.10
342.16	207.15
342.54	207.15
342.93	197.77
343.31	207.77
343.69	208.29
344.07	208.74
344.46	209.20
344.84	209.62
345.22	209.64
345.60	209.94
345.99	210.09
346.37	210.20
346.75	210.36
347.13	210.42
347.52	210.46
347.90	210.64
348.28	210.71
348.66	210.87
349.05	210.74
349.43	210.79
349.81	210.84
350.19	210.84
350.57	210.96
350.96	210.98
351.34	211.10
351.72	211.23
352.10	211.37
352.48	211.48
352.87	211.58
353.25	211.70
353.63	211.72
354.01	211.76
354.39	211.94
354.77	211.99
355.15	212.12
355.54	212.20
355.92	212.10
356.30	212.18
356.68	212.37
357.06	212.52
357.44	212.53
357.82	212.55
358.20	212.64
358.58	212.65
358.97	212.81
359.35	212.89
359.73	212.97
360.11	213.03
360.49	213.16
360.87	213.22
361.25	213.26
361.63	213.40
362.01	213.48
362.39	213.46
362.77	213.52
363.15	213.53
363.53	213.50
363.91	213.56
364.29	213.55
364.67	213.27
365.05	213.25
365.43	213.27
365.81	213.30
366.19	213.40
366.57	213.56
366.95	213.52
367.33	213.44
367.71	213.40
368.09	213.43
368.47	213.38
368.85	213.32
369.23	213.42
369.61	213.30
369.99	213.40
370.37	213.39
370.75	213.57
371.13	213.47
371.51	213.40
371.89	213.42
372.27	213.44
372.65	213.45
373.03	213.35
373.41	213.30
373.78	213.26
374.16	213.09
374.54	212.90
374.92	212.76
375.30	212.71
375.68	212.59
376.06	212.52
376.44	212.40
376.82	212.41
377.19	212.32
377.57	212.27
377.95	212.08
378.33	212.03
378.71	211.80
379.09	211.77
379.47	211.79
379.84	211.60
380.22	211.50
380.60	211.38
380.98	211.29
381.36	211.20
381.73	211.09
382.11	211.11
382.49	211.07
382.87	211.06
383.25	210.99
383.62	211.45
384.00	211.37
384.38	211.35
384.76	211.38
385.13	211.44
385.51	211.33
385.89	211.24
386.27	211.18
386.64	211.15
387.02	211.09
387.40	211.02
387.78	211.09
388.15	211.10
388.53	211.02
388.91	211.09
389.29	211.06
389.66	211.08
390.04	210.97
390.42	211.00
390.79	211.01
391.17	211.05
391.55	210.52
391.92	210.45
392.30	210.48
392.68	210.34
393.05	210.30
393.43	210.34
393.81	210.44
394.18	210.40
394.56	210.41
394.94	210.52
395.31	210.47
395.69	210.53
396.06	210.55
396.44	210.57
396.82	210.56
397.19	210.74
397.57	210.73
397.95	210.80
398.32	210.72
398.70	210.78
399.07	210.85
399.45	210.91
399.82	210.99
400.20	210.94
400.58	211.00
400.95	210.92
401.33	211.10
401.70	211.33
402.08	211.46
402.45	211.51
402.83	211.63
403.20	211.80
403.58	211.79
403.95	211.93
404.33	212.14
404.71	212.28
405.08	212.61
405.46	212.72
405.83	212.85
406.21	212.95
406.58	213.01
406.96	213.14
407.33	213.32
407.70	213.58
408.08	214.07
408.45	214.36
408.83	214.60
409.20	214.75
409.58	214.80
409.95	215.10
410.33	215.39
410.70	215.61
411.08	215.99
411.45	216.39
411.82	216.72
412.20	217.24
412.57	217.85
412.95	217.99
413.32	218.62
413.69	219.16
414.07	219.75
414.44	220.42
414.82	221.13
415.19	221.92
415.56	222.59
415.94	223.24
416.31	224.15
416.68	225.15
417.06	226.26
417.43	227.38
417.81	228.52
418.18	229.75
418.55	231.04
418.93	232.44
419.30	233.88
419.67	235.43
420.04	236.96
420.42	238.53
420.79	240.62
421.16	242.46
421.54	244.61
421.91	246.73
422.28	248.89
422.66	251.16
423.03	253.56
423.40	255.94
423.77	258.41
424.15	260.82
424.52	263.43
424.89	266.39
425.26	269.16
425.64	271.87
426.01	274.86
426.38	277.93
426.75	281.13
427.13	284.38
427.50	287.83
427.87	291.37
428.24	294.91
428.61	298.21
428.99	302.15
429.36	306.17
429.73	310.24
430.10	314.26
430.47	318.37
430.85	322.54
431.22	327.15
431.59	332.20
431.96	336.87
432.33	342.15
432.70	347.05
433.08	352.86
433.45	358.46
433.82	364.00
434.19	370.25
434.56	376.15
434.93	382.05
435.30	387.82
435.68	394.35
436.05	400.72
436.42	407.23
436.79	413.14
437.16	419.41
437.53	426.14
437.90	432.76
438.27	439.45
438.64	446.25
439.01	452.62
439.38	458.25
439.75	463.93
440.13	470.17
440.50	476.19
440.87	481.19
441.24	486.31
441.61	491.92
441.98	496.22
442.35	501.28
442.72	506.32
443.09	511.24
443.46	514.23
443.83	516.57
444.20	518.47
444.57	521.00
444.94	522.52
445.31	524.15
445.68	525.89
446.05	526.68
446.42	526.53
446.79	526.42
447.16	525.93
447.53	525.81
447.90	523.79
448.27	521.86
448.64	518.84
449.01	516.89
449.37	513.12
449.74	509.23
450.11	504.74
450.48	499.54
450.85	494.10
451.22	489.66
451.59	485.32
451.96	481.19
452.33	475.60
452.70	470.59
453.07	464.21
453.43	457.85
453.80	452.00
454.17	446.20
454.54	440.48
454.91	434.61
455.28	428.78
455.65	423.43
456.02	418.38
456.38	413.82
456.75	408.03
457.12	403.13
457.49	398.51
457.86	393.73
458.23	389.79
458.59	385.58
458.96	381.23
459.33	377.34
459.70	373.46
460.07	370.47
460.43	366.86
460.80	363.67
461.17	360.73
461.54	357.46
461.91	354.62
462.27	351.64
462.64	349.10
463.01	346.26
463.38	343.58
463.74	340.43
464.11	338.01
464.48	335.84
464.85	333.48
465.21	331.63
465.58	329.79
465.95	327.52
466.32	325.62
466.68	323.64
467.05	321.78
467.42	319.81
467.78	317.79
468.15	316.00
468.52	314.62
468.88	312.79
469.25	311.16
469.62	309.81
469.98	308.41
470.35	307.05
470.72	305.71
471.08	304.19
471.45	303.06
471.82	301.86
472.18	300.60
472.55	299.70
472.92	298.54
473.28	297.53
473.65	296.56
474.02	295.62
474.38	294.94
474.75	294.24
475.11	293.57
475.48	293.00
475.85	292.44
476.21	291.84
476.58	291.30
476.94	290.91
477.31	290.41
477.67	290.00
478.04	289.60
478.41	289.35
478.77	289.51
479.14	289.12
479.50	288.95
479.87	288.82
480.23	288.66
480.60	288.50
480.96	288.36
481.33	288.41
481.69	288.40
482.06	288.34
482.42	288.36
482.79	288.39
483.15	288.40
483.52	288.64
483.88	288.74
484.25	288.96
484.61	289.23
484.98	289.48
485.34	289.90
485.71	290.30
486.07	290.72
486.44	290.72
486.80	291.17
487.17	291.66
487.53	292.35
487.90	293.03
488.26	293.73
488.62	294.37
488.99	295.07
489.35	295.83
489.72	296.59
490.08	297.41
490.44	298.19
490.81	299.09
491.17	299.76
491.54	300.76
491.90	301.70
492.26	302.72
492.63	303.78
492.99	304.78
493.36	305.98
493.72	307.11
494.08	308.41
494.45	309.70
494.81	311.05
495.17	312.27
495.54	313.59
495.90	314.89
496.26	316.38
496.63	317.71
496.99	319.14
497.35	320.57
497.72	321.97
498.08	323.43
498.44	324.83
498.80	326.40
499.17	327.84
499.53	329.38
499.89	330.92
500.26	332.31
500.62	333.70
500.98	335.19
501.34	336.59
501.71	337.98
502.07	339.36
502.43	340.62
502.79	341.84
503.16	343.05
503.52	344.29
503.88	345.45
504.24	346.66
504.60	347.73
504.97	349.01
505.33	350.04
505.69	351.25
506.05	352.39
506.41	353.41
506.78	354.32
507.14	355.23
507.50	356.05
507.86	357.11
508.22	358.08
508.59	358.84
508.95	359.72
509.31	360.72
509.67	361.50
510.03	362.17
510.39	362.87
510.75	363.55
511.12	364.23
511.48	364.75
511.84	365.28
512.20	365.73
512.56	366.06
512.92	366.57
513.28	366.92
513.64	367.29
514.00	367.58
514.37	367.95
514.73	368.30
515.09	368.56
515.45	368.61
515.81	368.63
516.17	368.67
516.53	368.62
516.89	368.37
517.25	368.34
517.61	368.49
517.97	368.56
518.33	368.54
518.69	368.51
519.05	368.55
519.41	368.64
519.77	368.99
520.13	368.99
520.49	368.85
520.85	368.86
521.21	368.98
521.57	369.15
521.93	369.18
522.29	369.27
522.65	369.29
523.01	369.47
523.37	369.61
523.73	369.86
524.09	370.28
524.45	370.59
524.81	370.84
525.17	371.19
525.53	371.45
525.89	371.93
526.25	372.50
526.61	372.87
526.97	373.43
527.33	373.87
527.68	374.76
528.04	375.60
528.40	376.39
528.76	377.11
529.12	377.92
529.48	378.96
529.84	379.83
530.20	380.98
530.56	382.05
530.91	383.40
531.27	384.60
531.63	385.74
531.99	387.01
532.35	388.36
532.71	389.58
533.07	391.17
533.42	393.13
533.78	394.50
534.14	396.17
534.50	397.65
534.86	399.37
535.21	400.71
535.57	402.44
535.93	404.14
536.29	406.17
536.65	408.13
537.00	409.91
537.36	411.88
537.72	413.73
538.08	415.76
538.44	417.57
538.79	419.61
539.15	421.63
539.51	423.97
539.87	426.26
540.22	428.65
540.58	431.00
540.94	432.89
541.29	435.27
541.65	437.46
542.01	439.93
542.37	442.32
542.72	444.98
543.08	447.53
543.44	450.21
543.79	452.46
544.15	454.93
544.51	457.67
544.87	460.35
545.22	463.05
545.58	465.76
545.94	468.45
546.29	471.13
546.65	473.90
547.01	476.51
547.36	479.39
547.72	482.07
548.07	484.66
548.43	487.38
548.79	490.02
549.14	492.83
549.50	495.47
549.86	498.21
550.21	500.89
550.57	503.69
550.92	506.13
551.28	508.90
551.64	511.52
551.99	514.24
552.35	516.75
552.70	519.33
553.06	521.97
553.41	524.59
553.77	527.22
554.13	529.73
554.48	532.31
554.84	534.85
555.19	537.28
555.55	540.00
555.90	542.34
556.26	544.69
556.61	547.08
556.97	549.49
557.32	551.63
557.68	553.96
558.03	556.18
558.39	558.46
558.74	560.85
559.10	563.37
559.45	565.60
559.81	567.95
560.16	570.15
560.52	572.45
560.87	574.80
561.23	576.83
561.58	579.42
561.94	581.46
562.29	583.43
562.64	585.58
563.00	587.39
563.35	589.44
563.71	591.65
564.06	593.86
564.42	595.86
564.77	598.09
565.12	600.01
565.48	602.18
565.83	604.33
566.19	606.20
566.54	607.80
566.89	609.57
567.25	611.49
567.60	613.46
567.96	615.40
568.31	617.21
568.66	619.11
569.02	620.15
569.37	621.60
569.72	622.93
570.08	624.22
570.43	625.39
570.78	626.52
571.14	627.54
571.49	628.45
571.84	629.49
572.20	630.25
572.55	631.30
572.90	631.62
573.26	632.30
573.61	632.81
573.96	633.50
574.31	633.92
574.67	634.21
575.02	634.30
575.37	634.35
575.72	634.30
576.08	634.48
576.43	634.80
576.78	634.93
577.13	635.13
577.49	635.55
577.84	635.83
578.19	636.15
578.54	636.45
578.90	636.74
579.25	636.90
579.60	636.99
579.95	636.68
580.30	637.03
580.66	637.07
581.01	637.02
581.36	637.03
581.71	637.15
582.06	637.25
582.42	637.35
582.77	637.11
583.12	637.09
583.47	637.02
583.82	636.92
584.17	636.88
584.53	637.16
584.88	636.83
585.23	636.72
585.58	636.54
585.93	636.20
586.28	635.99
586.63	635.77
586.98	635.64
587.34	635.73
587.69	635.30
588.04	634.97
588.39	635.04
588.74	634.49
589.09	634.22
589.44	633.63
589.79	633.40
590.14	633.08
590.49	632.61
590.84	632.07
591.19	631.95
591.54	631.46
591.89	630.45
592.25	630.12
592.60	629.37
592.95	628.48
593.30	627.83
593.65	626.92
594.00	626.11
594.35	626.16
594.70	625.15
595.05	624.52
595.40	623.74
595.75	622.56
596.10	621.93
596.45	621.07
596.80	620.40
597.15	619.51
597.50	618.57
597.85	617.83
598.19	616.93
598.54	615.94
598.89	615.30
599.24	614.81
599.59	613.82
599.94	613.20
600.29	612.67
600.64	611.87
600.99	610.95
601.34	610.26
601.69	608.61
602.04	607.68
602.39	606.78
602.74	606.09
603.08	605.54
603.43	604.77
603.78	603.87
604.13	603.01
604.48	602.09
604.83	601.45
605.18	600.61
605.53	599.82
605.87	598.83
606.22	597.87
606.57	596.89
606.92	595.81
607.27	594.86
607.62	593.71
607.96	592.83
608.31	592.18
608.66	591.10
609.01	590.09
609.36	589.08
609.70	587.85
610.05	586.45
610.40	585.18
610.75	583.84
611.10	582.72
611.44	581.19
611.79	579.77
612.14	578.36
612.49	576.89
612.83	575.55
613.18	574.09
613.53	572.58
613.88	570.83
614.22	569.40
614.57	567.85
614.92	566.38
615.27	564.85
615.61	563.25
615.96	561.75
616.31	560.25
616.65	558.98
617.00	557.52
617.35	556.13
617.70	554.47
618.04	552.81
618.39	550.95
618.74	549.57
619.08	548.07
619.43	546.52
619.78	545.03
620.12	543.44
620.47	541.87
620.82	540.12
621.16	538.62
621.51	537.09
621.85	535.44
622.20	533.80
622.55	532.12
622.89	530.38
623.24	528.77
623.59	526.99
623.93	525.30
624.28	523.82
624.62	522.39
624.97	520.89
625.32	519.29
625.66	517.89
626.01	516.28
626.35	514.69
626.70	513.00
627.04	511.60
627.39	509.93
627.73	508.49
628.08	507.16
628.43	505.42
628.77	503.66
629.12	501.95
629.46	500.62
629.81	499.03
630.15	497.35
630.50	495.58
630.84	494.03
631.19	492.30
631.53	490.65
631.88	488.63
632.22	486.86
632.57	485.47
632.91	483.83
633.26	482.25
633.60	480.66
633.95	479.19
634.29	477.27
634.64	475.79
634.98	474.09
635.32	472.51
635.67	471.18
636.01	469.86
636.36	468.47
636.70	466.90
637.05	465.42
637.39	464.04
637.73	462.72
638.08	461.37
638.42	459.99
638.77	458.59
639.11	457.37
639.45	455.99
639.80	454.21
640.14	452.45
640.49	450.89
640.83	449.29
641.17	447.70
641.52	446.22
641.86	444.58
642.20	443.20
642.55	441.45
642.89	439.77
643.23	437.99
643.58	436.70
643.92	434.96
644.26	433.40
644.61	431.80
644.95	430.20
645.29	428.49
645.64	426.91
645.98	425.28
646.32	423.69
646.66	422.13
647.01	420.78
647.35	419.50
647.69	418.01
648.04	416.61
648.38	415.18
648.72	413.80
649.06	412.26
649.41	410.53
649.75	409.00
650.09	407.65
650.43	406.25
650.78	404.36
651.12	402.81
651.46	401.16
651.80	399.70
652.14	398.14
652.49	396.77
652.83	395.25
653.17	393.74
653.51	392.11
653.85	390.58
654.20	389.21
654.54	387.73
654.88	386.11
655.22	384.70
655.56	383.05
655.90	381.55
656.25	380.06
656.59	378.58
656.93	377.24
657.27	375.85
657.61	374.29
657.95	373.04
658.29	371.76
658.64	370.58
658.98	369.17
659.32	367.71
659.66	366.33
660.00	364.95
660.34	363.56
660.68	362.13
661.02	360.66
661.36	359.25
661.70	357.89
662.05	356.62
662.39	355.32
662.73	354.23
663.07	353.05
663.41	351.80
663.75	350.55
664.09	349.24
664.43	347.83
664.77	346.68
665.11	345.48
665.45	344.31
665.79	343.12
666.13	341.87
666.47	340.73
666.81	339.50
667.15	338.32
667.49	337.33
667.83	336.41
668.17	335.36
668.51	334.29
668.85	333.23
669.19	332.36
669.53	331.10
669.87	329.90
670.21	328.80
670.55	327.72
670.89	326.93
671.23	326.04
671.57	325.13
671.91	324.07
672.25	323.10
672.58	322.13
672.92	320.98
673.26	320.07
673.60	319.13
673.94	318.14
674.28	317.21
674.62	316.18
674.96	315.23
675.30	314.38
675.64	313.45
675.97	312.59
676.31	311.65
676.65	310.87
676.99	310.16
677.33	309.13
677.67	308.33
678.01	307.29
678.34	306.36
678.68	305.55
679.02	304.76
679.36	303.86
679.70	302.92
680.04	302.18
680.37	301.35
680.71	300.57
681.05	299.84
681.39	299.01
681.73	298.16
682.06	297.38
682.40	296.60
682.74	295.79
683.08	295.02
683.42	294.21
683.75	293.50
684.09	292.66
684.43	291.95
684.77	291.13
685.10	290.28
685.44	289.46
685.78	288.69
686.12	287.97
686.45	287.20
686.79	286.46
687.13	285.75
687.46	284.97
687.80	284.33
688.14	283.49
688.48	282.98
688.81	282.24
689.15	281.54
689.49	280.82
689.82	280.23
690.16	279.39
690.50	278.68
690.83	277.90
691.17	277.06
691.51	276.48
691.84	275.86
692.18	275.29
692.52	274.68
692.85	274.02
693.19	273.53
693.52	272.86
693.86	272.26
694.20	271.55
694.53	271.05
694.87	270.31
695.21	269.68
695.54	268.93
695.88	268.33
696.21	267.61
696.55	266.97
696.88	266.20
697.22	265.63
697.56	265.19
697.89	264.66
698.23	264.22
698.56	263.59
698.90	263.06
699.23	262.50
699.57	261.95
699.90	261.37
700.24	260.73
700.58	260.25
700.91	259.72
701.25	259.52
701.58	259.05
701.92	258.66
702.25	258.22
702.59	257.71
702.92	257.30
703.26	256.95
703.59	256.50
703.93	256.41
704.26	255.98
704.60	255.41
704.93	254.93
705.26	254.40
705.60	254.07
705.93	253.56
706.27	253.25
706.60	253.01
706.94	252.76
707.27	252.27
707.61	251.84
707.94	251.38
708.27	250.66
708.61	250.23
708.94	249.77
709.28	249.38
709.61	249.00
709.94	248.65
710.28	248.20
710.61	247.89
710.95	247.21
711.28	247.10
711.61	246.77
711.95	246.46
712.28	246.08
712.61	245.73
712.95	245.56
713.28	245.35
713.61	244.85
713.95	244.37
714.28	244.06
714.61	243.75
714.95	243.40
715.28	243.08
715.61	242.72
715.95	242.45
716.28	242.15
716.61	241.93
716.95	241.57
717.28	241.29
717.61	240.96
717.94	240.65
718.28	240.09
718.61	239.79
718.94	239.47
719.27	239.21
719.61	238.91
719.94	238.55
720.27	238.06
720.60	237.81
720.94	237.53
721.27	237.30
721.60	237.06
721.93	236.85
722.27	236.78
722.60	236.52
722.93	236.23
723.26	236.03
723.59	235.62
723.93	235.44
724.26	235.29
724.59	235.00
724.92	234.86
725.25	234.79
725.59	234.50
725.92	234.37
726.25	234.19
726.58	233.93
726.91	233.71
727.24	233.56
727.57	233.35
727.91	233.07
728.24	232.90
728.57	232.61
728.90	232.45
729.23	232.10
729.56	232.04
729.89	231.79
730.22	231.54
730.55	231.38
730.89	231.10
731.22	230.81
731.55	230.67
731.88	230.35
732.21	230.04
732.54	229.85
732.87	229.56
733.20	229.35
733.53	229.22
733.86	229.05
734.19	228.79
734.52	228.78
734.85	228.88
735.18	228.65
735.51	228.73
735.84	228.55
736.17	228.51
736.50	228.21
736.83	228.47
737.16	228.37
737.49	228.25
737.82	228.09
738.15	227.97
738.48	227.81
738.81	227.70
739.14	227.53
739.47	227.36
739.80	227.22
740.13	227.09
740.46	226.80
740.79	226.61
741.12	226.51
741.45	226.19
741.78	225.81
742.11	225.79
742.44	225.49
742.77	225.37
743.10	225.20
743.43	225.02
743.75	224.52
744.08	224.75
744.41	224.56
744.74	224.39
745.07	224.19
745.40	224.10
745.73	224.10
746.06	223.97
746.39	223.90
746.71	223.71
747.04	223.50
747.37	223.46
747.70	223.39
748.03	223.21
748.36	223.19
748.68	223.11
749.01	222.83
749.34	222.73
749.67	222.63
750.00	222.55
750.33	222.71
750.65	222.70
750.98	222.18
751.31	222.08
751.64	221.96
751.97	222.13
752.29	222.02
752.62	221.65
752.95	221.48
753.28	221.32
753.60	221.30
753.93	221.32
754.26	221.19
754.59	221.00
754.91	220.96
755.24	220.78
755.57	220.63
755.90	220.53
756.22	220.38
756.55	220.23
756.88	220.04
757.20	219.69
757.53	219.48
757.86	219.33
758.19	219.30
758.51	219.27
758.84	218.91
759.17	218.78
759.49	218.86
759.82	219.01
760.15	218.96
760.47	218.84
760.80	218.71
761.13	218.70
761.45	218.63
761.78	218.52
762.11	218.40
762.43	218.34
762.76	218.32
763.08	218.30
763.41	218.23
763.74	218.19
764.06	218.12
764.39	218.04
764.71	217.99
765.04	217.82
765.37	217.70
765.69	217.70
766.02	217.64
766.34	217.50
766.67	217.34
767.00	217.37
767.32	217.52
767.65	217.57
767.97	217.49
768.30	217.45
768.62	217.37
768.95	217.35
769.27	217.20
769.60	217.22
769.92	217.10
770.25	217.00
770.57	216.83
770.90	216.77
771.22	216.64
771.55	216.56
771.87	216.52
772.20	216.47
772.52	216.65
772.85	217.01
773.17	216.88
773.50	216.74
773.82	216.63
774.15	216.40
774.47	216.20
774.80	216.09
775.12	216.02
775.45	215.97
775.77	215.94
776.09	216.02
776.42	215.91
776.74	215.94
777.07	215.87
777.39	215.87
777.72	215.85
778.04	215.87
778.36	215.83
778.69	215.86
779.01	215.79
779.33	215.51
779.66	215.04
779.98	215.08
780.31	215.07
780.63	215.13
780.95	215.10
781.28	215.01
781.60	214.93
781.92	214.91
782.25	214.80
782.57	214.72
782.89	214.62
783.22	214.50
783.54	214.44
783.86	214.42
784.19	214.35
784.51	214.32
784.83	214.31
785.16	214.25
785.48	214.21
785.80	214.22
786.12	214.20
786.45	214.15
786.77	214.12
787.09	214.11
787.42	214.01
787.74	214.00
788.06	213.99
788.38	213.96
788.71	213.79
789.03	213.77
789.35	213.75
789.67	213.66
789.99	213.70
790.32	213.60
790.64	213.63
790.96	213.95
791.28	213.89
791.61	213.79
791.93	213.80
792.25	213.75
792.57	213.99
792.89	213.88
793.21	213.95
793.54	213.90
793.86	213.85
794.18	213.81
