SpectraSuite Data File
++++++++++++++++++++++++++++++++++++
Date: Mon Feb 25 17:14:41 EST 2013
User: group
Dark Spectrum Present: No
Reference Spectrum Present: No
Number of Sampled Component Spectra: 1
Spectrometers: USB2E7196
Integration Time (usec): 104000 (USB2E7196)
Spectra Averaged: 20 (USB2E7196)
Boxcar Smoothing: 10 (USB2E7196)
Correct for Electrical Dark: No (USB2E7196)
Strobe/Lamp Enabled: No (USB2E7196)
Correct for Detector Non-linearity: No (USB2E7196)
Correct for Stray Light: No (USB2E7196)
Number of Pixels in Processed Spectrum: 2048
>>>>>Begin Processed Spectral Data<<<<<
339.09	0.00
339.48	198.25
339.86	200.20
340.24	201.75
340.63	202.95
341.01	209.60
341.39	206.65
341.78	208.65
342.16	210.00
342.54	209.70
342.93	198.71
343.31	208.73
343.69	209.30
344.07	209.74
344.46	210.24
344.84	210.68
345.22	210.75
345.60	211.05
345.99	211.20
346.37	211.27
346.75	211.31
347.13	211.37
347.52	211.58
347.90	211.68
348.28	211.70
348.66	211.78
349.05	211.77
349.43	211.85
349.81	211.86
350.19	211.98
350.57	212.03
350.96	212.14
351.34	212.23
351.72	212.26
352.10	212.44
352.48	212.45
352.87	212.48
353.25	212.51
353.63	212.47
354.01	212.48
354.39	212.52
354.77	212.56
355.15	212.73
355.54	212.68
355.92	212.64
356.30	212.65
356.68	212.88
357.06	212.83
357.44	212.81
357.82	212.83
358.20	212.88
358.58	212.89
358.97	213.01
359.35	213.14
359.73	213.32
360.11	213.32
360.49	213.40
360.87	213.41
361.25	213.46
361.63	213.63
362.01	213.69
362.39	213.75
362.77	213.90
363.15	213.87
363.53	213.86
363.91	213.96
364.29	214.05
364.67	213.78
365.05	213.79
365.43	213.83
365.81	213.97
366.19	214.12
366.57	214.27
366.95	214.20
367.33	214.10
367.71	214.12
368.09	214.22
368.47	214.18
368.85	214.12
369.23	214.18
369.61	214.04
369.99	214.21
370.37	214.14
370.75	214.24
371.13	214.11
371.51	214.09
371.89	214.02
372.27	213.93
372.65	213.86
373.03	213.85
373.41	213.83
373.78	213.73
374.16	213.47
374.54	213.32
374.92	213.30
375.30	213.30
375.68	213.11
376.06	213.06
376.44	212.98
376.82	212.97
377.19	212.97
377.57	212.92
377.95	212.73
378.33	212.70
378.71	212.45
379.09	212.55
379.47	212.51
379.84	212.42
380.22	212.39
380.60	212.33
380.98	212.24
381.36	212.10
381.73	212.00
382.11	211.97
382.49	211.93
382.87	211.86
383.25	211.80
383.62	212.10
384.00	211.94
384.38	211.94
384.76	211.99
385.13	212.06
385.51	212.03
385.89	211.97
386.27	211.97
386.64	212.00
387.02	211.89
387.40	211.80
387.78	211.76
388.15	211.81
388.53	211.80
388.91	211.85
389.29	211.89
389.66	211.97
390.04	212.03
390.42	212.06
390.79	212.03
391.17	211.97
391.55	211.64
391.92	211.62
392.30	211.66
392.68	211.59
393.05	211.49
393.43	211.50
393.81	211.55
394.18	211.51
394.56	211.57
394.94	211.68
395.31	211.71
395.69	211.88
396.06	211.88
396.44	211.94
396.82	211.87
397.19	212.03
397.57	211.95
397.95	211.93
398.32	211.86
398.70	211.94
399.07	212.08
399.45	212.13
399.82	212.19
400.20	212.10
400.58	212.13
400.95	212.01
401.33	212.10
401.70	212.26
402.08	212.31
402.45	212.24
402.83	212.34
403.20	212.39
403.58	212.37
403.95	212.51
404.33	212.58
404.71	212.71
405.08	212.99
405.46	213.11
405.83	213.22
406.21	213.35
406.58	213.46
406.96	213.54
407.33	213.71
407.70	213.89
408.08	214.35
408.45	214.63
408.83	214.90
409.20	215.10
409.58	215.15
409.95	215.40
410.33	215.68
410.70	215.78
411.08	216.10
411.45	216.39
411.82	216.65
412.20	217.03
412.57	217.52
412.95	217.54
413.32	218.10
413.69	218.51
414.07	219.03
414.44	219.52
414.82	220.07
415.19	220.62
415.56	221.23
415.94	221.77
416.31	222.51
416.68	223.34
417.06	224.16
417.43	225.07
417.81	226.03
418.18	227.00
418.55	228.04
418.93	229.10
419.30	230.25
419.67	231.37
420.04	232.58
420.42	233.82
420.79	235.51
421.16	236.82
421.54	238.50
421.91	240.01
422.28	241.59
422.66	243.30
423.03	245.24
423.40	246.98
423.77	248.71
424.15	250.52
424.52	252.40
424.89	254.56
425.26	256.50
425.64	258.45
426.01	260.61
426.38	262.91
426.75	265.35
427.13	267.67
427.50	270.08
427.87	272.62
428.24	275.20
428.61	277.51
428.99	280.31
429.36	283.12
429.73	285.96
430.10	288.92
430.47	291.88
430.85	294.70
431.22	297.97
431.59	301.64
431.96	304.84
432.33	308.42
432.70	311.88
433.08	315.95
433.45	319.86
433.82	323.72
434.19	327.97
434.56	332.00
434.93	335.94
435.30	340.00
435.68	344.43
436.05	348.76
436.42	353.01
436.79	356.91
437.16	361.14
437.53	365.69
437.90	370.13
438.27	374.42
438.64	379.02
439.01	383.16
439.38	386.66
439.75	390.29
440.13	394.38
440.50	398.13
440.87	401.41
441.24	404.60
441.61	408.23
441.98	410.69
442.35	413.76
442.72	416.92
443.09	420.02
443.46	421.73
443.83	422.86
444.20	423.91
444.57	425.41
444.94	426.15
445.31	426.83
445.68	427.67
446.05	427.94
446.42	427.33
446.79	426.81
447.16	426.24
447.53	425.86
447.90	424.19
448.27	422.44
448.64	419.95
449.01	418.08
449.37	415.05
449.74	412.23
450.11	408.94
450.48	405.13
450.85	401.15
451.22	397.87
451.59	394.83
451.96	391.83
452.33	387.92
452.70	384.29
453.07	379.99
453.43	375.46
453.80	371.28
454.17	367.29
454.54	363.43
454.91	359.38
455.28	355.30
455.65	351.43
456.02	348.30
456.38	345.18
456.75	341.40
457.12	338.03
457.49	334.85
457.86	331.57
458.23	329.01
458.59	326.06
458.96	323.15
459.33	320.33
459.70	317.77
460.07	315.67
460.43	313.27
460.80	311.15
461.17	309.15
461.54	307.10
461.91	305.16
462.27	303.19
462.64	301.40
463.01	299.59
463.38	298.08
463.74	295.79
464.11	294.25
464.48	292.92
464.85	291.48
465.21	290.44
465.58	289.23
465.95	287.72
466.32	286.61
466.68	285.37
467.05	284.26
467.42	283.05
467.78	281.73
468.15	280.52
468.52	279.61
468.88	278.41
469.25	277.41
469.62	276.72
469.98	275.89
470.35	275.18
470.72	274.42
471.08	273.51
471.45	272.96
471.82	272.33
472.18	271.61
472.55	271.18
472.92	270.50
473.28	269.97
473.65	269.50
474.02	268.95
474.38	268.65
474.75	268.42
475.11	268.09
475.48	267.96
475.85	267.80
476.21	267.58
476.58	267.53
476.94	267.46
477.31	267.39
477.67	267.32
478.04	267.28
478.41	267.36
478.77	267.84
479.14	267.83
479.50	267.96
479.87	268.24
480.23	268.44
480.60	268.61
480.96	268.96
481.33	269.45
481.69	269.90
482.06	270.34
482.42	270.77
482.79	271.35
483.15	271.84
483.52	272.49
483.88	273.15
484.25	273.85
484.61	274.61
484.98	275.30
485.34	276.30
485.71	277.28
486.07	278.32
486.44	279.01
486.80	280.18
487.17	281.35
487.53	282.65
487.90	284.09
488.26	285.67
488.62	287.24
488.99	288.69
489.35	290.44
489.72	292.18
490.08	294.14
490.44	296.10
490.81	298.29
491.17	300.53
491.54	302.84
491.90	305.35
492.26	307.95
492.63	310.67
492.99	313.38
493.36	316.30
493.72	319.50
494.08	322.74
494.45	326.15
494.81	329.84
495.17	333.43
495.54	337.27
495.90	341.30
496.26	345.41
496.63	349.94
496.99	354.52
497.35	359.27
497.72	364.27
498.08	369.35
498.44	374.57
498.80	380.08
499.17	385.89
499.53	391.81
499.89	398.01
500.26	404.39
500.62	410.90
500.98	417.87
501.34	424.79
501.71	432.13
502.07	439.67
502.43	447.18
502.79	455.09
503.16	463.25
503.52	471.61
503.88	480.14
504.24	488.77
504.60	497.74
504.97	507.23
505.33	516.65
505.69	526.83
506.05	537.15
506.41	547.71
506.78	558.26
507.14	569.08
507.50	580.14
507.86	591.45
508.22	603.22
508.59	614.90
508.95	627.09
509.31	639.40
509.67	652.06
510.03	665.01
510.39	678.28
510.75	691.85
511.12	705.31
511.48	719.26
511.84	733.44
512.20	747.66
512.56	762.01
512.92	776.68
513.28	791.41
513.64	806.23
514.00	821.18
514.37	836.46
514.73	852.16
515.09	867.83
515.45	883.62
515.81	899.46
516.17	915.44
516.53	931.49
516.89	947.80
517.25	963.96
517.61	980.45
517.97	996.77
518.33	1013.00
518.69	1029.85
519.05	1046.74
519.41	1063.83
519.77	1081.06
520.13	1098.01
520.49	1114.72
520.85	1131.70
521.21	1148.69
521.57	1165.95
521.93	1182.79
522.29	1199.95
522.65	1217.20
523.01	1234.05
523.37	1250.60
523.73	1267.74
524.09	1284.66
524.45	1301.55
524.81	1318.50
525.17	1335.60
525.53	1352.60
525.89	1369.55
526.25	1386.16
526.61	1402.19
526.97	1418.50
527.33	1434.66
527.68	1450.91
528.04	1466.78
528.40	1482.16
528.76	1497.75
529.12	1513.50
529.48	1529.75
529.84	1545.32
530.20	1560.51
530.56	1575.99
530.91	1592.04
531.27	1607.36
531.63	1622.71
531.99	1637.73
532.35	1652.22
532.71	1666.30
533.07	1681.22
533.42	1695.21
533.78	1709.20
534.14	1723.45
534.50	1735.94
534.86	1749.73
535.21	1762.48
535.57	1776.19
535.93	1788.88
536.29	1801.56
536.65	1814.03
537.00	1825.42
537.36	1836.72
537.72	1848.06
538.08	1859.37
538.44	1870.12
538.79	1881.21
539.15	1891.84
539.51	1902.26
539.87	1913.50
540.22	1923.81
540.58	1933.69
540.94	1943.92
541.29	1953.02
541.65	1961.39
542.01	1970.68
542.37	1978.84
542.72	1987.79
543.08	1995.53
543.44	2004.48
543.79	2011.66
544.15	2018.61
544.51	2026.45
544.87	2034.27
545.22	2041.05
545.58	2047.13
545.94	2052.74
546.29	2057.63
546.65	2062.51
547.01	2067.54
547.36	2071.71
547.72	2076.38
548.07	2079.85
548.43	2083.15
548.79	2086.63
549.14	2090.42
549.50	2093.80
549.86	2096.31
550.21	2098.63
550.57	2101.31
550.92	2102.63
551.28	2104.64
551.64	2106.29
551.99	2108.09
552.35	2108.89
552.70	2110.11
553.06	2111.77
553.41	2113.11
553.77	2114.64
554.13	2115.41
554.48	2116.02
554.84	2117.03
555.19	2117.27
555.55	2117.45
555.90	2116.86
556.26	2116.17
556.61	2115.17
556.97	2114.24
557.32	2113.80
557.68	2112.11
558.03	2110.78
558.39	2109.61
558.74	2109.23
559.10	2108.53
559.45	2106.79
559.81	2105.68
560.16	2103.89
560.52	2102.11
560.87	2100.29
561.23	2097.31
561.58	2095.76
561.94	2093.35
562.29	2089.98
562.64	2087.28
563.00	2084.94
563.35	2083.17
563.71	2081.86
564.06	2080.14
564.42	2078.26
564.77	2076.29
565.12	2074.79
565.48	2072.51
565.83	2070.60
566.19	2068.33
566.54	2064.71
566.89	2061.31
567.25	2058.11
567.60	2055.39
567.96	2052.07
568.31	2049.10
568.66	2045.85
569.02	2041.81
569.37	2037.74
569.72	2034.16
570.08	2030.05
570.43	2025.53
570.78	2020.83
571.14	2015.54
571.49	2010.53
571.84	2006.04
572.20	2000.48
572.55	1995.66
572.90	1990.25
573.26	1984.24
573.61	1978.10
573.96	1973.28
574.31	1967.46
574.67	1961.04
575.02	1954.33
575.37	1948.02
575.72	1941.13
576.08	1935.45
576.43	1928.96
576.78	1923.18
577.13	1917.28
577.49	1911.30
577.84	1905.48
578.19	1899.77
578.54	1894.45
578.90	1889.19
579.25	1882.83
579.60	1876.53
579.95	1869.73
580.30	1863.86
580.66	1858.58
581.01	1852.25
581.36	1845.60
581.71	1839.38
582.06	1833.87
582.42	1828.21
582.77	1821.75
583.12	1815.77
583.47	1809.78
583.82	1804.01
584.17	1797.72
584.53	1791.92
584.88	1785.92
585.23	1779.89
585.58	1773.72
585.93	1767.19
586.28	1761.19
586.63	1754.84
586.98	1749.01
587.34	1743.45
587.69	1737.37
588.04	1730.65
588.39	1725.04
588.74	1718.23
589.09	1712.54
589.44	1705.92
589.79	1699.98
590.14	1694.46
590.49	1688.22
590.84	1682.01
591.19	1676.66
591.54	1670.72
591.89	1663.61
592.25	1657.36
592.60	1650.52
592.95	1644.01
593.30	1637.02
593.65	1629.64
594.00	1623.15
594.35	1618.14
594.70	1611.78
595.05	1605.59
595.40	1599.52
595.75	1592.76
596.10	1587.47
596.45	1581.66
596.80	1576.40
597.15	1570.72
597.50	1564.57
597.85	1559.08
598.19	1553.24
598.54	1547.04
598.89	1541.40
599.24	1536.72
599.59	1531.29
599.94	1526.58
600.29	1521.14
600.64	1516.27
600.99	1510.73
601.34	1505.68
601.69	1498.62
602.04	1492.89
602.39	1487.16
602.74	1481.86
603.08	1477.09
603.43	1472.44
603.78	1466.84
604.13	1461.09
604.48	1455.61
604.83	1450.98
605.18	1446.29
605.53	1440.51
605.87	1434.82
606.22	1429.45
606.57	1423.68
606.92	1417.82
607.27	1411.93
607.62	1406.55
607.96	1401.44
608.31	1396.61
608.66	1390.96
609.01	1385.48
609.36	1379.77
609.70	1373.74
610.05	1367.67
610.40	1361.49
610.75	1354.70
611.10	1349.10
611.44	1342.35
611.79	1335.86
612.14	1328.97
612.49	1321.87
612.83	1315.79
613.18	1309.16
613.53	1302.35
613.88	1295.26
614.22	1289.02
614.57	1282.31
614.92	1275.54
615.27	1268.41
615.61	1261.62
615.96	1254.97
616.31	1248.80
616.65	1242.71
617.00	1236.70
617.35	1230.46
617.70	1223.88
618.04	1217.17
618.39	1210.09
618.74	1204.09
619.08	1197.53
619.43	1191.01
619.78	1184.90
620.12	1178.75
620.47	1172.70
620.82	1165.99
621.16	1159.69
621.51	1153.30
621.85	1147.27
622.20	1140.84
622.55	1134.61
622.89	1128.04
623.24	1122.00
623.59	1115.36
623.93	1108.74
624.28	1102.60
624.62	1096.67
624.97	1090.79
625.32	1085.00
625.66	1079.11
626.01	1073.28
626.35	1067.51
626.70	1061.62
627.04	1056.10
627.39	1050.30
627.73	1044.69
628.08	1039.48
628.43	1033.81
628.77	1027.91
629.12	1022.05
629.46	1016.93
629.81	1011.67
630.15	1006.22
630.50	1000.37
630.84	994.66
631.19	989.20
631.53	983.68
631.88	977.42
632.22	971.50
632.57	966.19
632.91	960.56
633.26	954.92
633.60	949.49
633.95	944.40
634.29	938.54
634.64	933.17
634.98	927.55
635.32	922.37
635.67	917.44
636.01	912.47
636.36	907.02
636.70	901.80
637.05	896.45
637.39	891.72
637.73	887.02
638.08	882.79
638.42	878.27
638.77	873.33
639.11	868.57
639.45	863.92
639.80	858.63
640.14	853.56
640.49	848.50
640.83	843.54
641.17	838.49
641.52	833.56
641.86	828.40
642.20	823.59
642.55	818.14
642.89	812.90
643.23	807.72
643.58	803.40
643.92	798.18
644.26	793.40
644.61	788.36
644.95	783.34
645.29	778.15
645.64	772.94
645.98	768.15
646.32	763.48
646.66	758.51
647.01	753.98
647.35	749.68
647.69	744.80
648.04	740.26
648.38	735.59
648.72	730.94
649.06	726.26
649.41	721.51
649.75	717.15
650.09	712.67
650.43	708.20
650.78	703.03
651.12	698.31
651.46	693.75
651.80	689.29
652.14	684.78
652.49	680.30
652.83	675.82
653.17	671.00
653.51	666.54
653.85	662.18
654.20	657.66
654.54	653.17
654.88	648.88
655.22	644.45
655.56	640.07
655.90	635.76
656.25	631.39
656.59	627.11
656.93	622.89
657.27	618.77
657.61	614.33
657.95	610.48
658.29	606.68
658.64	602.73
658.98	598.66
659.32	594.36
659.66	590.53
660.00	586.43
660.34	582.43
660.68	578.28
661.02	574.23
661.36	570.52
661.70	566.64
662.05	563.12
662.39	559.62
662.73	556.17
663.07	552.79
663.41	549.50
663.75	545.98
664.09	542.38
664.43	538.72
664.77	535.55
665.11	532.01
665.45	528.70
665.79	525.31
666.13	521.96
666.47	518.83
666.81	515.48
667.15	512.32
667.49	509.51
667.83	506.75
668.17	503.77
668.51	500.82
668.85	497.90
669.19	495.14
669.53	492.00
669.87	488.89
670.21	485.96
670.55	483.09
670.89	480.58
671.23	477.98
671.57	475.38
671.91	472.68
672.25	469.96
672.58	467.08
672.92	464.37
673.26	461.91
673.60	459.53
673.94	457.04
674.28	454.64
674.62	452.17
674.96	449.57
675.30	447.25
675.64	444.75
675.97	442.36
676.31	439.84
676.65	437.60
676.99	435.54
677.33	433.08
677.67	430.70
678.01	428.14
678.34	425.95
678.68	423.74
679.02	421.42
679.36	419.29
679.70	417.24
680.04	415.00
680.37	412.68
680.71	410.48
681.05	408.50
681.39	406.34
681.73	404.21
682.06	402.27
682.40	400.25
682.74	398.32
683.08	396.37
683.42	394.26
683.75	392.29
684.09	390.19
684.43	388.23
684.77	386.14
685.10	384.36
685.44	382.38
685.78	380.46
686.12	378.76
686.45	376.91
686.79	375.04
687.13	373.32
687.46	371.63
687.80	369.96
688.14	368.03
688.48	366.39
688.81	364.64
689.15	362.96
689.49	361.23
689.82	359.50
690.16	357.49
690.50	355.75
690.83	353.93
691.17	352.11
691.51	350.51
691.84	349.09
692.18	347.35
692.52	345.79
692.85	344.43
693.19	342.97
693.52	341.35
693.86	339.70
694.20	338.27
694.53	336.78
694.87	335.20
695.21	333.72
695.54	332.06
695.88	330.47
696.21	328.90
696.55	327.48
696.88	325.97
697.22	324.81
697.56	323.60
697.89	322.40
698.23	321.22
698.56	319.84
698.90	318.65
699.23	317.43
699.57	316.15
699.90	314.71
700.24	313.29
700.58	312.21
700.91	311.03
701.25	310.00
701.58	308.87
701.92	307.64
702.25	306.42
702.59	305.38
702.92	304.30
703.26	303.23
703.59	302.18
703.93	301.54
704.26	300.50
704.60	299.45
704.93	298.35
705.26	297.28
705.60	296.39
705.93	295.29
706.27	294.39
706.60	293.48
706.94	292.71
707.27	291.74
707.61	290.70
707.94	289.84
708.27	288.60
708.61	287.59
708.94	286.81
709.28	286.03
709.61	285.20
709.94	284.38
710.28	283.55
710.61	282.76
710.95	281.58
711.28	280.96
711.61	280.03
711.95	279.34
712.28	278.48
712.61	277.65
712.95	276.97
713.28	276.31
713.61	275.51
713.95	274.64
714.28	273.97
714.61	273.35
714.95	272.66
715.28	271.97
715.61	271.21
715.95	270.51
716.28	269.72
716.61	269.03
716.95	268.36
717.28	267.74
717.61	266.99
717.94	266.31
718.28	265.40
718.61	264.83
718.94	264.15
719.27	263.61
719.61	263.04
719.94	262.41
720.27	261.47
720.60	260.87
720.94	260.29
721.27	259.64
721.60	259.07
721.93	258.50
722.27	258.10
722.60	257.70
722.93	257.18
723.26	256.71
723.59	256.18
723.93	255.67
724.26	255.08
724.59	254.59
724.92	254.12
725.25	253.80
725.59	253.31
725.92	252.88
726.25	252.39
726.58	251.89
726.91	251.35
727.24	251.15
727.57	250.66
727.91	250.13
728.24	249.82
728.57	249.31
728.90	248.99
729.23	248.50
729.56	248.23
729.89	247.85
730.22	247.43
730.55	247.03
730.89	246.67
731.22	246.31
731.55	245.94
731.88	245.61
732.21	245.10
732.54	244.77
732.87	244.32
733.20	243.97
733.53	243.63
733.86	243.43
734.19	243.03
734.52	242.81
734.85	242.80
735.18	242.36
735.51	242.20
735.84	241.86
736.17	241.62
736.50	241.06
736.83	241.05
737.16	240.74
737.49	240.41
737.82	240.06
738.15	239.81
738.48	239.50
738.81	239.17
739.14	238.84
739.47	238.42
739.80	238.16
740.13	237.86
740.46	237.58
740.79	237.15
741.12	236.82
741.45	236.46
741.78	236.05
742.11	235.83
742.44	235.45
742.77	235.25
743.10	234.95
743.43	234.77
743.75	234.15
744.08	234.30
744.41	234.06
744.74	233.75
745.07	233.45
745.40	233.26
745.73	233.17
746.06	233.02
746.39	232.89
746.71	232.66
747.04	232.37
747.37	232.10
747.70	231.93
748.03	231.75
748.36	231.63
748.68	231.34
749.01	231.12
749.34	230.91
749.67	230.66
750.00	230.45
750.33	230.52
750.65	230.44
750.98	229.82
751.31	229.63
751.64	229.46
751.97	229.51
752.29	229.34
752.62	228.96
752.95	228.67
753.28	228.48
753.60	228.29
753.93	228.22
754.26	228.04
754.59	227.78
754.91	227.61
755.24	227.32
755.57	227.12
755.90	226.93
756.22	226.78
756.55	226.56
756.88	226.27
757.20	225.85
757.53	225.55
757.86	225.41
758.19	225.20
758.51	225.06
758.84	224.66
759.17	224.45
759.49	224.34
759.82	224.44
760.15	224.30
760.47	224.11
760.80	223.89
761.13	223.78
761.45	223.64
761.78	223.46
762.11	223.37
762.43	223.23
762.76	223.11
763.08	222.99
763.41	222.87
763.74	222.82
764.06	222.66
764.39	222.58
764.71	222.46
765.04	222.35
765.37	222.25
765.69	222.13
766.02	221.97
766.34	221.85
766.67	221.57
767.00	221.54
767.32	221.65
767.65	221.81
767.97	221.72
768.30	221.62
768.62	221.57
768.95	221.37
769.27	221.26
769.60	221.15
769.92	221.00
770.25	220.92
770.57	220.76
770.90	220.61
771.22	220.40
771.55	220.32
771.87	220.31
772.20	220.16
772.52	220.41
772.85	220.75
773.17	220.69
773.50	220.56
773.82	220.40
774.15	220.17
774.47	219.81
774.80	219.70
775.12	219.68
775.45	219.57
775.77	219.56
776.09	219.50
776.42	219.51
776.74	219.54
777.07	219.41
777.39	219.39
777.72	219.30
778.04	219.30
778.36	219.18
778.69	219.11
779.01	219.10
779.33	218.72
779.66	218.30
779.98	218.15
780.31	218.15
780.63	218.25
780.95	218.21
781.28	218.13
781.60	218.06
781.92	218.00
782.25	217.85
782.57	217.82
782.89	217.73
783.22	217.54
783.54	217.37
783.86	217.37
784.19	217.31
784.51	217.37
784.83	217.27
785.16	217.25
785.48	217.14
785.80	217.14
786.12	217.16
786.45	217.00
786.77	217.02
787.09	216.85
787.42	216.64
