SpectraSuite Data File
++++++++++++++++++++++++++++++++++++
Date: Mon Feb 25 16:59:25 EST 2013
User: group
Dark Spectrum Present: No
Reference Spectrum Present: No
Number of Sampled Component Spectra: 1
Spectrometers: USB2E7196
Integration Time (usec): 104000 (USB2E7196)
Spectra Averaged: 20 (USB2E7196)
Boxcar Smoothing: 10 (USB2E7196)
Correct for Electrical Dark: No (USB2E7196)
Strobe/Lamp Enabled: No (USB2E7196)
Correct for Detector Non-linearity: No (USB2E7196)
Correct for Stray Light: No (USB2E7196)
Number of Pixels in Processed Spectrum: 2048
>>>>>Begin Processed Spectral Data<<<<<
339.09	0.00
339.48	199.10
339.86	201.65
340.24	201.10
340.63	202.50
341.01	209.80
341.39	205.60
341.78	207.90
342.16	210.10
342.54	209.30
342.93	198.42
343.31	208.43
343.69	208.90
344.07	209.32
344.46	209.75
344.84	210.11
345.22	210.09
345.60	210.37
345.99	210.48
346.37	210.51
346.75	210.57
347.13	210.54
347.52	210.60
347.90	210.75
348.28	210.73
348.66	210.85
349.05	210.74
349.43	210.79
349.81	210.82
350.19	210.89
350.57	210.88
350.96	210.99
351.34	211.10
351.72	211.25
352.10	211.34
352.48	211.39
352.87	211.47
353.25	211.57
353.63	211.63
354.01	211.72
354.39	211.87
354.77	211.92
355.15	212.17
355.54	212.25
355.92	212.20
356.30	212.34
356.68	212.66
357.06	212.68
357.44	212.71
357.82	212.79
358.20	212.87
358.58	212.95
358.97	212.94
359.35	213.04
359.73	213.11
360.11	213.13
360.49	213.23
360.87	213.23
361.25	213.31
361.63	213.47
362.01	213.56
362.39	213.54
362.77	213.66
363.15	213.67
363.53	213.69
363.91	213.73
364.29	213.73
364.67	213.35
365.05	213.46
365.43	213.51
365.81	213.58
366.19	213.79
366.57	213.97
366.95	214.00
367.33	213.94
367.71	213.92
368.09	214.03
368.47	214.02
368.85	214.08
369.23	214.20
369.61	214.04
369.99	214.10
370.37	214.14
370.75	214.25
371.13	214.09
371.51	214.05
371.89	214.01
372.27	213.94
372.65	213.94
373.03	213.90
373.41	213.85
373.78	213.79
374.16	213.50
374.54	213.33
374.92	213.27
375.30	213.26
375.68	213.13
376.06	213.10
376.44	213.09
376.82	212.92
377.19	212.73
377.57	212.72
377.95	212.49
378.33	212.44
378.71	212.22
379.09	212.22
379.47	212.19
379.84	212.10
380.22	212.07
380.60	212.03
380.98	211.98
381.36	211.85
381.73	211.71
382.11	211.75
382.49	211.71
382.87	211.62
383.25	211.54
383.62	211.93
384.00	211.78
384.38	211.70
384.76	211.87
385.13	212.04
385.51	211.95
385.89	211.96
386.27	211.95
386.64	211.95
387.02	211.96
387.40	211.90
387.78	211.92
388.15	211.91
388.53	211.80
388.91	211.72
389.29	211.74
389.66	211.82
390.04	211.78
390.42	211.84
390.79	211.88
391.17	211.90
391.55	211.52
391.92	211.50
392.30	211.55
392.68	211.46
393.05	211.34
393.43	211.37
393.81	211.36
394.18	211.30
394.56	211.21
394.94	211.20
395.31	211.17
395.69	211.34
396.06	211.37
396.44	211.47
396.82	211.45
397.19	211.63
397.57	211.64
397.95	211.73
398.32	211.70
398.70	211.73
399.07	211.81
399.45	211.82
399.82	211.88
400.20	211.79
400.58	211.87
400.95	211.84
401.33	211.93
401.70	212.22
402.08	212.28
402.45	212.38
402.83	212.58
403.20	212.68
403.58	212.66
403.95	212.89
404.33	213.08
404.71	213.27
405.08	213.63
405.46	213.79
405.83	213.99
406.21	214.17
406.58	214.48
406.96	214.67
407.33	215.05
407.70	215.42
408.08	216.09
408.45	216.46
408.83	216.91
409.20	217.33
409.58	217.67
409.95	218.23
410.33	218.85
410.70	219.34
411.08	219.99
411.45	220.67
411.82	221.31
412.20	222.07
412.57	223.06
412.95	223.60
413.32	224.51
413.69	225.40
414.07	226.43
414.44	227.42
414.82	228.58
415.19	229.88
415.56	231.22
415.94	232.42
416.31	234.01
416.68	235.63
417.06	237.38
417.43	239.10
417.81	241.09
418.18	243.15
418.55	245.37
418.93	247.72
419.30	250.09
419.67	252.65
420.04	255.31
420.42	258.01
420.79	261.40
421.16	264.68
421.54	268.16
421.91	271.65
422.28	275.35
422.66	279.27
423.03	283.18
423.40	287.10
423.77	291.43
424.15	295.82
424.52	300.37
424.89	305.39
425.26	310.14
425.64	314.66
426.01	319.63
426.38	324.89
426.75	330.25
427.13	335.79
427.50	341.52
427.87	347.61
428.24	353.66
428.61	359.31
428.99	365.78
429.36	372.78
429.73	379.60
430.10	386.42
430.47	393.49
430.85	400.77
431.22	408.58
431.59	416.87
431.96	424.73
432.33	433.56
432.70	442.01
433.08	452.08
433.45	461.56
433.82	471.14
434.19	481.64
434.56	492.01
434.93	502.17
435.30	512.17
435.68	523.42
436.05	534.68
436.42	545.67
436.79	555.81
437.16	566.64
437.53	578.22
437.90	589.91
438.27	601.37
438.64	613.12
439.01	624.18
439.38	634.24
439.75	643.92
440.13	654.69
440.50	665.18
440.87	673.85
441.24	682.90
441.61	692.73
441.98	700.29
442.35	708.96
442.72	717.50
443.09	726.11
443.46	731.44
443.83	735.27
444.20	738.80
444.57	743.46
444.94	746.16
445.31	749.01
445.68	751.70
446.05	753.26
446.42	753.09
446.79	752.67
447.16	751.97
447.53	751.98
447.90	748.74
448.27	745.32
448.64	740.18
449.01	736.59
449.37	729.74
449.74	723.22
450.11	715.36
450.48	706.64
450.85	697.49
451.22	689.93
451.59	682.58
451.96	675.59
452.33	666.13
452.70	657.58
453.07	647.14
453.43	636.40
453.80	626.10
454.17	616.23
454.54	606.85
454.91	596.62
455.28	586.62
455.65	577.41
456.02	568.44
456.38	560.65
456.75	550.85
457.12	542.78
457.49	534.78
457.86	526.88
458.23	520.22
458.59	512.93
458.96	505.32
459.33	498.76
459.70	492.18
460.07	486.94
460.43	480.86
460.80	475.12
461.17	470.06
461.54	464.82
461.91	459.78
462.27	454.73
462.64	450.47
463.01	445.63
463.38	441.01
463.74	435.99
464.11	431.90
464.48	428.39
464.85	424.41
465.21	421.38
465.58	418.12
465.95	414.20
466.32	411.05
466.68	407.84
467.05	404.64
467.42	401.44
467.78	398.02
468.15	394.69
468.52	392.33
468.88	389.27
469.25	386.46
469.62	384.27
469.98	381.78
470.35	379.47
470.72	377.30
471.08	374.98
471.45	373.05
471.82	371.16
472.18	368.88
472.55	367.27
472.92	365.31
473.28	363.50
473.65	361.82
474.02	360.13
474.38	358.81
474.75	357.61
475.11	356.34
475.48	355.40
475.85	354.63
476.21	353.68
476.58	352.92
476.94	352.37
477.31	351.65
477.67	350.97
478.04	350.38
478.41	350.04
478.77	350.02
479.14	349.66
479.50	349.38
479.87	349.48
480.23	349.50
480.60	349.39
480.96	349.35
481.33	349.85
481.69	350.15
482.06	350.30
482.42	350.44
482.79	350.69
483.15	351.09
483.52	351.70
483.88	352.16
484.25	352.64
484.61	353.19
484.98	353.78
485.34	354.75
485.71	355.77
486.07	356.65
486.44	357.39
486.80	358.42
487.17	359.55
487.53	360.91
487.90	362.16
488.26	363.78
488.62	365.45
488.99	366.84
489.35	368.35
489.72	370.05
490.08	371.83
490.44	373.67
490.81	375.60
491.17	377.36
491.54	379.51
491.90	381.66
492.26	383.95
492.63	386.26
492.99	388.47
493.36	391.00
493.72	393.66
494.08	396.25
494.45	399.08
494.81	401.98
495.17	404.69
495.54	407.70
495.90	410.68
496.26	413.70
496.63	416.80
496.99	420.04
497.35	423.40
497.72	426.88
498.08	430.39
498.44	433.80
498.80	437.68
499.17	441.32
499.53	444.97
499.89	448.60
500.26	452.24
500.62	455.92
500.98	459.67
501.34	463.27
501.71	467.29
502.07	471.01
502.43	474.59
502.79	478.30
503.16	482.09
503.52	485.59
503.88	489.29
504.24	492.96
504.60	496.51
504.97	500.10
505.33	503.56
505.69	507.29
506.05	510.87
506.41	514.11
506.78	517.48
507.14	520.71
507.50	524.09
507.86	527.35
508.22	530.56
508.59	533.55
508.95	536.68
509.31	539.54
509.67	542.48
510.03	545.49
510.39	548.53
510.75	551.27
511.12	554.07
511.48	556.50
511.84	559.00
512.20	561.57
512.56	564.01
512.92	566.53
513.28	568.89
513.64	571.05
514.00	573.29
514.37	575.18
514.73	577.40
515.09	579.46
515.45	581.43
515.81	583.26
516.17	585.01
516.53	586.70
516.89	588.31
517.25	589.93
517.61	591.53
517.97	592.75
518.33	594.03
518.69	595.40
519.05	596.92
519.41	598.29
519.77	599.78
520.13	600.87
520.49	601.81
520.85	602.69
521.21	603.88
521.57	604.93
521.93	605.84
522.29	606.81
522.65	607.63
523.01	608.50
523.37	609.28
523.73	610.08
524.09	610.81
524.45	611.60
524.81	612.27
525.17	613.09
525.53	614.06
525.89	615.01
526.25	615.95
526.61	616.48
526.97	617.30
527.33	618.06
527.68	619.18
528.04	620.02
528.40	620.69
528.76	621.54
529.12	622.60
529.48	623.81
529.84	624.67
530.20	625.64
530.56	626.79
530.91	628.25
531.27	629.69
531.63	630.97
531.99	632.31
532.35	633.68
532.71	634.88
533.07	636.28
533.42	638.03
533.78	639.34
534.14	641.10
534.50	642.61
534.86	644.19
535.21	645.52
535.57	647.29
535.93	649.11
536.29	650.98
536.65	652.55
537.00	654.23
537.36	656.08
537.72	658.01
538.08	659.84
538.44	661.55
538.79	663.50
539.15	665.43
539.51	667.41
539.87	669.62
540.22	671.85
540.58	674.19
540.94	676.23
541.29	678.30
541.65	680.22
542.01	682.34
542.37	684.46
542.72	686.67
543.08	688.73
543.44	691.19
543.79	693.06
544.15	695.27
544.51	697.68
544.87	700.16
545.22	702.55
545.58	704.89
545.94	707.09
546.29	709.25
546.65	711.62
547.01	713.87
547.36	716.11
547.72	718.30
548.07	720.32
548.43	722.37
548.79	724.61
549.14	726.99
549.50	729.32
549.86	731.41
550.21	733.86
550.57	736.56
550.92	738.67
551.28	741.16
551.64	743.73
551.99	746.25
552.35	748.45
552.70	750.63
553.06	752.89
553.41	755.43
553.77	757.91
554.13	760.37
554.48	762.74
554.84	765.39
555.19	767.74
555.55	770.28
555.90	772.47
556.26	774.81
556.61	776.99
556.97	779.08
557.32	781.40
557.68	783.21
558.03	784.94
558.39	786.92
558.74	789.02
559.10	790.82
559.45	792.76
559.81	794.90
560.16	796.75
560.52	798.84
560.87	800.75
561.23	802.38
561.58	804.26
561.94	806.13
562.29	807.51
562.64	809.47
563.00	810.96
563.35	812.78
563.71	814.90
564.06	816.81
564.42	818.72
564.77	820.67
565.12	822.82
565.48	824.97
565.83	826.87
566.19	828.90
566.54	830.48
566.89	832.03
567.25	833.82
567.60	835.76
567.96	837.51
568.31	839.06
568.66	840.65
569.02	841.71
569.37	842.82
569.72	844.23
570.08	845.06
570.43	846.17
570.78	847.21
571.14	847.83
571.49	848.66
571.84	849.57
572.20	849.99
572.55	850.54
572.90	850.77
573.26	850.97
573.61	850.91
573.96	851.35
574.31	851.24
574.67	850.87
575.02	850.52
575.37	850.12
575.72	849.60
576.08	849.41
576.43	849.19
576.78	848.81
577.13	848.45
577.49	848.37
577.84	848.02
578.19	847.76
578.54	847.61
578.90	847.30
579.25	846.61
579.60	846.00
579.95	845.24
580.30	844.81
580.66	844.32
581.01	843.45
581.36	842.47
581.71	841.70
582.06	841.10
582.42	840.36
582.77	839.33
583.12	838.58
583.47	837.65
583.82	836.86
584.17	835.79
584.53	834.93
584.88	833.56
585.23	832.50
585.58	831.07
585.93	829.57
586.28	828.34
586.63	827.38
586.98	826.38
587.34	825.42
587.69	823.93
588.04	822.80
588.39	821.83
588.74	820.54
589.09	819.62
589.44	818.17
589.79	816.94
590.14	815.74
590.49	814.38
590.84	812.92
591.19	811.69
591.54	810.37
591.89	808.43
592.25	807.28
592.60	805.59
592.95	803.97
593.30	802.25
593.65	800.26
594.00	798.29
594.35	797.37
594.70	795.48
595.05	793.96
595.40	792.17
595.75	790.16
596.10	788.56
596.45	786.66
596.80	785.00
597.15	783.22
597.50	781.26
597.85	779.60
598.19	777.64
598.54	775.69
598.89	773.92
599.24	772.61
599.59	770.61
599.94	768.95
600.29	767.21
600.64	765.51
600.99	763.84
601.34	761.97
601.69	759.00
602.04	756.99
602.39	754.92
602.74	752.89
603.08	751.14
603.43	749.42
603.78	747.38
604.13	745.42
604.48	743.46
604.83	741.92
605.18	739.93
605.53	737.79
605.87	735.59
606.22	733.76
606.57	731.34
606.92	729.17
607.27	726.96
607.62	724.90
607.96	722.92
608.31	720.93
608.66	718.79
609.01	716.80
609.36	714.62
609.70	712.31
610.05	710.09
610.40	707.78
610.75	705.28
611.10	703.24
611.44	700.70
611.79	698.15
612.14	695.49
612.49	692.72
612.83	690.58
613.18	688.05
613.53	685.34
613.88	682.64
614.22	680.13
614.57	677.52
614.92	674.97
615.27	672.37
615.61	669.66
615.96	667.20
616.31	664.80
616.65	662.49
617.00	659.97
617.35	657.47
617.70	654.91
618.04	652.05
618.39	649.05
618.74	646.46
619.08	643.91
619.43	641.43
619.78	639.13
620.12	636.64
620.47	634.23
620.82	631.63
621.16	629.15
621.51	626.74
621.85	624.30
622.20	621.74
622.55	619.04
622.89	616.44
623.24	614.02
623.59	611.23
623.93	608.65
624.28	606.21
624.62	603.95
624.97	601.66
625.32	599.37
625.66	597.07
626.01	594.68
626.35	592.31
626.70	589.80
627.04	587.57
627.39	585.14
627.73	582.88
628.08	580.81
628.43	578.54
628.77	576.02
629.12	573.51
629.46	571.30
629.81	569.01
630.15	566.59
630.50	564.03
630.84	561.82
631.19	559.54
631.53	557.34
631.88	554.64
632.22	551.95
632.57	549.95
632.91	547.71
633.26	545.54
633.60	543.10
633.95	540.88
634.29	538.47
634.64	536.26
634.98	533.94
635.32	531.63
635.67	529.62
636.01	527.66
636.36	525.55
636.70	523.56
637.05	521.38
637.39	519.50
637.73	517.60
638.08	515.81
638.42	513.88
638.77	511.94
639.11	510.02
639.45	508.17
639.80	505.93
640.14	503.80
640.49	501.75
640.83	499.82
641.17	497.71
641.52	495.63
641.86	493.57
642.20	491.54
642.55	489.24
642.89	487.07
643.23	484.92
643.58	483.10
643.92	480.79
644.26	478.97
644.61	476.92
644.95	474.86
645.29	472.66
645.64	470.52
645.98	468.31
646.32	466.31
646.66	464.21
647.01	462.01
647.35	460.15
647.69	458.08
648.04	456.14
648.38	454.27
648.72	452.26
649.06	450.22
649.41	448.21
649.75	446.40
650.09	444.50
650.43	442.60
650.78	440.47
651.12	438.59
651.46	436.57
651.80	434.82
652.14	432.88
652.49	431.03
652.83	429.09
653.17	427.15
653.51	425.31
653.85	423.59
654.20	422.00
654.54	420.18
654.88	418.26
655.22	416.45
655.56	414.51
655.90	412.82
656.25	410.93
656.59	409.20
656.93	407.42
657.27	405.77
657.61	403.85
657.95	402.14
658.29	400.45
658.64	398.81
658.98	396.95
659.32	395.15
659.66	393.42
660.00	391.76
660.34	390.06
660.68	388.29
661.02	386.48
661.36	384.76
661.70	382.97
662.05	381.51
662.39	380.00
662.73	378.58
663.07	377.24
663.41	375.83
663.75	374.41
664.09	372.96
664.43	371.32
664.77	369.94
665.11	368.46
665.45	367.01
665.79	365.70
666.13	364.21
666.47	362.93
666.81	361.51
667.15	359.98
667.49	358.72
667.83	357.64
668.17	356.31
668.51	355.02
668.85	353.88
669.19	352.68
669.53	351.33
669.87	349.97
670.21	348.49
670.55	347.19
670.89	346.06
671.23	344.89
671.57	343.75
671.91	342.56
672.25	341.45
672.58	340.30
672.92	338.94
673.26	337.83
673.60	336.65
673.94	335.49
674.28	334.48
674.62	333.44
674.96	332.16
675.30	331.17
675.64	330.16
675.97	329.01
676.31	327.86
676.65	326.84
676.99	325.95
677.33	324.90
677.67	323.88
678.01	322.67
678.34	321.62
678.68	320.66
679.02	319.62
679.36	318.51
679.70	317.47
680.04	316.46
680.37	315.47
680.71	314.51
681.05	313.66
681.39	312.83
681.73	311.79
682.06	310.91
682.40	310.03
682.74	309.08
683.08	308.33
683.42	307.38
683.75	306.45
684.09	305.40
684.43	304.53
684.77	303.55
685.10	302.59
685.44	301.61
685.78	300.66
686.12	299.88
686.45	299.08
686.79	298.17
687.13	297.45
687.46	296.58
687.80	295.81
688.14	294.91
688.48	294.05
688.81	293.20
689.15	292.40
689.49	291.49
689.82	290.63
690.16	289.64
690.50	288.73
690.83	287.88
691.17	286.98
691.51	286.11
691.84	285.36
692.18	284.59
692.52	283.89
692.85	283.27
693.19	282.64
693.52	281.92
693.86	281.16
694.20	280.42
694.53	279.76
694.87	279.01
695.21	278.18
695.54	277.37
695.88	276.62
696.21	275.79
696.55	275.12
696.88	274.42
697.22	273.83
697.56	273.39
697.89	272.78
698.23	272.22
698.56	271.59
698.90	271.04
699.23	270.47
699.57	269.86
699.90	269.14
700.24	268.32
700.58	267.72
700.91	267.23
701.25	266.86
701.58	266.36
701.92	265.81
702.25	265.31
702.59	264.73
702.92	264.23
703.26	263.66
703.59	263.14
703.93	262.90
704.26	262.36
704.60	261.81
704.93	261.29
705.26	260.75
705.60	260.35
705.93	259.79
706.27	259.39
706.60	259.02
706.94	258.62
707.27	258.20
707.61	257.74
707.94	257.18
708.27	256.42
708.61	255.73
708.94	255.21
709.28	254.75
709.61	254.29
709.94	253.80
710.28	253.45
710.61	253.05
710.95	252.32
711.28	252.14
711.61	251.64
711.95	251.28
712.28	250.94
712.61	250.54
712.95	250.42
713.28	250.11
713.61	249.56
713.95	249.01
714.28	248.65
714.61	248.14
714.95	247.75
715.28	247.26
715.61	246.98
715.95	246.62
716.28	246.20
716.61	245.90
716.95	245.52
717.28	245.15
717.61	244.77
717.94	244.46
718.28	243.82
718.61	243.43
718.94	242.93
719.27	242.55
719.61	242.18
719.94	241.61
720.27	241.09
720.60	240.78
720.94	240.52
721.27	240.20
721.60	239.98
721.93	239.70
722.27	239.63
722.60	239.38
722.93	239.07
723.26	238.93
723.59	238.54
723.93	238.40
724.26	238.15
724.59	237.87
724.92	237.56
725.25	237.42
725.59	237.22
725.92	237.12
726.25	236.84
726.58	236.59
726.91	236.39
727.24	236.16
727.57	235.88
727.91	235.63
728.24	235.34
728.57	235.13
728.90	234.93
729.23	234.58
729.56	234.53
729.89	234.27
730.22	233.97
730.55	233.83
730.89	233.51
731.22	233.20
731.55	232.92
731.88	232.74
732.21	232.45
732.54	232.16
732.87	231.90
733.20	231.62
733.53	231.39
733.86	231.16
734.19	230.95
734.52	230.88
734.85	230.84
735.18	230.61
735.51	230.57
735.84	230.40
736.17	230.33
736.50	229.89
736.83	230.09
737.16	229.85
737.49	229.70
737.82	229.56
738.15	229.46
738.48	229.28
738.81	229.07
739.14	228.92
739.47	228.81
739.80	228.64
740.13	228.62
740.46	228.42
740.79	228.23
741.12	228.01
741.45	227.72
741.78	227.41
742.11	227.33
742.44	227.09
742.77	226.94
743.10	226.72
743.43	226.63
743.75	226.13
744.08	226.48
744.41	226.23
744.74	226.04
745.07	225.85
745.40	225.85
745.73	225.89
746.06	225.71
746.39	225.55
746.71	225.36
747.04	225.10
747.37	225.01
747.70	224.98
748.03	224.98
748.36	224.89
748.68	224.75
749.01	224.53
749.34	224.38
749.67	224.26
750.00	224.18
750.33	224.26
750.65	224.13
750.98	223.55
751.31	223.49
751.64	223.36
751.97	223.36
752.29	223.14
752.62	222.84
752.95	222.62
753.28	222.43
753.60	222.32
753.93	222.32
754.26	222.18
754.59	221.93
754.91	221.72
755.24	221.63
755.57	221.53
755.90	221.40
756.22	221.22
756.55	221.02
756.88	220.82
757.20	220.50
757.53	220.37
757.86	220.26
758.19	220.13
758.51	220.05
758.84	219.81
759.17	219.64
759.49	219.55
759.82	219.75
760.15	219.78
760.47	219.69
760.80	219.51
761.13	219.51
761.45	219.40
761.78	219.33
762.11	219.22
762.43	219.13
762.76	219.12
763.08	219.09
763.41	219.10
763.74	219.03
764.06	219.03
764.39	218.93
764.71	218.87
765.04	218.77
765.37	218.68
765.69	218.62
766.02	218.65
766.34	218.54
766.67	218.25
767.00	218.17
767.32	218.28
767.65	218.35
767.97	218.20
768.30	218.11
768.62	218.07
768.95	217.93
769.27	217.84
769.60	217.72
769.92	217.56
770.25	217.41
770.57	217.25
770.90	217.11
771.22	216.97
771.55	216.90
771.87	216.90
772.20	216.83
772.52	217.05
772.85	217.41
773.17	217.42
773.50	217.38
773.82	217.32
774.15	217.06
774.47	216.84
774.80	216.79
775.12	216.75
775.45	216.65
775.77	216.64
776.09	216.61
776.42	216.58
776.74	216.65
777.07	216.58
777.39	216.60
777.72	216.45
778.04	216.50
778.36	216.41
778.69	216.39
779.01	216.35
779.33	215.97
779.66	215.50
779.98	215.35
780.31	215.29
780.63	215.35
780.95	215.42
781.28	215.38
781.60	215.27
781.92	215.29
782.25	215.27
782.57	215.19
782.89	215.09
783.22	215.05
783.54	214.93
783.86	214.93
784.19	214.87
784.51	215.00
784.83	214.90
785.16	214.86
785.48	214.73
785.80	214.67
786.12	214.70
786.45	214.58
786.77	214.58
787.09	214.56
787.42	214.42
787.74	214.34
788.06	214.30
788.38	214.28
788.71	214.18
789.03	214.13
789.35	214.14
789.67	214.09
789.99	214.12
790.32	214.05
790.64	214.10
790.96	214.39
791.28	214.32
791.61	214.25
791.93	214.22
792.25	214.26
792.57	214.53
792.89	214.42
793.21	214.43
793.54	214.40
793.86	214.30
794.18	214.28
