SpectraSuite Data File
++++++++++++++++++++++++++++++++++++
Date: Mon Feb 25 16:55:28 EST 2013
User: group
Dark Spectrum Present: No
Reference Spectrum Present: No
Number of Sampled Component Spectra: 1
Spectrometers: USB2E7196
Integration Time (usec): 104000 (USB2E7196)
Spectra Averaged: 20 (USB2E7196)
Boxcar Smoothing: 10 (USB2E7196)
Correct for Electrical Dark: No (USB2E7196)
Strobe/Lamp Enabled: No (USB2E7196)
Correct for Detector Non-linearity: No (USB2E7196)
Correct for Stray Light: No (USB2E7196)
Number of Pixels in Processed Spectrum: 2048
>>>>>Begin Processed Spectral Data<<<<<
339.09	0.00
339.48	198.05
339.86	200.65
340.24	202.50
340.63	203.05
341.01	209.80
341.39	206.90
341.78	207.60
342.16	209.70
342.54	209.75
342.93	198.88
343.31	208.93
343.69	209.56
344.07	210.00
344.46	210.51
344.84	210.90
345.22	211.03
345.60	211.33
345.99	211.53
346.37	211.70
346.75	211.74
347.13	211.79
347.52	211.88
347.90	212.14
348.28	212.23
348.66	212.32
349.05	212.27
349.43	212.35
349.81	212.38
350.19	212.40
350.57	212.52
350.96	212.58
351.34	212.70
351.72	212.85
352.10	212.96
352.48	212.95
352.87	213.01
353.25	213.03
353.63	213.03
354.01	213.00
354.39	213.10
354.77	213.20
355.15	213.40
355.54	213.41
355.92	213.36
356.30	213.36
356.68	213.62
357.06	213.67
357.44	213.69
357.82	213.76
358.20	213.86
358.58	213.85
358.97	213.94
359.35	214.07
359.73	214.12
360.11	214.14
360.49	214.24
360.87	214.28
361.25	214.34
361.63	214.47
362.01	214.60
362.39	214.59
362.77	214.69
363.15	214.66
363.53	214.68
363.91	214.68
364.29	214.66
364.67	214.42
365.05	214.48
365.43	214.49
365.81	214.53
366.19	214.72
366.57	214.93
366.95	214.88
367.33	214.74
367.71	214.68
368.09	214.80
368.47	214.71
368.85	214.74
369.23	214.78
369.61	214.63
369.99	214.73
370.37	214.70
370.75	214.80
371.13	214.66
371.51	214.60
371.89	214.57
372.27	214.59
372.65	214.60
373.03	214.53
373.41	214.44
373.78	214.38
374.16	214.15
374.54	213.95
374.92	213.95
375.30	213.94
375.68	213.92
376.06	213.84
376.44	213.81
376.82	213.71
377.19	213.65
377.57	213.60
377.95	213.42
378.33	213.40
378.71	213.16
379.09	213.17
379.47	213.14
379.84	213.10
380.22	213.11
380.60	212.98
380.98	212.89
381.36	212.87
381.73	212.81
382.11	212.82
382.49	212.77
382.87	212.68
383.25	212.66
383.62	213.01
384.00	212.95
384.38	212.93
384.76	213.00
385.13	213.12
385.51	213.16
385.89	213.07
386.27	212.97
386.64	213.01
387.02	212.95
387.40	212.91
387.78	212.88
388.15	212.83
388.53	212.72
388.91	212.69
389.29	212.70
389.66	212.72
390.04	212.61
390.42	212.63
390.79	212.62
391.17	212.53
391.55	212.13
391.92	212.07
392.30	212.07
392.68	211.95
393.05	211.90
393.43	211.86
393.81	212.00
394.18	211.97
394.56	212.01
394.94	212.17
395.31	212.17
395.69	212.28
396.06	212.27
396.44	212.42
396.82	212.55
397.19	212.69
397.57	212.75
397.95	212.93
398.32	212.94
398.70	213.06
399.07	213.27
399.45	213.27
399.82	213.39
400.20	213.47
400.58	213.61
400.95	213.61
401.33	213.85
401.70	214.18
402.08	214.37
402.45	214.49
402.83	214.73
403.20	214.86
403.58	214.99
403.95	215.33
404.33	215.58
404.71	215.83
405.08	216.31
405.46	216.58
405.83	216.89
406.21	217.21
406.58	217.59
406.96	217.93
407.33	218.46
407.70	219.01
408.08	219.83
408.45	220.50
408.83	221.19
409.20	221.70
409.58	222.14
409.95	222.98
410.33	223.81
410.70	224.49
411.08	225.53
411.45	226.53
411.82	227.51
412.20	228.62
412.57	229.97
412.95	230.94
413.32	232.33
413.69	233.84
414.07	235.48
414.44	237.16
414.82	238.95
415.19	240.94
415.56	243.02
415.94	245.02
416.31	247.47
416.68	249.97
417.06	252.86
417.43	255.57
417.81	258.58
418.18	261.82
418.55	265.21
418.93	268.89
419.30	272.68
419.67	276.68
420.04	280.94
420.42	285.22
420.79	290.34
421.16	295.56
421.54	300.80
421.91	306.23
422.28	311.93
422.66	318.06
423.03	324.18
423.40	330.37
423.77	337.08
424.15	343.74
424.52	350.76
424.89	358.52
425.26	366.16
425.64	373.44
426.01	381.20
426.38	389.55
426.75	397.88
427.13	406.70
427.50	415.96
427.87	425.35
428.24	435.02
428.61	444.30
428.99	454.31
429.36	465.32
429.73	476.10
430.10	487.05
430.47	498.31
430.85	509.88
431.22	522.22
431.59	535.27
431.96	547.88
432.33	561.82
432.70	575.22
433.08	591.17
433.45	606.28
433.82	621.28
434.19	638.13
434.56	654.49
434.93	670.45
435.30	686.24
435.68	704.14
436.05	721.64
436.42	739.17
436.79	755.19
437.16	772.65
437.53	791.22
437.90	809.35
438.27	827.16
438.64	846.10
439.01	863.70
439.38	879.62
439.75	894.93
440.13	912.28
440.50	928.92
440.87	942.70
441.24	956.99
441.61	972.94
441.98	984.82
442.35	999.00
442.72	1012.86
443.09	1026.43
443.46	1035.20
443.83	1041.73
444.20	1047.19
444.57	1055.06
444.94	1059.46
445.31	1063.95
445.68	1068.35
446.05	1071.20
446.42	1070.61
446.79	1069.74
447.16	1068.57
447.53	1068.33
447.90	1063.05
448.27	1057.63
448.64	1049.45
449.01	1043.93
449.37	1033.02
449.74	1022.65
450.11	1009.79
450.48	995.89
450.85	981.64
451.22	969.36
451.59	957.59
451.96	946.62
452.33	931.42
452.70	917.51
453.07	900.86
453.43	883.86
453.80	867.71
454.17	852.10
454.54	837.41
454.91	821.59
455.28	806.05
455.65	791.65
456.02	776.99
456.38	764.68
456.75	749.23
457.12	736.44
457.49	723.50
457.86	711.08
458.23	700.32
458.59	688.59
458.96	676.69
459.33	666.33
459.70	655.84
460.07	647.51
460.43	638.00
460.80	628.99
461.17	621.19
461.54	612.65
461.91	604.96
462.27	596.89
462.64	590.07
463.01	582.51
463.38	575.25
463.74	568.08
464.11	561.63
464.48	555.95
464.85	549.94
465.21	545.40
465.58	540.37
465.95	534.35
466.32	529.31
466.68	524.25
467.05	519.17
467.42	514.10
467.78	508.77
468.15	503.80
468.52	500.13
468.88	495.34
469.25	491.11
469.62	487.56
469.98	483.87
470.35	480.52
470.72	477.17
471.08	473.65
471.45	470.64
471.82	467.59
472.18	464.31
472.55	461.71
472.92	458.76
473.28	456.36
473.65	453.86
474.02	451.49
474.38	449.77
474.75	448.02
475.11	446.16
475.48	444.71
475.85	443.56
476.21	442.10
476.58	441.12
476.94	440.30
477.31	439.29
477.67	438.42
478.04	437.72
478.41	437.48
478.77	437.29
479.14	436.88
479.50	436.78
479.87	436.81
480.23	436.97
480.60	437.05
480.96	437.13
481.33	437.89
481.69	438.52
482.06	438.89
482.42	439.27
482.79	439.93
483.15	441.03
483.52	442.25
483.88	443.40
484.25	444.41
484.61	445.87
484.98	447.10
485.34	448.95
485.71	450.72
486.07	452.47
486.44	454.24
486.80	456.40
487.17	458.65
487.53	461.29
487.90	464.10
488.26	467.16
488.62	470.32
488.99	473.30
489.35	476.55
489.72	480.09
490.08	483.85
490.44	487.82
490.81	491.61
491.17	495.50
491.54	499.88
491.90	504.33
492.26	508.88
492.63	513.97
492.99	518.73
493.36	523.88
493.72	529.49
494.08	535.13
494.45	541.00
494.81	547.27
495.17	553.37
495.54	559.67
495.90	566.11
496.26	572.64
496.63	579.53
496.99	586.41
497.35	593.63
497.72	601.10
498.08	608.60
498.44	616.39
498.80	624.78
499.17	633.07
499.53	641.66
499.89	650.23
500.26	658.68
500.62	667.27
500.98	676.28
501.34	685.05
501.71	694.35
502.07	703.30
502.43	712.36
502.79	721.49
503.16	730.86
503.52	740.40
503.88	750.11
504.24	759.60
504.60	769.40
504.97	779.24
505.33	789.06
505.69	799.54
506.05	809.88
506.41	819.51
506.78	829.17
507.14	838.85
507.50	848.85
507.86	858.99
508.22	869.05
508.59	878.79
508.95	888.92
509.31	898.80
509.67	908.93
510.03	918.92
510.39	929.22
510.75	939.33
511.12	949.27
511.48	959.16
511.84	969.46
512.20	979.30
512.56	989.28
512.92	999.07
513.28	1008.48
513.64	1017.71
514.00	1027.30
514.37	1036.94
514.73	1046.57
515.09	1055.95
515.45	1064.94
515.81	1074.03
516.17	1082.92
516.53	1091.56
516.89	1100.14
517.25	1108.57
517.61	1116.72
517.97	1124.41
518.33	1132.19
518.69	1139.79
519.05	1147.55
519.41	1155.08
519.77	1162.91
520.13	1170.01
520.49	1176.92
520.85	1183.94
521.21	1191.01
521.57	1198.00
521.93	1204.54
522.29	1211.32
522.65	1217.91
523.01	1224.36
523.37	1230.35
523.73	1236.65
524.09	1242.58
524.45	1248.65
524.81	1254.74
525.17	1261.02
525.53	1267.40
525.89	1273.22
526.25	1278.96
526.61	1283.90
526.97	1288.85
527.33	1293.81
527.68	1299.16
528.04	1304.13
528.40	1308.70
528.76	1313.31
529.12	1318.02
529.48	1323.04
529.84	1327.10
530.20	1331.16
530.56	1335.53
530.91	1340.37
531.27	1344.77
531.63	1349.19
531.99	1353.12
532.35	1356.78
532.71	1360.58
533.07	1364.55
533.42	1368.42
533.78	1372.40
534.14	1376.66
534.50	1379.87
534.86	1383.39
535.21	1386.27
535.57	1390.04
535.93	1393.24
536.29	1396.43
536.65	1399.36
537.00	1401.75
537.36	1404.52
537.72	1407.30
538.08	1409.85
538.44	1412.19
538.79	1414.50
539.15	1416.83
539.51	1419.47
539.87	1422.23
540.22	1424.37
540.58	1426.86
540.94	1429.23
541.29	1430.82
541.65	1432.06
542.01	1434.26
542.37	1436.01
542.72	1438.04
543.08	1439.40
543.44	1441.29
543.79	1442.33
544.15	1443.66
544.51	1445.53
544.87	1447.45
545.22	1448.77
545.58	1449.91
545.94	1450.79
546.29	1451.45
546.65	1451.71
547.01	1451.98
547.36	1452.40
547.72	1452.94
548.07	1452.63
548.43	1452.29
548.79	1451.90
549.14	1451.90
549.50	1451.81
549.86	1451.63
550.21	1451.21
550.57	1451.53
550.92	1451.08
551.28	1451.33
551.64	1450.87
551.99	1450.68
552.35	1449.95
552.70	1449.23
553.06	1448.91
553.41	1448.58
553.77	1448.45
554.13	1448.53
554.48	1448.46
554.84	1448.56
555.19	1448.02
555.55	1447.72
555.90	1447.04
556.26	1446.79
556.61	1446.25
556.97	1445.52
557.32	1444.99
557.68	1444.29
558.03	1442.84
558.39	1441.65
558.74	1440.91
559.10	1440.07
559.45	1438.91
559.81	1438.22
560.16	1436.97
560.52	1435.79
560.87	1434.71
561.23	1433.20
561.58	1432.23
561.94	1430.69
562.29	1428.45
562.64	1427.22
563.00	1425.89
563.35	1425.09
563.71	1424.92
564.06	1423.85
564.42	1423.33
564.77	1422.71
565.12	1422.00
565.48	1421.48
565.83	1420.90
566.19	1420.18
566.54	1419.18
566.89	1417.77
567.25	1416.86
567.60	1416.38
567.96	1415.83
568.31	1415.23
568.66	1414.29
569.02	1412.75
569.37	1411.01
569.72	1409.96
570.08	1408.54
570.43	1406.81
570.78	1405.05
571.14	1402.41
571.49	1400.51
571.84	1398.35
572.20	1395.45
572.55	1393.21
572.90	1390.61
573.26	1387.76
573.61	1384.70
573.96	1382.09
574.31	1379.04
574.67	1375.61
575.02	1372.35
575.37	1368.77
575.72	1364.87
576.08	1361.59
576.43	1358.11
576.78	1354.97
577.13	1351.79
577.49	1348.50
577.84	1345.21
578.19	1342.11
578.54	1339.38
578.90	1336.71
579.25	1333.24
579.60	1329.78
579.95	1325.75
580.30	1322.30
580.66	1319.11
581.01	1315.20
581.36	1311.30
581.71	1307.61
582.06	1303.95
582.42	1300.25
582.77	1296.23
583.12	1292.26
583.47	1288.60
583.82	1284.94
584.17	1281.00
584.53	1277.14
584.88	1272.78
585.23	1268.94
585.58	1264.62
585.93	1260.30
586.28	1256.00
586.63	1251.92
586.98	1248.01
587.34	1244.51
587.69	1240.47
588.04	1236.32
588.39	1232.43
588.74	1228.16
589.09	1224.44
589.44	1219.99
589.79	1216.12
590.14	1212.34
590.49	1208.39
590.84	1204.20
591.19	1200.38
591.54	1196.62
591.89	1192.00
592.25	1188.21
592.60	1183.67
592.95	1179.21
593.30	1174.38
593.65	1169.50
594.00	1164.92
594.35	1161.57
594.70	1156.77
595.05	1152.27
595.40	1147.90
595.75	1143.37
596.10	1139.36
596.45	1135.18
596.80	1131.38
597.15	1126.90
597.50	1122.27
597.85	1117.94
598.19	1113.45
598.54	1108.88
598.89	1104.58
599.24	1100.94
599.59	1096.42
599.94	1092.40
600.29	1088.36
600.64	1084.21
600.99	1079.81
601.34	1075.81
601.69	1070.36
602.04	1066.13
602.39	1061.83
602.74	1057.61
603.08	1053.54
603.43	1049.73
603.78	1045.16
604.13	1040.71
604.48	1036.51
604.83	1032.79
605.18	1029.07
605.53	1024.79
605.87	1020.45
606.22	1016.30
606.57	1011.32
606.92	1006.80
607.27	1002.24
607.62	997.80
607.96	993.81
608.31	990.13
608.66	985.65
609.01	981.29
609.36	976.85
609.70	972.50
610.05	967.75
610.40	963.17
610.75	958.20
611.10	954.06
611.44	949.04
611.79	944.06
612.14	939.13
612.49	933.77
612.83	929.33
613.18	924.54
613.53	919.71
613.88	915.03
614.22	910.48
614.57	905.69
614.92	900.82
615.27	895.90
615.61	890.98
615.96	886.50
616.31	882.11
616.65	877.97
617.00	873.30
617.35	868.91
617.70	864.26
618.04	859.40
618.39	854.38
618.74	850.27
619.08	845.81
619.43	841.29
619.78	837.32
620.12	832.92
620.47	828.59
620.82	824.00
621.16	819.41
621.51	815.04
621.85	810.82
622.20	806.52
622.55	801.97
622.89	797.36
623.24	792.65
623.59	788.08
623.93	783.58
624.28	779.46
624.62	775.63
624.97	771.48
625.32	767.45
625.66	763.55
626.01	759.26
626.35	755.44
626.70	751.21
627.04	747.17
627.39	743.13
627.73	739.16
628.08	735.51
628.43	731.83
628.77	728.01
629.12	724.03
629.46	720.33
629.81	716.56
630.15	712.91
630.50	709.28
630.84	705.44
631.19	701.55
631.53	697.68
631.88	693.48
632.22	689.70
632.57	686.24
632.91	682.54
633.26	678.91
633.60	675.03
633.95	671.58
634.29	667.89
634.64	664.52
634.98	660.58
635.32	657.01
635.67	653.67
636.01	650.41
636.36	646.94
636.70	643.69
637.05	640.57
637.39	637.45
637.73	634.35
638.08	631.71
638.42	628.70
638.77	625.67
639.11	622.48
639.45	619.44
639.80	616.00
640.14	612.72
640.49	609.58
640.83	606.61
641.17	603.49
641.52	600.32
641.86	597.00
642.20	594.25
642.55	590.73
642.89	587.42
643.23	583.92
643.58	581.12
643.92	577.86
644.26	574.65
644.61	571.56
644.95	568.32
645.29	564.97
645.64	561.92
645.98	558.89
646.32	556.11
646.66	553.10
647.01	550.28
647.35	547.56
647.69	544.69
648.04	541.87
648.38	538.99
648.72	536.03
649.06	533.07
649.41	530.22
649.75	527.54
650.09	524.98
650.43	522.24
650.78	519.19
651.12	516.33
651.46	513.69
651.80	510.98
652.14	508.36
652.49	505.69
652.83	502.91
653.17	500.14
653.51	497.42
653.85	494.90
654.20	492.26
654.54	489.42
654.88	486.67
655.22	484.00
655.56	481.47
655.90	478.94
656.25	476.32
656.59	473.71
656.93	471.33
657.27	468.78
657.61	466.26
657.95	463.88
658.29	461.44
658.64	459.07
658.98	456.56
659.32	453.98
659.66	451.60
660.00	449.07
660.34	446.58
660.68	444.17
661.02	441.61
661.36	439.30
661.70	437.12
662.05	434.99
662.39	432.83
662.73	430.66
663.07	428.83
663.41	426.77
663.75	424.70
664.09	422.58
664.43	420.37
664.77	418.41
665.11	416.30
665.45	414.47
665.79	412.44
666.13	410.50
666.47	408.65
666.81	406.57
667.15	404.70
667.49	402.95
667.83	401.10
668.17	399.37
668.51	397.63
668.85	395.86
669.19	394.25
669.53	392.36
669.87	390.47
670.21	388.54
670.55	386.83
670.89	385.38
671.23	383.76
671.57	382.28
671.91	380.64
672.25	379.08
672.58	377.43
672.92	375.71
673.26	374.14
673.60	372.57
673.94	371.10
674.28	369.65
674.62	368.28
674.96	366.80
675.30	365.27
675.64	363.70
675.97	362.21
676.31	360.77
676.65	359.42
676.99	358.23
677.33	356.79
677.67	355.44
678.01	353.78
678.34	352.33
678.68	350.90
679.02	349.43
679.36	348.14
679.70	346.76
680.04	345.58
680.37	344.25
680.71	342.97
681.05	341.70
681.39	340.36
681.73	338.89
682.06	337.67
682.40	336.47
682.74	335.27
683.08	334.16
683.42	332.85
683.75	331.65
684.09	330.26
684.43	329.00
684.77	327.68
685.10	326.57
685.44	325.36
685.78	324.15
686.12	323.10
686.45	321.93
686.79	320.79
687.13	319.66
687.46	318.58
687.80	317.42
688.14	316.31
688.48	315.41
688.81	314.34
689.15	313.25
689.49	312.24
689.82	311.23
690.16	310.00
690.50	308.83
690.83	307.68
691.17	306.64
691.51	305.60
691.84	304.68
692.18	303.70
692.52	302.89
692.85	301.99
693.19	301.17
693.52	300.13
693.86	299.08
694.20	298.07
694.53	297.11
694.87	296.24
695.21	295.29
695.54	294.35
695.88	293.38
696.21	292.32
696.55	291.45
696.88	290.56
697.22	289.75
697.56	289.07
697.89	288.20
698.23	287.43
698.56	286.61
698.90	285.83
699.23	284.97
699.57	284.13
699.90	283.32
700.24	282.38
700.58	281.72
700.91	281.05
701.25	280.55
701.58	279.98
701.92	279.34
702.25	278.64
702.59	277.76
702.92	277.10
703.26	276.46
703.59	275.75
703.93	275.34
704.26	274.61
704.60	273.90
704.93	273.31
705.26	272.62
705.60	271.99
705.93	271.26
706.27	270.72
706.60	270.17
706.94	269.75
707.27	269.09
707.61	268.32
707.94	267.69
708.27	266.86
708.61	266.03
708.94	265.35
709.28	264.73
709.61	264.18
709.94	263.69
710.28	263.13
710.61	262.60
710.95	261.75
711.28	261.45
711.61	260.87
711.95	260.39
712.28	259.82
712.61	259.35
712.95	259.03
713.28	258.67
713.61	258.01
713.95	257.36
714.28	256.93
714.61	256.48
714.95	256.02
715.28	255.51
715.61	255.03
715.95	254.53
716.28	254.00
716.61	253.55
716.95	252.97
717.28	252.53
717.61	252.05
717.94	251.63
718.28	251.04
718.61	250.58
718.94	250.19
719.27	249.78
719.61	249.34
719.94	248.77
720.27	248.20
720.60	247.85
720.94	247.39
721.27	247.05
721.60	246.76
721.93	246.39
722.27	246.16
722.60	245.90
722.93	245.52
723.26	245.26
723.59	244.87
723.93	244.54
724.26	244.23
724.59	243.84
724.92	243.45
725.25	243.15
725.59	242.90
725.92	242.58
726.25	242.35
726.58	242.09
726.91	241.83
727.24	241.53
727.57	241.20
727.91	240.88
728.24	240.54
728.57	240.27
728.90	240.00
729.23	239.49
729.56	239.39
729.89	239.11
730.22	238.79
730.55	238.54
730.89	238.31
731.22	238.00
731.55	237.80
731.88	237.60
732.21	237.31
732.54	236.97
732.87	236.57
733.20	236.22
733.53	236.02
733.86	235.77
734.19	235.42
734.52	235.24
734.85	235.23
735.18	234.98
735.51	234.78
735.84	234.58
736.17	234.54
736.50	234.09
736.83	234.31
737.16	234.07
737.49	233.80
737.82	233.58
738.15	233.35
738.48	233.06
738.81	232.76
739.14	232.57
739.47	232.39
739.80	232.25
740.13	232.08
740.46	231.77
740.79	231.54
741.12	231.32
741.45	231.03
741.78	230.65
742.11	230.56
742.44	230.25
742.77	230.08
743.10	229.84
743.43	229.63
743.75	229.00
744.08	229.35
744.41	229.24
744.74	229.03
745.07	228.78
745.40	228.68
745.73	228.67
746.06	228.45
746.39	228.24
746.71	228.02
747.04	227.86
747.37	227.70
747.70	227.57
748.03	227.49
748.36	227.40
748.68	227.21
749.01	226.89
749.34	226.77
749.67	226.60
750.00	226.48
750.33	226.63
750.65	226.54
750.98	225.89
751.31	225.69
751.64	225.60
751.97	225.65
752.29	225.50
752.62	225.23
752.95	225.06
753.28	224.93
753.60	224.84
753.93	224.76
754.26	224.63
754.59	224.41
754.91	224.19
755.24	224.03
755.57	223.84
755.90	223.60
756.22	223.43
756.55	223.23
756.88	223.00
757.20	222.54
757.53	222.28
757.86	222.10
758.19	222.05
758.51	221.84
758.84	221.51
759.17	221.37
759.49	221.25
759.82	221.26
760.15	221.15
760.47	221.05
760.80	220.77
761.13	220.66
761.45	220.51
761.78	220.50
762.11	220.36
762.43	220.30
762.76	220.30
763.08	220.29
763.41	220.18
763.74	220.11
764.06	220.11
764.39	220.05
764.71	219.94
765.04	219.73
765.37	219.69
765.69	219.71
766.02	219.59
766.34	219.46
766.67	219.26
767.00	219.23
767.32	219.38
767.65	219.53
767.97	219.44
768.30	219.40
768.62	219.20
768.95	219.05
769.27	218.97
769.60	218.90
769.92	218.75
770.25	218.58
770.57	218.50
770.90	218.32
771.22	218.24
771.55	218.20
771.87	218.16
772.20	218.02
772.52	218.21
772.85	218.52
773.17	218.47
773.50	218.40
773.82	218.24
774.15	217.95
774.47	217.62
774.80	217.46
775.12	217.35
775.45	217.35
775.77	217.35
776.09	217.28
776.42	217.28
776.74	217.31
777.07	217.33
777.39	217.23
777.72	217.22
778.04	217.20
778.36	217.07
778.69	217.03
779.01	217.03
779.33	216.60
779.66	216.15
779.98	216.04
780.31	216.00
780.63	216.14
780.95	216.14
781.28	216.14
781.60	216.18
781.92	216.12
782.25	216.08
782.57	216.07
782.89	216.01
783.22	215.90
783.54	215.75
783.86	215.76
784.19	215.73
784.51	215.76
784.83	215.71
785.16	215.70
785.48	215.73
785.80	215.72
786.12	215.77
786.45	215.67
786.77	215.70
787.09	215.65
787.42	215.48
787.74	215.43
788.06	215.38
