SpectraSuite Data File
++++++++++++++++++++++++++++++++++++
Date: Mon Feb 25 17:09:25 EST 2013
User: group
Dark Spectrum Present: No
Reference Spectrum Present: No
Number of Sampled Component Spectra: 1
Spectrometers: USB2E7196
Integration Time (usec): 104000 (USB2E7196)
Spectra Averaged: 20 (USB2E7196)
Boxcar Smoothing: 10 (USB2E7196)
Correct for Electrical Dark: No (USB2E7196)
Strobe/Lamp Enabled: No (USB2E7196)
Correct for Detector Non-linearity: No (USB2E7196)
Correct for Stray Light: No (USB2E7196)
Number of Pixels in Processed Spectrum: 2048
>>>>>Begin Processed Spectral Data<<<<<
339.09	0.00
339.48	198.05
339.86	199.35
340.24	201.65
340.63	203.05
341.01	209.15
341.39	205.25
341.78	206.85
342.16	207.70
342.54	208.40
342.93	198.02
343.31	207.95
343.69	208.56
344.07	209.02
344.46	209.43
344.84	209.76
345.22	209.81
345.60	210.10
345.99	210.25
346.37	210.37
346.75	210.50
347.13	210.55
347.52	210.62
347.90	210.78
348.28	210.71
348.66	210.76
349.05	210.66
349.43	210.75
349.81	210.77
350.19	210.78
350.57	210.71
350.96	210.77
351.34	210.90
351.72	210.97
352.10	211.05
352.48	211.12
352.87	211.18
353.25	211.26
353.63	211.27
354.01	211.35
354.39	211.45
354.77	211.43
355.15	211.55
355.54	211.56
355.92	211.47
356.30	211.63
356.68	211.91
357.06	211.98
357.44	211.91
357.82	211.92
358.20	212.02
358.58	212.14
358.97	212.12
359.35	212.32
359.73	212.36
360.11	212.43
360.49	212.50
360.87	212.54
361.25	212.56
361.63	212.73
362.01	212.78
362.39	212.75
362.77	212.87
363.15	212.89
363.53	212.93
363.91	213.03
364.29	213.05
364.67	212.76
365.05	212.81
365.43	212.99
365.81	213.14
366.19	213.25
366.57	213.42
366.95	213.48
367.33	213.28
367.71	213.30
368.09	213.37
368.47	213.36
368.85	213.37
369.23	213.44
369.61	213.31
369.99	213.41
370.37	213.45
370.75	213.58
371.13	213.48
371.51	213.44
371.89	213.45
372.27	213.45
372.65	213.45
373.03	213.48
373.41	213.33
373.78	213.23
374.16	213.04
374.54	212.84
374.92	212.75
375.30	212.78
375.68	212.69
376.06	212.63
376.44	212.56
376.82	212.51
377.19	212.47
377.57	212.39
377.95	212.26
378.33	212.27
378.71	212.00
379.09	212.04
379.47	211.99
379.84	211.91
380.22	211.82
380.60	211.69
380.98	211.55
381.36	211.51
381.73	211.45
382.11	211.48
382.49	211.52
382.87	211.36
383.25	211.30
383.62	211.67
384.00	211.52
384.38	211.45
384.76	211.47
385.13	211.55
385.51	211.58
385.89	211.48
386.27	211.42
386.64	211.44
387.02	211.35
387.40	211.36
387.78	211.32
388.15	211.30
388.53	211.27
388.91	211.33
389.29	211.30
389.66	211.33
390.04	211.25
390.42	211.27
390.79	211.27
391.17	211.22
391.55	210.77
391.92	210.84
392.30	210.89
392.68	210.80
393.05	210.76
393.43	210.70
393.81	210.67
394.18	210.55
394.56	210.55
394.94	210.62
395.31	210.50
395.69	210.57
396.06	210.61
396.44	210.63
396.82	210.55
397.19	210.80
397.57	210.70
397.95	210.74
398.32	210.58
398.70	210.66
399.07	210.74
399.45	210.77
399.82	210.77
400.20	210.77
400.58	210.84
400.95	210.73
401.33	210.85
401.70	211.13
402.08	211.18
402.45	211.22
402.83	211.33
403.20	211.44
403.58	211.45
403.95	211.49
404.33	211.58
404.71	211.65
405.08	211.83
405.46	211.96
405.83	212.04
406.21	212.17
406.58	212.31
406.96	212.40
407.33	212.55
407.70	212.62
408.08	212.95
408.45	213.02
408.83	213.21
409.20	213.27
409.58	213.18
409.95	213.46
410.33	213.65
410.70	213.64
411.08	213.91
411.45	214.15
411.82	214.29
412.20	214.57
412.57	215.06
412.95	215.11
413.32	215.44
413.69	215.80
414.07	216.15
414.44	216.48
414.82	216.91
415.19	217.40
415.56	217.96
415.94	218.31
416.31	219.05
416.68	219.61
417.06	220.30
417.43	221.11
417.81	221.84
418.18	222.73
418.55	223.74
418.93	224.60
419.30	225.55
419.67	226.63
420.04	227.69
420.42	228.65
420.79	230.03
421.16	231.26
421.54	232.79
421.91	234.11
422.28	235.50
422.66	236.97
423.03	238.60
423.40	240.12
423.77	241.79
424.15	243.37
424.52	245.11
424.89	246.98
425.26	248.70
425.64	250.41
426.01	252.25
426.38	254.19
426.75	256.25
427.13	258.34
427.50	260.50
427.87	262.75
428.24	264.95
428.61	266.90
428.99	269.42
429.36	271.66
429.73	274.25
430.10	276.90
430.47	279.56
430.85	282.01
431.22	284.78
431.59	288.01
431.96	290.85
432.33	294.05
432.70	297.15
433.08	300.76
433.45	304.15
433.82	307.54
434.19	311.27
434.56	315.02
434.93	318.50
435.30	322.02
435.68	325.91
436.05	329.83
436.42	333.75
436.79	337.35
437.16	341.28
437.53	345.23
437.90	349.13
438.27	353.07
438.64	357.13
439.01	360.95
439.38	364.03
439.75	367.38
440.13	371.08
440.50	374.60
440.87	377.45
441.24	380.57
441.61	383.89
441.98	386.30
442.35	389.06
442.72	391.97
443.09	395.01
443.46	396.67
443.83	397.81
444.20	398.82
444.57	400.13
444.94	400.86
445.31	401.76
445.68	402.94
446.05	403.33
446.42	403.12
446.79	402.89
447.16	402.60
447.53	402.33
447.90	400.89
448.27	399.43
448.64	397.57
449.01	396.01
449.37	393.46
449.74	390.94
450.11	388.18
450.48	384.90
450.85	381.40
451.22	378.64
451.59	376.10
451.96	373.58
452.33	370.09
452.70	366.98
453.07	363.15
453.43	358.97
453.80	355.26
454.17	351.65
454.54	348.05
454.91	344.39
455.28	340.77
455.65	337.44
456.02	334.71
456.38	331.90
456.75	328.58
457.12	325.60
457.49	322.80
457.86	319.82
458.23	317.65
458.59	314.93
458.96	312.35
459.33	309.86
459.70	307.40
460.07	305.48
460.43	303.25
460.80	301.30
461.17	299.52
461.54	297.59
461.91	295.90
462.27	294.23
462.64	292.62
463.01	291.01
463.38	289.60
463.74	287.39
464.11	285.85
464.48	284.60
464.85	283.31
465.21	282.28
465.58	281.16
465.95	279.60
466.32	278.58
466.68	277.34
467.05	276.20
467.42	275.17
467.78	273.99
468.15	272.95
468.52	272.14
468.88	271.00
469.25	270.04
469.62	269.30
469.98	268.44
470.35	267.66
470.72	266.87
471.08	265.94
471.45	265.39
471.82	264.78
472.18	263.94
472.55	263.33
472.92	262.67
473.28	262.12
473.65	261.61
474.02	261.04
474.38	260.66
474.75	260.31
475.11	259.85
475.48	259.66
475.85	259.37
476.21	258.95
476.58	258.70
476.94	258.53
477.31	258.29
477.67	258.14
478.04	258.02
478.41	257.93
478.77	258.23
479.14	258.03
479.50	258.02
479.87	257.99
480.23	258.09
480.60	258.06
480.96	258.07
481.33	258.32
481.69	258.41
482.06	258.47
482.42	258.58
482.79	258.76
483.15	258.87
483.52	259.21
483.88	259.47
484.25	259.74
484.61	259.96
484.98	260.23
485.34	260.67
485.71	261.00
486.07	261.40
486.44	261.54
486.80	262.03
487.17	262.48
487.53	263.15
487.90	263.66
488.26	264.50
488.62	265.27
488.99	265.84
489.35	266.58
489.72	267.34
490.08	268.20
490.44	268.97
490.81	269.92
491.17	270.79
491.54	271.81
491.90	272.78
492.26	273.86
492.63	274.99
492.99	276.09
493.36	277.39
493.72	278.68
494.08	279.97
494.45	281.40
494.81	282.92
495.17	284.36
495.54	285.98
495.90	287.48
496.26	289.11
496.63	290.83
496.99	292.61
497.35	294.52
497.72	296.41
498.08	298.46
498.44	300.45
498.80	302.57
499.17	304.71
499.53	306.91
499.89	309.35
500.26	311.72
500.62	313.97
500.98	316.52
501.34	319.11
501.71	321.76
502.07	324.39
502.43	327.01
502.79	329.65
503.16	332.35
503.52	335.20
503.88	338.12
504.24	341.13
504.60	344.18
504.97	347.36
505.33	350.52
505.69	353.92
506.05	357.21
506.41	360.49
506.78	363.91
507.14	367.46
507.50	370.95
507.86	374.62
508.22	378.48
508.59	382.14
508.95	385.90
509.31	389.99
509.67	393.96
510.03	398.02
510.39	402.23
510.75	406.50
511.12	410.69
511.48	414.94
511.84	419.20
512.20	423.47
512.56	427.85
512.92	432.37
513.28	436.72
513.64	441.42
514.00	446.02
514.37	450.65
514.73	455.37
515.09	460.10
515.45	464.70
515.81	469.52
516.17	474.41
516.53	479.38
516.89	484.12
517.25	489.20
517.61	494.30
517.97	499.20
518.33	504.29
518.69	509.39
519.05	514.52
519.41	519.84
519.77	525.58
520.13	530.73
520.49	536.07
520.85	541.50
521.21	546.80
521.57	552.25
521.93	557.57
522.29	563.07
522.65	568.60
523.01	574.21
523.37	579.56
523.73	585.08
524.09	590.55
524.45	596.04
524.81	601.58
525.17	607.08
525.53	612.74
525.89	618.26
526.25	623.91
526.61	629.40
526.97	634.95
527.33	640.26
527.68	646.25
528.04	651.68
528.40	657.07
528.76	662.64
529.12	668.29
529.48	674.30
529.84	679.87
530.20	685.56
530.56	691.39
530.91	697.30
531.27	703.22
531.63	709.02
531.99	714.75
532.35	720.28
532.71	725.93
533.07	731.73
533.42	737.71
533.78	743.31
534.14	748.80
534.50	754.01
534.86	759.51
535.21	764.59
535.57	770.17
535.93	775.68
536.29	781.12
536.65	786.32
537.00	791.26
537.36	796.31
537.72	801.10
538.08	805.92
538.44	810.66
538.79	815.32
539.15	819.96
539.51	824.88
539.87	829.88
540.22	834.56
540.58	839.25
540.94	843.60
541.29	848.03
541.65	852.55
542.01	857.00
542.37	861.31
542.72	865.71
543.08	869.76
543.44	874.09
543.79	877.94
544.15	881.86
544.51	886.02
544.87	890.06
545.22	893.99
545.58	897.75
545.94	901.12
546.29	904.57
546.65	907.81
547.01	910.88
547.36	913.98
547.72	917.12
548.07	919.93
548.43	922.61
548.79	925.31
549.14	927.89
549.50	930.63
549.86	932.94
550.21	935.32
550.57	937.87
550.92	939.88
551.28	942.03
551.64	944.16
551.99	946.14
552.35	947.93
552.70	949.96
553.06	951.82
553.41	953.83
553.77	955.72
554.13	957.55
554.48	959.34
554.84	960.92
555.19	962.28
555.55	964.01
555.90	965.18
556.26	966.37
556.61	967.45
556.97	968.46
557.32	969.68
557.68	970.54
558.03	971.26
558.39	971.93
558.74	972.99
559.10	974.17
559.45	974.98
559.81	975.94
560.16	976.37
560.52	977.07
560.87	977.80
561.23	977.97
561.58	978.75
561.94	979.05
562.29	979.24
562.64	979.49
563.00	979.55
563.35	980.28
563.71	981.05
564.06	981.70
564.42	982.36
564.77	982.69
565.12	983.15
565.48	983.84
565.83	984.36
566.19	984.76
566.54	984.42
566.89	984.18
567.25	984.24
567.60	984.60
567.96	984.58
568.31	984.55
568.66	984.57
569.02	983.90
569.37	983.19
569.72	982.95
570.08	982.71
570.43	982.12
570.78	981.43
571.14	980.35
571.49	979.19
571.84	978.26
572.20	976.99
572.55	975.92
572.90	974.33
573.26	972.69
573.61	971.03
573.96	969.77
574.31	968.09
574.67	966.40
575.02	964.30
575.37	962.41
575.72	960.42
576.08	958.69
576.43	956.97
576.78	955.29
577.13	953.65
577.49	951.91
577.84	950.28
578.19	948.49
578.54	946.86
578.90	945.66
579.25	943.85
579.60	942.08
579.95	940.04
580.30	938.43
580.66	937.37
581.01	935.72
581.36	933.90
581.71	932.30
582.06	930.74
582.42	929.02
582.77	926.85
583.12	924.94
583.47	923.33
583.82	921.70
584.17	920.10
584.53	918.32
584.88	916.42
585.23	914.58
585.58	912.72
585.93	910.95
586.28	908.91
586.63	906.84
586.98	905.02
587.34	903.41
587.69	901.61
588.04	899.33
588.39	897.38
588.74	895.35
589.09	893.64
589.44	891.30
589.79	889.54
590.14	888.01
590.49	886.05
590.84	883.82
591.19	882.22
591.54	880.34
591.89	877.92
592.25	875.99
592.60	873.64
592.95	871.31
593.30	868.75
593.65	866.40
594.00	864.20
594.35	863.24
594.70	860.97
595.05	858.73
595.40	856.51
595.75	853.96
596.10	851.87
596.45	849.70
596.80	847.97
597.15	846.01
597.50	843.70
597.85	841.92
598.19	839.95
598.54	837.59
598.89	835.54
599.24	833.85
599.59	831.72
599.94	830.24
600.29	828.46
600.64	826.72
600.99	824.63
601.34	822.66
601.69	819.44
602.04	817.47
602.39	815.41
602.74	813.66
603.08	812.28
603.43	810.62
603.78	808.66
604.13	806.55
604.48	804.55
604.83	803.11
605.18	801.37
605.53	799.47
605.87	797.38
606.22	795.55
606.57	793.50
606.92	791.43
607.27	788.92
607.62	786.81
607.96	785.04
608.31	783.35
608.66	781.23
609.01	779.33
609.36	777.14
609.70	774.97
610.05	772.35
610.40	770.03
610.75	767.61
611.10	765.61
611.44	762.95
611.79	760.35
612.14	757.44
612.49	754.44
612.83	751.92
613.18	749.18
613.53	746.35
613.88	743.38
614.22	740.72
614.57	738.05
614.92	735.15
615.27	732.09
615.61	729.25
615.96	726.79
616.31	724.15
616.65	721.58
617.00	718.86
617.35	716.43
617.70	713.40
618.04	710.45
618.39	707.35
618.74	704.82
619.08	702.10
619.43	699.24
619.78	696.66
620.12	693.89
620.47	691.40
620.82	688.39
621.16	685.61
621.51	682.92
621.85	680.25
622.20	677.58
622.55	674.76
622.89	671.77
623.24	668.96
623.59	666.04
623.93	663.31
624.28	660.65
624.62	658.20
624.97	655.74
625.32	653.17
625.66	650.49
626.01	647.86
626.35	645.20
626.70	642.71
627.04	640.39
627.39	637.72
627.73	635.17
628.08	632.86
628.43	630.24
628.77	627.47
629.12	624.85
629.46	622.46
629.81	620.14
630.15	617.74
630.50	615.13
630.84	612.41
631.19	609.85
631.53	607.39
631.88	604.32
632.22	601.52
632.57	599.13
632.91	596.60
633.26	593.98
633.60	591.51
633.95	589.16
634.29	586.42
634.64	584.09
634.98	581.43
635.32	579.11
635.67	576.90
636.01	574.59
636.36	572.11
636.70	569.92
637.05	567.34
637.39	564.96
637.73	562.89
638.08	561.08
638.42	558.88
638.77	556.53
639.11	554.42
639.45	552.16
639.80	549.57
640.14	547.20
640.49	544.94
640.83	542.57
641.17	540.24
641.52	537.85
641.86	535.38
642.20	533.38
642.55	530.82
642.89	528.45
643.23	526.02
643.58	524.01
643.92	521.40
644.26	519.08
644.61	516.87
644.95	514.29
645.29	511.69
645.64	509.33
645.98	507.01
646.32	504.82
646.66	502.34
647.01	500.11
647.35	497.81
647.69	495.35
648.04	493.19
648.38	490.88
648.72	488.63
649.06	486.27
649.41	483.78
649.75	481.55
650.09	479.34
650.43	477.17
650.78	474.73
651.12	472.52
651.46	470.38
651.80	468.15
652.14	465.95
652.49	463.88
652.83	461.52
653.17	459.08
653.51	456.74
653.85	454.83
654.20	452.67
654.54	450.43
654.88	448.30
655.22	446.12
655.56	443.86
655.90	441.68
656.25	439.50
656.59	437.28
656.93	435.18
657.27	433.25
657.61	431.01
657.95	428.99
658.29	426.89
658.64	424.89
658.98	422.75
659.32	420.70
659.66	418.66
660.00	416.53
660.34	414.59
660.68	412.50
661.02	410.39
661.36	408.53
661.70	406.74
662.05	404.98
662.39	403.26
662.73	401.61
663.07	400.10
663.41	398.43
663.75	396.71
664.09	394.94
664.43	392.98
664.77	391.42
665.11	389.58
665.45	388.00
665.79	386.24
666.13	384.58
666.47	382.80
666.81	381.12
667.15	379.52
667.49	378.04
667.83	376.60
668.17	375.16
668.51	373.59
668.85	372.18
669.19	370.77
669.53	369.03
669.87	367.44
670.21	365.68
670.55	364.13
670.89	362.95
671.23	361.63
671.57	360.26
671.91	358.84
672.25	357.42
672.58	356.04
672.92	354.70
673.26	353.41
673.60	352.19
673.94	350.76
674.28	349.58
674.62	348.38
674.96	347.14
675.30	345.82
675.64	344.59
675.97	343.23
676.31	341.97
676.65	340.71
676.99	339.68
677.33	338.39
677.67	337.27
678.01	335.80
678.34	334.52
678.68	333.45
679.02	332.08
679.36	330.91
679.70	329.62
680.04	328.50
680.37	327.33
680.71	326.18
681.05	325.20
681.39	324.11
681.73	322.94
682.06	321.84
682.40	320.85
682.74	319.77
683.08	318.81
683.42	317.65
683.75	316.71
684.09	315.52
684.43	314.53
684.77	313.36
685.10	312.26
685.44	311.22
685.78	309.99
686.12	309.16
686.45	308.15
686.79	307.26
687.13	306.30
687.46	305.32
687.80	304.51
688.14	303.38
688.48	302.35
688.81	301.37
689.15	300.34
689.49	299.29
689.82	298.31
690.16	297.16
690.50	296.21
690.83	295.28
691.17	294.22
691.51	293.38
691.84	292.54
692.18	291.80
692.52	290.92
692.85	290.14
693.19	289.39
693.52	288.62
693.86	287.70
694.20	286.83
694.53	285.98
694.87	285.00
695.21	284.27
695.54	283.49
695.88	282.54
696.21	281.66
696.55	280.85
696.88	280.15
697.22	279.40
697.56	278.66
697.89	277.86
698.23	277.17
698.56	276.35
698.90	275.70
699.23	274.83
699.57	274.05
699.90	273.42
700.24	272.58
700.58	271.89
700.91	271.35
701.25	270.94
701.58	270.41
701.92	269.93
702.25	269.21
702.59	268.52
702.92	268.02
703.26	267.52
703.59	267.03
703.93	266.69
704.26	266.17
704.60	265.56
704.93	264.92
705.26	264.33
705.60	263.78
705.93	263.09
706.27	262.68
706.60	262.22
706.94	261.76
707.27	261.25
707.61	260.81
707.94	260.15
708.27	259.36
708.61	258.67
708.94	258.09
709.28	257.60
709.61	257.08
709.94	256.57
710.28	256.06
710.61	255.58
710.95	254.73
711.28	254.53
711.61	254.09
711.95	253.76
712.28	253.28
712.61	252.87
712.95	252.61
713.28	252.24
713.61	251.81
713.95	251.23
714.28	250.76
714.61	250.19
714.95	249.81
715.28	249.35
715.61	248.93
715.95	248.51
716.28	248.05
716.61	247.69
716.95	247.28
717.28	246.89
717.61	246.48
717.94	246.11
718.28	245.38
718.61	245.00
718.94	244.56
719.27	244.20
719.61	243.81
719.94	243.36
720.27	242.91
720.60	242.50
720.94	242.10
721.27	241.79
721.60	241.53
721.93	241.18
722.27	240.92
722.60	240.71
722.93	240.39
723.26	240.13
723.59	239.81
723.93	239.52
724.26	239.26
724.59	238.94
724.92	238.72
725.25	238.58
725.59	238.29
725.92	238.09
726.25	237.79
726.58	237.59
726.91	237.30
727.24	237.03
727.57	236.76
727.91	236.52
728.24	236.22
728.57	235.87
728.90	235.69
729.23	235.36
729.56	235.32
729.89	235.03
730.22	234.69
730.55	234.43
730.89	234.19
731.22	233.93
731.55	233.63
731.88	233.38
732.21	233.06
732.54	232.77
732.87	232.44
733.20	232.28
733.53	232.00
733.86	231.85
734.19	231.59
734.52	231.41
734.85	231.41
735.18	231.21
735.51	231.15
735.84	230.95
736.17	230.93
736.50	230.53
736.83	230.78
737.16	230.73
737.49	230.54
737.82	230.34
738.15	230.24
738.48	230.07
738.81	229.89
739.14	229.72
739.47	229.58
739.80	229.43
740.13	229.27
740.46	228.99
740.79	228.77
741.12	228.66
741.45	228.41
741.78	228.09
742.11	228.06
742.44	227.81
742.77	227.66
743.10	227.48
743.43	227.27
743.75	226.70
744.08	226.91
744.41	226.72
744.74	226.58
745.07	226.33
745.40	226.29
745.73	226.28
746.06	226.09
746.39	225.96
746.71	225.81
747.04	225.69
747.37	225.67
747.70	225.60
748.03	225.42
748.36	225.41
748.68	225.22
749.01	225.00
749.34	224.90
749.67	224.77
750.00	224.64
750.33	224.77
750.65	224.70
750.98	224.18
751.31	224.07
751.64	223.98
751.97	224.05
752.29	223.93
752.62	223.63
752.95	223.57
753.28	223.41
753.60	223.31
753.93	223.15
754.26	222.98
754.59	222.77
754.91	222.58
755.24	222.35
755.57	222.29
755.90	222.17
756.22	222.00
756.55	221.82
756.88	221.60
757.20	221.20
757.53	220.98
757.86	220.88
758.19	220.82
758.51	220.69
758.84	220.33
759.17	220.11
759.49	220.06
759.82	220.06
760.15	220.01
760.47	219.83
760.80	219.66
761.13	219.60
761.45	219.45
761.78	219.36
762.11	219.36
762.43	219.21
762.76	219.09
763.08	218.99
763.41	218.91
763.74	218.94
764.06	218.91
764.39	218.78
764.71	218.67
765.04	218.52
765.37	218.32
765.69	218.26
766.02	218.22
766.34	218.11
766.67	217.90
767.00	217.89
767.32	218.02
767.65	218.13
767.97	218.05
768.30	217.96
768.62	217.93
768.95	217.75
769.27	217.71
769.60	217.61
769.92	217.52
770.25	217.48
770.57	217.23
770.90	217.17
771.22	217.19
771.55	217.17
771.87	217.17
772.20	217.20
772.52	217.47
772.85	217.84
773.17	217.75
773.50	217.63
773.82	217.48
774.15	217.25
774.47	217.01
774.80	216.88
775.12	216.91
775.45	216.84
775.77	216.80
776.09	216.80
776.42	216.82
776.74	216.86
777.07	216.76
777.39	216.76
777.72	216.69
778.04	216.65
778.36	216.53
778.69	216.47
779.01	216.39
779.33	215.98
779.66	215.48
779.98	215.46
780.31	215.53
780.63	215.64
780.95	215.60
781.28	215.54
781.60	215.52
781.92	215.41
782.25	215.36
782.57	215.36
782.89	215.23
783.22	215.16
783.54	215.02
783.86	215.05
784.19	215.04
784.51	215.09
784.83	214.97
785.16	214.96
785.48	214.93
785.80	214.89
786.12	215.01
786.45	215.00
786.77	214.96
787.09	214.85
787.42	214.67
787.74	214.71
788.06	214.72
788.38	214.69
788.71	214.70
789.03	214.71
789.35	214.66
789.67	214.61
789.99	214.64
790.32	214.62
790.64	214.63
790.96	214.87
791.28	214.73
791.61	214.65
791.93	214.62
792.25	214.58
792.57	214.80
792.89	214.68
793.21	214.65
793.54	214.54
793.86	214.45
794.18	214.46
