SpectraSuite Data File
++++++++++++++++++++++++++++++++++++
Date: Mon Feb 25 17:19:59 EST 2013
User: group
Dark Spectrum Present: No
Reference Spectrum Present: No
Number of Sampled Component Spectra: 1
Spectrometers: USB2E7196
Integration Time (usec): 104000 (USB2E7196)
Spectra Averaged: 20 (USB2E7196)
Boxcar Smoothing: 10 (USB2E7196)
Correct for Electrical Dark: No (USB2E7196)
Strobe/Lamp Enabled: No (USB2E7196)
Correct for Detector Non-linearity: No (USB2E7196)
Correct for Stray Light: No (USB2E7196)
Number of Pixels in Processed Spectrum: 2048
>>>>>Begin Processed Spectral Data<<<<<
339.09	0.00
339.48	198.40
339.86	201.90
340.24	203.25
340.63	203.90
341.01	211.20
341.39	206.75
341.78	208.15
342.16	211.10
342.54	209.70
342.93	199.45
343.31	209.49
343.69	210.07
344.07	210.48
344.46	210.86
344.84	211.28
345.22	211.34
345.60	211.59
345.99	211.82
346.37	211.90
346.75	212.03
347.13	212.07
347.52	212.15
347.90	212.27
348.28	212.35
348.66	212.46
349.05	212.34
349.43	212.36
349.81	212.42
350.19	212.50
350.57	212.56
350.96	212.69
351.34	212.81
351.72	212.90
352.10	212.99
352.48	213.05
352.87	213.04
353.25	213.06
353.63	213.10
354.01	213.13
354.39	213.15
354.77	213.23
355.15	213.37
355.54	213.34
355.92	213.23
356.30	213.31
356.68	213.55
357.06	213.61
357.44	213.64
357.82	213.64
358.20	213.67
358.58	213.74
358.97	213.75
359.35	213.89
359.73	214.00
360.11	214.05
360.49	214.05
360.87	214.14
361.25	214.23
361.63	214.40
362.01	214.45
362.39	214.50
362.77	214.50
363.15	214.49
363.53	214.56
363.91	214.62
364.29	214.58
364.67	214.29
365.05	214.29
365.43	214.35
365.81	214.48
366.19	214.68
366.57	214.81
366.95	214.81
367.33	214.71
367.71	214.71
368.09	214.76
368.47	214.80
368.85	214.83
369.23	214.91
369.61	214.80
369.99	214.86
370.37	214.90
370.75	215.08
371.13	215.05
371.51	214.93
371.89	214.95
372.27	214.95
372.65	214.95
373.03	215.02
373.41	214.97
373.78	214.88
374.16	214.70
374.54	214.59
374.92	214.52
375.30	214.56
375.68	214.53
376.06	214.56
376.44	214.52
376.82	214.48
377.19	214.46
377.57	214.43
377.95	214.37
378.33	214.33
378.71	214.02
379.09	213.98
379.47	214.07
379.84	214.01
380.22	213.99
380.60	213.89
380.98	213.95
381.36	213.92
381.73	213.79
382.11	213.79
382.49	213.75
382.87	213.65
383.25	213.56
383.62	213.95
384.00	213.83
384.38	213.77
384.76	213.86
385.13	213.83
385.51	213.83
385.89	213.69
386.27	213.67
386.64	213.77
387.02	213.71
387.40	213.61
387.78	213.66
388.15	213.65
388.53	213.64
388.91	213.49
389.29	213.42
389.66	213.49
390.04	213.42
390.42	213.50
390.79	213.57
391.17	213.49
391.55	213.02
391.92	212.98
392.30	213.06
392.68	212.91
393.05	212.91
393.43	212.83
393.81	212.88
394.18	212.84
394.56	212.86
394.94	212.90
395.31	212.93
395.69	212.98
396.06	213.06
396.44	213.10
396.82	213.02
397.19	213.21
397.57	213.16
397.95	213.32
398.32	213.23
398.70	213.24
399.07	213.32
399.45	213.33
399.82	213.40
400.20	213.45
400.58	213.47
400.95	213.38
401.33	213.59
401.70	213.85
402.08	213.94
402.45	213.90
402.83	214.07
403.20	214.14
403.58	214.19
403.95	214.24
404.33	214.44
404.71	214.64
405.08	214.98
405.46	215.19
405.83	215.27
406.21	215.46
406.58	215.68
406.96	215.95
407.33	216.25
407.70	216.58
408.08	217.15
408.45	217.50
408.83	217.93
409.20	218.20
409.58	218.33
409.95	218.72
410.33	219.18
410.70	219.53
411.08	220.06
411.45	220.66
411.82	221.15
412.20	221.79
412.57	222.62
412.95	222.97
413.32	223.76
413.69	224.58
414.07	225.31
414.44	226.19
414.82	227.12
415.19	228.15
415.56	229.21
415.94	230.12
416.31	231.42
416.68	232.68
417.06	234.19
417.43	235.69
417.81	237.34
418.18	239.00
418.55	240.79
418.93	242.66
419.30	244.45
419.67	246.55
420.04	248.61
420.42	250.74
420.79	253.41
421.16	255.91
421.54	258.59
421.91	261.39
422.28	264.21
422.66	267.22
423.03	270.25
423.40	273.30
423.77	276.53
424.15	279.82
424.52	283.27
424.89	286.84
425.26	290.38
425.64	293.70
426.01	297.44
426.38	301.31
426.75	305.26
427.13	309.42
427.50	313.73
427.87	318.26
428.24	322.65
428.61	326.86
428.99	331.56
429.36	336.62
429.73	341.65
430.10	346.67
430.47	351.76
430.85	356.97
431.22	362.44
431.59	368.40
431.96	373.86
432.33	380.03
432.70	386.20
433.08	393.24
433.45	399.99
433.82	406.55
434.19	413.99
434.56	421.24
434.93	428.17
435.30	434.86
435.68	442.48
436.05	450.00
436.42	457.46
436.79	464.34
437.16	471.61
437.53	479.42
437.90	487.08
438.27	494.58
438.64	502.38
439.01	509.68
439.38	516.03
439.75	522.43
440.13	529.65
440.50	536.45
440.87	542.00
441.24	547.70
441.61	554.01
441.98	558.49
442.35	563.75
442.72	569.24
443.09	574.64
443.46	577.63
443.83	579.70
444.20	581.47
444.57	584.16
444.94	585.41
445.31	586.50
445.68	587.85
446.05	588.30
446.42	587.45
446.79	586.44
447.16	585.35
447.53	584.60
447.90	581.38
448.27	578.17
448.64	573.89
449.01	570.77
449.37	565.49
449.74	560.55
450.11	554.75
450.48	548.12
450.85	541.38
451.22	535.63
451.59	530.25
451.96	525.04
452.33	517.87
452.70	511.51
453.07	504.01
453.43	496.18
453.80	488.98
454.17	482.12
454.54	475.60
454.91	468.59
455.28	461.73
455.65	455.46
456.02	449.51
456.38	444.21
456.75	437.60
457.12	432.13
457.49	426.64
457.86	421.13
458.23	416.62
458.59	411.61
458.96	406.53
459.33	402.09
459.70	397.60
460.07	394.14
460.43	390.11
460.80	386.45
461.17	383.14
461.54	379.52
461.91	376.16
462.27	372.72
462.64	369.82
463.01	366.65
463.38	363.70
463.74	360.24
464.11	357.45
464.48	355.08
464.85	352.62
465.21	350.66
465.58	348.68
465.95	346.17
466.32	344.20
466.68	342.28
467.05	340.27
467.42	338.38
467.78	336.32
468.15	334.25
468.52	332.84
468.88	330.92
469.25	329.35
469.62	328.07
469.98	326.70
470.35	325.41
470.72	324.15
471.08	322.76
471.45	321.79
471.82	320.87
472.18	319.73
472.55	318.84
472.92	317.88
473.28	317.06
473.65	316.19
474.02	315.44
474.38	314.97
474.75	314.61
475.11	314.08
475.48	313.79
475.85	313.72
476.21	313.42
476.58	313.42
476.94	313.45
477.31	313.42
477.67	313.50
478.04	313.73
478.41	314.05
478.77	314.65
479.14	314.99
479.50	315.36
479.87	315.92
480.23	316.62
480.60	317.15
480.96	317.71
481.33	318.73
481.69	319.73
482.06	320.65
482.42	321.55
482.79	322.65
483.15	323.91
483.52	325.37
483.88	326.85
484.25	328.34
484.61	330.03
484.98	331.78
485.34	333.79
485.71	335.99
486.07	338.22
486.44	340.20
486.80	342.58
487.17	345.26
487.53	348.25
487.90	351.21
488.26	354.54
488.62	357.95
488.99	361.38
489.35	364.96
489.72	368.76
490.08	372.96
490.44	377.25
490.81	381.77
491.17	386.21
491.54	391.22
491.90	396.50
492.26	401.92
492.63	407.68
492.99	413.53
493.36	419.49
493.72	426.08
494.08	432.90
494.45	440.16
494.81	447.55
495.17	455.03
495.54	463.18
495.90	471.55
496.26	480.32
496.63	489.54
496.99	499.00
497.35	508.98
497.72	519.18
498.08	529.70
498.44	540.80
498.80	552.70
499.17	564.68
499.53	577.11
499.89	590.07
500.26	603.30
500.62	616.77
500.98	631.10
501.34	645.92
501.71	661.52
502.07	677.26
502.43	693.70
502.79	710.45
503.16	727.86
503.52	745.70
503.88	764.10
504.24	782.85
504.60	802.04
504.97	821.90
505.33	842.20
505.69	863.77
506.05	885.46
506.41	907.35
506.78	929.75
507.14	952.60
507.50	976.13
507.86	1000.08
508.22	1024.91
508.59	1050.01
508.95	1075.51
509.31	1101.21
509.67	1127.81
510.03	1154.70
510.39	1182.81
510.75	1210.78
511.12	1239.12
511.48	1267.87
511.84	1297.21
512.20	1326.58
512.56	1356.90
512.92	1387.59
513.28	1418.15
513.64	1449.12
514.00	1480.34
514.37	1511.53
514.73	1543.65
515.09	1575.75
515.45	1608.10
515.81	1640.47
516.17	1673.18
516.53	1706.02
516.89	1739.01
517.25	1771.84
517.61	1805.03
517.97	1837.77
518.33	1870.46
518.69	1903.60
519.05	1936.91
519.41	1970.49
519.77	2004.48
520.13	2037.74
520.49	2070.38
520.85	2103.67
521.21	2137.05
521.57	2170.47
521.93	2203.47
522.29	2237.23
522.65	2270.65
523.01	2303.55
523.37	2336.18
523.73	2368.81
524.09	2401.04
524.45	2433.53
524.81	2466.17
525.17	2498.77
525.53	2531.36
525.89	2563.81
526.25	2595.83
526.61	2626.68
526.97	2657.72
527.33	2688.68
527.68	2719.44
528.04	2749.71
528.40	2778.64
528.76	2807.95
529.12	2838.19
529.48	2869.17
529.84	2897.93
530.20	2926.58
530.56	2955.04
530.91	2984.28
531.27	3013.01
531.63	3041.09
531.99	3068.64
532.35	3095.42
532.71	3121.56
533.07	3147.92
533.42	3173.04
533.78	3198.98
534.14	3224.57
534.50	3247.80
534.86	3272.13
535.21	3294.89
535.57	3319.67
535.93	3342.90
536.29	3365.02
536.65	3386.49
537.00	3406.48
537.36	3426.43
537.72	3446.13
538.08	3466.19
538.44	3485.71
538.79	3504.87
539.15	3523.57
539.51	3542.25
539.87	3561.18
540.22	3579.11
540.58	3597.72
540.94	3615.85
541.29	3631.06
541.65	3646.08
542.01	3661.83
542.37	3676.11
542.72	3691.34
543.08	3704.16
543.44	3719.40
543.79	3732.24
544.15	3744.14
544.51	3757.54
544.87	3770.92
545.22	3782.27
545.58	3792.57
545.94	3801.25
546.29	3809.18
546.65	3817.13
547.01	3824.57
547.36	3831.53
547.72	3838.18
548.07	3842.70
548.43	3847.52
548.79	3852.55
549.14	3857.35
549.50	3862.50
549.86	3866.07
550.21	3868.91
550.57	3872.93
550.92	3873.82
551.28	3875.90
551.64	3878.21
551.99	3879.99
552.35	3880.42
552.70	3881.58
553.06	3882.72
553.41	3884.10
553.77	3884.64
554.13	3884.99
554.48	3885.71
554.84	3886.35
555.19	3885.63
555.55	3884.03
555.90	3881.84
556.26	3880.20
556.61	3878.46
556.97	3875.05
557.32	3873.05
557.68	3869.85
558.03	3865.90
558.39	3862.67
558.74	3860.94
559.10	3858.40
559.45	3854.32
559.81	3851.43
560.16	3847.08
560.52	3843.59
560.87	3838.94
561.23	3833.98
561.58	3829.80
561.94	3823.73
562.29	3816.59
562.64	3811.45
563.00	3807.17
563.35	3803.32
563.71	3799.51
564.06	3794.25
564.42	3790.27
564.77	3786.08
565.12	3781.99
565.48	3776.70
565.83	3772.18
566.19	3766.86
566.54	3759.33
566.89	3752.41
567.25	3745.40
567.60	3739.20
567.96	3731.62
568.31	3724.98
568.66	3718.05
569.02	3710.08
569.37	3701.66
569.72	3694.45
570.08	3686.27
570.43	3677.19
570.78	3667.71
571.14	3657.50
571.49	3648.09
571.84	3639.17
572.20	3627.73
572.55	3617.78
572.90	3607.08
573.26	3595.43
573.61	3583.43
573.96	3572.98
574.31	3560.92
574.67	3548.55
575.02	3535.85
575.37	3523.71
575.72	3510.44
576.08	3498.84
576.43	3485.95
576.78	3474.23
577.13	3462.60
577.49	3450.35
577.84	3438.36
578.19	3427.05
578.54	3415.77
578.90	3405.07
579.25	3392.12
579.60	3379.29
579.95	3366.02
580.30	3354.39
580.66	3343.40
581.01	3330.78
581.36	3317.59
581.71	3305.47
582.06	3293.33
582.42	3281.65
582.77	3268.63
583.12	3256.53
583.47	3244.51
583.82	3232.95
584.17	3220.54
584.53	3208.29
584.88	3196.04
585.23	3183.17
585.58	3170.24
585.93	3157.17
586.28	3144.80
586.63	3132.49
586.98	3120.55
587.34	3109.55
587.69	3097.08
588.04	3084.16
588.39	3072.58
588.74	3060.10
589.09	3048.71
589.44	3036.02
589.79	3024.21
590.14	3013.08
590.49	3001.20
590.84	2988.59
591.19	2978.04
591.54	2966.45
591.89	2952.50
592.25	2939.68
592.60	2926.97
592.95	2913.86
593.30	2900.21
593.65	2886.34
594.00	2873.24
594.35	2862.62
594.70	2849.44
595.05	2837.38
595.40	2824.99
595.75	2811.76
596.10	2800.58
596.45	2788.83
596.80	2778.25
597.15	2767.22
597.50	2755.37
597.85	2743.92
598.19	2732.05
598.54	2719.57
598.89	2708.25
599.24	2698.87
599.59	2688.26
599.94	2678.70
600.29	2668.80
600.64	2658.94
600.99	2647.61
601.34	2637.34
601.69	2625.00
602.04	2613.34
602.39	2602.31
602.74	2591.80
603.08	2582.36
603.43	2572.38
603.78	2561.26
604.13	2550.26
604.48	2539.12
604.83	2529.60
605.18	2520.75
605.53	2510.41
605.87	2499.49
606.22	2489.63
606.57	2478.27
606.92	2467.55
607.27	2455.96
607.62	2444.57
607.96	2434.31
608.31	2425.00
608.66	2413.91
609.01	2402.94
609.36	2392.44
609.70	2380.77
610.05	2368.79
610.40	2357.25
610.75	2345.48
611.10	2335.00
611.44	2322.07
611.79	2309.34
612.14	2295.88
612.49	2281.85
612.83	2269.98
613.18	2257.11
613.53	2244.07
613.88	2230.84
614.22	2218.58
614.57	2206.03
614.92	2193.78
615.27	2180.87
615.61	2167.96
615.96	2155.76
616.31	2144.60
616.65	2133.37
617.00	2122.05
617.35	2110.75
617.70	2098.57
618.04	2085.32
618.39	2071.96
618.74	2060.74
619.08	2048.81
619.43	2037.34
619.78	2026.35
620.12	2014.93
620.47	2003.98
620.82	1991.64
621.16	1979.75
621.51	1967.68
621.85	1956.38
622.20	1944.10
622.55	1932.30
622.89	1920.21
623.24	1908.63
623.59	1896.04
623.93	1883.81
624.28	1872.19
624.62	1860.68
624.97	1849.01
625.32	1838.50
625.66	1827.77
626.01	1816.82
626.35	1806.41
626.70	1795.57
627.04	1784.87
627.39	1774.00
627.73	1763.10
628.08	1753.25
628.43	1742.67
628.77	1731.72
629.12	1720.73
629.46	1711.35
629.81	1701.23
630.15	1691.22
630.50	1680.65
630.84	1670.08
631.19	1659.76
631.53	1649.53
631.88	1638.57
632.22	1627.99
632.57	1617.89
632.91	1607.40
633.26	1596.84
633.60	1586.51
633.95	1576.38
634.29	1565.80
634.64	1555.55
634.98	1544.91
635.32	1534.60
635.67	1525.40
636.01	1516.27
636.36	1506.19
636.70	1496.42
637.05	1486.49
637.39	1476.81
637.73	1468.05
638.08	1459.67
638.42	1450.97
638.77	1441.85
639.11	1432.79
639.45	1423.87
639.80	1414.08
640.14	1404.60
640.49	1395.33
640.83	1385.85
641.17	1376.64
641.52	1367.03
641.86	1357.32
642.20	1348.13
642.55	1338.34
642.89	1328.68
643.23	1318.71
643.58	1310.21
643.92	1300.37
644.26	1291.20
644.61	1281.96
644.95	1272.17
645.29	1262.72
645.64	1253.06
645.98	1243.64
646.32	1234.74
646.66	1225.53
647.01	1216.75
647.35	1208.00
647.69	1198.55
648.04	1189.92
648.38	1180.75
648.72	1172.13
649.06	1163.50
649.41	1154.80
649.75	1146.38
650.09	1137.75
650.43	1129.43
650.78	1120.00
651.12	1111.13
651.46	1102.65
651.80	1094.02
652.14	1085.76
652.49	1076.93
652.83	1068.35
653.17	1059.06
653.51	1050.40
653.85	1041.98
654.20	1033.52
654.54	1024.71
654.88	1016.63
655.22	1007.98
655.56	999.48
655.90	991.19
656.25	982.62
656.59	974.56
656.93	966.58
657.27	958.57
657.61	950.20
657.95	942.67
658.29	935.14
658.64	927.45
658.98	919.90
659.32	911.67
659.66	904.40
660.00	896.71
660.34	889.40
660.68	881.75
661.02	874.02
661.36	866.84
661.70	859.94
662.05	853.09
662.39	846.63
662.73	840.13
663.07	833.37
663.41	827.04
663.75	820.28
664.09	813.40
664.43	806.60
664.77	800.17
665.11	793.59
665.45	787.09
665.79	780.65
666.13	774.29
666.47	768.22
666.81	761.76
667.15	755.57
667.49	750.09
667.83	744.54
668.17	738.81
668.51	733.28
668.85	727.79
669.19	722.26
669.53	716.51
669.87	710.77
670.21	705.32
670.55	699.79
670.89	694.84
671.23	690.00
671.57	685.05
671.91	679.87
672.25	674.83
672.58	669.92
672.92	665.02
673.26	660.32
673.60	655.63
673.94	650.87
674.28	646.39
674.62	641.71
674.96	637.12
675.30	632.86
675.64	627.95
675.97	623.40
676.31	618.92
676.65	614.52
676.99	610.64
677.33	606.28
677.67	601.94
678.01	597.37
678.34	593.11
678.68	588.90
679.02	584.80
679.36	580.65
679.70	576.44
680.04	572.40
680.37	568.19
680.71	564.20
681.05	560.55
681.39	556.54
681.73	552.55
682.06	548.80
682.40	545.04
682.74	541.52
683.08	537.86
683.42	534.14
683.75	530.47
684.09	526.55
684.43	522.99
684.77	519.32
685.10	515.85
685.44	512.02
685.78	508.55
686.12	505.21
686.45	502.00
686.79	498.79
687.13	495.59
687.46	492.47
687.80	489.35
688.14	485.81
688.48	482.64
688.81	479.49
689.15	476.32
689.49	473.09
689.82	469.97
690.16	466.51
690.50	463.23
690.83	460.08
691.17	456.89
691.51	453.84
691.84	450.95
692.18	448.05
692.52	445.44
692.85	442.88
693.19	440.14
693.52	437.33
693.86	434.38
694.20	431.38
694.53	428.64
694.87	425.80
695.21	423.09
695.54	420.28
695.88	417.54
696.21	414.85
696.55	412.40
696.88	409.84
697.22	407.51
697.56	405.35
697.89	402.78
698.23	400.41
698.56	398.02
698.90	395.84
699.23	393.55
699.57	391.20
699.90	388.71
700.24	386.36
700.58	383.94
700.91	381.85
701.25	380.10
701.58	377.95
701.92	375.87
702.25	373.94
702.59	371.92
702.92	369.97
703.26	368.05
703.59	366.04
703.93	364.49
704.26	362.56
704.60	360.63
704.93	358.80
705.26	357.01
705.60	355.23
705.93	353.35
706.27	351.65
706.60	350.05
706.94	348.50
707.27	346.76
707.61	345.09
707.94	343.36
708.27	341.42
708.61	339.80
708.94	338.21
709.28	336.65
709.61	335.12
709.94	333.63
710.28	332.05
710.61	330.50
710.95	328.55
711.28	327.45
711.61	325.90
711.95	324.65
712.28	323.32
712.61	322.12
712.95	320.84
713.28	319.57
713.61	318.12
713.95	316.77
714.28	315.56
714.61	314.34
714.95	313.07
715.28	311.76
715.61	310.47
715.95	309.21
716.28	307.95
716.61	306.77
716.95	305.59
717.28	304.50
717.61	303.55
717.94	302.61
718.28	301.20
718.61	300.17
718.94	299.04
719.27	297.99
719.61	296.85
719.94	295.77
720.27	294.59
720.60	293.65
720.94	292.62
721.27	291.70
721.60	290.87
721.93	289.99
722.27	289.25
722.60	288.35
722.93	287.55
723.26	286.74
723.59	285.90
723.93	285.11
724.26	284.32
724.59	283.33
724.92	282.56
725.25	281.92
725.59	281.11
725.92	280.33
726.25	279.53
726.58	278.74
726.91	278.00
727.24	277.36
727.57	276.60
727.91	275.78
728.24	275.12
728.57	274.43
728.90	273.80
729.23	273.04
729.56	272.52
729.89	271.78
730.22	270.98
730.55	270.27
730.89	269.53
731.22	268.73
731.55	268.07
731.88	267.37
732.21	266.58
732.54	265.95
732.87	265.33
733.20	264.67
733.53	264.02
733.86	263.43
734.19	262.80
734.52	262.18
734.85	261.95
735.18	261.33
735.51	260.82
735.84	260.16
736.17	259.60
736.50	258.90
736.83	258.76
737.16	258.26
737.49	257.76
737.82	257.20
738.15	256.73
738.48	256.26
738.81	255.75
739.14	255.20
739.47	254.69
739.80	254.16
740.13	253.69
740.46	253.20
740.79	252.63
741.12	252.08
741.45	251.58
741.78	250.81
742.11	250.43
742.44	249.85
742.77	249.59
743.10	249.17
743.43	248.71
743.75	247.86
744.08	247.90
744.41	247.40
744.74	246.98
745.07	246.55
745.40	246.25
745.73	245.94
746.06	245.52
746.39	245.14
746.71	244.73
747.04	244.35
747.37	244.02
747.70	243.77
748.03	243.42
748.36	243.10
748.68	242.77
749.01	242.22
749.34	241.91
749.67	241.54
750.00	241.23
750.33	241.17
750.65	240.96
750.98	240.19
751.31	239.89
751.64	239.64
751.97	239.47
752.29	239.04
752.62	238.66
752.95	238.34
753.28	238.01
753.60	237.76
753.93	237.52
754.26	237.15
754.59	236.77
754.91	236.47
755.24	236.17
755.57	235.92
755.90	235.71
756.22	235.32
756.55	235.01
756.88	234.65
757.20	234.14
757.53	233.68
757.86	233.37
758.19	233.15
758.51	232.86
758.84	232.50
759.17	232.23
759.49	231.93
759.82	231.85
760.15	231.64
760.47	231.33
760.80	230.97
761.13	230.77
761.45	230.47
761.78	230.27
762.11	230.07
762.43	229.79
762.76	229.49
763.08	229.33
763.41	229.03
763.74	228.80
764.06	228.58
764.39	228.37
764.71	228.23
765.04	227.99
765.37	227.74
765.69	227.49
766.02	227.28
766.34	227.06
766.67	226.80
767.00	226.67
767.32	226.70
767.65	226.80
767.97	226.60
768.30	226.41
768.62	226.26
768.95	226.02
769.27	225.85
769.60	225.79
769.92	225.51
770.25	225.38
770.57	225.17
770.90	224.98
771.22	224.81
771.55	224.62
771.87	224.40
772.20	224.30
772.52	224.40
772.85	224.70
773.17	224.61
773.50	224.46
773.82	224.31
774.15	223.97
774.47	223.52
774.80	223.38
775.12	223.36
775.45	223.20
775.77	223.06
776.09	222.92
776.42	222.78
776.74	222.88
777.07	222.73
777.39	222.64
777.72	222.53
778.04	222.48
778.36	222.29
778.69	222.26
779.01	222.13
779.33	221.78
779.66	221.29
779.98	221.10
780.31	220.96
780.63	220.89
780.95	220.93
781.28	220.95
781.60	220.85
781.92	220.67
782.25	220.61
782.57	220.55
782.89	220.52
783.22	220.38
783.54	220.15
783.86	220.11
784.19	219.99
784.51	220.04
784.83	219.88
785.16	219.86
