SpectraSuite Data File
++++++++++++++++++++++++++++++++++++
Date: Mon Feb 25 17:02:39 EST 2013
User: group
Dark Spectrum Present: No
Reference Spectrum Present: No
Number of Sampled Component Spectra: 1
Spectrometers: USB2E7196
Integration Time (usec): 104000 (USB2E7196)
Spectra Averaged: 20 (USB2E7196)
Boxcar Smoothing: 10 (USB2E7196)
Correct for Electrical Dark: No (USB2E7196)
Strobe/Lamp Enabled: No (USB2E7196)
Correct for Detector Non-linearity: No (USB2E7196)
Correct for Stray Light: No (USB2E7196)
Number of Pixels in Processed Spectrum: 2048
>>>>>Begin Processed Spectral Data<<<<<
339.09	0.00
339.48	198.15
339.86	200.00
340.24	202.25
340.63	202.30
341.01	210.00
341.39	205.15
341.78	206.90
342.16	207.90
342.54	208.50
342.93	197.86
343.31	207.83
343.69	208.41
344.07	208.83
344.46	209.23
344.84	209.62
345.22	209.61
345.60	209.86
345.99	209.95
346.37	210.02
346.75	210.07
347.13	210.08
347.52	210.10
347.90	210.23
348.28	210.21
348.66	210.28
349.05	210.17
349.43	210.20
349.81	210.25
350.19	210.31
350.57	210.34
350.96	210.41
351.34	210.50
351.72	210.56
352.10	210.62
352.48	210.64
352.87	210.64
353.25	210.73
353.63	210.77
354.01	210.92
354.39	211.08
354.77	211.14
355.15	211.31
355.54	211.31
355.92	211.31
356.30	211.36
356.68	211.63
357.06	211.74
357.44	211.77
357.82	211.81
358.20	211.95
358.58	212.13
358.97	212.21
359.35	212.35
359.73	212.47
360.11	212.59
360.49	212.69
360.87	212.83
361.25	212.96
361.63	213.16
362.01	213.19
362.39	213.18
362.77	213.28
363.15	213.28
363.53	213.35
363.91	213.39
364.29	213.48
364.67	213.24
365.05	213.29
365.43	213.37
365.81	213.49
366.19	213.61
366.57	213.71
366.95	213.67
367.33	213.59
367.71	213.55
368.09	213.64
368.47	213.59
368.85	213.59
369.23	213.60
369.61	213.45
369.99	213.63
370.37	213.67
370.75	213.79
371.13	213.74
371.51	213.70
371.89	213.65
372.27	213.66
372.65	213.60
373.03	213.59
373.41	213.55
373.78	213.45
374.16	213.24
374.54	213.09
374.92	213.10
375.30	213.09
375.68	213.04
376.06	212.93
376.44	212.98
376.82	212.85
377.19	212.79
377.57	212.73
377.95	212.54
378.33	212.45
378.71	212.21
379.09	212.26
379.47	212.25
379.84	212.27
380.22	212.19
380.60	212.11
380.98	211.97
381.36	211.86
381.73	211.75
382.11	211.77
382.49	211.67
382.87	211.61
383.25	211.57
383.62	211.99
384.00	211.96
384.38	211.83
384.76	211.92
385.13	211.99
385.51	211.94
385.89	211.79
386.27	211.74
386.64	211.74
387.02	211.64
387.40	211.59
387.78	211.59
388.15	211.50
388.53	211.45
388.91	211.45
389.29	211.44
389.66	211.47
390.04	211.35
390.42	211.42
390.79	211.35
391.17	211.38
391.55	210.89
391.92	210.84
392.30	210.85
392.68	210.71
393.05	210.65
393.43	210.70
393.81	210.76
394.18	210.74
394.56	210.78
394.94	210.82
395.31	210.81
395.69	210.84
396.06	210.92
396.44	210.97
396.82	210.99
397.19	211.09
397.57	211.07
397.95	211.20
398.32	211.11
398.70	211.20
399.07	211.14
399.45	211.14
399.82	211.19
400.20	211.23
400.58	211.28
400.95	211.16
401.33	211.21
401.70	211.44
402.08	211.49
402.45	211.51
402.83	211.66
403.20	211.77
403.58	211.71
403.95	211.80
404.33	211.94
404.71	212.04
405.08	212.36
405.46	212.44
405.83	212.61
406.21	212.70
406.58	212.84
406.96	213.00
407.33	213.20
407.70	213.42
408.08	213.92
408.45	214.19
408.83	214.60
409.20	214.84
409.58	214.97
409.95	215.35
410.33	215.74
410.70	216.02
411.08	216.39
411.45	216.92
411.82	217.34
412.20	217.90
412.57	218.63
412.95	218.87
413.32	219.60
413.69	220.12
414.07	220.85
414.44	221.60
414.82	222.45
415.19	223.30
415.56	224.13
415.94	224.83
416.31	225.85
416.68	226.86
417.06	228.09
417.43	229.36
417.81	230.76
418.18	232.09
418.55	233.52
418.93	235.09
419.30	236.71
419.67	238.38
420.04	240.13
420.42	241.84
420.79	244.32
421.16	246.52
421.54	248.96
421.91	251.34
422.28	253.77
422.66	256.34
423.03	259.12
423.40	261.83
423.77	264.80
424.15	267.69
424.52	270.80
424.89	274.08
425.26	277.21
425.64	280.33
426.01	283.68
426.38	287.25
426.75	290.90
427.13	294.65
427.50	298.60
427.87	302.75
428.24	306.91
428.61	310.68
428.99	315.11
429.36	319.78
429.73	324.46
430.10	329.16
430.47	333.91
430.85	338.77
431.22	344.05
431.59	349.67
431.96	355.10
432.33	361.02
432.70	366.96
433.08	373.60
433.45	379.84
433.82	386.32
434.19	393.46
434.56	400.46
434.93	407.21
435.30	413.87
435.68	421.17
436.05	428.50
436.42	435.89
436.79	442.58
437.16	449.74
437.53	457.34
437.90	464.79
438.27	472.43
438.64	480.20
439.01	487.46
439.38	493.83
439.75	500.25
440.13	507.48
440.50	514.23
440.87	520.24
441.24	526.29
441.61	532.77
441.98	537.59
442.35	543.33
442.72	549.10
443.09	554.70
443.46	558.27
443.83	560.87
444.20	563.13
444.57	566.13
444.94	568.03
445.31	569.98
445.68	572.15
446.05	573.13
446.42	572.84
446.79	572.65
447.16	572.29
447.53	572.21
447.90	569.90
448.27	567.59
448.64	563.93
449.01	561.55
449.37	557.03
449.74	552.83
450.11	547.73
450.48	541.77
450.85	535.79
451.22	530.74
451.59	525.87
451.96	521.05
452.33	514.74
452.70	508.78
453.07	501.69
453.43	494.26
453.80	487.54
454.17	481.10
454.54	474.84
454.91	468.03
455.28	461.26
455.65	455.08
456.02	449.17
456.38	443.91
456.75	437.31
457.12	431.87
457.49	426.31
457.86	420.74
458.23	416.20
458.59	411.22
458.96	406.22
459.33	401.78
459.70	397.41
460.07	393.93
460.43	389.92
460.80	386.07
461.17	382.69
461.54	379.01
461.91	375.63
462.27	372.13
462.64	369.23
463.01	366.13
463.38	363.15
463.74	359.76
464.11	357.05
464.48	354.63
464.85	352.04
465.21	350.06
465.58	347.95
465.95	345.35
466.32	343.23
466.68	341.00
467.05	338.83
467.42	336.73
467.78	334.41
468.15	332.31
468.52	330.77
468.88	328.70
469.25	326.84
469.62	325.35
469.98	323.73
470.35	322.24
470.72	320.71
471.08	319.03
471.45	317.76
471.82	316.51
472.18	314.96
472.55	313.82
472.92	312.53
473.28	311.26
473.65	310.17
474.02	309.02
474.38	308.17
474.75	307.37
475.11	306.30
475.48	305.57
475.85	304.98
476.21	304.34
476.58	303.89
476.94	303.42
477.31	302.84
477.67	302.36
478.04	302.00
478.41	301.67
478.77	301.65
479.14	301.32
479.50	300.97
479.87	300.99
480.23	300.86
480.60	300.63
480.96	300.54
481.33	300.65
481.69	300.72
482.06	300.71
482.42	300.65
482.79	300.83
483.15	300.93
483.52	301.11
483.88	301.25
484.25	301.40
484.61	301.69
484.98	301.81
485.34	302.26
485.71	302.59
486.07	303.00
486.44	303.19
486.80	303.64
487.17	304.30
487.53	305.02
487.90	305.75
488.26	306.74
488.62	307.68
488.99	308.51
489.35	309.40
489.72	310.40
490.08	311.48
490.44	312.44
490.81	313.53
491.17	314.48
491.54	315.64
491.90	316.89
492.26	318.04
492.63	319.47
492.99	320.56
493.36	322.01
493.72	323.47
494.08	324.95
494.45	326.53
494.81	328.01
495.17	329.38
495.54	330.96
495.90	332.47
496.26	334.03
496.63	335.62
496.99	337.18
497.35	338.82
497.72	340.61
498.08	342.39
498.44	344.28
498.80	346.30
499.17	348.15
499.53	349.79
499.89	351.70
500.26	353.46
500.62	355.27
500.98	357.01
501.34	358.57
501.71	360.43
502.07	361.91
502.43	363.58
502.79	365.15
503.16	366.68
503.52	368.16
503.88	369.58
504.24	371.08
504.60	372.71
504.97	374.06
505.33	375.39
505.69	376.95
506.05	378.19
506.41	379.37
506.78	380.43
507.14	381.54
507.50	382.48
507.86	383.48
508.22	384.49
508.59	385.35
508.95	386.33
509.31	387.20
509.67	388.17
510.03	388.95
510.39	389.79
510.75	390.47
511.12	391.06
511.48	391.72
511.84	392.21
512.20	392.55
512.56	393.07
512.92	393.45
513.28	393.55
513.64	393.80
514.00	393.99
514.37	394.30
514.73	394.63
515.09	394.90
515.45	395.03
515.81	395.13
516.17	395.15
516.53	395.17
516.89	394.93
517.25	394.81
517.61	394.80
517.97	394.66
518.33	394.49
518.69	394.34
519.05	394.16
519.41	393.95
519.77	394.04
520.13	393.75
520.49	393.39
520.85	393.15
521.21	393.03
521.57	392.82
521.93	392.43
522.29	392.23
522.65	392.07
523.01	391.99
523.37	391.80
523.73	391.71
524.09	391.69
524.45	391.70
524.81	391.76
525.17	391.86
525.53	392.01
525.89	392.21
526.25	392.45
526.61	392.58
526.97	392.73
527.33	392.93
527.68	393.67
528.04	394.24
528.40	394.66
528.76	395.10
529.12	395.67
529.48	396.50
529.84	397.06
530.20	397.75
530.56	398.55
530.91	399.43
531.27	400.35
531.63	401.35
531.99	402.31
532.35	403.33
532.71	404.33
533.07	405.41
533.42	406.96
533.78	408.11
534.14	409.45
534.50	410.81
534.86	412.24
535.21	413.32
535.57	414.81
535.93	416.35
536.29	418.04
536.65	419.74
537.00	421.34
537.36	423.07
537.72	424.75
538.08	426.52
538.44	428.30
538.79	430.33
539.15	432.17
539.51	434.23
539.87	436.33
540.22	438.35
540.58	440.68
540.94	442.61
541.29	444.95
541.65	446.99
542.01	449.45
542.37	451.68
542.72	454.04
543.08	456.38
543.44	459.00
543.79	461.19
544.15	463.70
544.51	466.42
544.87	469.08
545.22	471.73
545.58	474.39
545.94	477.16
546.29	479.63
546.65	482.28
547.01	484.82
547.36	487.62
547.72	490.34
548.07	492.83
548.43	495.42
548.79	497.90
549.14	500.77
549.50	503.48
549.86	506.26
550.21	508.99
550.57	511.80
550.92	514.48
551.28	517.33
551.64	519.93
551.99	522.45
552.35	524.92
552.70	527.59
553.06	530.24
553.41	532.88
553.77	535.73
554.13	538.53
554.48	541.37
554.84	543.82
555.19	546.56
555.55	549.55
555.90	552.00
556.26	554.66
556.61	557.08
556.97	559.41
557.32	561.70
557.68	564.10
558.03	566.48
558.39	568.77
558.74	571.27
559.10	573.69
559.45	576.19
559.81	578.84
560.16	581.05
560.52	583.35
560.87	585.70
561.23	587.76
561.58	590.24
561.94	592.36
562.29	594.49
562.64	596.63
563.00	598.46
563.35	600.70
563.71	603.02
564.06	605.30
564.42	607.60
564.77	609.93
565.12	612.22
565.48	614.46
565.83	616.60
566.19	618.58
566.54	620.59
566.89	622.36
567.25	624.32
567.60	626.56
567.96	628.60
568.31	630.60
568.66	632.54
569.02	633.92
569.37	635.42
569.72	637.04
570.08	638.51
570.43	639.92
570.78	641.29
571.14	642.36
571.49	643.52
571.84	644.55
572.20	645.42
572.55	646.43
572.90	646.95
573.26	647.66
573.61	648.17
573.96	648.74
574.31	649.22
574.67	649.57
575.02	649.77
575.37	649.82
575.72	649.81
576.08	650.19
576.43	650.50
576.78	650.81
577.13	651.10
577.49	651.35
577.84	651.57
578.19	651.90
578.54	652.41
578.90	652.68
579.25	652.97
579.60	653.01
579.95	652.82
580.30	653.11
580.66	653.44
581.01	653.65
581.36	653.79
581.71	653.85
582.06	654.04
582.42	654.04
582.77	654.05
583.12	653.98
583.47	653.76
583.82	653.53
584.17	653.53
584.53	653.60
584.88	653.39
585.23	653.36
585.58	653.04
585.93	652.68
586.28	652.43
586.63	652.20
586.98	652.01
587.34	652.07
587.69	651.70
588.04	651.29
588.39	651.10
588.74	650.59
589.09	650.42
589.44	649.84
589.79	649.67
590.14	649.37
590.49	649.03
590.84	648.46
591.19	648.15
591.54	647.48
591.89	646.41
592.25	645.98
592.60	645.05
592.95	644.07
593.30	643.10
593.65	642.09
594.00	641.01
594.35	641.05
594.70	639.97
595.05	639.25
595.40	638.30
595.75	637.08
596.10	636.17
596.45	635.21
596.80	634.44
597.15	633.29
597.50	632.16
597.85	631.30
598.19	630.42
598.54	629.44
598.89	628.51
599.24	628.08
599.59	627.05
599.94	626.40
600.29	625.72
600.64	624.87
600.99	624.07
601.34	623.40
601.69	621.58
602.04	620.42
602.39	619.28
602.74	618.24
603.08	617.48
603.43	616.85
603.78	615.94
604.13	614.89
604.48	614.02
604.83	613.34
605.18	612.53
605.53	611.61
605.87	610.49
606.22	609.62
606.57	608.35
606.92	607.15
607.27	605.86
607.62	604.90
607.96	604.01
608.31	602.98
608.66	601.77
609.01	600.66
609.36	599.56
609.70	598.40
610.05	597.25
610.40	596.11
610.75	594.60
611.10	593.42
611.44	591.96
611.79	590.41
612.14	589.08
612.49	587.23
612.83	585.78
613.18	584.26
613.53	582.72
613.88	581.25
614.22	579.72
614.57	578.15
614.92	576.50
615.27	574.70
615.61	573.06
615.96	571.45
616.31	569.91
616.65	568.67
617.00	567.01
617.35	565.39
617.70	563.56
618.04	561.70
618.39	559.73
618.74	558.12
619.08	556.44
619.43	554.65
619.78	553.21
620.12	551.48
620.47	550.01
620.82	548.14
621.16	546.22
621.51	544.69
621.85	543.09
622.20	541.31
622.55	539.57
622.89	537.74
623.24	535.96
623.59	534.06
623.93	532.27
624.28	530.64
624.62	529.28
624.97	527.75
625.32	526.26
625.66	524.70
626.01	522.96
626.35	521.44
626.70	519.60
627.04	517.96
627.39	516.23
627.73	514.59
628.08	513.05
628.43	511.51
628.77	509.62
629.12	507.83
629.46	506.27
629.81	504.72
630.15	503.05
630.50	501.36
630.84	499.75
631.19	497.92
631.53	496.37
631.88	494.21
632.22	492.32
632.57	490.79
632.91	489.22
633.26	487.58
633.60	485.89
633.95	484.44
634.29	482.66
634.64	481.03
634.98	479.09
635.32	477.60
635.67	475.99
636.01	474.48
636.36	472.91
636.70	471.54
637.05	469.94
637.39	468.49
637.73	467.05
638.08	465.77
638.42	464.44
638.77	462.95
639.11	461.57
639.45	460.07
639.80	458.24
640.14	456.43
640.49	454.80
640.83	453.23
641.17	451.60
641.52	450.07
641.86	448.55
642.20	447.14
642.55	445.31
642.89	443.63
643.23	441.96
643.58	440.55
643.92	438.61
644.26	437.03
644.61	435.52
644.95	433.94
645.29	432.28
645.64	430.73
645.98	429.04
646.32	427.55
646.66	425.85
647.01	424.30
647.35	422.80
647.69	421.27
648.04	419.79
648.38	418.21
648.72	416.64
649.06	414.98
649.41	413.37
649.75	411.80
650.09	410.46
650.43	408.92
650.78	407.16
651.12	405.69
651.46	404.08
651.80	402.54
652.14	401.07
652.49	399.63
652.83	397.91
653.17	396.34
653.51	394.76
653.85	393.49
654.20	392.12
654.54	390.75
654.88	389.15
655.22	387.70
655.56	386.13
655.90	384.51
656.25	383.01
656.59	381.52
656.93	380.14
657.27	378.75
657.61	377.28
657.95	376.03
658.29	374.71
658.64	373.37
658.98	371.90
659.32	370.32
659.66	368.75
660.00	367.37
660.34	365.86
660.68	364.39
661.02	362.91
661.36	361.63
661.70	360.30
662.05	359.15
662.39	357.90
662.73	356.72
663.07	355.71
663.41	354.54
663.75	353.37
664.09	352.14
664.43	350.83
664.77	349.62
665.11	348.33
665.45	346.97
665.79	345.84
666.13	344.63
666.47	343.47
666.81	342.27
667.15	341.05
667.49	340.12
667.83	339.18
668.17	338.11
668.51	336.94
668.85	335.80
669.19	334.79
669.53	333.48
669.87	332.30
670.21	331.10
670.55	330.05
670.89	329.12
671.23	328.09
671.57	327.00
671.91	326.03
672.25	325.01
672.58	324.17
672.92	323.07
673.26	322.12
673.60	321.18
673.94	320.25
674.28	319.39
674.62	318.40
674.96	317.41
675.30	316.45
675.64	315.48
675.97	314.56
676.31	313.59
676.65	312.78
676.99	312.03
677.33	311.06
677.67	310.11
678.01	309.15
678.34	308.34
678.68	307.54
679.02	306.60
679.36	305.67
679.70	304.73
680.04	303.95
680.37	303.10
680.71	302.21
681.05	301.45
681.39	300.69
681.73	299.81
682.06	298.92
682.40	298.19
682.74	297.37
683.08	296.69
683.42	295.84
683.75	295.03
684.09	294.19
684.43	293.43
684.77	292.68
685.10	291.85
685.44	290.92
685.78	290.05
686.12	289.36
686.45	288.61
686.79	287.80
687.13	287.01
687.46	286.26
687.80	285.70
688.14	284.83
688.48	284.01
688.81	283.26
689.15	282.55
689.49	281.68
689.82	281.09
690.16	280.10
690.50	279.36
690.83	278.65
691.17	277.84
691.51	277.10
691.84	276.43
692.18	275.74
692.52	275.17
692.85	274.61
693.19	274.08
693.52	273.48
693.86	272.84
694.20	272.28
694.53	271.62
694.87	270.96
695.21	270.30
695.54	269.73
695.88	269.06
696.21	268.41
696.55	267.88
696.88	267.20
697.22	266.70
697.56	266.19
697.89	265.65
698.23	265.20
698.56	264.66
698.90	264.17
699.23	263.57
699.57	262.98
699.90	262.37
700.24	261.74
700.58	261.18
700.91	260.78
701.25	260.50
701.58	260.11
701.92	259.57
702.25	259.05
702.59	258.54
702.92	258.08
703.26	257.70
703.59	257.19
703.93	257.02
704.26	256.58
704.60	256.20
704.93	255.67
705.26	255.12
705.60	254.71
705.93	254.08
706.27	253.82
706.60	253.54
706.94	253.27
707.27	252.80
707.61	252.39
707.94	251.88
708.27	251.24
708.61	250.70
708.94	250.33
709.28	250.03
709.61	249.58
709.94	249.23
710.28	248.80
710.61	248.46
710.95	247.71
711.28	247.57
711.61	247.21
711.95	247.00
712.28	246.61
712.61	246.33
712.95	246.29
713.28	246.00
713.61	245.59
713.95	245.10
714.28	244.82
714.61	244.46
714.95	244.12
715.28	243.61
715.61	243.16
715.95	242.80
716.28	242.50
716.61	242.21
716.95	241.87
717.28	241.59
717.61	241.26
717.94	241.03
718.28	240.56
718.61	240.16
718.94	239.73
719.27	239.44
719.61	239.12
719.94	238.67
720.27	238.23
720.60	237.84
720.94	237.54
721.27	237.27
721.60	237.04
721.93	236.79
722.27	236.72
722.60	236.66
722.93	236.37
723.26	236.19
723.59	235.92
723.93	235.75
724.26	235.56
724.59	235.28
724.92	235.05
725.25	234.86
725.59	234.62
725.92	234.51
726.25	234.31
726.58	234.07
726.91	233.88
727.24	233.61
727.57	233.41
727.91	233.23
728.24	233.08
728.57	232.82
728.90	232.63
729.23	232.33
729.56	232.24
729.89	232.06
730.22	231.73
730.55	231.55
730.89	231.34
731.22	231.01
731.55	230.84
731.88	230.72
732.21	230.42
732.54	230.17
732.87	229.93
733.20	229.74
733.53	229.61
733.86	229.48
734.19	229.34
734.52	229.21
734.85	229.20
735.18	228.92
735.51	228.91
735.84	228.76
736.17	228.70
736.50	228.41
736.83	228.70
737.16	228.58
737.49	228.42
737.82	228.23
738.15	228.12
738.48	227.88
738.81	227.63
739.14	227.45
739.47	227.28
739.80	227.10
740.13	227.01
740.46	226.65
740.79	226.42
741.12	226.17
741.45	225.95
741.78	225.67
742.11	225.62
742.44	225.37
742.77	225.33
743.10	225.10
743.43	224.87
743.75	224.27
744.08	224.68
744.41	224.54
744.74	224.35
745.07	224.12
745.40	224.12
745.73	224.16
746.06	224.06
746.39	224.01
746.71	223.84
747.04	223.68
747.37	223.63
747.70	223.51
748.03	223.40
748.36	223.38
748.68	223.23
749.01	222.99
749.34	222.86
749.67	222.73
750.00	222.70
750.33	222.82
750.65	222.75
750.98	222.10
751.31	221.86
751.64	221.78
751.97	221.92
752.29	221.79
752.62	221.52
752.95	221.40
753.28	221.23
753.60	221.09
753.93	221.07
754.26	221.02
754.59	220.90
754.91	220.84
755.24	220.69
755.57	220.56
755.90	220.52
756.22	220.37
756.55	220.13
756.88	219.89
757.20	219.54
757.53	219.31
757.86	219.13
758.19	219.16
758.51	219.09
758.84	218.79
759.17	218.62
759.49	218.60
759.82	218.70
760.15	218.68
760.47	218.65
760.80	218.46
761.13	218.45
761.45	218.35
761.78	218.25
762.11	218.20
762.43	218.07
762.76	217.95
763.08	217.92
763.41	217.93
763.74	217.92
764.06	217.95
764.39	217.96
764.71	217.94
765.04	217.84
765.37	217.74
765.69	217.69
766.02	217.69
766.34	217.56
766.67	217.33
767.00	217.39
767.32	217.51
767.65	217.70
767.97	217.52
768.30	217.49
768.62	217.45
768.95	217.35
769.27	217.29
769.60	217.31
769.92	217.29
770.25	217.20
770.57	216.97
770.90	216.83
771.22	216.79
771.55	216.75
771.87	216.73
772.20	216.70
772.52	216.88
772.85	217.24
773.17	217.13
773.50	217.06
773.82	216.91
774.15	216.62
774.47	216.34
774.80	216.30
775.12	216.25
775.45	216.19
775.77	216.20
776.09	216.18
776.42	216.08
776.74	216.09
777.07	216.05
777.39	216.13
777.72	216.09
778.04	216.00
778.36	215.95
778.69	215.84
779.01	215.73
779.33	215.40
779.66	215.01
779.98	215.00
780.31	214.94
780.63	215.00
780.95	215.07
781.28	214.98
781.60	214.93
781.92	214.87
782.25	214.86
782.57	214.79
782.89	214.71
783.22	214.68
783.54	214.54
783.86	214.51
784.19	214.43
784.51	214.50
784.83	214.40
785.16	214.31
785.48	214.27
785.80	214.30
786.12	214.35
786.45	214.25
786.77	214.22
787.09	214.23
787.42	214.07
787.74	214.06
788.06	214.02
788.38	213.94
788.71	213.84
789.03	213.81
789.35	213.83
789.67	213.78
789.99	213.69
790.32	213.63
790.64	213.63
790.96	213.87
791.28	213.76
791.61	213.76
791.93	213.83
792.25	213.77
792.57	213.91
792.89	213.84
793.21	213.87
793.54	213.85
793.86	213.80
794.18	213.80
