SpectraSuite Data File
++++++++++++++++++++++++++++++++++++
Date: Mon Feb 25 17:15:31 EST 2013
User: group
Dark Spectrum Present: No
Reference Spectrum Present: No
Number of Sampled Component Spectra: 1
Spectrometers: USB2E7196
Integration Time (usec): 104000 (USB2E7196)
Spectra Averaged: 20 (USB2E7196)
Boxcar Smoothing: 10 (USB2E7196)
Correct for Electrical Dark: No (USB2E7196)
Strobe/Lamp Enabled: No (USB2E7196)
Correct for Detector Non-linearity: No (USB2E7196)
Correct for Stray Light: No (USB2E7196)
Number of Pixels in Processed Spectrum: 2048
>>>>>Begin Processed Spectral Data<<<<<
339.09	0.00
339.48	197.85
339.86	199.70
340.24	199.40
340.63	202.65
341.01	208.80
341.39	206.25
341.78	206.90
342.16	208.10
342.54	206.70
342.93	197.88
343.31	207.92
343.69	208.47
344.07	208.93
344.46	209.55
344.84	209.97
345.22	210.09
345.60	210.31
345.99	210.50
346.37	210.65
346.75	210.88
347.13	211.00
347.52	211.08
347.90	211.24
348.28	211.32
348.66	211.49
349.05	211.45
349.43	211.56
349.81	211.69
350.19	211.78
350.57	211.88
350.96	212.03
351.34	212.14
351.72	212.28
352.10	212.48
352.48	212.53
352.87	212.64
353.25	212.75
353.63	212.82
354.01	212.92
354.39	213.03
354.77	213.11
355.15	213.25
355.54	213.30
355.92	213.26
356.30	213.27
356.68	213.54
357.06	213.66
357.44	213.64
357.82	213.74
358.20	213.84
358.58	213.86
358.97	214.00
359.35	214.12
359.73	214.27
360.11	214.24
360.49	214.28
360.87	214.29
361.25	214.35
361.63	214.53
362.01	214.62
362.39	214.67
362.77	214.75
363.15	214.75
363.53	214.84
363.91	214.92
364.29	214.98
364.67	214.67
365.05	214.65
365.43	214.77
365.81	214.75
366.19	214.87
366.57	215.07
366.95	215.08
367.33	215.00
367.71	214.99
368.09	215.08
368.47	215.05
368.85	215.01
369.23	215.12
369.61	215.00
369.99	215.11
370.37	215.07
370.75	215.17
371.13	215.09
371.51	214.94
371.89	214.87
372.27	214.86
372.65	214.86
373.03	214.85
373.41	214.78
373.78	214.69
374.16	214.51
374.54	214.32
374.92	214.16
375.30	214.12
375.68	214.00
376.06	214.01
376.44	213.92
376.82	213.84
377.19	213.63
377.57	213.57
377.95	213.31
378.33	213.25
378.71	212.97
379.09	213.00
379.47	212.90
379.84	212.81
380.22	212.76
380.60	212.61
380.98	212.50
381.36	212.45
381.73	212.40
382.11	212.36
382.49	212.32
382.87	212.15
383.25	212.10
383.62	212.40
384.00	212.22
384.38	212.17
384.76	212.24
385.13	212.43
385.51	212.33
385.89	212.32
386.27	212.34
386.64	212.40
387.02	212.26
387.40	212.22
387.78	212.18
388.15	212.12
388.53	212.09
388.91	212.14
389.29	212.02
389.66	212.07
390.04	211.98
390.42	212.06
390.79	212.14
391.17	212.02
391.55	211.65
391.92	211.67
392.30	211.77
392.68	211.65
393.05	211.59
393.43	211.63
393.81	211.65
394.18	211.49
394.56	211.48
394.94	211.48
395.31	211.53
395.69	211.67
396.06	211.70
396.44	211.80
396.82	211.73
397.19	211.96
397.57	211.91
397.95	212.00
398.32	211.88
398.70	211.94
399.07	212.10
399.45	212.12
399.82	212.13
400.20	212.11
400.58	212.16
400.95	212.05
401.33	212.07
401.70	212.32
402.08	212.41
402.45	212.47
402.83	212.63
403.20	212.64
403.58	212.66
403.95	212.79
404.33	212.80
404.71	212.88
405.08	213.10
405.46	213.15
405.83	213.24
406.21	213.29
406.58	213.42
406.96	213.51
407.33	213.66
407.70	213.82
408.08	214.17
408.45	214.41
408.83	214.73
409.20	214.96
409.58	214.99
409.95	215.22
410.33	215.40
410.70	215.59
411.08	215.90
411.45	216.19
411.82	216.40
412.20	216.88
412.57	217.46
412.95	217.54
413.32	218.04
413.69	218.42
414.07	218.95
414.44	219.53
414.82	220.09
415.19	220.73
415.56	221.43
415.94	221.97
416.31	222.82
416.68	223.52
417.06	224.39
417.43	225.32
417.81	226.40
418.18	227.46
418.55	228.60
418.93	229.79
419.30	230.99
419.67	232.34
420.04	233.60
420.42	234.86
420.79	236.74
421.16	238.31
421.54	240.17
421.91	241.91
422.28	243.55
422.66	245.50
423.03	247.55
423.40	249.44
423.77	251.48
424.15	253.33
424.52	255.45
424.89	257.75
425.26	259.86
425.64	261.93
426.01	264.17
426.38	266.56
426.75	269.09
427.13	271.57
427.50	274.18
427.87	276.97
428.24	279.73
428.61	282.18
428.99	285.18
429.36	288.16
429.73	291.24
430.10	294.43
430.47	297.53
430.85	300.59
431.22	304.05
431.59	307.85
431.96	311.42
432.33	315.26
432.70	319.03
433.08	323.42
433.45	327.63
433.82	331.82
434.19	336.44
434.56	340.95
434.93	345.24
435.30	349.46
435.68	354.11
436.05	358.72
436.42	363.25
436.79	367.45
437.16	372.04
437.53	376.81
437.90	381.56
438.27	386.10
438.64	391.02
439.01	395.45
439.38	399.20
439.75	403.21
440.13	407.70
440.50	411.69
440.87	415.06
441.24	418.45
441.61	422.36
441.98	425.11
442.35	428.30
442.72	431.73
443.09	435.23
443.46	437.14
443.83	438.38
444.20	439.56
444.57	441.10
444.94	441.83
445.31	442.54
445.68	443.52
446.05	443.77
446.42	443.18
446.79	442.60
447.16	441.96
447.53	441.40
447.90	439.34
448.27	437.53
448.64	435.01
449.01	433.17
449.37	429.94
449.74	426.76
450.11	423.28
450.48	419.22
450.85	414.76
451.22	411.29
451.59	408.00
451.96	404.76
452.33	400.58
452.70	396.61
453.07	392.02
453.43	387.01
453.80	382.65
454.17	378.24
454.54	374.17
454.91	369.82
455.28	365.44
455.65	361.61
456.02	358.24
456.38	354.90
456.75	350.83
457.12	347.25
457.49	343.89
457.86	340.35
458.23	337.60
458.59	334.52
458.96	331.41
459.33	328.59
459.70	325.80
460.07	323.48
460.43	320.95
460.80	318.64
461.17	316.64
461.54	314.44
461.91	312.50
462.27	310.36
462.64	308.61
463.01	306.70
463.38	304.87
463.74	302.43
464.11	300.61
464.48	299.17
464.85	297.60
465.21	296.46
465.58	295.15
465.95	293.48
466.32	292.21
466.68	290.86
467.05	289.59
467.42	288.29
467.78	286.98
468.15	285.82
468.52	284.95
468.88	283.71
469.25	282.62
469.62	281.74
469.98	280.91
470.35	280.03
470.72	279.23
471.08	278.29
471.45	277.74
471.82	277.29
472.18	276.42
472.55	275.98
472.92	275.27
473.28	274.72
473.65	274.20
474.02	273.81
474.38	273.52
474.75	273.30
475.11	273.04
475.48	272.85
475.85	272.64
476.21	272.40
476.58	272.29
476.94	272.29
477.31	272.22
477.67	272.09
478.04	272.16
478.41	272.23
478.77	272.72
479.14	272.71
479.50	272.80
479.87	273.13
480.23	273.39
480.60	273.71
480.96	273.96
481.33	274.64
481.69	275.08
482.06	275.52
482.42	275.95
482.79	276.44
483.15	277.01
483.52	277.82
483.88	278.48
484.25	279.29
484.61	280.17
484.98	281.11
485.34	282.29
485.71	283.37
486.07	284.55
486.44	285.42
486.80	286.75
487.17	288.11
487.53	289.63
487.90	291.26
488.26	292.93
488.62	294.87
488.99	296.53
489.35	298.55
489.72	300.55
490.08	302.76
490.44	305.05
490.81	307.46
491.17	309.83
491.54	312.57
491.90	315.29
492.26	318.15
492.63	321.15
492.99	324.20
493.36	327.50
493.72	331.10
494.08	334.81
494.45	338.65
494.81	342.73
495.17	346.91
495.54	351.35
495.90	355.99
496.26	360.65
496.63	365.58
496.99	370.63
497.35	376.12
497.72	381.75
498.08	387.58
498.44	393.68
498.80	400.09
499.17	406.65
499.53	413.55
499.89	420.67
500.26	427.85
500.62	435.40
500.98	443.19
501.34	451.06
501.71	459.51
502.07	467.99
502.43	476.71
502.79	485.72
503.16	494.96
503.52	504.53
503.88	514.32
504.24	524.45
504.60	534.89
504.97	545.63
505.33	556.36
505.69	568.17
506.05	579.89
506.41	591.81
506.78	603.73
507.14	616.05
507.50	628.81
507.86	642.04
508.22	655.15
508.59	668.55
508.95	682.48
509.31	696.39
509.67	710.76
510.03	725.56
510.39	740.64
510.75	756.12
511.12	771.62
511.48	787.39
511.84	803.32
512.20	819.28
512.56	835.81
512.92	852.78
513.28	869.31
513.64	886.37
514.00	903.63
514.37	921.29
514.73	938.98
515.09	956.79
515.45	974.60
515.81	992.86
516.17	1011.32
516.53	1029.81
516.89	1048.28
517.25	1066.91
517.61	1085.61
517.97	1104.08
518.33	1122.57
518.69	1141.38
519.05	1160.50
519.41	1179.70
519.77	1199.29
520.13	1218.03
520.49	1236.73
520.85	1255.71
521.21	1274.94
521.57	1294.45
521.93	1313.30
522.29	1333.05
522.65	1352.55
523.01	1371.58
523.37	1390.39
523.73	1409.41
524.09	1428.17
524.45	1447.08
524.81	1466.42
525.17	1485.54
525.53	1504.70
525.89	1523.71
526.25	1542.55
526.61	1560.62
526.97	1578.64
527.33	1596.75
527.68	1615.42
528.04	1633.38
528.40	1650.72
528.76	1667.95
529.12	1685.65
529.48	1703.91
529.84	1720.99
530.20	1738.06
530.56	1755.42
530.91	1773.31
531.27	1790.73
531.63	1807.80
531.99	1824.68
532.35	1840.79
532.71	1856.57
533.07	1872.94
533.42	1888.50
533.78	1904.19
534.14	1919.91
534.50	1934.54
534.86	1949.69
535.21	1963.59
535.57	1978.76
535.93	1993.19
536.29	2007.29
536.65	2020.87
537.00	2033.46
537.36	2046.10
537.72	2058.59
538.08	2071.01
538.44	2082.96
538.79	2094.73
539.15	2106.62
539.51	2118.26
539.87	2130.11
540.22	2141.29
540.58	2153.04
540.94	2164.22
541.29	2174.13
541.65	2183.69
542.01	2193.76
542.37	2203.15
542.72	2212.79
543.08	2221.18
543.44	2230.86
543.79	2238.89
544.15	2246.66
544.51	2255.14
544.87	2263.68
545.22	2270.94
545.58	2277.67
545.94	2283.51
546.29	2288.93
546.65	2294.13
547.01	2299.35
547.36	2304.04
547.72	2308.94
548.07	2311.91
548.43	2315.43
548.79	2318.88
549.14	2322.55
549.50	2326.31
549.86	2329.01
550.21	2331.66
550.57	2334.41
550.92	2335.73
551.28	2337.63
551.64	2339.37
551.99	2341.21
552.35	2341.79
552.70	2342.70
553.06	2344.05
553.41	2345.54
553.77	2347.09
554.13	2347.77
554.48	2348.66
554.84	2349.34
555.19	2349.44
555.55	2349.31
555.90	2348.48
556.26	2348.03
556.61	2347.02
556.97	2345.51
557.32	2344.41
557.68	2342.68
558.03	2340.98
558.39	2339.45
558.74	2338.87
559.10	2337.65
559.45	2335.57
559.81	2334.18
560.16	2332.25
560.52	2330.12
560.87	2327.50
561.23	2324.18
561.58	2322.11
561.94	2318.71
562.29	2314.91
562.64	2311.94
563.00	2309.19
563.35	2306.81
563.71	2304.89
564.06	2302.55
564.42	2300.29
564.77	2297.66
565.12	2295.54
565.48	2293.13
565.83	2290.43
566.19	2287.41
566.54	2283.36
566.89	2279.62
567.25	2275.90
567.60	2272.53
567.96	2268.65
568.31	2265.25
568.66	2261.72
569.02	2257.21
569.37	2252.36
569.72	2248.43
570.08	2243.68
570.43	2238.68
570.78	2233.66
571.14	2227.60
571.49	2221.91
571.84	2216.81
572.20	2210.80
572.55	2205.15
572.90	2198.52
573.26	2192.09
573.61	2185.34
573.96	2179.30
574.31	2172.35
574.67	2164.86
575.02	2157.19
575.37	2150.07
575.72	2142.43
576.08	2135.70
576.43	2128.29
576.78	2121.85
577.13	2115.44
577.49	2108.83
577.84	2102.12
578.19	2095.33
578.54	2089.19
578.90	2083.26
579.25	2075.90
579.60	2068.52
579.95	2060.90
580.30	2054.73
580.66	2048.47
581.01	2041.28
581.36	2033.76
581.71	2026.95
582.06	2020.63
582.42	2014.30
582.77	2006.99
583.12	2000.02
583.47	1993.23
583.82	1986.74
584.17	1979.84
584.53	1972.77
584.88	1965.85
585.23	1958.92
585.58	1952.06
585.93	1944.75
586.28	1937.64
586.63	1930.73
586.98	1924.09
587.34	1918.00
587.69	1910.83
588.04	1903.64
588.39	1897.06
588.74	1889.98
589.09	1883.55
589.44	1876.56
589.79	1869.88
590.14	1863.73
590.49	1856.90
590.84	1849.77
591.19	1843.59
591.54	1836.76
591.89	1828.65
592.25	1821.70
592.60	1814.11
592.95	1806.65
593.30	1798.83
593.65	1791.13
594.00	1783.84
594.35	1778.27
594.70	1770.85
595.05	1763.84
595.40	1756.82
595.75	1749.36
596.10	1743.09
596.45	1736.45
596.80	1729.97
597.15	1723.51
597.50	1716.28
597.85	1709.93
598.19	1703.04
598.54	1695.94
598.89	1689.74
599.24	1684.59
599.59	1678.21
599.94	1673.07
600.29	1667.20
600.64	1661.40
600.99	1654.83
601.34	1648.93
601.69	1641.48
602.04	1634.96
602.39	1628.33
602.74	1622.22
603.08	1616.96
603.43	1611.53
603.78	1605.35
604.13	1599.16
604.48	1592.63
604.83	1587.54
605.18	1582.14
605.53	1576.43
605.87	1570.13
606.22	1564.18
606.57	1557.73
606.92	1551.28
607.27	1544.55
607.62	1538.21
607.96	1532.52
608.31	1527.22
608.66	1520.74
609.01	1514.14
609.36	1507.70
609.70	1501.21
610.05	1494.35
610.40	1487.12
610.75	1479.88
611.10	1473.58
611.44	1466.11
611.79	1458.94
612.14	1451.08
612.49	1443.31
612.83	1436.09
613.18	1428.71
613.53	1421.11
613.88	1413.36
614.22	1406.50
614.57	1399.11
614.92	1391.68
615.27	1384.17
615.61	1376.30
615.96	1369.18
616.31	1362.48
616.65	1355.93
617.00	1349.26
617.35	1342.39
617.70	1335.39
618.04	1327.73
618.39	1319.68
618.74	1312.75
619.08	1305.79
619.43	1298.98
619.78	1292.07
620.12	1285.10
620.47	1278.37
620.82	1271.10
621.16	1263.78
621.51	1256.42
621.85	1249.41
622.20	1242.19
622.55	1234.92
622.89	1227.79
623.24	1220.76
623.59	1213.42
623.93	1206.00
624.28	1199.04
624.62	1192.31
624.97	1185.57
625.32	1179.17
625.66	1172.78
626.01	1166.35
626.35	1159.98
626.70	1153.25
627.04	1146.90
627.39	1140.38
627.73	1134.01
628.08	1128.16
628.43	1121.86
628.77	1115.14
629.12	1108.59
629.46	1102.85
629.81	1096.80
630.15	1090.63
630.50	1084.23
630.84	1077.85
631.19	1071.70
631.53	1065.57
631.88	1058.94
632.22	1052.51
632.57	1046.52
632.91	1040.22
633.26	1034.01
633.60	1027.89
633.95	1022.17
634.29	1016.04
634.64	1010.28
634.98	1004.07
635.32	998.02
635.67	992.73
636.01	987.29
636.36	981.44
636.70	975.50
637.05	969.69
637.39	964.27
637.73	959.24
638.08	954.37
638.42	949.26
638.77	943.83
639.11	938.47
639.45	932.89
639.80	926.96
640.14	921.43
640.49	915.93
640.83	910.48
641.17	904.89
641.52	899.38
641.86	893.38
642.20	887.97
642.55	881.94
642.89	875.95
643.23	870.24
643.58	865.12
643.92	859.44
644.26	853.96
644.61	848.39
644.95	842.54
645.29	836.63
645.64	830.93
645.98	825.51
646.32	820.35
646.66	815.15
647.01	810.20
647.35	805.19
647.69	799.59
648.04	794.23
648.38	788.95
648.72	783.68
649.06	778.59
649.41	773.41
649.75	768.52
650.09	763.59
650.43	758.60
650.78	753.24
651.12	748.15
651.46	743.03
651.80	738.19
652.14	733.36
652.49	728.50
652.83	723.53
653.17	718.12
653.51	712.82
653.85	708.06
654.20	702.99
654.54	697.80
654.88	693.14
655.22	688.29
655.56	683.16
655.90	678.27
656.25	673.55
656.59	668.85
656.93	664.22
657.27	659.62
657.61	654.80
657.95	650.22
658.29	645.86
658.64	641.65
658.98	636.96
659.32	632.24
659.66	627.80
660.00	623.22
660.34	619.01
660.68	614.61
661.02	610.05
661.36	605.91
661.70	601.83
662.05	597.70
662.39	593.95
662.73	590.29
663.07	586.53
663.41	582.73
663.75	578.73
664.09	574.74
664.43	570.70
664.77	566.95
665.11	563.16
665.45	559.43
665.79	555.63
666.13	552.12
666.47	548.52
666.81	544.95
667.15	541.50
667.49	538.16
667.83	535.02
668.17	531.69
668.51	528.40
668.85	525.22
669.19	522.28
669.53	518.88
669.87	515.53
670.21	512.33
670.55	508.94
670.89	506.20
671.23	503.39
671.57	500.41
671.91	497.45
672.25	494.49
672.58	491.56
672.92	488.55
673.26	485.80
673.60	483.21
673.94	480.35
674.28	477.49
674.62	474.76
674.96	471.97
675.30	469.30
675.64	466.53
675.97	463.90
676.31	461.27
676.65	458.69
676.99	456.42
677.33	453.77
677.67	451.44
678.01	448.73
678.34	446.20
678.68	443.82
679.02	441.32
679.36	438.97
679.70	436.54
680.04	434.16
680.37	431.63
680.71	429.08
681.05	426.87
681.39	424.69
681.73	422.47
682.06	420.28
682.40	418.23
682.74	416.14
683.08	413.91
683.42	411.57
683.75	409.46
684.09	406.99
684.43	404.77
684.77	402.51
685.10	400.38
685.44	398.17
685.78	396.08
686.12	394.14
686.45	392.13
686.79	390.10
687.13	388.23
687.46	386.36
687.80	384.52
688.14	382.52
688.48	380.70
688.81	378.70
689.15	376.78
689.49	374.72
689.82	372.75
690.16	370.73
690.50	368.74
690.83	366.75
691.17	364.90
691.51	363.05
691.84	361.33
692.18	359.58
692.52	357.90
692.85	356.31
693.19	354.79
693.52	353.05
693.86	351.37
694.20	349.69
694.53	348.01
694.87	346.39
695.21	344.72
695.54	342.90
695.88	341.09
696.21	339.42
696.55	337.91
696.88	336.29
697.22	334.77
697.56	333.42
697.89	332.02
698.23	330.67
698.56	329.25
698.90	327.89
699.23	326.35
699.57	324.97
699.90	323.38
700.24	321.73
700.58	320.38
700.91	319.05
701.25	317.92
701.58	316.62
701.92	315.21
702.25	313.93
702.59	312.76
702.92	311.73
703.26	310.57
703.59	309.44
703.93	308.67
704.26	307.59
704.60	306.35
704.93	305.21
705.26	303.99
705.60	303.00
705.93	301.75
706.27	300.82
706.60	299.79
706.94	298.99
707.27	297.94
707.61	296.96
707.94	295.94
708.27	294.67
708.61	293.63
708.94	292.72
709.28	291.82
709.61	290.86
709.94	289.97
710.28	289.07
710.61	288.13
710.95	286.79
711.28	286.02
711.61	285.22
711.95	284.35
712.28	283.56
712.61	282.67
712.95	282.06
713.28	281.37
713.61	280.60
713.95	279.72
714.28	279.03
714.61	278.16
714.95	277.38
715.28	276.60
715.61	275.77
715.95	275.03
716.28	274.28
716.61	273.52
716.95	272.64
717.28	271.93
717.61	271.26
717.94	270.75
718.28	269.88
718.61	269.10
718.94	268.45
719.27	267.71
719.61	267.08
719.94	266.35
720.27	265.57
720.60	264.76
720.94	264.08
721.27	263.57
721.60	263.05
721.93	262.43
722.27	261.99
722.60	261.54
722.93	260.98
723.26	260.38
723.59	259.76
723.93	259.29
724.26	258.71
724.59	258.06
724.92	257.56
725.25	257.16
725.59	256.69
725.92	256.17
726.25	255.67
726.58	255.22
726.91	254.71
727.24	254.28
727.57	253.83
727.91	253.36
728.24	252.84
728.57	252.39
728.90	252.02
729.23	251.44
729.56	251.12
729.89	250.64
730.22	250.17
730.55	249.79
730.89	249.38
731.22	248.92
731.55	248.60
731.88	248.15
732.21	247.68
732.54	247.28
732.87	246.95
733.20	246.63
733.53	246.24
733.86	245.87
734.19	245.47
734.52	245.21
734.85	245.12
735.18	244.68
735.51	244.42
735.84	244.07
736.17	243.85
736.50	243.31
736.83	243.41
737.16	243.09
737.49	242.82
737.82	242.43
738.15	242.15
738.48	241.84
738.81	241.46
739.14	241.01
739.47	240.67
739.80	240.30
740.13	240.01
740.46	239.66
740.79	239.36
741.12	238.99
741.45	238.68
741.78	238.15
742.11	237.98
742.44	237.54
742.77	237.28
743.10	237.01
743.43	236.72
743.75	236.05
744.08	236.25
744.41	235.84
744.74	235.62
745.07	235.32
745.40	235.10
745.73	234.97
746.06	234.82
746.39	234.58
746.71	234.28
747.04	234.00
747.37	233.73
747.70	233.45
748.03	233.23
748.36	232.97
748.68	232.72
749.01	232.35
749.34	232.12
749.67	231.87
750.00	231.65
750.33	231.70
750.65	231.46
750.98	230.70
751.31	230.62
751.64	230.36
751.97	230.30
752.29	230.02
752.62	229.69
752.95	229.39
753.28	229.15
753.60	229.01
753.93	228.87
754.26	228.64
754.59	228.41
754.91	228.13
755.24	227.95
755.57	227.73
755.90	227.62
756.22	227.49
756.55	227.35
756.88	227.03
757.20	226.63
757.53	226.35
757.86	226.24
758.19	226.04
758.51	225.89
758.84	225.59
759.17	225.40
759.49	225.26
759.82	225.29
760.15	225.11
760.47	224.92
760.80	224.65
761.13	224.50
761.45	224.36
761.78	224.26
762.11	224.04
762.43	223.88
762.76	223.66
763.08	223.48
763.41	223.34
763.74	223.23
764.06	223.01
764.39	222.85
764.71	222.69
765.04	222.49
765.37	222.37
765.69	222.24
766.02	222.10
766.34	221.95
766.67	221.70
767.00	221.70
767.32	221.74
767.65	221.88
767.97	221.78
768.30	221.68
768.62	221.57
768.95	221.39
769.27	221.32
769.60	221.32
769.92	221.20
770.25	220.98
770.57	220.79
770.90	220.76
771.22	220.67
771.55	220.61
771.87	220.54
772.20	220.36
772.52	220.55
772.85	220.89
773.17	220.82
773.50	220.71
773.82	220.54
774.15	220.21
774.47	219.93
774.80	219.79
775.12	219.65
775.45	219.59
775.77	219.61
776.09	219.49
776.42	219.28
776.74	219.28
777.07	219.17
777.39	219.12
777.72	218.96
778.04	218.91
778.36	218.77
778.69	218.71
779.01	218.68
779.33	218.27
779.66	217.77
779.98	217.62
780.31	217.56
780.63	217.68
780.95	217.68
781.28	217.52
781.60	217.54
781.92	217.51
782.25	217.50
782.57	217.39
782.89	217.28
783.22	217.25
783.54	217.21
783.86	217.24
784.19	217.21
784.51	217.33
784.83	217.21
785.16	217.16
785.48	217.10
785.80	217.10
786.12	217.05
786.45	217.01
786.77	216.98
787.09	216.87
