SpectraSuite Data File
++++++++++++++++++++++++++++++++++++
Date: Mon Feb 25 17:20:37 EST 2013
User: group
Dark Spectrum Present: No
Reference Spectrum Present: No
Number of Sampled Component Spectra: 1
Spectrometers: USB2E7196
Integration Time (usec): 104000 (USB2E7196)
Spectra Averaged: 20 (USB2E7196)
Boxcar Smoothing: 10 (USB2E7196)
Correct for Electrical Dark: No (USB2E7196)
Strobe/Lamp Enabled: No (USB2E7196)
Correct for Detector Non-linearity: No (USB2E7196)
Correct for Stray Light: No (USB2E7196)
Number of Pixels in Processed Spectrum: 2048
>>>>>Begin Processed Spectral Data<<<<<
339.09	0.00
339.48	199.70
339.86	200.20
340.24	201.20
340.63	204.05
341.01	210.95
341.39	205.90
341.78	206.45
342.16	209.60
342.54	208.75
342.93	198.76
343.31	208.74
343.69	209.25
344.07	209.73
344.46	210.18
344.84	210.60
345.22	210.64
345.60	210.99
345.99	211.29
346.37	211.43
346.75	211.62
347.13	211.73
347.52	211.87
347.90	212.03
348.28	212.12
348.66	212.33
349.05	212.27
349.43	212.39
349.81	212.50
350.19	212.57
350.57	212.73
350.96	212.78
351.34	212.93
351.72	213.06
352.10	213.18
352.48	213.34
352.87	213.34
353.25	213.42
353.63	213.42
354.01	213.46
354.39	213.54
354.77	213.60
355.15	213.76
355.54	213.78
355.92	213.79
356.30	213.81
356.68	214.03
357.06	214.05
357.44	214.08
357.82	214.17
358.20	214.23
358.58	214.21
358.97	214.30
359.35	214.43
359.73	214.59
360.11	214.63
360.49	214.68
360.87	214.71
361.25	214.78
361.63	214.90
362.01	214.98
362.39	215.05
362.77	215.14
363.15	215.08
363.53	215.10
363.91	215.13
364.29	215.16
364.67	214.89
365.05	214.93
365.43	214.95
365.81	214.96
366.19	215.16
366.57	215.29
366.95	215.26
367.33	215.26
367.71	215.23
368.09	215.35
368.47	215.34
368.85	215.39
369.23	215.38
369.61	215.29
369.99	215.32
370.37	215.25
370.75	215.33
371.13	215.25
371.51	215.19
371.89	215.14
372.27	215.20
372.65	215.20
373.03	215.25
373.41	215.25
373.78	215.17
374.16	214.96
374.54	214.84
374.92	214.78
375.30	214.74
375.68	214.66
376.06	214.64
376.44	214.53
376.82	214.57
377.19	214.58
377.57	214.60
377.95	214.50
378.33	214.48
378.71	214.24
379.09	214.30
379.47	214.24
379.84	214.18
380.22	214.08
380.60	213.94
380.98	213.84
381.36	213.70
381.73	213.69
382.11	213.75
382.49	213.77
382.87	213.67
383.25	213.59
383.62	213.95
384.00	213.79
384.38	213.76
384.76	213.75
385.13	213.80
385.51	213.78
385.89	213.66
386.27	213.68
386.64	213.69
387.02	213.56
387.40	213.53
387.78	213.56
388.15	213.55
388.53	213.58
388.91	213.56
389.29	213.58
389.66	213.59
390.04	213.49
390.42	213.50
390.79	213.51
391.17	213.57
391.55	213.17
391.92	213.19
392.30	213.25
392.68	213.15
393.05	213.17
393.43	213.18
393.81	213.25
394.18	213.13
394.56	213.15
394.94	213.35
395.31	213.40
395.69	213.52
396.06	213.65
396.44	213.65
396.82	213.65
397.19	213.85
397.57	213.88
397.95	214.02
398.32	213.99
398.70	214.05
399.07	214.10
399.45	214.10
399.82	214.16
400.20	214.17
400.58	214.22
400.95	214.09
401.33	214.19
401.70	214.52
402.08	214.66
402.45	214.66
402.83	214.75
403.20	214.87
403.58	214.90
403.95	214.98
404.33	215.14
404.71	215.26
405.08	215.55
405.46	215.70
405.83	215.88
406.21	216.07
406.58	216.36
406.96	216.61
407.33	216.91
407.70	217.16
408.08	217.77
408.45	218.15
408.83	218.62
409.20	218.94
409.58	219.12
409.95	219.58
410.33	220.21
410.70	220.63
411.08	221.12
411.45	221.60
411.82	222.20
412.20	222.98
412.57	223.97
412.95	224.40
413.32	225.23
413.69	225.93
414.07	226.78
414.44	227.67
414.82	228.71
415.19	229.88
415.56	231.10
415.94	232.10
416.31	233.48
416.68	234.83
417.06	236.42
417.43	238.00
417.81	239.69
418.18	241.33
418.55	243.19
418.93	245.24
419.30	247.37
419.67	249.49
420.04	251.60
420.42	253.81
420.79	256.64
421.16	259.32
421.54	262.27
421.91	265.15
422.28	268.08
422.66	271.24
423.03	274.48
423.40	277.64
423.77	281.07
424.15	284.55
424.52	288.17
424.89	292.18
425.26	296.02
425.64	299.63
426.01	303.66
426.38	307.75
426.75	312.00
427.13	316.32
427.50	320.88
427.87	325.71
428.24	330.46
428.61	334.93
428.99	340.08
429.36	345.49
429.73	350.83
430.10	356.21
430.47	361.64
430.85	367.14
431.22	373.14
431.59	379.61
431.96	385.70
432.33	392.35
432.70	398.72
433.08	406.18
433.45	413.46
433.82	420.53
434.19	428.44
434.56	436.27
434.93	443.75
435.30	451.30
435.68	459.45
436.05	467.46
436.42	475.59
436.79	482.80
437.16	490.66
437.53	498.99
437.90	507.26
438.27	515.37
438.64	523.82
439.01	531.64
439.38	538.53
439.75	545.28
440.13	553.07
440.50	560.39
440.87	566.30
441.24	572.47
441.61	579.18
441.98	584.20
442.35	589.80
442.72	595.56
443.09	601.16
443.46	604.38
443.83	606.80
444.20	608.72
444.57	611.48
444.94	612.85
445.31	614.25
445.68	615.54
446.05	616.00
446.42	615.16
446.79	614.07
447.16	612.70
447.53	611.71
447.90	608.38
448.27	605.10
448.64	600.63
449.01	597.30
449.37	591.87
449.74	586.50
450.11	580.23
450.48	573.27
450.85	566.11
451.22	560.07
451.59	554.19
451.96	548.45
452.33	541.12
452.70	534.35
453.07	526.32
453.43	518.15
453.80	510.42
454.17	502.85
454.54	495.95
454.91	488.44
455.28	481.17
455.65	474.37
456.02	467.82
456.38	462.07
456.75	454.90
457.12	448.81
457.49	442.80
457.86	436.89
458.23	432.00
458.59	426.44
458.96	421.09
459.33	416.16
459.70	411.34
460.07	407.52
460.43	402.98
460.80	398.86
461.17	395.43
461.54	391.55
461.91	388.05
462.27	384.29
462.64	381.31
463.01	377.87
463.38	374.64
463.74	371.01
464.11	368.17
464.48	365.68
464.85	362.97
465.21	361.02
465.58	358.86
465.95	356.25
466.32	354.29
466.68	352.07
467.05	349.99
467.42	348.01
467.78	345.91
468.15	343.93
468.52	342.43
468.88	340.21
469.25	338.49
469.62	337.12
469.98	335.70
470.35	334.32
470.72	333.15
471.08	331.71
471.45	330.63
471.82	329.55
472.18	328.35
472.55	327.54
472.92	326.50
473.28	325.62
473.65	324.74
474.02	323.90
474.38	323.39
474.75	323.02
475.11	322.51
475.48	322.14
475.85	321.89
476.21	321.69
476.58	321.73
476.94	321.79
477.31	321.83
477.67	321.82
478.04	321.89
478.41	322.14
478.77	322.80
479.14	323.07
479.50	323.58
479.87	324.22
480.23	324.90
480.60	325.49
480.96	326.29
481.33	327.42
481.69	328.55
482.06	329.50
482.42	330.44
482.79	331.60
483.15	332.95
483.52	334.55
483.88	336.03
484.25	337.71
484.61	339.45
484.98	341.29
485.34	343.49
485.71	345.77
486.07	348.11
486.44	350.33
486.80	353.06
487.17	355.77
487.53	358.69
487.90	361.85
488.26	365.33
488.62	368.88
488.99	372.57
489.35	376.39
489.72	380.62
490.08	384.96
490.44	389.41
490.81	394.08
491.17	399.03
491.54	404.36
491.90	409.81
492.26	415.64
492.63	421.69
492.99	427.95
493.36	434.63
493.72	441.60
494.08	448.91
494.45	456.52
494.81	464.66
495.17	473.07
495.54	481.85
495.90	490.99
496.26	500.57
496.63	510.25
496.99	520.55
497.35	531.28
497.72	542.50
498.08	554.09
498.44	566.21
498.80	579.19
499.17	592.43
499.53	605.89
499.89	620.02
500.26	634.44
500.62	649.21
500.98	665.06
501.34	681.24
501.71	698.08
502.07	715.21
502.43	732.71
502.79	750.65
503.16	769.43
503.52	788.53
503.88	808.10
504.24	828.52
504.60	849.25
504.97	870.72
505.33	892.61
505.69	915.93
506.05	939.21
506.41	962.59
506.78	986.52
507.14	1011.14
507.50	1036.29
507.86	1062.22
508.22	1088.79
508.59	1115.49
508.95	1142.91
509.31	1170.58
509.67	1199.22
510.03	1228.28
510.39	1258.56
510.75	1288.84
511.12	1319.38
511.48	1350.33
511.84	1381.91
512.20	1413.62
512.56	1446.16
512.92	1479.14
513.28	1511.79
513.64	1544.91
514.00	1578.43
514.37	1612.10
514.73	1646.63
515.09	1680.90
515.45	1715.21
515.81	1750.23
516.17	1785.09
516.53	1819.94
516.89	1855.17
517.25	1890.46
517.61	1925.67
517.97	1960.20
518.33	1995.00
518.69	2030.34
519.05	2066.07
519.41	2101.71
519.77	2137.77
520.13	2172.47
520.49	2207.46
520.85	2242.85
521.21	2278.58
521.57	2314.50
521.93	2349.44
522.29	2385.54
522.65	2421.66
523.01	2457.08
523.37	2491.16
523.73	2526.02
524.09	2561.05
524.45	2596.15
524.81	2631.05
525.17	2665.84
525.53	2700.63
525.89	2735.24
526.25	2769.26
526.61	2802.01
526.97	2834.77
527.33	2867.19
527.68	2900.46
528.04	2932.17
528.40	2963.40
528.76	2994.32
529.12	3025.67
529.48	3058.32
529.84	3088.94
530.20	3118.64
530.56	3149.08
530.91	3180.73
531.27	3211.03
531.63	3240.18
531.99	3269.17
532.35	3296.80
532.71	3324.36
533.07	3352.83
533.42	3379.23
533.78	3406.44
534.14	3433.19
534.50	3457.88
534.86	3484.00
535.21	3508.17
535.57	3534.30
535.93	3558.41
536.29	3582.27
536.65	3605.71
537.00	3627.29
537.36	3647.96
537.72	3668.96
538.08	3689.47
538.44	3709.71
538.79	3729.84
539.15	3750.05
539.51	3769.44
539.87	3789.99
540.22	3809.38
540.58	3828.02
540.94	3846.75
541.29	3863.26
541.65	3879.02
542.01	3896.03
542.37	3911.17
542.72	3927.25
543.08	3941.06
543.44	3956.56
543.79	3970.15
544.15	3982.36
544.51	3995.15
544.87	4007.59
545.22	4019.17
545.58	4029.62
545.94	4038.33
546.29	4046.12
546.65	4053.27
547.01	4059.58
547.36	4064.45
547.72	4069.25
548.07	4072.43
548.43	4076.00
548.79	4079.76
549.14	4084.00
549.50	4087.24
549.86	4089.59
550.21	4091.18
550.57	4092.77
550.92	4093.02
551.28	4094.05
551.64	4094.49
551.99	4094.53
552.35	4094.53
552.70	4094.55
553.06	4094.62
553.41	4094.67
553.77	4094.79
554.13	4094.85
554.48	4094.87
554.84	4094.90
555.19	4094.90
555.55	4094.89
555.90	4094.45
556.26	4093.86
556.61	4092.89
556.97	4091.49
557.32	4090.81
557.68	4089.11
558.03	4087.57
558.39	4085.84
558.74	4084.15
559.10	4083.13
559.45	4081.79
559.81	4080.61
560.16	4077.69
560.52	4075.38
560.87	4072.24
561.23	4067.99
561.58	4064.85
561.94	4060.29
562.29	4055.55
562.64	4051.07
563.00	4046.76
563.35	4042.42
563.71	4038.26
564.06	4032.77
564.42	4028.33
564.77	4023.54
565.12	4018.56
565.48	4012.91
565.83	4007.44
566.19	4002.30
566.54	3994.50
566.89	3987.21
567.25	3980.28
567.60	3973.72
567.96	3966.11
568.31	3959.26
568.66	3951.76
569.02	3943.04
569.37	3934.46
569.72	3926.70
570.08	3917.47
570.43	3907.64
570.78	3897.58
571.14	3886.50
571.49	3876.76
571.84	3867.15
572.20	3855.39
572.55	3845.37
572.90	3833.90
573.26	3821.55
573.61	3809.11
573.96	3797.60
574.31	3784.63
574.67	3770.99
575.02	3757.05
575.37	3743.69
575.72	3729.21
576.08	3717.37
576.43	3703.65
576.78	3691.30
577.13	3679.05
577.49	3666.91
577.84	3654.38
578.19	3642.49
578.54	3631.31
578.90	3619.86
579.25	3606.39
579.60	3592.50
579.95	3578.01
580.30	3565.90
580.66	3554.23
581.01	3540.87
581.36	3527.41
581.71	3514.40
582.06	3501.69
582.42	3489.34
582.77	3475.61
583.12	3462.65
583.47	3449.53
583.82	3437.46
584.17	3424.23
584.53	3410.92
584.88	3397.40
585.23	3383.95
585.58	3370.14
585.93	3355.98
586.28	3342.40
586.63	3328.84
586.98	3316.48
587.34	3304.25
587.69	3290.73
588.04	3277.30
588.39	3264.58
588.74	3251.10
589.09	3238.89
589.44	3225.55
589.79	3213.17
590.14	3201.72
590.49	3189.37
590.84	3176.22
591.19	3165.00
591.54	3152.58
591.89	3137.82
592.25	3124.53
592.60	3110.72
592.95	3096.67
593.30	3082.14
593.65	3067.52
594.00	3053.82
594.35	3042.22
594.70	3028.60
595.05	3015.90
595.40	3002.64
595.75	2988.60
596.10	2976.27
596.45	2963.75
596.80	2952.18
597.15	2940.12
597.50	2926.72
597.85	2914.40
598.19	2901.62
598.54	2888.21
598.89	2876.25
599.24	2866.15
599.59	2854.57
599.94	2844.66
600.29	2833.73
600.64	2822.83
600.99	2810.80
601.34	2799.63
601.69	2786.36
602.04	2774.13
602.39	2761.71
602.74	2750.35
603.08	2740.35
603.43	2730.06
603.78	2718.66
604.13	2707.49
604.48	2696.02
604.83	2686.52
605.18	2676.86
605.53	2665.77
605.87	2654.03
606.22	2643.26
606.57	2631.50
606.92	2620.01
607.27	2607.58
607.62	2595.81
607.96	2585.06
608.31	2575.47
608.66	2563.79
609.01	2551.95
609.36	2540.47
609.70	2527.94
610.05	2515.40
610.40	2502.83
610.75	2489.77
611.10	2478.24
611.44	2464.17
611.79	2450.76
612.14	2436.43
612.49	2421.49
612.83	2408.76
613.18	2395.09
613.53	2381.19
613.88	2366.86
614.22	2354.09
614.57	2341.02
614.92	2328.13
615.27	2314.16
615.61	2300.13
615.96	2287.40
616.31	2275.64
616.65	2263.95
617.00	2252.56
617.35	2240.32
617.70	2227.49
618.04	2213.95
618.39	2199.47
618.74	2187.07
619.08	2174.54
619.43	2162.27
619.78	2150.75
620.12	2138.32
620.47	2126.54
620.82	2113.55
621.16	2101.15
621.51	2088.29
621.85	2075.82
622.20	2063.00
622.55	2050.91
622.89	2038.15
623.24	2025.45
623.59	2012.30
623.93	1999.37
624.28	1986.90
624.62	1974.50
624.97	1962.23
625.32	1951.25
625.66	1940.21
626.01	1928.74
626.35	1917.44
626.70	1905.79
627.04	1894.13
627.39	1882.71
627.73	1871.23
628.08	1860.62
628.43	1849.07
628.77	1837.64
629.12	1825.84
629.46	1815.47
629.81	1804.59
630.15	1793.73
630.50	1782.80
630.84	1771.40
631.19	1760.43
631.53	1749.78
631.88	1738.39
632.22	1727.11
632.57	1715.88
632.91	1704.67
633.26	1693.61
633.60	1682.46
633.95	1671.98
634.29	1661.04
634.64	1650.52
634.98	1639.48
635.32	1628.84
635.67	1619.13
636.01	1609.19
636.36	1598.66
636.70	1588.05
637.05	1577.59
637.39	1567.51
637.73	1557.96
638.08	1549.15
638.42	1539.77
638.77	1529.57
639.11	1519.93
639.45	1510.32
639.80	1500.18
640.14	1490.30
640.49	1480.36
640.83	1470.45
641.17	1460.49
641.52	1450.43
641.86	1439.73
642.20	1429.91
642.55	1419.27
642.89	1408.98
643.23	1398.27
643.58	1389.11
643.92	1378.65
644.26	1368.67
644.61	1358.92
644.95	1348.42
645.29	1337.98
645.64	1327.55
645.98	1317.75
646.32	1308.21
646.66	1298.28
647.01	1288.73
647.35	1279.29
647.69	1269.22
648.04	1259.70
648.38	1249.97
648.72	1240.48
649.06	1231.21
649.41	1221.75
649.75	1212.13
650.09	1202.84
650.43	1193.91
650.78	1184.01
651.12	1174.63
651.46	1165.52
651.80	1156.48
652.14	1147.34
652.49	1137.94
652.83	1128.56
653.17	1118.79
653.51	1109.33
653.85	1100.24
654.20	1091.44
654.54	1082.03
654.88	1073.39
655.22	1064.12
655.56	1054.92
655.90	1045.85
656.25	1036.96
656.59	1028.03
656.93	1019.81
657.27	1011.29
657.61	1002.30
657.95	994.10
658.29	986.16
658.64	977.79
658.98	969.28
659.32	960.82
659.66	952.67
660.00	944.51
660.34	936.53
660.68	928.28
661.02	920.10
661.36	912.25
661.70	904.46
662.05	896.95
662.39	889.98
662.73	882.89
663.07	875.96
663.41	868.84
663.75	861.80
664.09	854.66
664.43	847.34
664.77	840.57
665.11	833.51
665.45	826.58
665.79	819.68
666.13	812.92
666.47	806.41
666.81	800.05
667.15	793.66
667.49	787.55
667.83	781.74
668.17	775.79
668.51	769.79
668.85	763.96
669.19	758.15
669.53	752.08
669.87	745.96
670.21	739.89
670.55	734.09
670.89	728.73
671.23	723.34
671.57	718.09
671.91	712.60
672.25	707.28
672.58	701.71
672.92	696.46
673.26	691.30
673.60	686.23
673.94	680.83
674.28	675.67
674.62	670.85
674.96	665.88
675.30	661.14
675.64	656.24
675.97	651.55
676.31	646.89
676.65	642.21
676.99	637.94
677.33	633.44
677.67	628.82
678.01	623.90
678.34	619.13
678.68	614.48
679.02	609.86
679.36	605.33
679.70	601.23
680.04	596.90
680.37	592.53
680.71	588.22
681.05	584.33
681.39	580.34
681.73	576.11
682.06	572.18
682.40	568.16
682.74	564.06
683.08	560.03
683.42	555.76
683.75	551.95
684.09	547.68
684.43	543.82
684.77	539.86
685.10	536.17
685.44	532.41
685.78	528.68
686.12	525.27
686.45	521.83
686.79	518.17
687.13	514.83
687.46	511.50
687.80	508.14
688.14	504.37
688.48	500.98
688.81	497.41
689.15	493.81
689.49	490.36
689.82	487.06
690.16	483.52
690.50	480.15
690.83	476.69
691.17	473.48
691.51	470.10
691.84	467.08
692.18	464.02
692.52	461.10
692.85	458.29
693.19	455.25
693.52	452.16
693.86	449.18
694.20	446.26
694.53	443.26
694.87	440.14
695.21	437.46
695.54	434.43
695.88	431.59
696.21	428.78
696.55	426.08
696.88	423.25
697.22	420.63
697.56	418.18
697.89	415.45
698.23	412.99
698.56	410.52
698.90	408.16
699.23	405.56
699.57	403.06
699.90	400.50
700.24	398.01
700.58	395.65
700.91	393.39
701.25	391.20
701.58	388.92
701.92	386.80
702.25	384.54
702.59	382.52
702.92	380.37
703.26	378.24
703.59	376.23
703.93	374.62
704.26	372.59
704.60	370.54
704.93	368.57
705.26	366.48
705.60	364.62
705.93	362.58
706.27	360.93
706.60	359.20
706.94	357.55
707.27	355.76
707.61	353.87
707.94	352.03
708.27	349.99
708.61	348.18
708.94	346.50
709.28	344.84
709.61	343.12
709.94	341.60
710.28	340.12
710.61	338.63
710.95	336.70
711.28	335.45
711.61	333.93
711.95	332.59
712.28	331.15
712.61	329.65
712.95	328.32
713.28	326.83
713.61	325.45
713.95	323.92
714.28	322.59
714.61	321.25
714.95	319.88
715.28	318.50
715.61	317.22
715.95	315.90
716.28	314.48
716.61	313.18
716.95	311.89
717.28	310.62
717.61	309.32
717.94	308.17
718.28	306.82
718.61	305.70
718.94	304.49
719.27	303.32
719.61	302.23
719.94	301.11
720.27	299.90
720.60	298.77
720.94	297.75
721.27	296.80
721.60	295.94
721.93	294.94
722.27	294.17
722.60	293.35
722.93	292.43
723.26	291.63
723.59	290.68
723.93	289.86
724.26	288.89
724.59	287.90
724.92	287.06
725.25	286.17
725.59	285.32
725.92	284.56
726.25	283.84
726.58	283.05
726.91	282.21
727.24	281.59
727.57	280.83
727.91	280.05
728.24	279.27
728.57	278.41
728.90	277.78
729.23	276.92
729.56	276.37
729.89	275.57
730.22	274.78
730.55	274.03
730.89	273.26
731.22	272.57
731.55	271.94
731.88	271.26
732.21	270.59
732.54	269.79
732.87	269.01
733.20	268.29
733.53	267.60
733.86	266.97
734.19	266.20
734.52	265.55
734.85	265.20
735.18	264.52
735.51	264.14
735.84	263.55
736.17	263.09
736.50	262.19
736.83	262.03
737.16	261.50
737.49	261.07
737.82	260.47
738.15	259.93
738.48	259.38
738.81	258.75
739.14	258.16
739.47	257.71
739.80	257.20
740.13	256.70
740.46	256.10
740.79	255.58
741.12	255.05
741.45	254.46
741.78	253.71
742.11	253.39
742.44	252.65
742.77	252.19
743.10	251.62
743.43	251.10
743.75	250.27
744.08	250.26
744.41	249.77
744.74	249.33
745.07	248.86
745.40	248.46
745.73	248.24
746.06	247.86
746.39	247.48
746.71	247.05
747.04	246.68
747.37	246.21
747.70	245.85
748.03	245.45
748.36	245.14
748.68	244.73
749.01	244.18
749.34	243.83
749.67	243.41
750.00	243.10
750.33	242.98
750.65	242.58
750.98	241.70
751.31	241.38
751.64	240.98
751.97	240.85
752.29	240.50
752.62	239.90
752.95	239.55
753.28	239.10
753.60	238.76
753.93	238.46
754.26	238.29
754.59	237.81
754.91	237.46
755.24	237.13
755.57	236.87
755.90	236.60
756.22	236.35
756.55	235.96
756.88	235.55
757.20	235.05
757.53	234.76
757.86	234.52
758.19	234.19
758.51	233.93
758.84	233.41
759.17	233.07
759.49	232.95
759.82	232.81
760.15	232.65
760.47	232.44
760.80	232.04
761.13	231.77
761.45	231.54
761.78	231.28
762.11	231.05
762.43	230.75
762.76	230.41
763.08	230.23
763.41	230.09
763.74	229.90
764.06	229.70
764.39	229.50
764.71	229.23
765.04	228.99
765.37	228.76
765.69	228.63
766.02	228.45
766.34	228.21
766.67	227.85
767.00	227.64
767.32	227.61
767.65	227.66
767.97	227.51
768.30	227.43
768.62	227.27
768.95	227.13
769.27	227.00
769.60	226.93
769.92	226.67
770.25	226.44
770.57	226.23
770.90	226.07
771.22	225.79
771.55	225.72
771.87	225.63
772.20	225.55
772.52	225.65
772.85	225.89
773.17	225.73
773.50	225.62
773.82	225.49
774.15	225.14
774.47	224.78
774.80	224.63
775.12	224.41
775.45	224.28
775.77	224.13
776.09	224.04
776.42	223.95
776.74	223.91
777.07	223.82
777.39	223.71
777.72	223.57
778.04	223.52
778.36	223.39
778.69	223.28
779.01	223.11
779.33	222.73
779.66	222.26
779.98	222.14
780.31	221.98
780.63	222.05
780.95	221.99
781.28	221.95
781.60	221.79
781.92	221.71
782.25	221.60
782.57	221.47
782.89	221.34
783.22	221.15
783.54	220.95
783.86	220.86
784.19	220.78
784.51	220.78
784.83	220.67
785.16	220.52
