SpectraSuite Data File
++++++++++++++++++++++++++++++++++++
Date: Mon Feb 25 17:00:00 EST 2013
User: group
Dark Spectrum Present: No
Reference Spectrum Present: No
Number of Sampled Component Spectra: 1
Spectrometers: USB2E7196
Integration Time (usec): 104000 (USB2E7196)
Spectra Averaged: 20 (USB2E7196)
Boxcar Smoothing: 10 (USB2E7196)
Correct for Electrical Dark: No (USB2E7196)
Strobe/Lamp Enabled: No (USB2E7196)
Correct for Detector Non-linearity: No (USB2E7196)
Correct for Stray Light: No (USB2E7196)
Number of Pixels in Processed Spectrum: 2048
>>>>>Begin Processed Spectral Data<<<<<
339.09	0.00
339.48	199.05
339.86	199.85
340.24	201.75
340.63	203.30
341.01	209.95
341.39	205.55
341.78	206.75
342.16	208.80
342.54	208.75
342.93	198.33
343.31	208.40
343.69	208.91
344.07	209.37
344.46	209.78
344.84	210.11
345.22	210.16
345.60	210.49
345.99	210.71
346.37	210.90
346.75	211.06
347.13	211.19
347.52	211.21
347.90	211.43
348.28	211.41
348.66	211.49
349.05	211.45
349.43	211.59
349.81	211.71
350.19	211.78
350.57	211.80
350.96	211.90
351.34	211.93
351.72	212.05
352.10	212.18
352.48	212.25
352.87	212.34
353.25	212.41
353.63	212.45
354.01	212.49
354.39	212.52
354.77	212.52
355.15	212.67
355.54	212.70
355.92	212.53
356.30	212.63
356.68	212.93
357.06	213.05
357.44	213.03
357.82	213.05
358.20	213.11
358.58	213.15
358.97	213.23
359.35	213.39
359.73	213.53
360.11	213.62
360.49	213.71
360.87	213.76
361.25	213.82
361.63	213.93
362.01	214.02
362.39	214.03
362.77	214.09
363.15	214.00
363.53	214.06
363.91	214.20
364.29	214.20
364.67	213.87
365.05	213.81
365.43	213.87
365.81	213.93
366.19	214.06
366.57	214.16
366.95	214.16
367.33	214.00
367.71	213.94
368.09	213.93
368.47	213.96
368.85	213.87
369.23	213.86
369.61	213.66
369.99	213.74
370.37	213.69
370.75	213.84
371.13	213.75
371.51	213.61
371.89	213.56
372.27	213.57
372.65	213.50
373.03	213.51
373.41	213.44
373.78	213.40
374.16	213.17
374.54	213.02
374.92	212.88
375.30	212.85
375.68	212.74
376.06	212.69
376.44	212.55
376.82	212.59
377.19	212.59
377.57	212.57
377.95	212.35
378.33	212.27
378.71	211.99
379.09	212.01
379.47	212.01
379.84	211.87
380.22	211.78
380.60	211.75
380.98	211.61
381.36	211.53
381.73	211.37
382.11	211.36
382.49	211.38
382.87	211.34
383.25	211.30
383.62	211.58
384.00	211.54
384.38	211.54
384.76	211.57
385.13	211.62
385.51	211.59
385.89	211.57
386.27	211.56
386.64	211.64
387.02	211.55
387.40	211.61
387.78	211.61
388.15	211.59
388.53	211.53
388.91	211.54
389.29	211.49
389.66	211.52
390.04	211.47
390.42	211.45
390.79	211.46
391.17	211.46
391.55	211.13
391.92	211.08
392.30	211.03
392.68	210.88
393.05	210.85
393.43	210.86
393.81	210.85
394.18	210.79
394.56	210.73
394.94	210.85
395.31	210.75
395.69	210.95
396.06	210.97
396.44	211.00
396.82	210.98
397.19	211.14
397.57	211.11
397.95	211.21
398.32	211.09
398.70	211.16
399.07	211.24
399.45	211.25
399.82	211.25
400.20	211.26
400.58	211.43
400.95	211.32
401.33	211.42
401.70	211.67
402.08	211.78
402.45	211.90
402.83	212.04
403.20	212.16
403.58	212.14
403.95	212.29
404.33	212.45
404.71	212.65
405.08	213.07
405.46	213.35
405.83	213.50
406.21	213.72
406.58	213.91
406.96	214.13
407.33	214.40
407.70	214.84
408.08	215.47
408.45	215.78
408.83	216.18
409.20	216.54
409.58	216.79
409.95	217.27
410.33	217.70
410.70	218.06
411.08	218.65
411.45	219.26
411.82	219.84
412.20	220.61
412.57	221.48
412.95	221.88
413.32	222.68
413.69	223.55
414.07	224.52
414.44	225.56
414.82	226.57
415.19	227.87
415.56	229.00
415.94	230.14
416.31	231.63
416.68	233.13
417.06	234.86
417.43	236.57
417.81	238.49
418.18	240.45
418.55	242.57
418.93	244.71
419.30	246.94
419.67	249.48
420.04	251.93
420.42	254.46
420.79	257.67
421.16	260.67
421.54	263.92
421.91	267.20
422.28	270.60
422.66	274.25
423.03	277.90
423.40	281.62
423.77	285.56
424.15	289.64
424.52	293.92
424.89	298.50
425.26	303.02
425.64	307.25
426.01	312.02
426.38	317.00
426.75	322.15
427.13	327.43
427.50	332.89
427.87	338.61
428.24	344.41
428.61	349.80
428.99	356.03
429.36	362.52
429.73	369.15
430.10	375.63
430.47	382.34
430.85	389.10
431.22	396.48
431.59	404.35
431.96	411.80
432.33	420.05
432.70	428.21
433.08	437.51
433.45	446.36
433.82	455.26
434.19	465.06
434.56	474.82
434.93	484.13
435.30	493.50
435.68	503.97
436.05	514.33
436.42	524.78
436.79	534.23
437.16	544.55
437.53	555.25
437.90	565.94
438.27	576.61
438.64	587.71
439.01	598.02
439.38	607.25
439.75	616.43
440.13	626.51
440.50	636.17
440.87	644.31
441.24	652.86
441.61	662.06
441.98	669.18
442.35	677.14
442.72	685.39
443.09	693.39
443.46	698.41
443.83	702.07
444.20	705.27
444.57	709.66
444.94	712.30
445.31	714.94
445.68	717.77
446.05	719.21
446.42	719.00
446.79	718.59
447.16	718.05
447.53	717.78
447.90	714.74
448.27	711.66
448.64	706.92
449.01	703.67
449.37	697.30
449.74	691.23
450.11	683.97
450.48	675.89
450.85	667.18
451.22	660.09
451.59	653.28
451.96	646.75
452.33	637.85
452.70	629.70
453.07	619.90
453.43	609.77
453.80	600.26
454.17	591.07
454.54	582.31
454.91	572.84
455.28	563.64
455.65	555.05
456.02	546.49
456.38	539.17
456.75	529.93
457.12	522.41
457.49	514.88
457.86	507.29
458.23	500.84
458.59	494.10
458.96	487.09
459.33	480.79
459.70	474.49
460.07	469.53
460.43	463.78
460.80	458.34
461.17	453.55
461.54	448.60
461.91	443.91
462.27	439.12
462.64	435.15
463.01	430.55
463.38	426.36
463.74	421.78
464.11	417.83
464.48	414.47
464.85	410.76
465.21	407.94
465.58	405.06
465.95	401.39
466.32	398.35
466.68	395.33
467.05	392.35
467.42	389.38
467.78	386.15
468.15	383.16
468.52	381.05
468.88	378.11
469.25	375.53
469.62	373.42
469.98	371.02
470.35	368.70
470.72	366.73
471.08	364.48
471.45	362.59
471.82	360.83
472.18	358.74
472.55	357.23
472.92	355.34
473.28	353.77
473.65	352.24
474.02	350.77
474.38	349.47
474.75	348.31
475.11	347.06
475.48	346.13
475.85	345.22
476.21	344.30
476.58	343.70
476.94	343.21
477.31	342.41
477.67	341.83
478.04	341.42
478.41	341.01
478.77	341.00
479.14	340.63
479.50	340.38
479.87	340.36
480.23	340.25
480.60	340.03
480.96	339.84
481.33	340.15
481.69	340.26
482.06	340.30
482.42	340.46
482.79	340.71
483.15	341.05
483.52	341.59
483.88	341.93
484.25	342.28
484.61	342.66
484.98	343.31
485.34	344.09
485.71	344.89
486.07	345.64
486.44	346.14
486.80	347.14
487.17	348.06
487.53	349.23
487.90	350.53
488.26	352.03
488.62	353.54
488.99	354.78
489.35	356.20
489.72	357.89
490.08	359.51
490.44	361.04
490.81	362.79
491.17	364.55
491.54	366.46
491.90	368.46
492.26	370.53
492.63	372.62
492.99	374.76
493.36	376.92
493.72	379.31
494.08	381.71
494.45	384.23
494.81	387.01
495.17	389.59
495.54	392.25
495.90	394.81
496.26	397.46
496.63	400.26
496.99	403.15
497.35	406.10
497.72	409.07
498.08	412.25
498.44	415.30
498.80	418.55
499.17	421.68
499.53	424.85
499.89	428.22
500.26	431.34
500.62	434.57
500.98	437.97
501.34	441.31
501.71	444.67
502.07	447.87
502.43	450.85
502.79	453.88
503.16	456.93
503.52	460.27
503.88	463.41
504.24	466.61
504.60	469.75
504.97	472.77
505.33	475.87
505.69	479.10
506.05	482.18
506.41	484.90
506.78	487.62
507.14	490.36
507.50	492.88
507.86	495.61
508.22	498.22
508.59	500.61
508.95	503.05
509.31	505.54
509.67	507.94
510.03	510.39
510.39	512.80
510.75	515.06
511.12	517.25
511.48	519.49
511.84	521.58
512.20	523.63
512.56	525.64
512.92	527.50
513.28	529.11
513.64	530.68
514.00	532.32
514.37	533.97
514.73	535.60
515.09	537.21
515.45	538.59
515.81	539.95
516.17	541.32
516.53	542.40
516.89	543.36
517.25	544.36
517.61	545.29
517.97	546.23
518.33	547.03
518.69	547.68
519.05	548.35
519.41	549.04
519.77	549.87
520.13	550.40
520.49	550.93
520.85	551.56
521.21	552.44
521.57	553.10
521.93	553.57
522.29	554.17
522.65	554.63
523.01	555.27
523.37	555.55
523.73	555.92
524.09	556.47
524.45	556.95
524.81	557.59
525.17	558.27
525.53	558.91
525.89	559.58
526.25	560.17
526.61	560.58
526.97	561.14
527.33	561.58
527.68	562.46
528.04	563.11
528.40	563.64
528.76	564.10
529.12	564.92
529.48	566.05
529.84	566.80
530.20	567.61
530.56	568.49
530.91	569.83
531.27	570.88
531.63	571.93
531.99	573.14
532.35	574.20
532.71	575.26
533.07	576.60
533.42	578.15
533.78	579.64
534.14	581.26
534.50	582.60
534.86	584.05
535.21	585.30
535.57	587.09
535.93	588.65
536.29	590.45
536.65	592.10
537.00	593.60
537.36	595.17
537.72	597.00
538.08	598.77
538.44	600.57
538.79	602.62
539.15	604.44
539.51	606.47
539.87	608.56
540.22	610.64
540.58	612.88
540.94	614.82
541.29	616.91
541.65	618.77
542.01	621.09
542.37	623.39
542.72	625.58
543.08	627.57
543.44	630.02
543.79	632.02
544.15	634.41
544.51	636.95
544.87	639.74
545.22	642.21
545.58	644.50
545.94	646.55
546.29	648.76
546.65	651.23
547.01	653.56
547.36	655.87
547.72	658.23
548.07	660.48
548.43	662.74
548.79	665.00
549.14	667.38
549.50	669.84
549.86	672.14
550.21	674.70
550.57	677.39
550.92	679.86
551.28	682.39
551.64	684.73
551.99	687.34
552.35	689.47
552.70	691.81
553.06	694.52
553.41	697.19
553.77	699.95
554.13	702.57
554.48	705.12
554.84	707.86
555.19	710.44
555.55	713.20
555.90	715.47
556.26	717.72
556.61	720.08
556.97	722.18
557.32	724.63
557.68	726.80
558.03	728.97
558.39	731.03
558.74	733.22
559.10	735.44
559.45	737.34
559.81	739.68
560.16	741.64
560.52	743.63
560.87	745.77
561.23	747.56
561.58	749.80
561.94	751.55
562.29	753.26
562.64	755.40
563.00	756.99
563.35	759.21
563.71	761.53
564.06	763.70
564.42	765.80
564.77	767.77
565.12	769.82
565.48	771.99
565.83	774.01
566.19	776.25
566.54	778.05
566.89	779.90
567.25	781.71
567.60	783.75
567.96	785.66
568.31	787.60
568.66	789.35
569.02	790.44
569.37	791.80
569.72	793.34
570.08	794.59
570.43	795.79
570.78	796.77
571.14	797.54
571.49	798.51
571.84	799.45
572.20	800.25
572.55	801.05
572.90	801.40
573.26	801.89
573.61	802.08
573.96	802.67
574.31	802.92
574.67	802.91
575.02	802.87
575.37	802.80
575.72	802.27
576.08	802.29
576.43	802.14
576.78	802.15
577.13	802.17
577.49	801.93
577.84	801.71
578.19	801.71
578.54	801.93
578.90	801.81
579.25	801.37
579.60	800.79
579.95	800.05
580.30	799.66
580.66	799.28
581.01	798.68
581.36	797.68
581.71	796.99
582.06	796.56
582.42	795.86
582.77	794.92
583.12	794.34
583.47	793.73
583.82	793.06
584.17	792.28
584.53	791.38
584.88	790.44
585.23	789.60
585.58	788.53
585.93	787.18
586.28	786.15
586.63	785.23
586.98	784.44
587.34	783.80
587.69	782.49
588.04	781.48
588.39	780.55
588.74	779.74
589.09	779.04
589.44	777.74
589.79	776.77
590.14	776.12
590.49	775.05
590.84	773.82
591.19	772.97
591.54	771.93
591.89	770.21
592.25	769.11
592.60	767.76
592.95	766.34
593.30	764.90
593.65	763.22
594.00	761.60
594.35	761.01
594.70	759.37
595.05	758.23
595.40	756.61
595.75	754.94
596.10	753.36
596.45	751.71
596.80	750.49
597.15	749.23
597.50	747.11
597.85	745.53
598.19	743.73
598.54	742.08
598.89	740.36
599.24	739.18
599.59	737.43
599.94	735.90
600.29	734.28
600.64	732.75
600.99	731.20
601.34	729.83
601.69	727.08
602.04	725.32
602.39	723.39
602.74	721.80
603.08	720.35
603.43	718.91
603.78	717.05
604.13	714.97
604.48	713.02
604.83	711.84
605.18	710.28
605.53	708.49
605.87	706.66
606.22	704.95
606.57	703.04
606.92	701.11
607.27	699.11
607.62	697.28
607.96	695.48
608.31	693.76
608.66	691.83
609.01	690.11
609.36	688.20
609.70	686.28
610.05	684.02
610.40	681.87
610.75	679.51
611.10	677.63
611.44	675.60
611.79	673.23
612.14	670.82
612.49	668.37
612.83	666.08
613.18	663.65
613.53	661.20
613.88	658.74
614.22	656.59
614.57	654.30
614.92	651.93
615.27	649.61
615.61	647.33
615.96	645.02
616.31	642.86
616.65	640.99
617.00	638.73
617.35	636.67
617.70	634.30
618.04	632.03
618.39	629.36
618.74	627.09
619.08	624.83
619.43	622.52
619.78	620.33
620.12	618.19
620.47	615.98
620.82	613.61
621.16	611.14
621.51	608.81
621.85	606.60
622.20	604.18
622.55	601.68
622.89	599.15
623.24	596.68
623.59	593.99
623.93	591.42
624.28	589.14
624.62	587.21
624.97	585.11
625.32	582.78
625.66	580.59
626.01	578.18
626.35	575.94
626.70	573.63
627.04	571.52
627.39	569.18
627.73	567.18
628.08	565.24
628.43	563.17
628.77	560.93
629.12	558.43
629.46	556.43
629.81	554.34
630.15	552.13
630.50	550.02
630.84	547.85
631.19	545.64
631.53	543.60
631.88	540.94
632.22	538.51
632.57	536.77
632.91	534.76
633.26	532.62
633.60	530.40
633.95	528.23
634.29	525.96
634.64	523.98
634.98	521.58
635.32	519.41
635.67	517.47
636.01	515.44
636.36	513.60
636.70	511.70
637.05	509.69
637.39	507.84
637.73	506.02
638.08	504.58
638.42	502.87
638.77	501.03
639.11	499.23
639.45	497.51
639.80	495.14
640.14	493.14
640.49	491.28
640.83	489.46
641.17	487.61
641.52	485.67
641.86	483.63
642.20	481.89
642.55	479.88
642.89	477.93
643.23	475.99
643.58	474.40
643.92	472.18
644.26	470.19
644.61	468.33
644.95	466.33
645.29	464.03
645.64	461.92
645.98	459.82
646.32	457.98
646.66	455.83
647.01	454.07
647.35	452.15
647.69	450.23
648.04	448.48
648.38	446.63
648.72	444.75
649.06	442.90
649.41	440.86
649.75	438.97
650.09	437.06
650.43	435.20
650.78	432.95
651.12	431.12
651.46	429.36
651.80	427.58
652.14	425.70
652.49	424.02
652.83	422.17
653.17	420.32
653.51	418.42
653.85	416.87
654.20	415.07
654.54	413.30
654.88	411.53
655.22	409.72
655.56	407.86
655.90	406.07
656.25	404.31
656.59	402.61
656.93	400.93
657.27	399.46
657.61	397.63
657.95	396.06
658.29	394.58
658.64	393.13
658.98	391.37
659.32	389.68
659.66	387.94
660.00	386.30
660.34	384.65
660.68	383.06
661.02	381.21
661.36	379.59
661.70	378.07
662.05	376.52
662.39	375.10
662.73	373.82
663.07	372.57
663.41	371.12
663.75	369.69
664.09	368.29
664.43	366.64
664.77	365.25
665.11	363.83
665.45	362.46
665.79	360.99
666.13	359.66
666.47	358.29
666.81	356.99
667.15	355.61
667.49	354.42
667.83	353.21
668.17	352.07
668.51	350.95
668.85	349.76
669.19	348.82
669.53	347.38
669.87	345.96
670.21	344.60
670.55	343.39
670.89	342.47
671.23	341.36
671.57	340.25
671.91	339.15
672.25	337.95
672.58	336.81
672.92	335.61
673.26	334.43
673.60	333.42
673.94	332.35
674.28	331.26
674.62	330.21
674.96	329.05
675.30	328.04
675.64	326.91
675.97	325.81
676.31	324.61
676.65	323.67
676.99	322.96
677.33	321.93
677.67	320.92
678.01	319.69
678.34	318.65
678.68	317.74
679.02	316.72
679.36	315.75
679.70	314.76
680.04	313.79
680.37	312.85
680.71	311.89
681.05	311.01
681.39	310.16
681.73	309.14
682.06	308.29
682.40	307.31
682.74	306.36
683.08	305.61
683.42	304.64
683.75	303.80
684.09	302.65
684.43	301.74
684.77	300.83
685.10	299.95
685.44	299.07
685.78	298.16
686.12	297.43
686.45	296.61
686.79	295.77
687.13	295.05
687.46	294.24
687.80	293.58
688.14	292.70
688.48	291.98
688.81	291.19
689.15	290.37
689.49	289.51
689.82	288.73
690.16	287.81
690.50	287.03
690.83	286.19
691.17	285.37
691.51	284.69
691.84	283.95
692.18	283.20
692.52	282.49
692.85	281.88
693.19	281.24
693.52	280.51
693.86	279.74
694.20	278.95
694.53	278.32
694.87	277.47
695.21	276.74
695.54	275.95
695.88	275.21
696.21	274.49
696.55	273.92
696.88	273.23
697.22	272.54
697.56	272.02
697.89	271.37
698.23	270.85
698.56	270.15
698.90	269.60
699.23	268.96
699.57	268.30
699.90	267.51
700.24	266.79
700.58	266.27
700.91	265.79
701.25	265.51
701.58	264.93
701.92	264.39
702.25	263.89
702.59	263.30
702.92	262.85
703.26	262.31
703.59	261.77
703.93	261.56
704.26	261.09
704.60	260.49
704.93	259.95
705.26	259.35
705.60	258.85
705.93	258.27
706.27	257.82
706.60	257.51
706.94	257.34
707.27	256.79
707.61	256.34
707.94	255.76
708.27	255.05
708.61	254.52
708.94	254.10
709.28	253.55
709.61	253.11
709.94	252.67
710.28	252.27
710.61	251.83
710.95	251.07
711.28	250.79
711.61	250.40
711.95	250.13
712.28	249.64
712.61	249.24
712.95	249.02
713.28	248.86
713.61	248.35
713.95	247.84
714.28	247.53
714.61	247.08
714.95	246.75
715.28	246.28
715.61	245.92
715.95	245.55
716.28	245.21
716.61	244.95
716.95	244.52
717.28	244.13
717.61	243.89
717.94	243.63
718.28	243.11
718.61	242.72
718.94	242.31
719.27	242.07
719.61	241.85
719.94	241.46
720.27	240.87
720.60	240.48
720.94	240.11
721.27	239.84
721.60	239.59
721.93	239.33
722.27	239.21
722.60	239.02
722.93	238.71
723.26	238.49
723.59	238.20
723.93	237.96
724.26	237.68
724.59	237.36
724.92	237.11
725.25	236.94
725.59	236.74
725.92	236.50
726.25	236.26
726.58	236.02
726.91	235.75
727.24	235.65
727.57	235.43
727.91	235.14
728.24	234.91
728.57	234.64
728.90	234.46
729.23	234.02
729.56	233.84
729.89	233.61
730.22	233.35
730.55	233.07
730.89	232.83
731.22	232.67
731.55	232.42
731.88	232.18
732.21	231.83
732.54	231.56
732.87	231.36
733.20	231.15
733.53	230.94
733.86	230.81
734.19	230.58
734.52	230.53
734.85	230.59
735.18	230.36
735.51	230.26
735.84	230.02
736.17	230.06
736.50	229.74
736.83	229.96
737.16	229.77
737.49	229.59
737.82	229.43
738.15	229.27
738.48	229.13
738.81	229.01
739.14	228.88
739.47	228.72
739.80	228.55
740.13	228.45
740.46	228.18
740.79	227.91
741.12	227.70
741.45	227.46
741.78	227.13
742.11	226.98
742.44	226.78
742.77	226.64
743.10	226.41
743.43	226.25
743.75	225.74
744.08	226.01
744.41	225.87
744.74	225.70
745.07	225.57
745.40	225.41
745.73	225.34
746.06	225.21
746.39	225.09
746.71	224.90
747.04	224.70
747.37	224.51
747.70	224.42
748.03	224.28
748.36	224.16
748.68	223.97
749.01	223.78
749.34	223.64
749.67	223.58
750.00	223.48
750.33	223.65
750.65	223.54
750.98	222.98
751.31	222.86
751.64	222.85
751.97	222.83
752.29	222.71
752.62	222.47
752.95	222.37
753.28	222.27
753.60	222.16
753.93	222.16
754.26	222.15
754.59	222.01
754.91	221.85
755.24	221.78
755.57	221.70
755.90	221.55
756.22	221.39
756.55	221.19
756.88	221.00
757.20	220.52
757.53	220.34
757.86	220.22
758.19	220.17
758.51	220.04
758.84	219.78
759.17	219.66
759.49	219.55
759.82	219.59
760.15	219.47
760.47	219.36
760.80	219.16
761.13	219.16
761.45	219.00
761.78	218.91
762.11	218.78
762.43	218.68
762.76	218.67
763.08	218.64
763.41	218.55
763.74	218.48
764.06	218.50
764.39	218.43
764.71	218.33
765.04	218.21
765.37	218.06
765.69	217.99
766.02	217.89
766.34	217.85
766.67	217.67
767.00	217.69
767.32	217.84
767.65	217.98
767.97	217.74
768.30	217.74
768.62	217.73
768.95	217.60
769.27	217.50
769.60	217.51
769.92	217.44
770.25	217.30
770.57	217.16
770.90	217.02
771.22	216.93
771.55	216.87
771.87	216.79
772.20	216.73
772.52	216.96
772.85	217.30
773.17	217.17
773.50	217.07
773.82	216.96
774.15	216.75
774.47	216.41
774.80	216.40
775.12	216.32
775.45	216.28
775.77	216.29
776.09	216.31
776.42	216.18
776.74	216.18
777.07	216.15
777.39	216.15
777.72	216.17
778.04	216.18
778.36	216.15
778.69	216.17
779.01	216.10
779.33	215.75
779.66	215.38
779.98	215.38
780.31	215.42
780.63	215.49
780.95	215.51
781.28	215.53
781.60	215.45
781.92	215.46
782.25	215.41
782.57	215.36
782.89	215.30
783.22	215.23
783.54	215.16
783.86	215.18
784.19	215.14
784.51	215.16
784.83	215.01
785.16	215.01
785.48	214.95
785.80	214.96
786.12	214.91
786.45	214.82
786.77	214.74
787.09	214.59
787.42	214.45
787.74	214.38
788.06	214.35
788.38	214.32
788.71	214.25
789.03	214.24
789.35	214.28
789.67	214.13
789.99	214.15
790.32	214.03
790.64	214.05
790.96	214.36
791.28	214.26
791.61	214.26
791.93	214.23
792.25	214.12
792.57	214.38
792.89	214.34
793.21	214.38
793.54	214.33
793.86	214.32
794.18	214.25
