SpectraSuite Data File
++++++++++++++++++++++++++++++++++++
Date: Mon Feb 25 17:18:10 EST 2013
User: group
Dark Spectrum Present: No
Reference Spectrum Present: No
Number of Sampled Component Spectra: 1
Spectrometers: USB2E7196
Integration Time (usec): 104000 (USB2E7196)
Spectra Averaged: 20 (USB2E7196)
Boxcar Smoothing: 10 (USB2E7196)
Correct for Electrical Dark: No (USB2E7196)
Strobe/Lamp Enabled: No (USB2E7196)
Correct for Detector Non-linearity: No (USB2E7196)
Correct for Stray Light: No (USB2E7196)
Number of Pixels in Processed Spectrum: 2048
>>>>>Begin Processed Spectral Data<<<<<
339.09	0.00
339.48	197.50
339.86	200.05
340.24	201.30
340.63	201.80
341.01	210.00
341.39	205.50
341.78	206.90
342.16	210.00
342.54	208.30
342.93	198.11
343.31	208.15
343.69	208.70
344.07	209.14
344.46	209.61
344.84	210.13
345.22	210.21
345.60	210.50
345.99	210.72
346.37	210.81
346.75	210.98
347.13	211.07
347.52	211.20
347.90	211.39
348.28	211.49
348.66	211.64
349.05	211.52
349.43	211.65
349.81	211.74
350.19	211.86
350.57	211.94
350.96	212.06
351.34	212.20
351.72	212.35
352.10	212.48
352.48	212.59
352.87	212.59
353.25	212.69
353.63	212.69
354.01	212.69
354.39	212.73
354.77	212.77
355.15	212.87
355.54	213.00
355.92	212.90
356.30	212.95
356.68	213.27
357.06	213.36
357.44	213.37
357.82	213.42
358.20	213.54
358.58	213.62
358.97	213.74
359.35	213.80
359.73	213.94
360.11	213.98
360.49	214.02
360.87	214.11
361.25	214.15
361.63	214.40
362.01	214.54
362.39	214.59
362.77	214.71
363.15	214.77
363.53	214.74
363.91	214.82
364.29	214.83
364.67	214.48
365.05	214.51
365.43	214.64
365.81	214.65
366.19	214.78
366.57	214.88
366.95	214.83
367.33	214.82
367.71	214.83
368.09	215.01
368.47	215.00
368.85	215.00
369.23	215.05
369.61	214.87
369.99	214.95
370.37	215.00
370.75	215.07
371.13	214.93
371.51	214.87
371.89	214.85
372.27	214.86
372.65	214.80
373.03	214.81
373.41	214.70
373.78	214.67
374.16	214.53
374.54	214.39
374.92	214.27
375.30	214.24
375.68	214.04
376.06	214.01
376.44	213.95
376.82	213.90
377.19	213.75
377.57	213.77
377.95	213.57
378.33	213.47
378.71	213.34
379.09	213.40
379.47	213.32
379.84	213.33
380.22	213.26
380.60	213.22
380.98	213.14
381.36	213.14
381.73	213.05
382.11	213.03
382.49	213.01
382.87	213.03
383.25	213.00
383.62	213.41
384.00	213.24
384.38	213.22
384.76	213.27
385.13	213.39
385.51	213.32
385.89	213.23
386.27	213.14
386.64	213.10
387.02	213.09
387.40	213.06
387.78	212.99
388.15	212.99
388.53	212.91
388.91	212.92
389.29	212.85
389.66	212.86
390.04	212.78
390.42	212.78
390.79	212.76
391.17	212.63
391.55	212.28
391.92	212.24
392.30	212.25
392.68	212.07
393.05	212.05
393.43	212.05
393.81	212.16
394.18	212.18
394.56	212.19
394.94	212.25
395.31	212.25
395.69	212.32
396.06	212.32
396.44	212.39
396.82	212.36
397.19	212.51
397.57	212.50
397.95	212.60
398.32	212.51
398.70	212.54
399.07	212.63
399.45	212.71
399.82	212.75
400.20	212.76
400.58	212.92
400.95	212.88
401.33	212.96
401.70	213.21
402.08	213.30
402.45	213.34
402.83	213.41
403.20	213.54
403.58	213.55
403.95	213.70
404.33	213.85
404.71	213.98
405.08	214.31
405.46	214.45
405.83	214.57
406.21	214.72
406.58	214.88
406.96	215.11
407.33	215.22
407.70	215.51
408.08	216.01
408.45	216.28
408.83	216.57
409.20	216.79
409.58	216.86
409.95	217.20
410.33	217.57
410.70	217.84
411.08	218.30
411.45	218.80
411.82	219.21
412.20	219.70
412.57	220.32
412.95	220.53
413.32	221.24
413.69	221.91
414.07	222.64
414.44	223.36
414.82	224.08
415.19	225.01
415.56	225.88
415.94	226.57
416.31	227.61
416.68	228.65
417.06	229.87
417.43	231.05
417.81	232.39
418.18	233.74
418.55	235.19
418.93	236.65
419.30	238.24
419.67	239.83
420.04	241.48
420.42	243.20
420.79	245.45
421.16	247.41
421.54	249.69
421.91	251.98
422.28	254.28
422.66	256.71
423.03	259.20
423.40	261.62
423.77	264.29
424.15	266.80
424.52	269.57
424.89	272.56
425.26	275.48
425.64	278.24
426.01	281.22
426.38	284.36
426.75	287.69
427.13	290.95
427.50	294.55
427.87	298.26
428.24	301.90
428.61	305.30
428.99	309.25
429.36	313.24
429.73	317.31
430.10	321.40
430.47	325.50
430.85	329.65
431.22	334.15
431.59	339.25
431.96	343.90
432.33	349.02
432.70	353.97
433.08	359.72
433.45	365.14
433.82	370.66
434.19	376.58
434.56	382.51
434.93	388.15
435.30	393.69
435.68	399.75
436.05	405.95
436.42	411.96
436.79	417.58
437.16	423.48
437.53	429.70
437.90	435.91
438.27	442.15
438.64	448.40
439.01	454.41
439.38	459.33
439.75	464.44
440.13	470.18
440.50	475.63
440.87	480.11
441.24	484.68
441.61	489.79
441.98	493.65
442.35	497.73
442.72	502.18
443.09	506.52
443.46	509.08
443.83	510.72
444.20	512.14
444.57	514.12
444.94	515.12
445.31	516.17
445.68	517.30
446.05	517.57
446.42	517.13
446.79	516.17
447.16	515.29
447.53	514.56
447.90	512.04
448.27	509.58
448.64	506.21
449.01	503.77
449.37	499.49
449.74	495.34
450.11	490.77
450.48	485.30
450.85	479.79
451.22	475.28
451.59	470.90
451.96	466.69
452.33	461.05
452.70	455.91
453.07	449.69
453.43	443.35
453.80	437.54
454.17	431.73
454.54	426.59
454.91	420.83
455.28	415.37
455.65	410.30
456.02	405.47
456.38	401.07
456.75	395.68
457.12	391.01
457.49	386.51
457.86	381.92
458.23	378.34
458.59	374.26
458.96	369.98
459.33	366.22
459.70	362.60
460.07	359.75
460.43	356.52
460.80	353.57
461.17	350.88
461.54	347.96
461.91	345.22
462.27	342.30
462.64	339.98
463.01	337.45
463.38	335.04
463.74	332.14
464.11	329.92
464.48	328.00
464.85	325.94
465.21	324.48
465.58	322.86
465.95	320.77
466.32	319.12
466.68	317.54
467.05	315.90
467.42	314.27
467.78	312.50
468.15	310.93
468.52	309.78
468.88	308.20
469.25	306.87
469.62	305.88
469.98	304.74
470.35	303.68
470.72	302.55
471.08	301.34
471.45	300.54
471.82	299.79
472.18	298.84
472.55	298.20
472.92	297.34
473.28	296.67
473.65	296.06
474.02	295.37
474.38	294.94
474.75	294.61
475.11	294.17
475.48	293.99
475.85	293.68
476.21	293.42
476.58	293.40
476.94	293.50
477.31	293.52
477.67	293.52
478.04	293.63
478.41	293.86
478.77	294.46
479.14	294.66
479.50	294.96
479.87	295.37
480.23	295.94
480.60	296.35
480.96	296.78
481.33	297.50
481.69	298.32
482.06	299.06
482.42	299.89
482.79	300.79
483.15	301.74
483.52	303.03
483.88	304.20
484.25	305.41
484.61	306.66
484.98	307.94
485.34	309.63
485.71	311.36
486.07	313.05
486.44	314.54
486.80	316.45
487.17	318.40
487.53	320.68
487.90	323.00
488.26	325.60
488.62	328.32
488.99	330.96
489.35	333.74
489.72	336.73
490.08	339.89
490.44	343.10
490.81	346.64
491.17	350.11
491.54	353.93
491.90	357.97
492.26	362.23
492.63	366.65
492.99	371.19
493.36	375.98
493.72	381.23
494.08	386.54
494.45	392.34
494.81	398.42
495.17	404.46
495.54	410.83
495.90	417.33
496.26	424.30
496.63	431.45
496.99	439.04
497.35	446.89
497.72	455.03
498.08	463.43
498.44	472.14
498.80	481.60
499.17	491.21
499.53	501.09
499.89	511.46
500.26	521.93
500.62	532.80
500.98	544.29
501.34	556.05
501.71	568.30
502.07	580.67
502.43	593.35
502.79	606.44
503.16	620.19
503.52	634.32
503.88	648.73
504.24	663.74
504.60	678.99
504.97	694.88
505.33	710.88
505.69	728.08
506.05	745.40
506.41	762.64
506.78	780.35
507.14	798.42
507.50	817.04
507.86	836.37
508.22	855.90
508.59	875.53
508.95	895.84
509.31	916.46
509.67	937.46
510.03	959.03
510.39	981.32
510.75	1004.05
511.12	1026.85
511.48	1049.97
511.84	1073.57
512.20	1097.04
512.56	1121.13
512.92	1145.81
513.28	1170.42
513.64	1195.18
514.00	1220.39
514.37	1245.60
514.73	1271.42
515.09	1297.22
515.45	1323.14
515.81	1349.25
516.17	1375.67
516.53	1402.04
516.89	1428.83
517.25	1455.57
517.61	1482.45
517.97	1508.98
518.33	1535.20
518.69	1562.00
519.05	1588.98
519.41	1616.07
519.77	1643.93
520.13	1670.84
520.49	1697.56
520.85	1724.80
521.21	1752.13
521.57	1779.67
521.93	1806.56
522.29	1834.21
522.65	1861.65
523.01	1888.74
523.37	1915.21
523.73	1941.81
524.09	1968.76
524.45	1995.49
524.81	2022.43
525.17	2049.14
525.53	2076.13
525.89	2102.85
526.25	2129.00
526.61	2154.22
526.97	2179.35
527.33	2204.47
527.68	2229.81
528.04	2254.51
528.40	2278.33
528.76	2302.42
529.12	2326.88
529.48	2352.32
529.84	2376.26
530.20	2399.71
530.56	2422.95
530.91	2447.68
531.27	2471.96
531.63	2495.11
531.99	2517.74
532.35	2539.40
532.71	2560.75
533.07	2582.74
533.42	2603.54
533.78	2625.20
534.14	2646.55
534.50	2666.44
534.86	2686.98
535.21	2706.33
535.57	2727.13
535.93	2746.31
536.29	2765.09
536.65	2783.46
537.00	2800.51
537.36	2817.44
537.72	2833.93
538.08	2850.83
538.44	2866.55
538.79	2882.37
539.15	2897.85
539.51	2913.58
539.87	2930.14
540.22	2945.74
540.58	2961.23
540.94	2976.60
541.29	2989.23
541.65	3001.98
542.01	3015.66
542.37	3027.76
542.72	3040.64
543.08	3051.50
543.44	3064.03
543.79	3074.82
544.15	3084.88
544.51	3096.02
544.87	3106.83
545.22	3116.68
545.58	3125.50
545.94	3133.46
546.29	3140.45
546.65	3147.28
547.01	3153.54
547.36	3159.31
547.72	3165.28
548.07	3169.42
548.43	3173.66
548.79	3178.68
549.14	3183.31
549.50	3187.45
549.86	3190.74
550.21	3193.76
550.57	3197.40
550.92	3198.74
551.28	3200.77
551.64	3203.01
551.99	3204.70
552.35	3205.38
552.70	3206.83
553.06	3208.10
553.41	3209.46
553.77	3210.39
554.13	3211.01
554.48	3211.66
554.84	3212.24
555.19	3211.37
555.55	3210.08
555.90	3208.43
556.26	3206.73
556.61	3204.76
556.97	3202.35
557.32	3200.82
557.68	3197.50
558.03	3194.57
558.39	3192.40
558.74	3190.90
559.10	3188.59
559.45	3185.56
559.81	3182.98
560.16	3179.10
560.52	3176.03
560.87	3172.11
561.23	3167.68
561.58	3164.20
561.94	3159.42
562.29	3153.81
562.64	3149.73
563.00	3145.93
563.35	3142.53
563.71	3139.49
564.06	3135.68
564.42	3132.30
564.77	3128.43
565.12	3125.13
565.48	3120.85
565.83	3116.89
566.19	3112.68
566.54	3106.63
566.89	3101.01
567.25	3096.14
567.60	3091.32
567.96	3085.58
568.31	3080.22
568.66	3074.46
569.02	3067.89
569.37	3061.22
569.72	3055.27
570.08	3048.33
570.43	3041.30
570.78	3033.57
571.14	3025.15
571.49	3017.29
571.84	3009.66
572.20	3000.59
572.55	2992.60
572.90	2983.68
573.26	2974.19
573.61	2964.24
573.96	2955.60
574.31	2945.68
574.67	2934.72
575.02	2924.01
575.37	2913.98
575.72	2903.16
576.08	2893.86
576.43	2882.81
576.78	2873.37
577.13	2863.81
577.49	2854.23
577.84	2844.47
578.19	2835.28
578.54	2826.78
578.90	2817.94
579.25	2807.40
579.60	2796.85
579.95	2785.82
580.30	2776.27
580.66	2767.17
581.01	2756.88
581.36	2746.19
581.71	2736.02
582.06	2726.30
582.42	2716.76
582.77	2705.81
583.12	2695.64
583.47	2685.99
583.82	2677.30
584.17	2667.30
584.53	2657.04
584.88	2646.83
585.23	2636.50
585.58	2626.18
585.93	2615.12
586.28	2604.96
586.63	2594.73
586.98	2585.48
587.34	2576.87
587.69	2566.64
588.04	2556.48
588.39	2547.08
588.74	2536.56
589.09	2527.72
589.44	2517.79
589.79	2508.44
590.14	2499.71
590.49	2490.57
590.84	2480.53
591.19	2471.88
591.54	2461.87
591.89	2451.08
592.25	2441.30
592.60	2430.89
592.95	2420.20
593.30	2409.18
593.65	2398.13
594.00	2388.45
594.35	2379.55
594.70	2368.75
595.05	2359.11
595.40	2348.97
595.75	2338.19
596.10	2329.48
596.45	2319.61
596.80	2310.77
597.15	2301.67
597.50	2291.70
597.85	2282.15
598.19	2272.13
598.54	2262.16
598.89	2253.38
599.24	2245.72
599.59	2236.95
599.94	2229.19
600.29	2220.90
600.64	2212.73
600.99	2203.60
601.34	2194.85
601.69	2184.75
602.04	2175.55
602.39	2166.59
602.74	2157.89
603.08	2150.46
603.43	2142.47
603.78	2133.76
604.13	2125.13
604.48	2116.31
604.83	2109.22
605.18	2102.02
605.53	2093.59
605.87	2084.51
606.22	2076.10
606.57	2067.05
606.92	2057.89
607.27	2048.54
607.62	2039.45
607.96	2031.07
608.31	2023.58
608.66	2014.27
609.01	2005.52
609.36	1996.60
609.70	1986.98
610.05	1977.37
610.40	1967.74
610.75	1957.92
611.10	1948.90
611.44	1937.82
611.79	1927.63
612.14	1916.48
612.49	1905.11
612.83	1895.53
613.18	1885.08
613.53	1874.71
613.88	1863.55
614.22	1853.97
614.57	1843.51
614.92	1833.55
615.27	1822.98
615.61	1812.22
615.96	1802.73
616.31	1793.39
616.65	1784.65
617.00	1775.44
617.35	1766.09
617.70	1755.85
618.04	1745.40
618.39	1734.54
618.74	1725.45
619.08	1715.41
619.43	1705.96
619.78	1696.62
620.12	1686.93
620.47	1677.64
620.82	1667.38
621.16	1657.66
621.51	1647.32
621.85	1637.98
622.20	1628.02
622.55	1618.47
622.89	1608.72
623.24	1598.96
623.59	1588.70
623.93	1578.43
624.28	1568.81
624.62	1559.22
624.97	1549.78
625.32	1541.01
625.66	1532.17
626.01	1523.10
626.35	1514.49
626.70	1505.13
627.04	1496.61
627.39	1487.74
627.73	1478.88
628.08	1470.89
628.43	1462.15
628.77	1453.49
629.12	1444.39
629.46	1436.33
629.81	1427.80
630.15	1419.25
630.50	1410.54
630.84	1401.73
631.19	1393.16
631.53	1384.58
631.88	1375.44
632.22	1366.76
632.57	1358.15
632.91	1349.49
633.26	1341.05
633.60	1332.70
633.95	1324.80
634.29	1316.05
634.64	1307.87
634.98	1299.26
635.32	1290.78
635.67	1283.13
636.01	1275.21
636.36	1267.24
636.70	1259.33
637.05	1251.34
637.39	1243.95
637.73	1236.58
638.08	1229.71
638.42	1222.61
638.77	1215.25
639.11	1208.06
639.45	1200.69
639.80	1192.86
640.14	1185.21
640.49	1177.41
640.83	1169.58
641.17	1161.98
641.52	1154.29
641.86	1146.41
642.20	1138.98
642.55	1131.19
642.89	1123.35
643.23	1115.50
643.58	1108.38
643.92	1100.19
644.26	1092.73
644.61	1084.88
644.95	1077.09
645.29	1069.22
645.64	1060.98
645.98	1053.44
646.32	1046.13
646.66	1038.61
647.01	1031.39
647.35	1024.29
647.69	1016.91
648.04	1009.69
648.38	1002.19
648.72	995.00
649.06	987.58
649.41	980.54
649.75	973.36
650.09	966.29
650.43	959.18
650.78	951.64
651.12	944.55
651.46	937.46
651.80	930.65
652.14	923.83
652.49	916.80
652.83	910.16
653.17	902.68
653.51	895.65
653.85	888.60
654.20	881.69
654.54	874.68
654.88	868.12
655.22	861.20
655.56	854.19
655.90	847.37
656.25	840.87
656.59	834.08
656.93	827.65
657.27	821.38
657.61	814.82
657.95	808.49
658.29	802.39
658.64	796.37
658.98	789.94
659.32	783.27
659.66	777.17
660.00	770.84
660.34	764.73
660.68	758.60
661.02	752.59
661.36	746.95
661.70	741.19
662.05	735.41
662.39	730.14
662.73	724.83
663.07	719.60
663.41	714.28
663.75	708.91
664.09	703.43
664.43	697.80
664.77	692.66
665.11	687.40
665.45	682.34
665.79	677.14
666.13	672.17
666.47	667.34
666.81	662.39
667.15	657.46
667.49	653.02
667.83	648.36
668.17	643.99
668.51	639.40
668.85	635.02
669.19	630.74
669.53	626.04
669.87	621.49
670.21	616.90
670.55	612.31
670.89	608.43
671.23	604.50
671.57	600.48
671.91	596.19
672.25	592.15
672.58	587.98
672.92	584.00
673.26	580.04
673.60	576.25
673.94	572.25
674.28	568.53
674.62	564.84
674.96	561.12
675.30	557.45
675.64	553.62
675.97	549.85
676.31	546.25
676.65	542.73
676.99	539.43
677.33	535.93
677.67	532.45
678.01	528.70
678.34	525.09
678.68	521.69
679.02	518.36
679.36	515.08
679.70	511.83
680.04	508.36
680.37	505.00
680.71	501.69
681.05	498.75
681.39	495.58
681.73	492.46
682.06	489.55
682.40	486.55
682.74	483.61
683.08	480.66
683.42	477.40
683.75	474.45
684.09	471.35
684.43	468.43
684.77	465.47
685.10	462.55
685.44	459.58
685.78	456.68
686.12	454.20
686.45	451.40
686.79	448.64
687.13	446.14
687.46	443.59
687.80	441.03
688.14	438.21
688.48	435.60
688.81	432.73
689.15	429.96
689.49	427.20
689.82	424.60
690.16	421.74
690.50	419.05
690.83	416.53
691.17	413.94
691.51	411.45
691.84	409.18
692.18	406.83
692.52	404.57
692.85	402.45
693.19	400.16
693.52	397.91
693.86	395.55
694.20	393.23
694.53	391.03
694.87	388.66
695.21	386.48
695.54	384.27
695.88	382.10
696.21	380.00
696.55	378.05
696.88	375.95
697.22	374.09
697.56	372.36
697.89	370.28
698.23	368.44
698.56	366.53
698.90	364.68
699.23	362.79
699.57	360.88
699.90	359.00
700.24	357.14
700.58	355.27
700.91	353.63
701.25	352.15
701.58	350.50
701.92	348.85
702.25	347.14
702.59	345.52
702.92	344.03
703.26	342.42
703.59	340.82
703.93	339.59
704.26	338.00
704.60	336.48
704.93	334.99
705.26	333.43
705.60	331.98
705.93	330.39
706.27	328.92
706.60	327.72
706.94	326.43
707.27	324.81
707.61	323.50
707.94	322.12
708.27	320.51
708.61	319.02
708.94	317.66
709.28	316.35
709.61	315.06
709.94	313.81
710.28	312.53
710.61	311.25
710.95	309.72
711.28	308.84
711.61	307.61
711.95	306.57
712.28	305.33
712.61	304.21
712.95	303.22
713.28	302.37
713.61	301.14
713.95	299.98
714.28	299.01
714.61	297.86
714.95	296.82
715.28	295.82
715.61	294.78
715.95	293.83
716.28	292.76
716.61	291.86
716.95	290.77
717.28	289.85
717.61	289.02
717.94	288.08
718.28	286.86
718.61	285.92
718.94	285.00
719.27	284.24
719.61	283.32
719.94	282.40
720.27	281.31
720.60	280.41
720.94	279.50
721.27	278.80
721.60	278.14
721.93	277.35
722.27	276.60
722.60	275.95
722.93	275.17
723.26	274.55
723.59	273.78
723.93	273.14
724.26	272.47
724.59	271.68
724.92	270.99
725.25	270.42
725.59	269.77
725.92	269.09
726.25	268.35
726.58	267.81
726.91	267.22
727.24	266.66
727.57	266.10
727.91	265.48
728.24	264.85
728.57	264.21
728.90	263.61
729.23	262.95
729.56	262.46
729.89	261.85
730.22	261.29
730.55	260.72
730.89	260.18
731.22	259.60
731.55	258.98
731.88	258.48
732.21	257.93
732.54	257.43
732.87	256.91
733.20	256.46
733.53	255.89
733.86	255.38
734.19	254.84
734.52	254.49
734.85	254.22
735.18	253.73
735.51	253.35
735.84	252.90
736.17	252.49
736.50	251.86
736.83	251.83
737.16	251.39
737.49	250.93
737.82	250.46
738.15	250.05
738.48	249.67
738.81	249.20
739.14	248.72
739.47	248.23
739.80	247.85
740.13	247.44
740.46	246.98
740.79	246.55
741.12	246.14
741.45	245.62
741.78	245.08
742.11	244.75
742.44	244.33
742.77	244.04
743.10	243.69
743.43	243.35
743.75	242.66
744.08	242.74
744.41	242.35
744.74	241.97
745.07	241.55
745.40	241.32
745.73	241.11
746.06	240.75
746.39	240.53
746.71	240.17
747.04	239.78
747.37	239.48
747.70	239.20
748.03	238.97
748.36	238.71
748.68	238.35
749.01	237.96
749.34	237.61
749.67	237.28
750.00	237.08
750.33	237.05
750.65	236.82
750.98	236.11
751.31	235.88
751.64	235.65
751.97	235.60
752.29	235.20
752.62	234.81
752.95	234.56
753.28	234.23
753.60	233.91
753.93	233.78
754.26	233.55
754.59	233.18
754.91	232.88
755.24	232.63
755.57	232.38
755.90	232.09
756.22	231.83
756.55	231.56
756.88	231.19
757.20	230.67
757.53	230.27
757.86	230.04
758.19	229.75
758.51	229.54
758.84	229.14
759.17	228.95
759.49	228.77
759.82	228.68
760.15	228.55
760.47	228.40
760.80	228.07
761.13	227.89
761.45	227.76
761.78	227.54
762.11	227.30
762.43	227.06
762.76	226.86
763.08	226.71
763.41	226.53
763.74	226.43
764.06	226.22
764.39	226.07
764.71	225.93
765.04	225.74
765.37	225.49
765.69	225.31
766.02	225.15
766.34	224.91
766.67	224.62
767.00	224.50
767.32	224.50
767.65	224.58
767.97	224.40
768.30	224.22
768.62	224.00
768.95	223.83
769.27	223.73
769.60	223.65
769.92	223.47
770.25	223.24
770.57	222.94
770.90	222.83
771.22	222.70
771.55	222.47
771.87	222.39
772.20	222.29
772.52	222.40
772.85	222.77
773.17	222.63
773.50	222.56
773.82	222.34
774.15	222.00
774.47	221.63
774.80	221.54
775.12	221.42
775.45	221.35
775.77	221.30
776.09	221.17
776.42	221.08
776.74	221.12
777.07	221.02
777.39	220.98
777.72	220.91
778.04	220.81
778.36	220.75
778.69	220.68
779.01	220.66
779.33	220.36
779.66	219.84
779.98	219.75
780.31	219.58
780.63	219.64
780.95	219.67
781.28	219.63
781.60	219.49
781.92	219.46
782.25	219.42
782.57	219.34
782.89	219.22
783.22	219.11
783.54	218.90
783.86	218.90
784.19	218.79
784.51	218.77
784.83	218.69
785.16	218.58
785.48	218.49
785.80	218.38
