SpectraSuite Data File
++++++++++++++++++++++++++++++++++++
Date: Mon Feb 25 17:07:20 EST 2013
User: group
Dark Spectrum Present: No
Reference Spectrum Present: No
Number of Sampled Component Spectra: 1
Spectrometers: USB2E7196
Integration Time (usec): 104000 (USB2E7196)
Spectra Averaged: 20 (USB2E7196)
Boxcar Smoothing: 10 (USB2E7196)
Correct for Electrical Dark: No (USB2E7196)
Strobe/Lamp Enabled: No (USB2E7196)
Correct for Detector Non-linearity: No (USB2E7196)
Correct for Stray Light: No (USB2E7196)
Number of Pixels in Processed Spectrum: 2048
>>>>>Begin Processed Spectral Data<<<<<
339.09	0.00
339.48	198.95
339.86	198.20
340.24	200.80
340.63	202.70
341.01	207.95
341.39	204.35
341.78	205.95
342.16	208.80
342.54	208.00
342.93	197.77
343.31	207.81
343.69	208.28
344.07	208.84
344.46	209.26
344.84	209.63
345.22	209.73
345.60	210.01
345.99	210.25
346.37	210.31
346.75	210.36
347.13	210.47
347.52	210.53
347.90	210.66
348.28	210.75
348.66	210.89
349.05	210.86
349.43	210.94
349.81	211.05
350.19	211.09
350.57	211.15
350.96	211.25
351.34	211.33
351.72	211.50
352.10	211.58
352.48	211.67
352.87	211.76
353.25	211.87
353.63	211.95
354.01	211.99
354.39	212.11
354.77	212.25
355.15	212.50
355.54	212.55
355.92	212.51
356.30	212.56
356.68	212.82
357.06	212.85
357.44	212.85
357.82	212.89
358.20	212.98
358.58	213.03
358.97	213.10
359.35	213.17
359.73	213.27
360.11	213.38
360.49	213.50
360.87	213.56
361.25	213.64
361.63	213.85
362.01	213.95
362.39	213.94
362.77	214.00
363.15	213.97
363.53	213.95
363.91	214.08
364.29	214.10
364.67	213.75
365.05	213.77
365.43	213.76
365.81	213.74
366.19	213.86
366.57	213.93
366.95	213.92
367.33	213.80
367.71	213.77
368.09	213.81
368.47	213.74
368.85	213.70
369.23	213.71
369.61	213.43
369.99	213.47
370.37	213.43
370.75	213.63
371.13	213.51
371.51	213.40
371.89	213.38
372.27	213.39
372.65	213.35
373.03	213.33
373.41	213.28
373.78	213.20
374.16	212.99
374.54	212.83
374.92	212.70
375.30	212.75
375.68	212.63
376.06	212.55
376.44	212.43
376.82	212.43
377.19	212.36
377.57	212.39
377.95	212.21
378.33	212.23
378.71	211.88
379.09	211.89
379.47	211.91
379.84	211.75
380.22	211.67
380.60	211.56
380.98	211.39
381.36	211.25
381.73	211.18
382.11	211.17
382.49	211.09
382.87	211.05
383.25	211.00
383.62	211.35
384.00	211.24
384.38	211.24
384.76	211.18
385.13	211.22
385.51	211.23
385.89	211.06
386.27	210.98
386.64	211.00
387.02	210.91
387.40	210.93
387.78	210.85
388.15	210.83
388.53	210.84
388.91	210.77
389.29	210.79
389.66	210.81
390.04	210.78
390.42	210.83
390.79	210.80
391.17	210.70
391.55	210.28
391.92	210.19
392.30	210.18
392.68	210.12
393.05	210.10
393.43	210.06
393.81	210.13
394.18	210.09
394.56	210.04
394.94	210.07
395.31	210.00
395.69	210.15
396.06	210.17
396.44	210.21
396.82	210.26
397.19	210.41
397.57	210.44
397.95	210.50
398.32	210.35
398.70	210.45
399.07	210.54
399.45	210.57
399.82	210.65
400.20	210.65
400.58	210.66
400.95	210.54
401.33	210.63
401.70	210.90
402.08	210.92
402.45	210.97
402.83	211.09
403.20	211.14
403.58	211.09
403.95	211.14
404.33	211.18
404.71	211.29
405.08	211.55
405.46	211.60
405.83	211.65
406.21	211.79
406.58	211.85
406.96	211.95
407.33	212.03
407.70	212.16
408.08	212.52
408.45	212.74
408.83	212.97
409.20	213.04
409.58	213.04
409.95	213.32
410.33	213.58
410.70	213.69
411.08	213.97
411.45	214.23
411.82	214.52
412.20	214.90
412.57	215.41
412.95	215.49
413.32	215.94
413.69	216.31
414.07	216.75
414.44	217.19
414.82	217.65
415.19	218.27
415.56	218.88
415.94	219.35
416.31	220.01
416.68	220.64
417.06	221.49
417.43	222.34
417.81	223.16
418.18	224.07
418.55	224.96
418.93	226.00
419.30	227.07
419.67	228.17
420.04	229.28
420.42	230.30
420.79	231.91
421.16	233.24
421.54	234.76
421.91	236.28
422.28	237.83
422.66	239.48
423.03	241.23
423.40	242.82
423.77	244.75
424.15	246.49
424.52	248.41
424.89	250.47
425.26	252.36
425.64	254.29
426.01	256.33
426.38	258.53
426.75	260.70
427.13	263.03
427.50	265.37
427.87	267.83
428.24	270.36
428.61	272.51
428.99	275.23
429.36	278.00
429.73	280.73
430.10	283.54
430.47	286.47
430.85	289.27
431.22	292.40
431.59	295.80
431.96	299.02
432.33	302.65
432.70	306.09
433.08	310.18
433.45	313.97
433.82	317.87
434.19	322.17
434.56	326.45
434.93	330.32
435.30	334.34
435.68	338.85
436.05	343.20
436.42	347.52
436.79	351.46
437.16	355.79
437.53	360.41
437.90	364.97
438.27	369.42
438.64	374.13
439.01	378.59
439.38	382.29
439.75	386.06
440.13	390.32
440.50	394.23
440.87	397.52
441.24	401.08
441.61	404.73
441.98	407.66
442.35	410.75
442.72	414.08
443.09	417.30
443.46	419.23
443.83	420.64
444.20	422.01
444.57	423.80
444.94	424.67
445.31	425.61
445.68	426.80
446.05	427.35
446.42	427.01
446.79	426.65
447.16	426.22
447.53	426.00
447.90	424.40
448.27	423.00
448.64	420.82
449.01	419.31
449.37	416.60
449.74	413.83
450.11	410.92
450.48	407.40
450.85	403.72
451.22	400.48
451.59	397.57
451.96	394.55
452.33	390.61
452.70	387.13
453.07	382.99
453.43	378.39
453.80	374.18
454.17	370.30
454.54	366.40
454.91	362.29
455.28	358.34
455.65	354.69
456.02	351.44
456.38	348.29
456.75	344.31
457.12	341.04
457.49	337.77
457.86	334.31
458.23	331.71
458.59	328.70
458.96	325.81
459.33	323.05
459.70	320.46
460.07	318.39
460.43	315.99
460.80	313.70
461.17	311.75
461.54	309.61
461.91	307.56
462.27	305.57
462.64	303.81
463.01	301.92
463.38	300.16
463.74	297.80
464.11	296.21
464.48	294.78
464.85	293.24
465.21	292.06
465.58	290.88
465.95	289.30
466.32	288.10
466.68	286.79
467.05	285.56
467.42	284.32
467.78	282.94
468.15	281.67
468.52	280.75
468.88	279.40
469.25	278.31
469.62	277.45
469.98	276.54
470.35	275.77
470.72	274.81
471.08	273.81
471.45	273.15
471.82	272.40
472.18	271.56
472.55	270.88
472.92	270.07
473.28	269.35
473.65	268.68
474.02	267.98
474.38	267.55
474.75	267.10
475.11	266.65
475.48	266.23
475.85	265.85
476.21	265.43
476.58	265.26
476.94	264.96
477.31	264.69
477.67	264.42
478.04	264.13
478.41	263.99
478.77	264.16
479.14	263.89
479.50	263.71
479.87	263.62
480.23	263.62
480.60	263.50
480.96	263.45
481.33	263.56
481.69	263.72
482.06	263.71
482.42	263.77
482.79	263.76
483.15	263.90
483.52	264.12
483.88	264.20
484.25	264.37
484.61	264.58
484.98	264.69
485.34	265.05
485.71	265.27
486.07	265.65
486.44	265.62
486.80	265.93
487.17	266.35
487.53	266.87
487.90	267.27
488.26	267.98
488.62	268.62
488.99	269.05
489.35	269.66
489.72	270.22
490.08	270.87
490.44	271.59
490.81	272.38
491.17	273.10
491.54	273.97
491.90	274.82
492.26	275.65
492.63	276.61
492.99	277.36
493.36	278.42
493.72	279.59
494.08	280.73
494.45	281.95
494.81	283.18
495.17	284.25
495.54	285.56
495.90	286.70
496.26	287.87
496.63	289.23
496.99	290.52
497.35	291.93
497.72	293.40
498.08	294.77
498.44	296.22
498.80	297.81
499.17	299.38
499.53	300.90
499.89	302.69
500.26	304.39
500.62	306.06
500.98	307.72
501.34	309.30
501.71	311.10
502.07	312.94
502.43	314.71
502.79	316.48
503.16	318.23
503.52	320.07
503.88	321.91
504.24	323.93
504.60	325.84
504.97	327.81
505.33	329.66
505.69	331.93
506.05	333.91
506.41	335.89
506.78	337.92
507.14	339.92
507.50	341.90
507.86	343.89
508.22	346.15
508.59	348.31
508.95	350.53
509.31	352.82
509.67	354.91
510.03	357.12
510.39	359.51
510.75	361.84
511.12	364.13
511.48	366.42
511.84	368.68
512.20	371.04
512.56	373.46
512.92	375.86
513.28	378.07
513.64	380.51
514.00	382.91
514.37	385.36
514.73	387.98
515.09	390.50
515.45	393.02
515.81	395.44
516.17	397.96
516.53	400.41
516.89	402.74
517.25	405.35
517.61	407.97
517.97	410.47
518.33	413.02
518.69	415.68
519.05	418.36
519.41	421.06
519.77	424.08
520.13	426.67
520.49	429.44
520.85	432.19
521.21	435.10
521.57	437.91
521.93	440.65
522.29	443.54
522.65	446.34
523.01	449.28
523.37	452.17
523.73	455.22
524.09	458.21
524.45	461.14
524.81	464.11
525.17	467.20
525.53	470.32
525.89	473.48
526.25	476.64
526.61	479.70
526.97	482.95
527.33	485.93
527.68	489.64
528.04	492.76
528.40	496.01
528.76	499.40
529.12	502.87
529.48	506.42
529.84	509.77
530.20	513.31
530.56	516.83
530.91	520.58
531.27	524.13
531.63	527.87
531.99	531.47
532.35	535.06
532.71	538.54
533.07	542.24
533.42	546.31
533.78	549.95
534.14	553.71
534.50	557.19
534.86	560.87
535.21	563.99
535.57	567.86
535.93	571.41
536.29	575.07
536.65	578.67
537.00	582.12
537.36	585.69
537.72	589.29
538.08	592.91
538.44	596.35
538.79	599.77
539.15	603.03
539.51	606.73
539.87	610.46
540.22	614.02
540.58	617.52
540.94	620.80
541.29	624.21
541.65	627.43
542.01	631.04
542.37	634.54
542.72	638.07
543.08	641.32
543.44	644.87
543.79	647.87
544.15	651.04
544.51	654.51
544.87	658.03
545.22	661.11
545.58	664.15
545.94	667.18
546.29	670.25
546.65	673.30
547.01	676.14
547.36	678.88
547.72	681.84
548.07	684.66
548.43	687.17
548.79	689.85
549.14	692.62
549.50	695.12
549.86	697.37
550.21	699.80
550.57	702.40
550.92	704.77
551.28	707.19
551.64	709.54
551.99	711.86
552.35	713.81
552.70	715.91
553.06	718.09
553.41	720.04
553.77	722.24
554.13	724.16
554.48	726.27
554.84	728.46
555.19	730.21
555.55	732.11
555.90	733.92
556.26	735.64
556.61	737.12
556.97	738.56
557.32	740.10
557.68	741.57
558.03	743.08
558.39	744.44
558.74	745.83
559.10	747.37
559.45	748.73
559.81	750.34
560.16	751.57
560.52	752.97
560.87	754.53
561.23	755.52
561.58	757.12
561.94	758.07
562.29	758.85
562.64	760.15
563.00	761.19
563.35	762.33
563.71	763.50
564.06	764.93
564.42	766.11
564.77	767.44
565.12	768.69
565.48	769.78
565.83	770.86
566.19	772.20
566.54	773.03
566.89	773.70
567.25	774.44
567.60	775.56
567.96	776.48
568.31	777.37
568.66	778.15
569.02	778.21
569.37	778.63
569.72	779.26
570.08	779.46
570.43	779.44
570.78	779.49
571.14	779.45
571.49	779.41
571.84	779.45
572.20	779.25
572.55	779.15
572.90	778.71
573.26	778.50
573.61	777.69
573.96	777.24
574.31	776.69
574.67	776.10
575.02	775.23
575.37	774.18
575.72	773.16
576.08	772.52
576.43	771.86
576.78	771.23
577.13	770.40
577.49	769.60
577.84	769.01
578.19	768.49
578.54	767.91
578.90	767.32
579.25	766.60
579.60	765.54
579.95	764.45
580.30	763.85
580.66	763.11
581.01	762.31
581.36	761.25
581.71	760.18
582.06	759.18
582.42	758.26
582.77	757.37
583.12	756.44
583.47	755.60
583.82	754.80
584.17	753.97
584.53	753.29
584.88	752.44
585.23	751.67
585.58	750.74
585.93	749.79
586.28	748.88
586.63	748.01
586.98	747.32
587.34	746.65
587.69	745.59
588.04	744.50
588.39	743.61
588.74	742.58
589.09	741.87
589.44	740.81
589.79	740.09
590.14	739.14
590.49	737.88
590.84	736.59
591.19	735.74
591.54	734.63
591.89	732.99
592.25	731.95
592.60	730.53
592.95	728.96
593.30	727.45
593.65	725.79
594.00	724.13
594.35	723.70
594.70	722.09
595.05	720.58
595.40	719.07
595.75	717.41
596.10	716.19
596.45	714.85
596.80	713.67
597.15	712.24
597.50	710.75
597.85	709.59
598.19	708.07
598.54	706.54
598.89	705.08
599.24	704.06
599.59	702.56
599.94	701.49
600.29	700.29
600.64	699.07
600.99	697.82
601.34	696.80
601.69	694.44
602.04	693.16
602.39	691.91
602.74	690.81
603.08	689.84
603.43	688.92
603.78	687.60
604.13	686.22
604.48	684.74
604.83	683.79
605.18	682.55
605.53	681.21
605.87	679.75
606.22	678.58
606.57	677.36
606.92	675.93
607.27	674.52
607.62	673.05
607.96	671.72
608.31	670.42
608.66	668.95
609.01	667.41
609.36	666.03
609.70	664.22
610.05	662.38
610.40	660.70
610.75	658.74
611.10	657.26
611.44	655.21
611.79	653.50
612.14	651.45
612.49	649.50
612.83	647.91
613.18	645.99
613.53	643.95
613.88	641.65
614.22	639.89
614.57	637.57
614.92	635.55
615.27	633.50
615.61	631.52
615.96	629.39
616.31	627.60
616.65	625.71
617.00	623.90
617.35	622.08
617.70	620.01
618.04	617.74
618.39	615.37
618.74	613.55
619.08	611.40
619.43	609.24
619.78	607.35
620.12	605.30
620.47	603.37
620.82	601.14
621.16	598.92
621.51	596.75
621.85	594.87
622.20	592.92
622.55	590.71
622.89	588.40
623.24	586.33
623.59	584.00
623.93	581.73
624.28	579.69
624.62	577.79
624.97	575.90
625.32	574.01
625.66	572.03
626.01	569.98
626.35	568.04
626.70	566.04
627.04	564.19
627.39	562.14
627.73	560.32
628.08	558.47
628.43	556.55
628.77	554.53
629.12	552.49
629.46	550.55
629.81	548.71
630.15	546.82
630.50	544.82
630.84	542.86
631.19	540.85
631.53	538.92
631.88	536.55
632.22	534.26
632.57	532.46
632.91	530.56
633.26	528.72
633.60	526.74
633.95	524.94
634.29	522.83
634.64	520.95
634.98	518.75
635.32	516.96
635.67	515.22
636.01	513.42
636.36	511.38
636.70	509.67
637.05	507.80
637.39	505.98
637.73	504.14
638.08	502.66
638.42	501.02
638.77	499.25
639.11	497.42
639.45	495.65
639.80	493.61
640.14	491.64
640.49	489.58
640.83	487.66
641.17	485.77
641.52	483.84
641.86	481.70
642.20	480.03
642.55	477.97
642.89	476.05
643.23	474.19
643.58	472.65
643.92	470.56
644.26	468.66
644.61	466.77
644.95	465.02
645.29	462.95
645.64	461.00
645.98	459.00
646.32	457.40
646.66	455.45
647.01	453.63
647.35	451.99
647.69	450.26
648.04	448.64
648.38	446.85
648.72	445.00
649.06	443.33
649.41	441.48
649.75	439.75
650.09	438.04
650.43	436.15
650.78	434.13
651.12	432.27
651.46	430.36
651.80	428.49
652.14	426.61
652.49	424.90
652.83	423.17
653.17	421.22
653.51	419.26
653.85	417.70
654.20	416.01
654.54	414.02
654.88	412.02
655.22	410.20
655.56	408.37
655.90	406.59
656.25	404.82
656.59	402.95
656.93	401.22
657.27	399.63
657.61	397.81
657.95	396.19
658.29	394.50
658.64	393.04
658.98	391.35
659.32	389.58
659.66	387.84
660.00	386.10
660.34	384.58
660.68	382.90
661.02	381.12
661.36	379.51
661.70	378.09
662.05	376.72
662.39	375.27
662.73	373.94
663.07	372.63
663.41	371.14
663.75	369.64
664.09	368.07
664.43	366.48
664.77	365.07
665.11	363.58
665.45	362.23
665.79	360.78
666.13	359.57
666.47	358.25
666.81	356.89
667.15	355.48
667.49	354.26
667.83	353.16
668.17	351.86
668.51	350.48
668.85	349.17
669.19	348.00
669.53	346.66
669.87	345.24
670.21	343.90
670.55	342.73
670.89	341.75
671.23	340.72
671.57	339.49
671.91	338.30
672.25	337.16
672.58	336.09
672.92	334.89
673.26	333.74
673.60	332.71
673.94	331.63
674.28	330.51
674.62	329.43
674.96	328.27
675.30	327.29
675.64	326.29
675.97	325.26
676.31	324.24
676.65	323.08
676.99	322.23
677.33	321.11
677.67	320.17
678.01	319.04
678.34	317.98
678.68	317.03
679.02	315.94
679.36	314.96
679.70	313.84
680.04	312.84
680.37	311.82
680.71	310.76
681.05	309.90
681.39	309.01
681.73	308.06
682.06	307.14
682.40	306.34
682.74	305.44
683.08	304.60
683.42	303.59
683.75	302.88
684.09	301.86
684.43	300.92
684.77	299.97
685.10	299.17
685.44	298.23
685.78	297.32
686.12	296.65
686.45	295.83
686.79	295.07
687.13	294.40
687.46	293.66
687.80	293.00
688.14	292.05
688.48	291.31
688.81	290.51
689.15	289.81
689.49	288.89
689.82	288.18
690.16	287.23
690.50	286.41
690.83	285.55
691.17	284.74
691.51	284.08
691.84	283.41
692.18	282.57
692.52	281.89
692.85	281.24
693.19	280.57
693.52	279.81
693.86	279.06
694.20	278.25
694.53	277.49
694.87	276.68
695.21	275.93
695.54	275.22
695.88	274.43
696.21	273.58
696.55	272.93
696.88	272.22
697.22	271.49
697.56	270.93
697.89	270.18
698.23	269.60
698.56	268.92
698.90	268.28
699.23	267.61
699.57	267.04
699.90	266.35
700.24	265.60
700.58	265.10
700.91	264.58
701.25	264.37
701.58	263.98
701.92	263.45
702.25	262.87
702.59	262.31
702.92	261.88
703.26	261.39
703.59	260.89
703.93	260.64
704.26	260.30
704.60	259.79
704.93	259.31
705.26	258.76
705.60	258.32
705.93	257.82
706.27	257.40
706.60	257.05
706.94	256.73
707.27	256.23
707.61	255.74
707.94	255.21
708.27	254.37
708.61	253.74
708.94	253.29
709.28	252.98
709.61	252.47
709.94	252.01
710.28	251.62
710.61	251.20
710.95	250.44
711.28	250.16
711.61	249.74
711.95	249.46
712.28	248.95
712.61	248.58
712.95	248.34
713.28	248.04
713.61	247.54
713.95	247.10
714.28	246.71
714.61	246.24
714.95	245.84
715.28	245.44
715.61	245.04
715.95	244.72
716.28	244.30
716.61	244.05
716.95	243.64
717.28	243.25
717.61	242.95
717.94	242.69
718.28	242.11
718.61	241.74
718.94	241.31
719.27	241.02
719.61	240.74
719.94	240.32
720.27	239.88
720.60	239.50
720.94	239.19
721.27	239.00
721.60	238.75
721.93	238.48
722.27	238.31
722.60	238.13
722.93	237.79
723.26	237.52
723.59	237.12
723.93	236.99
724.26	236.71
724.59	236.33
724.92	236.00
725.25	235.95
725.59	235.67
725.92	235.58
726.25	235.36
726.58	235.14
726.91	234.85
727.24	234.62
727.57	234.36
727.91	234.02
728.24	233.76
728.57	233.58
728.90	233.39
729.23	233.09
729.56	232.94
729.89	232.66
730.22	232.38
730.55	232.20
730.89	231.93
731.22	231.69
731.55	231.49
731.88	231.33
732.21	230.97
732.54	230.85
732.87	230.56
733.20	230.34
733.53	230.11
733.86	229.92
734.19	229.76
734.52	229.66
734.85	229.76
735.18	229.50
735.51	229.40
735.84	229.20
736.17	229.09
736.50	228.74
736.83	229.04
737.16	228.91
737.49	228.82
737.82	228.61
738.15	228.47
738.48	228.33
738.81	228.17
739.14	227.94
739.47	227.76
739.80	227.57
740.13	227.50
740.46	227.23
740.79	227.11
741.12	226.89
741.45	226.72
741.78	226.42
742.11	226.47
742.44	226.21
742.77	226.20
743.10	226.03
743.43	225.93
743.75	225.41
744.08	225.73
744.41	225.54
744.74	225.31
745.07	225.17
745.40	225.11
745.73	225.19
746.06	225.13
746.39	224.95
746.71	224.76
747.04	224.58
747.37	224.50
747.70	224.44
748.03	224.41
748.36	224.40
748.68	224.22
749.01	223.98
749.34	223.86
749.67	223.71
750.00	223.69
750.33	223.85
750.65	223.78
750.98	223.24
751.31	223.17
751.64	223.19
751.97	223.34
752.29	223.18
752.62	222.85
752.95	222.70
753.28	222.60
753.60	222.51
753.93	222.50
754.26	222.34
754.59	222.09
754.91	221.86
755.24	221.62
755.57	221.45
755.90	221.34
756.22	221.29
756.55	221.13
756.88	220.88
757.20	220.53
757.53	220.35
757.86	220.19
758.19	220.07
758.51	219.99
758.84	219.65
759.17	219.51
759.49	219.49
759.82	219.55
760.15	219.50
760.47	219.45
760.80	219.31
761.13	219.36
761.45	219.20
761.78	219.15
762.11	219.10
762.43	219.00
762.76	218.91
763.08	218.78
763.41	218.72
763.74	218.64
764.06	218.52
764.39	218.39
764.71	218.29
765.04	218.15
765.37	217.99
765.69	217.96
766.02	217.90
766.34	217.70
766.67	217.54
767.00	217.52
767.32	217.63
767.65	217.69
767.97	217.61
768.30	217.63
768.62	217.60
768.95	217.47
769.27	217.47
769.60	217.43
769.92	217.33
770.25	217.14
770.57	217.09
770.90	217.01
771.22	216.96
771.55	216.96
771.87	216.92
772.20	216.86
772.52	217.01
772.85	217.30
773.17	217.27
773.50	217.14
773.82	217.04
774.15	216.78
774.47	216.53
774.80	216.39
775.12	216.34
775.45	216.29
775.77	216.25
776.09	216.20
776.42	216.11
776.74	216.14
777.07	216.17
777.39	216.08
777.72	216.01
778.04	216.00
778.36	215.90
778.69	215.88
779.01	215.90
779.33	215.59
779.66	215.16
779.98	215.20
780.31	215.16
780.63	215.26
780.95	215.30
781.28	215.22
781.60	215.17
781.92	215.10
782.25	215.02
782.57	215.00
782.89	214.94
783.22	214.86
783.54	214.78
783.86	214.76
784.19	214.77
784.51	214.90
784.83	214.86
785.16	214.82
785.48	214.72
785.80	214.69
786.12	214.65
786.45	214.63
786.77	214.62
787.09	214.58
787.42	214.35
787.74	214.34
788.06	214.34
788.38	214.29
788.71	214.21
789.03	214.11
789.35	214.06
789.67	214.01
789.99	214.07
790.32	213.99
790.64	214.02
790.96	214.24
791.28	214.05
791.61	214.01
791.93	214.07
792.25	214.11
792.57	214.31
792.89	214.27
793.21	214.26
793.54	214.14
793.86	214.07
794.18	214.14
