SpectraSuite Data File
++++++++++++++++++++++++++++++++++++
Date: Mon Feb 25 17:02:18 EST 2013
User: group
Dark Spectrum Present: No
Reference Spectrum Present: No
Number of Sampled Component Spectra: 1
Spectrometers: USB2E7196
Integration Time (usec): 104000 (USB2E7196)
Spectra Averaged: 20 (USB2E7196)
Boxcar Smoothing: 10 (USB2E7196)
Correct for Electrical Dark: No (USB2E7196)
Strobe/Lamp Enabled: No (USB2E7196)
Correct for Detector Non-linearity: No (USB2E7196)
Correct for Stray Light: No (USB2E7196)
Number of Pixels in Processed Spectrum: 2048
>>>>>Begin Processed Spectral Data<<<<<
339.09	0.00
339.48	197.60
339.86	198.90
340.24	200.95
340.63	201.35
341.01	209.55
341.39	205.30
341.78	206.65
342.16	208.75
342.54	207.60
342.93	197.72
343.31	207.72
343.69	208.28
344.07	208.77
344.46	209.21
344.84	209.68
345.22	209.66
345.60	209.87
345.99	210.06
346.37	210.17
346.75	210.27
347.13	210.36
347.52	210.40
347.90	210.58
348.28	210.59
348.66	210.68
349.05	210.55
349.43	210.61
349.81	210.68
350.19	210.81
350.57	211.04
350.96	211.10
351.34	211.23
351.72	211.34
352.10	211.49
352.48	211.53
352.87	211.54
353.25	211.64
353.63	211.68
354.01	211.70
354.39	211.80
354.77	211.94
355.15	212.05
355.54	212.04
355.92	211.98
356.30	212.02
356.68	212.35
357.06	212.55
357.44	212.52
357.82	212.60
358.20	212.70
358.58	212.76
358.97	212.88
359.35	212.98
359.73	213.11
360.11	213.18
360.49	213.26
360.87	213.28
361.25	213.43
361.63	213.65
362.01	213.79
362.39	213.80
362.77	213.86
363.15	213.91
363.53	214.02
363.91	214.10
364.29	214.12
364.67	213.77
365.05	213.73
365.43	213.87
365.81	213.91
366.19	213.98
366.57	214.05
366.95	213.99
367.33	213.92
367.71	213.86
368.09	213.86
368.47	213.95
368.85	214.00
369.23	213.96
369.61	213.84
369.99	213.82
370.37	213.86
370.75	214.02
371.13	213.90
371.51	213.77
371.89	213.70
372.27	213.70
372.65	213.70
373.03	213.65
373.41	213.57
373.78	213.42
374.16	213.13
374.54	212.99
374.92	212.94
375.30	212.83
375.68	212.70
376.06	212.70
376.44	212.51
376.82	212.52
377.19	212.52
377.57	212.44
377.95	212.35
378.33	212.22
378.71	211.91
379.09	211.88
379.47	211.90
379.84	211.85
380.22	211.75
380.60	211.59
380.98	211.53
381.36	211.46
381.73	211.39
382.11	211.50
382.49	211.40
382.87	211.28
383.25	211.26
383.62	211.69
384.00	211.51
384.38	211.50
384.76	211.40
385.13	211.45
385.51	211.43
385.89	211.34
386.27	211.29
386.64	211.36
387.02	211.30
387.40	211.24
387.78	211.23
388.15	211.27
388.53	211.30
388.91	211.17
389.29	211.08
389.66	211.05
390.04	210.98
390.42	211.03
390.79	211.05
391.17	211.09
391.55	210.68
391.92	210.65
392.30	210.69
392.68	210.60
393.05	210.54
393.43	210.47
393.81	210.50
394.18	210.50
394.56	210.46
394.94	210.58
395.31	210.55
395.69	210.60
396.06	210.63
396.44	210.67
396.82	210.73
397.19	211.01
397.57	211.03
397.95	211.07
398.32	210.95
398.70	211.02
399.07	211.09
399.45	211.09
399.82	211.16
400.20	211.10
400.58	211.18
400.95	211.05
401.33	211.21
401.70	211.45
402.08	211.50
402.45	211.58
402.83	211.66
403.20	211.80
403.58	211.83
403.95	211.94
404.33	212.10
404.71	212.28
405.08	212.59
405.46	212.75
405.83	212.89
406.21	213.15
406.58	213.30
406.96	213.47
407.33	213.62
407.70	213.88
408.08	214.34
408.45	214.70
408.83	215.04
409.20	215.25
409.58	215.39
409.95	215.75
410.33	216.09
410.70	216.43
411.08	216.88
411.45	217.29
411.82	217.72
412.20	218.26
412.57	218.88
412.95	219.07
413.32	219.80
413.69	220.43
414.07	221.08
414.44	221.86
414.82	222.60
415.19	223.54
415.56	224.44
415.94	225.36
416.31	226.44
416.68	227.67
417.06	228.94
417.43	230.25
417.81	231.75
418.18	233.16
418.55	234.67
418.93	236.28
419.30	238.00
419.67	239.81
420.04	241.65
420.42	243.63
420.79	246.09
421.16	248.32
421.54	250.85
421.91	253.30
422.28	255.86
422.66	258.61
423.03	261.52
423.40	264.33
423.77	267.36
424.15	270.40
424.52	273.54
424.89	277.03
425.26	280.33
425.64	283.49
426.01	287.08
426.38	290.82
426.75	294.66
427.13	298.68
427.50	302.90
427.87	307.17
428.24	311.37
428.61	315.35
428.99	319.97
429.36	324.79
429.73	329.67
430.10	334.56
430.47	339.60
430.85	344.55
431.22	350.10
431.59	355.96
431.96	361.57
432.33	367.84
432.70	373.95
433.08	381.08
433.45	387.75
433.82	394.39
434.19	401.83
434.56	409.29
434.93	416.30
435.30	423.32
435.68	431.23
436.05	439.15
436.42	446.96
436.79	454.02
437.16	461.65
437.53	469.82
437.90	477.78
438.27	485.82
438.64	494.15
439.01	501.79
439.38	508.80
439.75	515.57
440.13	523.14
440.50	530.26
440.87	536.13
441.24	542.33
441.61	549.25
441.98	554.54
442.35	560.51
442.72	566.67
443.09	572.59
443.46	576.32
443.83	578.91
444.20	581.32
444.57	584.76
444.94	586.63
445.31	588.66
445.68	590.86
446.05	591.79
446.42	591.61
446.79	591.42
447.16	590.78
447.53	590.58
447.90	588.15
448.27	585.83
448.64	582.38
449.01	580.03
449.37	575.22
449.74	570.55
450.11	565.02
450.48	558.70
450.85	552.31
451.22	546.94
451.59	541.74
451.96	536.74
452.33	529.86
452.70	523.85
453.07	516.24
453.43	508.50
453.80	501.36
454.17	494.45
454.54	487.76
454.91	480.60
455.28	473.61
455.65	467.25
456.02	461.15
456.38	455.58
456.75	448.59
457.12	442.85
457.49	437.10
457.86	431.36
458.23	426.75
458.59	421.46
458.96	416.18
459.33	411.53
459.70	406.82
460.07	403.11
460.43	398.70
460.80	394.76
461.17	391.22
461.54	387.45
461.91	383.76
462.27	380.09
462.64	377.13
463.01	373.75
463.38	370.46
463.74	366.78
464.11	363.98
464.48	361.44
464.85	358.74
465.21	356.66
465.58	354.43
465.95	351.68
466.32	349.39
466.68	347.09
467.05	344.91
467.42	342.79
467.78	340.37
468.15	338.25
468.52	336.55
468.88	334.30
469.25	332.41
469.62	330.89
469.98	329.27
470.35	327.69
470.72	326.21
471.08	324.46
471.45	323.04
471.82	321.65
472.18	320.15
472.55	318.99
472.92	317.59
473.28	316.24
473.65	315.03
474.02	313.87
474.38	312.90
474.75	312.06
475.11	311.05
475.48	310.39
475.85	309.69
476.21	308.96
476.58	308.48
476.94	308.08
477.31	307.55
477.67	307.01
478.04	306.50
478.41	306.13
478.77	306.21
479.14	305.92
479.50	305.64
479.87	305.53
480.23	305.38
480.60	305.21
480.96	305.21
481.33	305.32
481.69	305.39
482.06	305.43
482.42	305.39
482.79	305.46
483.15	305.64
483.52	305.94
483.88	306.18
484.25	306.35
484.61	306.62
484.98	306.90
485.34	307.47
485.71	308.03
486.07	308.48
486.44	308.65
486.80	309.23
487.17	309.77
487.53	310.55
487.90	311.41
488.26	312.45
488.62	313.37
488.99	314.31
489.35	315.25
489.72	316.31
490.08	317.39
490.44	318.45
490.81	319.56
491.17	320.65
491.54	321.83
491.90	323.20
492.26	324.45
492.63	325.80
492.99	326.98
493.36	328.41
493.72	330.06
494.08	331.57
494.45	333.10
494.81	334.86
495.17	336.40
495.54	338.14
495.90	339.61
496.26	341.32
496.63	342.98
496.99	344.81
497.35	346.61
497.72	348.49
498.08	350.37
498.44	352.19
498.80	354.13
499.17	356.15
499.53	357.93
499.89	359.85
500.26	361.69
500.62	363.59
500.98	365.56
501.34	367.39
501.71	369.31
502.07	371.21
502.43	372.85
502.79	374.56
503.16	376.15
503.52	377.91
503.88	379.46
504.24	381.06
504.60	382.67
504.97	384.14
505.33	385.63
505.69	387.26
506.05	388.69
506.41	390.05
506.78	391.22
507.14	392.48
507.50	393.80
507.86	395.06
508.22	396.33
508.59	397.24
508.95	398.25
509.31	399.34
509.67	400.18
510.03	401.16
510.39	402.10
510.75	402.93
511.12	403.63
511.48	404.33
511.84	404.98
512.20	405.44
512.56	405.91
512.92	406.45
513.28	406.85
513.64	407.30
514.00	407.55
514.37	407.85
514.73	408.18
515.09	408.38
515.45	408.55
515.81	408.62
516.17	408.72
516.53	408.62
516.89	408.43
517.25	408.36
517.61	408.20
517.97	407.97
518.33	407.73
518.69	407.60
519.05	407.52
519.41	407.34
519.77	407.41
520.13	407.26
520.49	406.93
520.85	406.68
521.21	406.65
521.57	406.49
521.93	406.30
522.29	406.09
522.65	405.75
523.01	405.55
523.37	405.25
523.73	405.05
524.09	404.94
524.45	404.91
524.81	405.03
525.17	405.15
525.53	405.39
525.89	405.44
526.25	405.79
526.61	405.84
526.97	406.00
527.33	406.20
527.68	406.81
528.04	407.25
528.40	407.59
528.76	407.93
529.12	408.59
529.48	409.20
529.84	409.70
530.20	410.50
530.56	411.32
530.91	412.21
531.27	413.23
531.63	414.27
531.99	415.17
532.35	416.10
532.71	417.08
533.07	418.11
533.42	419.65
533.78	420.69
534.14	421.88
534.50	423.06
534.86	424.31
535.21	425.34
535.57	426.85
535.93	428.28
536.29	429.86
536.65	431.33
537.00	432.81
537.36	434.60
537.72	436.27
538.08	438.10
538.44	439.83
538.79	441.64
539.15	443.49
539.51	445.45
539.87	447.47
540.22	449.72
540.58	451.82
540.94	453.75
541.29	455.84
541.65	458.12
542.01	460.57
542.37	462.95
542.72	465.32
543.08	467.56
543.44	470.08
543.79	472.23
544.15	474.82
544.51	477.60
544.87	480.21
545.22	482.85
545.58	485.37
545.94	488.13
546.29	490.68
546.65	493.33
547.01	495.97
547.36	498.83
547.72	501.35
548.07	503.99
548.43	506.65
548.79	509.20
549.14	511.90
549.50	514.57
549.86	517.15
550.21	519.95
550.57	522.77
550.92	525.28
551.28	528.13
551.64	530.70
551.99	533.39
552.35	535.98
552.70	538.53
553.06	541.25
553.41	543.80
553.77	546.60
554.13	549.13
554.48	551.98
554.84	554.62
555.19	557.37
555.55	560.19
555.90	562.77
556.26	565.42
556.61	567.85
556.97	570.14
557.32	572.62
557.68	574.98
558.03	577.31
558.39	579.71
558.74	582.20
559.10	584.64
559.45	586.95
559.81	589.59
560.16	591.96
560.52	594.18
560.87	596.72
561.23	598.92
561.58	601.44
561.94	603.50
562.29	605.50
562.64	607.48
563.00	609.55
563.35	611.66
563.71	614.05
564.06	616.25
564.42	618.65
564.77	620.89
565.12	623.22
565.48	625.66
565.83	627.95
566.19	630.03
566.54	631.90
566.89	633.92
567.25	635.78
567.60	637.96
567.96	639.95
568.31	641.81
568.66	643.69
569.02	645.07
569.37	646.65
569.72	648.28
570.08	650.01
570.43	651.44
570.78	652.85
571.14	653.89
571.49	655.21
571.84	656.35
572.20	657.38
572.55	658.21
572.90	658.70
573.26	659.44
573.61	660.01
573.96	660.81
574.31	661.25
574.67	661.75
575.02	661.97
575.37	662.25
575.72	662.29
576.08	662.68
576.43	663.03
576.78	663.35
577.13	663.77
577.49	663.93
577.84	664.10
578.19	664.33
578.54	664.83
578.90	665.23
579.25	665.31
579.60	665.42
579.95	665.34
580.30	665.66
580.66	665.73
581.01	665.86
581.36	665.71
581.71	665.70
582.06	665.74
582.42	665.65
582.77	665.47
583.12	665.50
583.47	665.35
583.82	665.42
584.17	665.38
584.53	665.13
584.88	664.79
585.23	664.59
585.58	664.27
585.93	663.97
586.28	663.47
586.63	663.32
586.98	662.95
587.34	663.02
587.69	662.50
588.04	662.23
588.39	661.94
588.74	661.53
589.09	661.26
589.44	660.51
589.79	660.12
590.14	659.87
590.49	659.34
590.84	658.67
591.19	658.12
591.54	657.53
591.89	656.56
592.25	656.24
592.60	655.42
592.95	654.52
593.30	653.50
593.65	652.62
594.00	651.48
594.35	651.41
594.70	650.22
595.05	649.35
595.40	648.25
595.75	647.10
596.10	646.32
596.45	645.33
596.80	644.45
597.15	643.50
597.50	642.43
597.85	641.57
598.19	640.45
598.54	639.39
598.89	638.35
599.24	637.84
599.59	636.65
599.94	635.81
600.29	635.04
600.64	633.96
600.99	632.99
601.34	632.12
601.69	630.21
602.04	629.16
602.39	628.01
602.74	627.25
603.08	626.46
603.43	625.70
603.78	624.57
604.13	623.56
604.48	622.59
604.83	621.81
605.18	620.83
605.53	619.83
605.87	618.73
606.22	617.84
606.57	616.50
606.92	615.30
607.27	614.21
607.62	612.95
607.96	611.98
608.31	610.99
608.66	609.77
609.01	608.64
609.36	607.52
609.70	606.33
610.05	604.80
610.40	603.36
610.75	601.85
611.10	600.69
611.44	599.10
611.79	597.47
612.14	595.72
612.49	593.87
612.83	592.48
613.18	590.92
613.53	589.17
613.88	587.53
614.22	585.90
614.57	584.08
614.92	582.43
615.27	580.74
615.61	578.98
615.96	577.36
616.31	575.69
616.65	574.14
617.00	572.48
617.35	570.90
617.70	568.98
618.04	567.05
618.39	565.07
618.74	563.47
619.08	561.82
619.43	560.16
619.78	558.72
620.12	557.00
620.47	555.32
620.82	553.33
621.16	551.49
621.51	549.89
621.85	548.14
622.20	546.46
622.55	544.60
622.89	542.50
623.24	540.73
623.59	538.85
623.93	536.98
624.28	535.38
624.62	533.86
624.97	532.38
625.32	530.48
625.66	528.75
626.01	526.96
626.35	525.24
626.70	523.31
627.04	521.64
627.39	519.80
627.73	518.23
628.08	516.73
628.43	515.18
628.77	513.27
629.12	511.62
629.46	509.99
629.81	508.37
630.15	506.89
630.50	505.09
630.84	503.47
631.19	501.85
631.53	500.08
631.88	498.07
632.22	496.15
632.57	494.90
632.91	493.32
633.26	491.75
633.60	490.08
633.95	488.62
634.29	486.80
634.64	485.21
634.98	483.25
635.32	481.80
635.67	480.16
636.01	478.69
636.36	477.02
636.70	475.37
637.05	473.75
637.39	472.20
637.73	470.74
638.08	469.44
638.42	467.83
638.77	466.28
639.11	464.77
639.45	463.26
639.80	461.40
640.14	459.63
640.49	457.93
640.83	456.26
641.17	454.57
641.52	452.87
641.86	451.15
642.20	449.66
642.55	447.76
642.89	445.97
643.23	444.26
643.58	442.74
643.92	441.08
644.26	439.46
644.61	437.85
644.95	436.23
645.29	434.30
645.64	432.72
645.98	431.06
646.32	429.39
646.66	427.67
647.01	426.05
647.35	424.62
647.69	423.03
648.04	421.60
648.38	420.08
648.72	418.48
649.06	417.04
649.41	415.45
649.75	413.88
650.09	412.47
650.43	410.91
650.78	409.28
651.12	407.72
651.46	406.24
651.80	404.69
652.14	403.20
652.49	401.81
652.83	400.21
653.17	398.57
653.51	397.05
653.85	395.78
654.20	394.39
654.54	392.82
654.88	391.33
655.22	389.86
655.56	388.27
655.90	386.80
656.25	385.13
656.59	383.62
656.93	382.23
657.27	380.86
657.61	379.25
657.95	377.88
658.29	376.32
658.64	374.89
658.98	373.38
659.32	371.77
659.66	370.25
660.00	368.78
660.34	367.27
660.68	365.77
661.02	364.16
661.36	362.72
661.70	361.37
662.05	360.08
662.39	358.76
662.73	357.62
663.07	356.51
663.41	355.34
663.75	353.96
664.09	352.61
664.43	351.13
664.77	349.91
665.11	348.55
665.45	347.42
665.79	346.16
666.13	344.93
666.47	343.75
666.81	342.58
667.15	341.41
667.49	340.53
667.83	339.47
668.17	338.48
668.51	337.49
668.85	336.49
669.19	335.44
669.53	334.09
669.87	332.85
670.21	331.64
670.55	330.49
670.89	329.66
671.23	328.70
671.57	327.73
671.91	326.83
672.25	325.79
672.58	324.85
672.92	323.82
673.26	322.87
673.60	321.87
673.94	320.98
674.28	320.03
674.62	318.98
674.96	318.02
675.30	316.97
675.64	315.98
675.97	314.90
676.31	313.89
676.65	313.07
676.99	312.32
677.33	311.28
677.67	310.46
678.01	309.41
678.34	308.45
678.68	307.59
679.02	306.63
679.36	305.77
679.70	304.83
680.04	303.95
680.37	303.12
680.71	302.39
681.05	301.53
681.39	300.74
681.73	299.90
682.06	299.14
682.40	298.43
682.74	297.62
683.08	296.92
683.42	296.06
683.75	295.32
684.09	294.36
684.43	293.67
684.77	292.72
685.10	291.91
685.44	291.16
685.78	290.37
686.12	289.66
686.45	288.91
686.79	288.10
687.13	287.41
687.46	286.73
687.80	286.09
688.14	285.29
688.48	284.55
688.81	283.75
689.15	283.08
689.49	282.30
689.82	281.58
690.16	280.70
690.50	280.07
690.83	279.26
691.17	278.49
691.51	277.86
691.84	277.28
692.18	276.67
692.52	275.98
692.85	275.44
693.19	274.93
693.52	274.29
693.86	273.69
694.20	273.06
694.53	272.38
694.87	271.63
695.21	271.03
695.54	270.40
695.88	269.72
696.21	268.99
696.55	268.39
696.88	267.73
697.22	267.23
697.56	266.60
697.89	265.94
698.23	265.52
698.56	264.86
698.90	264.37
699.23	263.88
699.57	263.34
699.90	262.70
700.24	262.00
700.58	261.45
700.91	260.90
701.25	260.64
701.58	260.21
701.92	259.85
702.25	259.31
702.59	258.78
702.92	258.45
703.26	257.94
703.59	257.39
703.93	257.20
704.26	256.73
704.60	256.33
704.93	255.94
705.26	255.40
705.60	255.08
705.93	254.56
706.27	254.15
706.60	253.78
706.94	253.46
707.27	252.98
707.61	252.56
707.94	252.15
708.27	251.51
708.61	251.01
708.94	250.42
709.28	250.01
709.61	249.58
709.94	249.17
710.28	248.89
710.61	248.56
710.95	247.84
711.28	247.69
711.61	247.32
711.95	247.12
712.28	246.78
712.61	246.41
712.95	246.23
713.28	246.05
713.61	245.69
713.95	245.27
714.28	244.94
714.61	244.52
714.95	244.21
715.28	243.79
715.61	243.42
715.95	243.20
716.28	242.85
716.61	242.55
716.95	242.17
717.28	241.80
717.61	241.57
717.94	241.35
718.28	240.87
718.61	240.55
718.94	240.15
719.27	239.85
719.61	239.57
719.94	239.15
720.27	238.55
720.60	238.25
720.94	238.01
721.27	237.80
721.60	237.63
721.93	237.31
722.27	237.22
722.60	236.98
722.93	236.64
723.26	236.44
723.59	236.16
723.93	235.96
724.26	235.72
724.59	235.44
724.92	235.28
725.25	235.02
725.59	234.84
725.92	234.69
726.25	234.44
726.58	234.15
726.91	233.93
727.24	233.88
727.57	233.66
727.91	233.27
728.24	233.08
728.57	232.82
728.90	232.74
729.23	232.41
729.56	232.36
729.89	232.27
730.22	232.07
730.55	231.84
730.89	231.70
731.22	231.46
731.55	231.25
731.88	230.97
732.21	230.80
732.54	230.52
732.87	230.25
733.20	230.07
733.53	229.92
733.86	229.79
734.19	229.53
734.52	229.40
734.85	229.52
735.18	229.26
735.51	229.25
735.84	229.04
736.17	228.89
736.50	228.63
736.83	228.79
737.16	228.58
737.49	228.51
737.82	228.24
738.15	228.21
738.48	228.02
738.81	227.84
739.14	227.59
739.47	227.42
739.80	227.26
740.13	227.16
740.46	226.92
740.79	226.68
741.12	226.50
741.45	226.25
741.78	225.92
742.11	225.82
742.44	225.56
742.77	225.43
743.10	225.30
743.43	225.09
743.75	224.57
744.08	224.86
744.41	224.59
744.74	224.47
745.07	224.23
745.40	224.15
745.73	224.17
746.06	224.09
746.39	223.98
746.71	223.77
747.04	223.52
747.37	223.43
747.70	223.38
748.03	223.33
748.36	223.30
748.68	223.20
749.01	222.98
749.34	222.94
749.67	222.78
750.00	222.79
750.33	222.95
750.65	222.83
750.98	222.25
751.31	222.16
751.64	222.02
751.97	222.16
752.29	222.00
752.62	221.78
752.95	221.70
753.28	221.57
753.60	221.51
753.93	221.60
754.26	221.52
754.59	221.33
754.91	221.09
755.24	220.93
755.57	220.85
755.90	220.81
756.22	220.64
756.55	220.49
756.88	220.16
757.20	219.81
757.53	219.67
757.86	219.65
758.19	219.55
758.51	219.55
758.84	219.22
759.17	219.16
759.49	219.00
759.82	219.02
760.15	218.99
760.47	218.86
760.80	218.62
761.13	218.54
761.45	218.39
761.78	218.40
762.11	218.35
762.43	218.20
762.76	218.08
763.08	218.10
763.41	218.02
763.74	218.02
764.06	217.90
764.39	217.80
764.71	217.66
765.04	217.63
765.37	217.43
765.69	217.28
766.02	217.19
766.34	217.15
766.67	216.99
767.00	216.95
767.32	217.16
767.65	217.32
767.97	217.26
768.30	217.25
768.62	217.18
768.95	217.06
769.27	216.98
769.60	217.00
769.92	216.87
770.25	216.83
770.57	216.77
770.90	216.75
771.22	216.70
771.55	216.71
771.87	216.72
772.20	216.71
772.52	217.05
772.85	217.37
773.17	217.34
773.50	217.26
773.82	217.17
774.15	216.86
774.47	216.64
774.80	216.50
775.12	216.42
775.45	216.42
775.77	216.40
776.09	216.32
776.42	216.24
776.74	216.26
777.07	216.16
777.39	216.10
777.72	215.96
778.04	215.91
778.36	215.83
778.69	215.70
779.01	215.75
779.33	215.37
779.66	214.97
779.98	214.91
780.31	214.89
780.63	215.02
780.95	215.10
781.28	215.01
781.60	215.04
781.92	215.06
782.25	214.90
782.57	214.83
782.89	214.84
783.22	214.83
783.54	214.72
783.86	214.72
784.19	214.65
784.51	214.76
784.83	214.75
785.16	214.71
785.48	214.71
785.80	214.61
786.12	214.63
786.45	214.62
786.77	214.66
787.09	214.62
787.42	214.46
787.74	214.40
788.06	214.39
788.38	214.32
788.71	214.23
789.03	214.30
789.35	214.37
789.67	214.32
789.99	214.29
790.32	214.24
790.64	214.28
790.96	214.51
791.28	214.34
791.61	214.26
791.93	214.25
792.25	214.24
792.57	214.51
792.89	214.41
793.21	214.35
793.54	214.18
793.86	214.19
794.18	214.15
