SpectraSuite Data File
++++++++++++++++++++++++++++++++++++
Date: Mon Feb 25 17:20:12 EST 2013
User: group
Dark Spectrum Present: No
Reference Spectrum Present: No
Number of Sampled Component Spectra: 1
Spectrometers: USB2E7196
Integration Time (usec): 104000 (USB2E7196)
Spectra Averaged: 20 (USB2E7196)
Boxcar Smoothing: 10 (USB2E7196)
Correct for Electrical Dark: No (USB2E7196)
Strobe/Lamp Enabled: No (USB2E7196)
Correct for Detector Non-linearity: No (USB2E7196)
Correct for Stray Light: No (USB2E7196)
Number of Pixels in Processed Spectrum: 2048
>>>>>Begin Processed Spectral Data<<<<<
339.09	0.00
339.48	197.95
339.86	199.50
340.24	200.25
340.63	202.60
341.01	209.10
341.39	204.80
341.78	207.05
342.16	209.55
342.54	209.45
342.93	198.00
343.31	208.02
343.69	208.53
344.07	209.09
344.46	209.65
344.84	210.06
345.22	210.16
345.60	210.55
345.99	210.82
346.37	210.96
346.75	211.05
347.13	211.09
347.52	211.22
347.90	211.40
348.28	211.51
348.66	211.65
349.05	211.65
349.43	211.82
349.81	211.94
350.19	212.05
350.57	212.22
350.96	212.38
351.34	212.54
351.72	212.80
352.10	212.90
352.48	212.92
352.87	212.98
353.25	213.00
353.63	213.01
354.01	213.10
354.39	213.20
354.77	213.32
355.15	213.52
355.54	213.59
355.92	213.58
356.30	213.69
356.68	213.96
357.06	214.13
357.44	214.08
357.82	214.19
358.20	214.33
358.58	214.38
358.97	214.51
359.35	214.61
359.73	214.68
360.11	214.73
360.49	214.81
360.87	214.86
361.25	215.08
361.63	215.23
362.01	215.34
362.39	215.38
362.77	215.48
363.15	215.54
363.53	215.57
363.91	215.59
364.29	215.66
364.67	215.39
365.05	215.38
365.43	215.49
365.81	215.52
366.19	215.75
366.57	215.83
366.95	215.78
367.33	215.74
367.71	215.75
368.09	215.82
368.47	215.84
368.85	215.86
369.23	215.97
369.61	215.81
369.99	215.85
370.37	215.82
370.75	215.97
371.13	215.86
371.51	215.77
371.89	215.79
372.27	215.74
372.65	215.68
373.03	215.58
373.41	215.47
373.78	215.34
374.16	215.00
374.54	214.92
374.92	214.95
375.30	214.88
375.68	214.79
376.06	214.77
376.44	214.70
376.82	214.69
377.19	214.55
377.57	214.53
377.95	214.36
378.33	214.38
378.71	214.08
379.09	214.13
379.47	214.16
379.84	214.10
380.22	213.96
380.60	213.91
380.98	213.89
381.36	213.88
381.73	213.92
382.11	214.01
382.49	213.95
382.87	213.81
383.25	213.74
383.62	214.11
384.00	213.95
384.38	213.92
384.76	214.02
385.13	214.17
385.51	214.11
385.89	214.09
386.27	213.97
386.64	214.06
387.02	213.92
387.40	213.86
387.78	213.90
388.15	213.90
388.53	213.96
388.91	214.01
389.29	213.98
389.66	213.90
390.04	213.80
390.42	213.88
390.79	213.90
391.17	213.94
391.55	213.57
391.92	213.62
392.30	213.74
392.68	213.65
393.05	213.49
393.43	213.58
393.81	213.53
394.18	213.49
394.56	213.43
394.94	213.58
395.31	213.51
395.69	213.58
396.06	213.63
396.44	213.60
396.82	213.57
397.19	213.80
397.57	213.79
397.95	213.93
398.32	213.88
398.70	213.92
399.07	214.09
399.45	214.07
399.82	214.10
400.20	214.01
400.58	213.97
400.95	213.98
401.33	214.05
401.70	214.33
402.08	214.45
402.45	214.56
402.83	214.60
403.20	214.80
403.58	214.84
403.95	215.01
404.33	215.21
404.71	215.35
405.08	215.64
405.46	215.81
405.83	215.94
406.21	216.09
406.58	216.39
406.96	216.55
407.33	216.81
407.70	217.06
408.08	217.65
408.45	218.02
408.83	218.44
409.20	218.72
409.58	218.94
409.95	219.49
410.33	219.90
410.70	220.34
411.08	220.87
411.45	221.40
411.82	221.90
412.20	222.60
412.57	223.40
412.95	223.76
413.32	224.53
413.69	225.37
414.07	226.16
414.44	227.02
414.82	227.95
415.19	229.02
415.56	230.13
415.94	231.14
416.31	232.46
416.68	233.70
417.06	235.24
417.43	236.73
417.81	238.33
418.18	240.13
418.55	241.86
418.93	243.75
419.30	245.70
419.67	247.73
420.04	249.75
420.42	251.81
420.79	254.65
421.16	257.26
421.54	259.96
421.91	262.85
422.28	265.70
422.66	268.75
423.03	271.87
423.40	274.89
423.77	278.21
424.15	281.51
424.52	285.00
424.89	288.80
425.26	292.45
425.64	295.85
426.01	299.54
426.38	303.58
426.75	307.68
427.13	311.81
427.50	316.22
427.87	320.82
428.24	325.46
428.61	329.62
428.99	334.51
429.36	339.69
429.73	344.77
430.10	349.82
430.47	354.97
430.85	360.30
431.22	365.95
431.59	372.12
431.96	377.96
432.33	384.44
432.70	390.61
433.08	397.80
433.45	404.48
433.82	411.16
434.19	418.75
434.56	426.11
434.93	433.22
435.30	440.27
435.68	448.06
436.05	455.76
436.42	463.48
436.79	470.44
437.16	477.93
437.53	485.86
437.90	493.78
438.27	501.54
438.64	509.60
439.01	517.20
439.38	523.55
439.75	529.94
440.13	537.23
440.50	544.00
440.87	549.64
441.24	555.64
441.61	562.12
441.98	566.69
442.35	572.10
442.72	577.77
443.09	583.31
443.46	586.43
443.83	588.65
444.20	590.56
444.57	593.24
444.94	594.44
445.31	595.76
445.68	597.25
446.05	597.70
446.42	596.76
446.79	595.78
447.16	594.66
447.53	593.77
447.90	590.53
448.27	587.62
448.64	583.32
449.01	580.25
449.37	575.07
449.74	569.97
450.11	563.99
450.48	557.12
450.85	550.12
451.22	544.30
451.59	538.70
451.96	533.25
452.33	526.11
452.70	519.66
453.07	511.92
453.43	503.86
453.80	496.45
454.17	489.41
454.54	482.70
454.91	475.61
455.28	468.64
455.65	462.33
456.02	456.02
456.38	450.53
456.75	443.64
457.12	437.83
457.49	432.16
457.86	426.51
458.23	421.87
458.59	416.69
458.96	411.43
459.33	406.65
459.70	402.06
460.07	398.55
460.43	394.36
460.80	390.45
461.17	387.06
461.54	383.48
461.91	380.00
462.27	376.41
462.64	373.50
463.01	370.29
463.38	367.08
463.74	363.69
464.11	360.93
464.48	358.61
464.85	355.92
465.21	354.09
465.58	351.97
465.95	349.40
466.32	347.40
466.68	345.37
467.05	343.50
467.42	341.39
467.78	339.16
468.15	337.26
468.52	335.78
468.88	333.74
469.25	332.10
469.62	330.83
469.98	329.33
470.35	327.98
470.72	326.66
471.08	325.14
471.45	324.01
471.82	322.95
472.18	321.70
472.55	321.00
472.92	320.00
473.28	319.29
473.65	318.58
474.02	317.87
474.38	317.46
474.75	317.04
475.11	316.62
475.48	316.35
475.85	316.06
476.21	315.96
476.58	315.99
476.94	315.95
477.31	315.86
477.67	316.02
478.04	316.09
478.41	316.41
478.77	317.13
479.14	317.42
479.50	317.89
479.87	318.54
480.23	319.20
480.60	319.71
480.96	320.33
481.33	321.35
481.69	322.22
482.06	323.17
482.42	324.11
482.79	325.25
483.15	326.54
483.52	328.16
483.88	329.67
484.25	331.25
484.61	333.00
484.98	334.88
485.34	337.00
485.71	339.27
486.07	341.57
486.44	343.60
486.80	346.07
487.17	348.65
487.53	351.50
487.90	354.51
488.26	357.78
488.62	361.27
488.99	364.72
489.35	368.41
489.72	372.29
490.08	376.53
490.44	380.88
490.81	385.43
491.17	389.99
491.54	394.99
491.90	400.20
492.26	405.67
492.63	411.38
492.99	417.32
493.36	423.63
493.72	430.24
494.08	437.18
494.45	444.53
494.81	452.30
495.17	460.09
495.54	468.45
495.90	477.02
496.26	485.91
496.63	495.26
496.99	505.15
497.35	515.44
497.72	526.07
498.08	537.01
498.44	548.25
498.80	560.61
499.17	573.10
499.53	585.93
499.89	599.39
500.26	613.16
500.62	627.28
500.98	642.10
501.34	657.45
501.71	673.60
502.07	689.97
502.43	706.79
502.79	724.08
503.16	741.82
503.52	760.30
503.88	779.10
504.24	798.66
504.60	818.42
504.97	838.85
505.33	859.76
505.69	882.02
506.05	904.65
506.41	926.97
506.78	949.95
507.14	973.45
507.50	997.65
507.86	1022.34
508.22	1047.74
508.59	1073.07
508.95	1099.56
509.31	1126.01
509.67	1153.39
510.03	1181.08
510.39	1209.57
510.75	1238.45
511.12	1267.64
511.48	1297.55
511.84	1327.83
512.20	1358.06
512.56	1388.99
512.92	1420.61
513.28	1451.80
513.64	1483.57
514.00	1515.54
514.37	1547.76
514.73	1580.74
515.09	1613.54
515.45	1646.43
515.81	1679.77
516.17	1713.90
516.53	1747.30
516.89	1781.20
517.25	1814.48
517.61	1848.02
517.97	1881.53
518.33	1915.47
518.69	1949.39
519.05	1983.25
519.41	2017.36
519.77	2052.01
520.13	2085.71
520.49	2119.12
520.85	2153.52
521.21	2187.66
521.57	2222.39
521.93	2256.04
522.29	2290.75
522.65	2324.98
523.01	2358.93
523.37	2391.91
523.73	2425.11
524.09	2458.29
524.45	2491.52
524.81	2525.22
525.17	2559.10
525.53	2592.46
525.89	2625.35
526.25	2658.10
526.61	2689.70
526.97	2721.10
527.33	2752.73
527.68	2784.38
528.04	2815.21
528.40	2844.53
528.76	2874.14
529.12	2904.47
529.48	2935.92
529.84	2965.32
530.20	2994.89
530.56	3024.23
530.91	3054.43
531.27	3083.83
531.63	3112.23
531.99	3140.46
532.35	3167.72
532.71	3194.20
533.07	3221.42
533.42	3247.13
533.78	3273.44
534.14	3299.09
534.50	3323.27
534.86	3347.98
535.21	3371.48
535.57	3396.60
535.93	3420.29
536.29	3443.18
536.65	3465.51
537.00	3486.11
537.36	3506.40
537.72	3526.33
538.08	3546.50
538.44	3566.04
538.79	3585.78
539.15	3605.28
539.51	3624.22
539.87	3643.91
540.22	3662.07
540.58	3680.87
540.94	3699.10
541.29	3714.93
541.65	3730.46
542.01	3746.21
542.37	3761.01
542.72	3776.45
543.08	3789.53
543.44	3804.67
543.79	3817.57
544.15	3829.50
544.51	3842.60
544.87	3855.54
545.22	3866.92
545.58	3877.24
545.94	3886.50
546.29	3894.25
546.65	3902.07
547.01	3909.60
547.36	3916.16
547.72	3923.07
548.07	3927.74
548.43	3932.29
548.79	3937.37
549.14	3942.79
549.50	3948.02
549.86	3951.75
550.21	3954.83
550.57	3958.91
550.92	3960.57
551.28	3962.71
551.64	3964.94
551.99	3967.57
552.35	3968.90
552.70	3970.52
553.06	3971.95
553.41	3972.94
553.77	3974.01
554.13	3974.55
554.48	3975.06
554.84	3975.70
555.19	3975.17
555.55	3973.68
555.90	3971.85
556.26	3969.65
556.61	3967.21
556.97	3964.10
557.32	3961.97
557.68	3958.89
558.03	3955.13
558.39	3951.63
558.74	3949.82
559.10	3946.89
559.45	3942.32
559.81	3938.99
560.16	3934.01
560.52	3929.83
560.87	3925.23
561.23	3919.42
561.58	3915.11
561.94	3908.63
562.29	3901.25
562.64	3896.01
563.00	3891.31
563.35	3887.39
563.71	3883.55
564.06	3878.65
564.42	3874.24
564.77	3869.76
565.12	3865.05
565.48	3859.62
565.83	3854.67
566.19	3849.30
566.54	3842.20
566.89	3835.06
567.25	3828.17
567.60	3821.81
567.96	3814.88
568.31	3808.16
568.66	3801.05
569.02	3792.70
569.37	3784.68
569.72	3777.33
570.08	3768.60
570.43	3759.67
570.78	3750.04
571.14	3739.92
571.49	3730.00
571.84	3720.87
572.20	3709.09
572.55	3699.08
572.90	3688.01
573.26	3676.19
573.61	3663.98
573.96	3652.95
574.31	3640.77
574.67	3627.72
575.02	3614.78
575.37	3602.03
575.72	3588.36
576.08	3576.51
576.43	3563.42
576.78	3551.17
577.13	3539.53
577.49	3527.14
577.84	3514.71
578.19	3503.20
578.54	3492.47
578.90	3481.99
579.25	3468.86
579.60	3455.80
579.95	3442.06
580.30	3430.24
580.66	3418.73
581.01	3405.96
581.36	3392.54
581.71	3380.20
582.06	3367.73
582.42	3355.88
582.77	3342.44
583.12	3329.90
583.47	3317.62
583.82	3305.65
584.17	3293.21
584.53	3280.38
584.88	3267.63
585.23	3254.71
585.58	3240.99
585.93	3226.76
586.28	3213.39
586.63	3200.47
586.98	3188.76
587.34	3177.30
587.69	3164.51
588.04	3151.76
588.39	3139.39
588.74	3126.37
589.09	3114.13
589.44	3101.60
589.79	3089.61
590.14	3078.32
590.49	3066.14
590.84	3053.59
591.19	3042.60
591.54	3030.41
591.89	3016.62
592.25	3003.88
592.60	2990.50
592.95	2977.83
593.30	2963.85
593.65	2949.71
594.00	2936.86
594.35	2925.60
594.70	2912.29
595.05	2899.98
595.40	2887.66
595.75	2874.46
596.10	2863.05
596.45	2851.44
596.80	2840.25
597.15	2828.60
597.50	2816.04
597.85	2804.55
598.19	2792.22
598.54	2779.72
598.89	2768.15
599.24	2758.39
599.59	2747.42
599.94	2738.12
600.29	2726.85
600.64	2716.85
600.99	2705.65
601.34	2695.20
601.69	2682.44
602.04	2671.09
602.39	2659.24
602.74	2647.54
603.08	2637.96
603.43	2628.01
603.78	2616.76
604.13	2605.69
604.48	2594.74
604.83	2585.75
605.18	2576.18
605.53	2565.59
605.87	2554.03
606.22	2543.88
606.57	2532.18
606.92	2521.15
607.27	2508.99
607.62	2498.05
607.96	2487.37
608.31	2477.81
608.66	2466.15
609.01	2455.03
609.36	2443.42
609.70	2431.68
610.05	2420.00
610.40	2407.90
610.75	2395.37
611.10	2384.46
611.44	2370.99
611.79	2357.93
612.14	2344.11
612.49	2330.42
612.83	2318.07
613.18	2305.26
613.53	2291.84
613.88	2278.63
614.22	2266.36
614.57	2253.42
614.92	2240.59
615.27	2227.44
615.61	2214.13
615.96	2201.87
616.31	2190.24
616.65	2179.44
617.00	2168.16
617.35	2156.53
617.70	2144.09
618.04	2131.18
618.39	2117.53
618.74	2106.13
619.08	2093.78
619.43	2081.82
619.78	2070.16
620.12	2058.47
620.47	2047.24
620.82	2034.95
621.16	2022.65
621.51	2010.13
621.85	1998.66
622.20	1986.28
622.55	1974.36
622.89	1962.06
623.24	1949.87
623.59	1936.86
623.93	1924.09
624.28	1911.87
624.62	1900.15
624.97	1888.43
625.32	1877.63
625.66	1866.79
626.01	1855.58
626.35	1844.86
626.70	1833.80
627.04	1823.09
627.39	1812.06
627.73	1800.78
628.08	1790.71
628.43	1779.93
628.77	1768.96
629.12	1757.82
629.46	1748.27
629.81	1737.63
630.15	1727.24
630.50	1716.85
630.84	1706.25
631.19	1695.72
631.53	1685.60
631.88	1674.18
632.22	1663.38
632.57	1652.75
632.91	1641.98
633.26	1631.24
633.60	1620.58
633.95	1610.45
634.29	1599.68
634.64	1589.57
634.98	1578.95
635.32	1568.33
635.67	1558.90
636.01	1549.26
636.36	1538.80
636.70	1528.73
637.05	1518.88
637.39	1509.18
637.73	1499.78
638.08	1491.35
638.42	1482.71
638.77	1473.33
639.11	1464.16
639.45	1454.99
639.80	1444.97
640.14	1435.06
640.49	1425.41
640.83	1415.99
641.17	1406.13
641.52	1396.33
641.86	1386.08
642.20	1376.72
642.55	1366.69
642.89	1356.56
643.23	1346.48
643.58	1337.89
643.92	1327.84
644.26	1318.26
644.61	1308.71
644.95	1298.60
645.29	1288.60
645.64	1278.38
645.98	1268.53
646.32	1259.31
646.66	1249.52
647.01	1240.67
647.35	1231.92
647.69	1222.46
648.04	1213.30
648.38	1203.96
648.72	1195.05
649.06	1186.07
649.41	1177.03
649.75	1168.33
650.09	1159.45
650.43	1150.70
650.78	1141.01
651.12	1131.84
651.46	1123.02
651.80	1114.41
652.14	1105.87
652.49	1096.97
652.83	1088.30
653.17	1078.98
653.51	1070.09
653.85	1061.71
654.20	1053.08
654.54	1044.12
654.88	1035.97
655.22	1027.34
655.56	1018.74
655.90	1009.98
656.25	1001.44
656.59	993.15
656.93	984.93
657.27	977.02
657.61	968.51
657.95	960.58
658.29	953.04
658.64	945.29
658.98	937.28
659.32	929.24
659.66	921.39
660.00	913.37
660.34	905.89
660.68	897.98
661.02	890.18
661.36	882.66
661.70	875.32
662.05	868.07
662.39	861.27
662.73	854.61
663.07	848.11
663.41	841.36
663.75	834.39
664.09	827.54
664.43	820.54
664.77	814.06
665.11	807.40
665.45	800.83
665.79	794.51
666.13	788.07
666.47	781.70
666.81	775.50
667.15	769.33
667.49	763.49
667.83	757.80
668.17	751.94
668.51	746.43
668.85	740.75
669.19	735.04
669.53	729.14
669.87	723.20
670.21	717.64
670.55	712.05
670.89	707.11
671.23	702.03
671.57	696.79
671.91	691.50
672.25	686.33
672.58	681.07
672.92	675.64
673.26	670.80
673.60	666.17
673.94	661.44
674.28	656.69
674.62	652.00
674.96	647.27
675.30	642.69
675.64	637.78
675.97	633.19
676.31	628.87
676.65	624.53
676.99	620.26
677.33	615.53
677.67	611.13
678.01	606.40
678.34	601.99
678.68	597.83
679.02	593.54
679.36	589.45
679.70	585.31
680.04	581.34
680.37	577.05
680.71	572.75
681.05	568.70
681.39	564.76
681.73	560.80
682.06	557.26
682.40	553.63
682.74	549.95
683.08	546.27
683.42	542.27
683.75	538.45
684.09	534.79
684.43	531.09
684.77	527.23
685.10	523.58
685.44	519.72
685.78	515.96
686.12	512.60
686.45	509.12
686.79	505.70
687.13	502.39
687.46	499.15
687.80	495.98
688.14	492.60
688.48	489.40
688.81	486.02
689.15	482.47
689.49	478.95
689.82	475.54
690.16	471.98
690.50	468.64
690.83	465.34
691.17	461.95
691.51	458.90
691.84	456.06
692.18	453.01
692.52	450.35
692.85	447.70
693.19	444.90
693.52	441.95
693.86	439.02
694.20	436.05
694.53	433.31
694.87	430.40
695.21	427.62
695.54	424.72
695.88	421.89
696.21	419.20
696.55	416.76
696.88	414.20
697.22	411.79
697.56	409.40
697.89	406.94
698.23	404.58
698.56	402.14
698.90	399.90
699.23	397.52
699.57	395.07
699.90	392.56
700.24	390.26
700.58	388.05
700.91	385.90
701.25	383.90
701.58	381.72
701.92	379.63
702.25	377.54
702.59	375.54
702.92	373.64
703.26	371.65
703.59	369.62
703.93	367.92
704.26	366.04
704.60	364.18
704.93	362.22
705.26	360.23
705.60	358.48
705.93	356.47
706.27	354.74
706.60	352.98
706.94	351.41
707.27	349.53
707.61	347.75
707.94	345.98
708.27	343.99
708.61	342.37
708.94	340.75
709.28	339.14
709.61	337.50
709.94	335.97
710.28	334.48
710.61	333.04
710.95	331.24
711.28	329.97
711.61	328.53
711.95	327.23
712.28	325.93
712.61	324.47
712.95	323.32
713.28	322.12
713.61	320.77
713.95	319.35
714.28	318.15
714.61	316.87
714.95	315.63
715.28	314.42
715.61	312.95
715.95	311.72
716.28	310.48
716.61	309.26
716.95	307.97
717.28	306.80
717.61	305.67
717.94	304.55
718.28	303.22
718.61	302.05
718.94	300.92
719.27	299.76
719.61	298.69
719.94	297.51
720.27	296.21
720.60	295.21
720.94	294.16
721.27	293.12
721.60	292.24
721.93	291.38
722.27	290.52
722.60	289.67
722.93	288.75
723.26	287.95
723.59	287.04
723.93	286.27
724.26	285.43
724.59	284.49
724.92	283.75
725.25	283.04
725.59	282.30
725.92	281.55
726.25	280.79
726.58	280.03
726.91	279.28
727.24	278.72
727.57	277.88
727.91	277.07
728.24	276.33
728.57	275.57
728.90	274.87
729.23	274.13
729.56	273.56
729.89	272.87
730.22	272.05
730.55	271.37
730.89	270.59
731.22	269.79
731.55	269.16
731.88	268.49
732.21	267.77
732.54	267.02
732.87	266.36
733.20	265.75
733.53	265.12
733.86	264.54
734.19	263.81
734.52	263.31
734.85	262.97
735.18	262.46
735.51	261.92
735.84	261.34
736.17	260.89
736.50	260.16
736.83	259.95
737.16	259.51
737.49	258.97
737.82	258.37
738.15	257.87
738.48	257.23
738.81	256.70
739.14	256.13
739.47	255.73
739.80	255.15
740.13	254.68
740.46	254.08
740.79	253.49
741.12	253.02
741.45	252.42
741.78	251.79
742.11	251.32
742.44	250.74
742.77	250.33
743.10	249.78
743.43	249.32
743.75	248.55
744.08	248.48
744.41	248.01
744.74	247.60
745.07	247.15
745.40	246.86
745.73	246.62
746.06	246.20
746.39	245.73
746.71	245.32
747.04	244.97
747.37	244.69
747.70	244.39
748.03	244.05
748.36	243.69
748.68	243.25
749.01	242.74
749.34	242.42
749.67	242.05
750.00	241.80
750.33	241.72
750.65	241.40
750.98	240.68
751.31	240.39
751.64	240.12
751.97	239.97
752.29	239.61
752.62	239.10
752.95	238.80
753.28	238.48
753.60	238.18
753.93	237.84
754.26	237.49
754.59	237.14
754.91	236.73
755.24	236.49
755.57	236.22
755.90	235.95
756.22	235.65
756.55	235.30
756.88	234.89
757.20	234.31
757.53	233.97
757.86	233.63
758.19	233.35
758.51	233.08
758.84	232.66
759.17	232.39
759.49	232.18
759.82	231.99
760.15	231.76
760.47	231.48
760.80	231.14
761.13	230.98
761.45	230.74
761.78	230.60
762.11	230.33
762.43	230.08
762.76	229.89
763.08	229.70
763.41	229.47
763.74	229.30
764.06	229.17
764.39	228.93
764.71	228.78
765.04	228.53
765.37	228.31
765.69	228.17
766.02	227.94
766.34	227.71
766.67	227.49
767.00	227.37
767.32	227.44
767.65	227.52
767.97	227.30
768.30	227.10
768.62	226.89
768.95	226.68
769.27	226.54
769.60	226.39
769.92	226.22
770.25	226.04
770.57	225.78
770.90	225.60
771.22	225.40
771.55	225.18
771.87	225.02
772.20	224.83
772.52	224.98
772.85	225.26
773.17	225.10
773.50	224.97
773.82	224.72
774.15	224.38
774.47	223.89
774.80	223.70
775.12	223.57
775.45	223.46
775.77	223.35
776.09	223.25
776.42	223.13
776.74	223.03
777.07	222.88
777.39	222.79
777.72	222.58
778.04	222.52
778.36	222.40
778.69	222.33
779.01	222.29
779.33	221.88
779.66	221.33
779.98	221.22
780.31	221.09
780.63	221.14
780.95	221.09
781.28	221.10
781.60	221.02
781.92	220.90
782.25	220.78
782.57	220.70
782.89	220.55
783.22	220.41
783.54	220.33
783.86	220.27
784.19	220.15
784.51	220.28
784.83	220.21
785.16	220.13
