SpectraSuite Data File
++++++++++++++++++++++++++++++++++++
Date: Mon Feb 25 17:11:00 EST 2013
User: group
Dark Spectrum Present: No
Reference Spectrum Present: No
Number of Sampled Component Spectra: 1
Spectrometers: USB2E7196
Integration Time (usec): 104000 (USB2E7196)
Spectra Averaged: 20 (USB2E7196)
Boxcar Smoothing: 10 (USB2E7196)
Correct for Electrical Dark: No (USB2E7196)
Strobe/Lamp Enabled: No (USB2E7196)
Correct for Detector Non-linearity: No (USB2E7196)
Correct for Stray Light: No (USB2E7196)
Number of Pixels in Processed Spectrum: 2048
>>>>>Begin Processed Spectral Data<<<<<
339.09	0.00
339.48	197.75
339.86	198.50
340.24	200.45
340.63	202.40
341.01	208.25
341.39	205.90
341.78	206.45
342.16	209.00
342.54	208.00
342.93	197.50
343.31	207.50
343.69	208.05
344.07	208.56
344.46	209.04
344.84	209.40
345.22	209.53
345.60	209.75
345.99	210.02
346.37	210.06
346.75	210.15
347.13	210.27
347.52	210.33
347.90	210.50
348.28	210.51
348.66	210.65
349.05	210.58
349.43	210.58
349.81	210.71
350.19	210.79
350.57	210.86
350.96	211.00
351.34	211.05
351.72	211.11
352.10	211.21
352.48	211.29
352.87	211.41
353.25	211.45
353.63	211.52
354.01	211.48
354.39	211.65
354.77	211.75
355.15	211.88
355.54	211.87
355.92	211.83
356.30	211.93
356.68	212.22
357.06	212.30
357.44	212.34
357.82	212.34
358.20	212.45
358.58	212.54
358.97	212.68
359.35	212.88
359.73	213.04
360.11	213.11
360.49	213.17
360.87	213.18
361.25	213.26
361.63	213.40
362.01	213.55
362.39	213.52
362.77	213.60
363.15	213.67
363.53	213.79
363.91	213.89
364.29	213.93
364.67	213.61
365.05	213.70
365.43	213.73
365.81	213.78
366.19	213.90
366.57	213.98
366.95	213.93
367.33	213.83
367.71	213.82
368.09	213.90
368.47	213.92
368.85	213.92
369.23	213.98
369.61	213.89
369.99	213.95
370.37	214.05
370.75	214.17
371.13	214.08
371.51	213.98
371.89	213.98
372.27	213.97
372.65	213.98
373.03	213.89
373.41	213.85
373.78	213.84
374.16	213.69
374.54	213.52
374.92	213.41
375.30	213.33
375.68	213.21
376.06	213.21
376.44	213.12
376.82	213.08
377.19	212.94
377.57	212.86
377.95	212.65
378.33	212.45
378.71	212.22
379.09	212.21
379.47	212.24
379.84	212.13
380.22	212.08
380.60	211.99
380.98	211.89
381.36	211.79
381.73	211.67
382.11	211.65
382.49	211.61
382.87	211.53
383.25	211.50
383.62	211.84
384.00	211.65
384.38	211.67
384.76	211.69
385.13	211.91
385.51	211.84
385.89	211.77
386.27	211.83
386.64	211.79
387.02	211.68
387.40	211.60
387.78	211.56
388.15	211.51
388.53	211.40
388.91	211.45
389.29	211.44
389.66	211.48
390.04	211.43
390.42	211.49
390.79	211.50
391.17	211.49
391.55	211.15
391.92	211.15
392.30	211.10
392.68	211.03
393.05	210.91
393.43	210.91
393.81	210.95
394.18	210.83
394.56	210.83
394.94	210.92
395.31	210.91
395.69	210.99
396.06	211.05
396.44	211.18
396.82	211.17
397.19	211.39
397.57	211.33
397.95	211.40
398.32	211.30
398.70	211.38
399.07	211.49
399.45	211.49
399.82	211.52
400.20	211.55
400.58	211.53
400.95	211.40
401.33	211.51
401.70	211.75
402.08	211.83
402.45	211.84
402.83	211.95
403.20	211.95
403.58	211.97
403.95	212.09
404.33	212.13
404.71	212.14
405.08	212.37
405.46	212.46
405.83	212.55
406.21	212.69
406.58	212.80
406.96	212.89
407.33	213.04
407.70	213.14
408.08	213.46
408.45	213.67
408.83	213.88
409.20	214.02
409.58	214.01
409.95	214.26
410.33	214.54
410.70	214.64
411.08	215.00
411.45	215.20
411.82	215.28
412.20	215.62
412.57	216.12
412.95	216.13
413.32	216.54
413.69	216.81
414.07	217.10
414.44	217.44
414.82	217.81
415.19	218.30
415.56	218.75
415.94	219.15
416.31	219.79
416.68	220.40
417.06	221.13
417.43	221.89
417.81	222.70
418.18	223.45
418.55	224.29
418.93	225.10
419.30	226.04
419.67	227.16
420.04	228.13
420.42	229.05
420.79	230.50
421.16	231.75
421.54	233.23
421.91	234.65
422.28	236.05
422.66	237.46
423.03	239.02
423.40	240.63
423.77	242.22
424.15	243.70
424.52	245.40
424.89	247.17
425.26	248.84
425.64	250.40
426.01	252.16
426.38	254.08
426.75	256.10
427.13	258.07
427.50	260.13
427.87	262.26
428.24	264.41
428.61	266.24
428.99	268.46
429.36	270.81
429.73	273.20
430.10	275.71
430.47	278.26
430.85	280.68
431.22	283.39
431.59	286.39
431.96	289.21
432.33	292.36
432.70	295.20
433.08	298.66
433.45	302.01
433.82	305.38
434.19	309.06
434.56	312.66
434.93	316.08
435.30	319.47
435.68	323.20
436.05	326.99
436.42	330.77
436.79	334.24
437.16	337.79
437.53	341.59
437.90	345.30
438.27	349.05
438.64	352.97
439.01	356.65
439.38	359.63
439.75	362.74
440.13	366.18
440.50	369.47
440.87	372.21
441.24	375.05
441.61	378.12
441.98	380.31
442.35	382.90
442.72	385.62
443.09	388.34
443.46	389.92
443.83	391.00
444.20	391.90
444.57	393.12
444.94	393.86
445.31	394.60
445.68	395.66
446.05	396.00
446.42	395.59
446.79	395.24
447.16	394.88
447.53	394.69
447.90	393.32
448.27	392.06
448.64	390.17
449.01	388.70
449.37	386.33
449.74	383.93
450.11	381.31
450.48	378.16
450.85	374.81
451.22	372.00
451.59	369.34
451.96	366.80
452.33	363.42
452.70	360.37
453.07	356.67
453.43	352.55
453.80	348.95
454.17	345.62
454.54	342.17
454.91	338.66
455.28	335.19
455.65	331.96
456.02	329.29
456.38	326.59
456.75	323.30
457.12	320.39
457.49	317.67
457.86	314.74
458.23	312.54
458.59	310.00
458.96	307.55
459.33	305.25
459.70	303.03
460.07	301.38
460.43	299.28
460.80	297.40
461.17	295.77
461.54	294.00
461.91	292.25
462.27	290.56
462.64	289.05
463.01	287.34
463.38	285.94
463.74	283.93
464.11	282.44
464.48	281.23
464.85	279.90
465.21	278.95
465.58	277.91
465.95	276.51
466.32	275.53
466.68	274.44
467.05	273.44
467.42	272.40
467.78	271.21
468.15	270.16
468.52	269.50
468.88	268.41
469.25	267.46
469.62	266.78
469.98	266.00
470.35	265.34
470.72	264.75
471.08	263.86
471.45	263.23
471.82	262.73
472.18	262.03
472.55	261.67
472.92	261.00
473.28	260.52
473.65	260.05
474.02	259.49
474.38	259.20
474.75	258.93
475.11	258.43
475.48	258.26
475.85	258.06
476.21	257.67
476.58	257.59
476.94	257.41
477.31	257.16
477.67	257.04
478.04	256.95
478.41	256.98
478.77	257.31
479.14	257.18
479.50	257.16
479.87	257.23
480.23	257.22
480.60	257.21
480.96	257.23
481.33	257.52
481.69	257.70
482.06	257.81
482.42	257.90
482.79	258.23
483.15	258.40
483.52	258.80
483.88	259.11
484.25	259.36
484.61	259.79
484.98	260.14
485.34	260.66
485.71	261.13
486.07	261.51
486.44	261.73
486.80	262.43
487.17	262.98
487.53	263.74
487.90	264.47
488.26	265.50
488.62	266.44
488.99	267.23
489.35	268.20
489.72	269.16
490.08	270.19
490.44	271.31
490.81	272.59
491.17	273.65
491.54	274.97
491.90	276.27
492.26	277.60
492.63	279.15
492.99	280.58
493.36	282.15
493.72	283.92
494.08	285.68
494.45	287.53
494.81	289.54
495.17	291.42
495.54	293.54
495.90	295.40
496.26	297.54
496.63	299.90
496.99	302.23
497.35	304.70
497.72	307.25
498.08	309.82
498.44	312.39
498.80	315.29
499.17	318.15
499.53	321.13
499.89	324.32
500.26	327.52
500.62	330.88
500.98	334.36
501.34	337.82
501.71	341.39
502.07	344.95
502.43	348.62
502.79	352.41
503.16	356.40
503.52	360.55
503.88	364.64
504.24	368.84
504.60	373.25
504.97	377.77
505.33	382.32
505.69	387.25
506.05	392.03
506.41	397.01
506.78	402.00
507.14	407.21
507.50	412.48
507.86	417.89
508.22	423.35
508.59	428.78
508.95	434.42
509.31	440.32
509.67	446.30
510.03	452.38
510.39	458.70
510.75	464.97
511.12	471.49
511.48	477.91
511.84	484.45
512.20	491.01
512.56	497.72
512.92	504.62
513.28	511.47
513.64	518.51
514.00	525.50
514.37	532.65
514.73	539.99
515.09	547.39
515.45	554.60
515.81	561.96
516.17	569.45
516.53	576.94
516.89	584.23
517.25	591.88
517.61	599.51
517.97	607.01
518.33	614.53
518.69	622.09
519.05	629.96
519.41	637.98
519.77	646.15
520.13	654.06
520.49	661.97
520.85	669.94
521.21	678.12
521.57	686.27
521.93	694.33
522.29	702.54
522.65	710.66
523.01	719.00
523.37	727.03
523.73	735.35
524.09	743.34
524.45	751.67
524.81	759.89
525.17	768.24
525.53	776.67
525.89	785.10
526.25	793.28
526.61	801.45
526.97	809.63
527.33	817.66
527.68	826.41
528.04	834.53
528.40	842.41
528.76	850.57
529.12	858.69
529.48	866.94
529.84	874.95
530.20	882.75
530.56	890.75
530.91	899.22
531.27	907.26
531.63	915.61
531.99	923.80
532.35	931.68
532.71	939.25
533.07	947.11
533.42	954.87
533.78	962.72
534.14	970.21
534.50	977.15
534.86	984.81
535.21	991.24
535.57	998.59
535.93	1005.61
536.29	1012.83
536.65	1019.93
537.00	1026.65
537.36	1033.11
537.72	1039.76
538.08	1046.44
538.44	1052.74
538.79	1059.10
539.15	1065.22
539.51	1071.35
539.87	1077.68
540.22	1083.89
540.58	1089.98
540.94	1095.87
541.29	1101.43
541.65	1106.79
542.01	1112.47
542.37	1117.67
542.72	1123.31
543.08	1128.35
543.44	1134.13
543.79	1138.32
544.15	1142.90
544.51	1147.88
544.87	1152.80
545.22	1157.24
545.58	1161.28
545.94	1165.16
546.29	1168.80
546.65	1172.46
547.01	1175.81
547.36	1179.35
547.72	1182.56
548.07	1185.45
548.43	1188.44
548.79	1191.20
549.14	1194.04
549.50	1196.79
549.86	1199.10
550.21	1201.40
550.57	1204.04
550.92	1205.73
551.28	1208.03
551.64	1210.24
551.99	1212.05
552.35	1213.61
552.70	1215.43
553.06	1217.24
553.41	1218.96
553.77	1220.70
554.13	1222.07
554.48	1223.52
554.84	1224.64
555.19	1225.89
555.55	1227.11
555.90	1227.65
556.26	1228.42
556.61	1229.12
556.97	1229.39
557.32	1229.96
557.68	1230.16
558.03	1230.06
558.39	1230.15
558.74	1230.80
559.10	1230.85
559.45	1231.09
559.81	1231.39
560.16	1231.08
560.52	1231.12
560.87	1231.10
561.23	1230.69
561.58	1230.85
561.94	1230.61
562.29	1230.04
562.64	1229.55
563.00	1228.92
563.35	1228.89
563.71	1229.12
564.06	1229.00
564.42	1229.04
564.77	1228.90
565.12	1228.95
565.48	1228.91
565.83	1228.85
566.19	1228.50
566.54	1227.59
566.89	1226.71
567.25	1225.95
567.60	1225.49
567.96	1224.56
568.31	1223.90
568.66	1223.07
569.02	1221.55
569.37	1219.94
569.72	1218.87
570.08	1217.60
570.43	1216.25
570.78	1214.39
571.14	1212.42
571.49	1210.44
571.84	1208.64
572.20	1206.54
572.55	1204.45
572.90	1201.88
573.26	1199.34
573.61	1196.57
573.96	1194.14
574.31	1191.37
574.67	1188.59
575.02	1185.55
575.37	1182.60
575.72	1178.95
576.08	1176.34
576.43	1173.40
576.78	1170.84
577.13	1168.00
577.49	1165.30
577.84	1162.43
578.19	1160.13
578.54	1157.52
578.90	1155.16
579.25	1152.22
579.60	1149.10
579.95	1146.10
580.30	1143.76
580.66	1141.28
581.01	1138.39
581.36	1135.45
581.71	1132.64
582.06	1130.04
582.42	1127.29
582.77	1124.40
583.12	1121.93
583.47	1118.88
583.82	1116.61
584.17	1113.84
584.53	1111.22
584.88	1108.18
585.23	1105.32
585.58	1102.10
585.93	1099.02
586.28	1096.18
586.63	1093.51
586.98	1090.92
587.34	1088.30
587.69	1085.17
588.04	1082.12
588.39	1079.54
588.74	1076.60
589.09	1074.18
589.44	1070.76
589.79	1068.29
590.14	1065.41
590.49	1062.20
590.84	1059.50
591.19	1056.66
591.54	1053.79
591.89	1050.25
592.25	1047.36
592.60	1044.33
592.95	1041.07
593.30	1037.61
593.65	1034.12
594.00	1030.75
594.35	1028.40
594.70	1025.10
595.05	1022.14
595.40	1018.96
595.75	1015.30
596.10	1012.54
596.45	1009.36
596.80	1006.88
597.15	1003.89
597.50	1000.93
597.85	998.32
598.19	995.06
598.54	991.96
598.89	988.92
599.24	986.51
599.59	983.79
599.94	981.13
600.29	978.47
600.64	975.94
600.99	973.06
601.34	970.50
601.69	966.84
602.04	963.94
602.39	961.06
602.74	958.35
603.08	956.06
603.43	953.82
603.78	950.97
604.13	948.08
604.48	945.30
604.83	943.10
605.18	940.73
605.53	937.99
605.87	935.07
606.22	932.49
606.57	929.60
606.92	926.63
607.27	923.64
607.62	920.90
607.96	918.31
608.31	915.95
608.66	912.96
609.01	909.93
609.36	906.84
609.70	903.65
610.05	900.51
610.40	897.43
610.75	893.90
611.10	891.01
611.44	887.40
611.79	883.90
612.14	880.12
612.49	876.28
612.83	872.95
613.18	869.52
613.53	865.99
613.88	862.18
614.22	858.70
614.57	854.96
614.92	851.37
615.27	847.51
615.61	843.73
615.96	840.24
616.31	836.99
616.65	833.83
617.00	830.55
617.35	827.23
617.70	823.50
618.04	819.61
618.39	815.50
618.74	812.17
619.08	808.56
619.43	804.89
619.78	801.32
620.12	797.77
620.47	794.28
620.82	790.54
621.16	786.87
621.51	783.51
621.85	780.15
622.20	776.41
622.55	772.94
622.89	769.34
623.24	765.82
623.59	762.15
623.93	758.67
624.28	755.16
624.62	751.95
624.97	748.81
625.32	745.66
625.66	742.64
626.01	739.19
626.35	735.90
626.70	732.56
627.04	729.55
627.39	726.27
627.73	722.99
628.08	720.00
628.43	716.79
628.77	713.18
629.12	709.89
629.46	706.98
629.81	703.69
630.15	700.41
630.50	697.02
630.84	693.72
631.19	690.36
631.53	687.10
631.88	683.26
632.22	679.49
632.57	676.46
632.91	673.24
633.26	670.16
633.60	667.07
633.95	664.09
634.29	660.95
634.64	658.00
634.98	654.82
635.32	651.54
635.67	648.80
636.01	645.99
636.36	642.86
636.70	639.96
637.05	637.14
637.39	634.34
637.73	631.70
638.08	629.11
638.42	626.44
638.77	623.74
639.11	621.16
639.45	618.54
639.80	615.34
640.14	612.20
640.49	609.29
640.83	606.37
641.17	603.49
641.52	600.51
641.86	597.38
642.20	594.56
642.55	591.76
642.89	588.62
643.23	585.53
643.58	583.08
643.92	579.89
644.26	576.93
644.61	573.97
644.95	570.97
645.29	567.97
645.64	565.06
645.98	562.11
646.32	559.35
646.66	556.34
647.01	553.66
647.35	551.01
647.69	548.20
648.04	545.50
648.38	542.62
648.72	539.99
649.06	537.32
649.41	534.57
649.75	531.68
650.09	529.12
650.43	526.53
650.78	523.50
651.12	520.71
651.46	517.98
651.80	515.47
652.14	512.71
652.49	510.09
652.83	507.27
653.17	504.44
653.51	501.64
653.85	499.23
654.20	496.51
654.54	493.76
654.88	491.08
655.22	488.44
655.56	485.93
655.90	483.13
656.25	480.40
656.59	477.70
656.93	475.32
657.27	472.82
657.61	470.06
657.95	467.69
658.29	465.32
658.64	462.95
658.98	460.35
659.32	457.96
659.66	455.45
660.00	453.01
660.34	450.50
660.68	447.97
661.02	445.47
661.36	443.27
661.70	441.10
662.05	438.90
662.39	436.69
662.73	434.50
663.07	432.40
663.41	430.35
663.75	428.21
664.09	425.86
664.43	423.61
664.77	421.68
665.11	419.42
665.45	417.37
665.79	415.38
666.13	413.31
666.47	411.25
666.81	409.24
667.15	407.08
667.49	405.41
667.83	403.77
668.17	401.90
668.51	399.94
668.85	398.11
669.19	396.42
669.53	394.51
669.87	392.60
670.21	390.70
670.55	388.85
670.89	387.35
671.23	385.83
671.57	384.25
671.91	382.56
672.25	381.02
672.58	379.45
672.92	377.69
673.26	376.14
673.60	374.66
673.94	373.03
674.28	371.70
674.62	370.06
674.96	368.46
675.30	367.00
675.64	365.48
675.97	363.99
676.31	362.48
676.65	361.05
676.99	359.84
677.33	358.37
677.67	357.03
678.01	355.44
678.34	354.06
678.68	352.59
679.02	351.07
679.36	349.65
679.70	348.20
680.04	346.79
680.37	345.40
680.71	343.99
681.05	342.80
681.39	341.46
681.73	340.24
682.06	338.95
682.40	337.81
682.74	336.59
683.08	335.44
683.42	334.08
683.75	332.86
684.09	331.45
684.43	330.21
684.77	328.90
685.10	327.69
685.44	326.32
685.78	325.12
686.12	324.06
686.45	322.85
686.79	321.78
687.13	320.72
687.46	319.59
687.80	318.54
688.14	317.38
688.48	316.30
688.81	315.10
689.15	314.02
689.49	312.76
689.82	311.72
690.16	310.39
690.50	309.30
690.83	308.20
691.17	307.05
691.51	306.01
691.84	305.00
692.18	303.94
692.52	303.05
692.85	302.16
693.19	301.36
693.52	300.40
693.86	299.30
694.20	298.38
694.53	297.48
694.87	296.46
695.21	295.39
695.54	294.38
695.88	293.35
696.21	292.34
696.55	291.50
696.88	290.54
697.22	289.63
697.56	288.85
697.89	287.92
698.23	287.17
698.56	286.38
698.90	285.63
699.23	284.79
699.57	283.89
699.90	282.98
700.24	282.04
700.58	281.16
700.91	280.47
701.25	279.92
701.58	279.24
701.92	278.53
702.25	277.92
702.59	277.21
702.92	276.55
703.26	275.85
703.59	275.12
703.93	274.70
704.26	274.08
704.60	273.35
704.93	272.68
705.26	271.95
705.60	271.30
705.93	270.55
706.27	270.05
706.60	269.51
706.94	269.02
707.27	268.28
707.61	267.69
707.94	267.02
708.27	266.11
708.61	265.36
708.94	264.75
709.28	264.07
709.61	263.35
709.94	262.85
710.28	262.22
710.61	261.64
710.95	260.74
711.28	260.38
711.61	259.81
711.95	259.30
712.28	258.74
712.61	258.24
712.95	257.91
713.28	257.42
713.61	256.80
713.95	256.18
714.28	255.78
714.61	255.28
714.95	254.80
715.28	254.31
715.61	253.77
715.95	253.33
716.28	252.83
716.61	252.49
716.95	251.96
717.28	251.53
717.61	251.08
717.94	250.67
718.28	250.04
718.61	249.65
718.94	249.25
719.27	248.78
719.61	248.35
719.94	247.83
720.27	247.25
720.60	246.86
720.94	246.41
721.27	245.95
721.60	245.58
721.93	245.16
722.27	244.84
722.60	244.48
722.93	244.05
723.26	243.72
723.59	243.31
723.93	243.02
724.26	242.66
724.59	242.30
724.92	242.10
725.25	241.89
725.59	241.56
725.92	241.20
726.25	240.87
726.58	240.63
726.91	240.35
727.24	240.08
727.57	239.82
727.91	239.51
728.24	239.30
728.57	238.98
728.90	238.71
729.23	238.31
729.56	238.27
729.89	237.93
730.22	237.71
730.55	237.45
730.89	237.13
731.22	236.90
731.55	236.64
731.88	236.31
732.21	235.98
732.54	235.64
732.87	235.40
733.20	235.21
733.53	234.88
733.86	234.62
734.19	234.39
734.52	234.19
734.85	234.24
735.18	233.98
735.51	233.84
735.84	233.67
736.17	233.58
736.50	233.17
736.83	233.42
737.16	233.13
737.49	232.95
737.82	232.74
738.15	232.60
738.48	232.45
738.81	232.21
739.14	231.96
739.47	231.80
739.80	231.60
740.13	231.39
740.46	231.14
740.79	230.87
741.12	230.64
741.45	230.33
741.78	229.91
742.11	229.80
742.44	229.59
742.77	229.49
743.10	229.22
743.43	229.03
743.75	228.45
744.08	228.75
744.41	228.51
744.74	228.29
745.07	228.15
745.40	228.00
745.73	228.07
746.06	227.86
746.39	227.73
746.71	227.48
747.04	227.28
747.37	227.10
747.70	227.07
748.03	226.95
748.36	226.85
748.68	226.65
749.01	226.44
749.34	226.24
749.67	226.06
750.00	225.95
750.33	226.08
750.65	225.96
750.98	225.38
751.31	225.23
751.64	225.20
751.97	225.13
752.29	224.96
752.62	224.61
752.95	224.48
753.28	224.18
753.60	224.10
753.93	224.05
754.26	223.97
754.59	223.71
754.91	223.55
755.24	223.40
755.57	223.26
755.90	223.07
756.22	222.86
756.55	222.66
756.88	222.42
757.20	222.01
757.53	221.85
757.86	221.70
758.19	221.68
758.51	221.49
758.84	221.21
759.17	221.02
759.49	220.94
759.82	221.02
760.15	220.98
760.47	220.82
760.80	220.66
761.13	220.59
761.45	220.42
761.78	220.28
762.11	220.19
762.43	220.11
762.76	219.93
763.08	219.92
763.41	219.79
763.74	219.75
764.06	219.64
764.39	219.46
764.71	219.36
765.04	219.19
765.37	218.99
765.69	218.91
766.02	218.79
766.34	218.62
766.67	218.38
767.00	218.40
767.32	218.54
767.65	218.59
767.97	218.51
768.30	218.48
768.62	218.45
768.95	218.30
769.27	218.15
769.60	218.22
769.92	218.05
770.25	217.91
770.57	217.76
770.90	217.66
771.22	217.60
771.55	217.55
771.87	217.45
772.20	217.42
772.52	217.66
772.85	218.01
773.17	217.97
773.50	217.81
773.82	217.73
774.15	217.50
774.47	217.25
774.80	217.12
775.12	217.01
775.45	216.99
775.77	217.04
776.09	216.96
776.42	216.92
776.74	217.05
777.07	217.05
777.39	217.04
777.72	216.98
778.04	217.01
778.36	216.94
778.69	216.93
779.01	216.94
779.33	216.56
779.66	216.15
779.98	216.10
780.31	216.14
780.63	216.20
780.95	216.18
781.28	216.20
781.60	216.15
781.92	216.22
782.25	216.09
782.57	215.97
782.89	215.97
783.22	215.88
783.54	215.74
783.86	215.76
784.19	215.73
784.51	215.83
784.83	215.71
785.16	215.61
785.48	215.56
785.80	215.50
786.12	215.43
786.45	215.40
786.77	215.33
787.09	215.23
787.42	215.05
787.74	215.05
788.06	214.94
788.38	214.89
788.71	214.78
789.03	214.79
789.35	214.83
789.67	214.74
789.99	214.72
790.32	214.64
790.64	214.55
