SpectraSuite Data File
++++++++++++++++++++++++++++++++++++
Date: Mon Feb 25 16:57:11 EST 2013
User: group
Dark Spectrum Present: No
Reference Spectrum Present: No
Number of Sampled Component Spectra: 1
Spectrometers: USB2E7196
Integration Time (usec): 104000 (USB2E7196)
Spectra Averaged: 20 (USB2E7196)
Boxcar Smoothing: 10 (USB2E7196)
Correct for Electrical Dark: No (USB2E7196)
Strobe/Lamp Enabled: No (USB2E7196)
Correct for Detector Non-linearity: No (USB2E7196)
Correct for Stray Light: No (USB2E7196)
Number of Pixels in Processed Spectrum: 2048
>>>>>Begin Processed Spectral Data<<<<<
339.09	0.00
339.48	199.35
339.86	199.55
340.24	200.90
340.63	204.00
341.01	209.50
341.39	207.00
341.78	207.95
342.16	210.55
342.54	209.50
342.93	198.53
343.31	208.57
343.69	209.11
344.07	209.72
344.46	210.20
344.84	210.57
345.22	210.66
345.60	210.93
345.99	211.16
346.37	211.21
346.75	211.29
347.13	211.42
347.52	211.49
347.90	211.70
348.28	211.75
348.66	211.89
349.05	211.74
349.43	211.85
349.81	211.93
350.19	211.97
350.57	212.02
350.96	212.12
351.34	212.17
351.72	212.27
352.10	212.30
352.48	212.35
352.87	212.36
353.25	212.42
353.63	212.42
354.01	212.40
354.39	212.42
354.77	212.51
355.15	212.64
355.54	212.75
355.92	212.68
356.30	212.76
356.68	213.03
357.06	213.19
357.44	213.16
357.82	213.17
358.20	213.26
358.58	213.41
358.97	213.45
359.35	213.59
359.73	213.64
360.11	213.57
360.49	213.66
360.87	213.75
361.25	213.82
361.63	213.96
362.01	214.03
362.39	214.10
362.77	214.11
363.15	214.05
363.53	214.04
363.91	214.05
364.29	214.01
364.67	213.71
365.05	213.75
365.43	213.82
365.81	213.85
366.19	213.90
366.57	213.96
366.95	214.00
367.33	213.90
367.71	213.94
368.09	214.07
368.47	213.99
368.85	213.91
369.23	213.94
369.61	213.81
369.99	213.85
370.37	213.89
370.75	214.04
371.13	214.01
371.51	213.85
371.89	213.87
372.27	213.83
372.65	213.80
373.03	213.77
373.41	213.67
373.78	213.73
374.16	213.60
374.54	213.45
374.92	213.30
375.30	213.29
375.68	213.21
376.06	213.18
376.44	213.17
376.82	213.15
377.19	213.13
377.57	213.02
377.95	212.90
378.33	212.81
378.71	212.61
379.09	212.56
379.47	212.63
379.84	212.58
380.22	212.53
380.60	212.47
380.98	212.45
381.36	212.40
381.73	212.20
382.11	212.19
382.49	212.21
382.87	212.08
383.25	212.06
383.62	212.39
384.00	212.30
384.38	212.27
384.76	212.32
385.13	212.34
385.51	212.32
385.89	212.25
386.27	212.24
386.64	212.18
387.02	212.23
387.40	212.17
387.78	212.09
388.15	212.13
388.53	212.09
388.91	212.01
389.29	211.95
389.66	212.02
390.04	211.97
390.42	211.98
390.79	212.00
391.17	211.98
391.55	211.59
391.92	211.57
392.30	211.62
392.68	211.49
393.05	211.44
393.43	211.50
393.81	211.57
394.18	211.45
394.56	211.54
394.94	211.56
395.31	211.55
395.69	211.68
396.06	211.70
396.44	211.77
396.82	211.79
397.19	212.00
397.57	212.00
397.95	212.15
398.32	212.10
398.70	212.19
399.07	212.33
399.45	212.34
399.82	212.41
400.20	212.46
400.58	212.65
400.95	212.64
401.33	212.82
401.70	213.14
402.08	213.30
402.45	213.39
402.83	213.63
403.20	213.78
403.58	213.94
403.95	214.16
404.33	214.35
404.71	214.54
405.08	214.99
405.46	215.19
405.83	215.41
406.21	215.63
406.58	216.04
406.96	216.38
407.33	216.81
407.70	217.29
408.08	217.99
408.45	218.49
408.83	219.14
409.20	219.56
409.58	219.95
409.95	220.70
410.33	221.43
410.70	222.04
411.08	222.90
411.45	223.70
411.82	224.55
412.20	225.63
412.57	226.88
412.95	227.67
413.32	229.02
413.69	230.37
414.07	231.78
414.44	233.27
414.82	234.80
415.19	236.62
415.56	238.38
415.94	240.16
416.31	242.27
416.68	244.41
417.06	246.93
417.43	249.37
417.81	252.05
418.18	254.86
418.55	257.96
418.93	261.10
419.30	264.49
419.67	268.04
420.04	271.59
420.42	275.41
420.79	279.84
421.16	284.14
421.54	288.74
421.91	293.53
422.28	298.53
422.66	303.87
423.03	309.08
423.40	314.55
423.77	320.37
424.15	326.35
424.52	332.48
424.89	339.21
425.26	345.76
425.64	351.94
426.01	358.82
426.38	366.04
426.75	373.34
427.13	380.80
427.50	388.74
427.87	397.19
428.24	405.50
428.61	413.51
428.99	422.28
429.36	431.85
429.73	441.24
430.10	450.52
430.47	460.00
430.85	469.99
431.22	480.65
431.59	491.99
431.96	502.73
432.33	514.87
432.70	526.62
433.08	540.33
433.45	553.31
433.82	566.21
434.19	580.51
434.56	594.69
434.93	608.56
435.30	622.35
435.68	637.56
436.05	652.70
436.42	667.93
436.79	682.06
437.16	697.04
437.53	712.97
437.90	728.84
438.27	744.72
438.64	760.99
439.01	776.16
439.38	789.85
439.75	803.19
440.13	818.20
440.50	832.54
440.87	844.27
441.24	856.78
441.61	870.45
441.98	880.98
442.35	893.20
442.72	905.10
443.09	916.62
443.46	924.12
443.83	929.47
444.20	934.14
444.57	940.75
444.94	944.37
445.31	948.31
445.68	952.04
446.05	954.19
446.42	953.90
446.79	953.29
447.16	952.45
447.53	952.36
447.90	947.85
448.27	943.18
448.64	936.45
449.01	931.78
449.37	922.55
449.74	913.57
450.11	902.42
450.48	890.44
450.85	878.23
451.22	867.75
451.59	857.89
451.96	848.38
452.33	835.11
452.70	823.47
453.07	809.08
453.43	794.45
453.80	780.46
454.17	766.97
454.54	754.10
454.91	740.12
455.28	726.65
455.65	713.99
456.02	701.22
456.38	690.40
456.75	676.88
457.12	665.65
457.49	654.54
457.86	643.72
458.23	634.43
458.59	624.31
458.96	613.97
459.33	604.89
459.70	595.74
460.07	588.55
460.43	580.17
460.80	572.34
461.17	565.42
461.54	558.22
461.91	551.48
462.27	544.74
462.64	538.96
463.01	532.26
463.38	525.96
463.74	519.85
464.11	514.37
464.48	509.44
464.85	504.18
465.21	500.11
465.58	495.92
465.95	490.69
466.32	486.36
466.68	482.08
467.05	477.71
467.42	473.50
467.78	469.02
468.15	464.77
468.52	461.61
468.88	457.58
469.25	453.73
469.62	450.55
469.98	447.18
470.35	444.12
470.72	441.30
471.08	438.16
471.45	435.45
471.82	432.70
472.18	429.80
472.55	427.74
472.92	425.22
473.28	422.93
473.65	420.87
474.02	418.66
474.38	416.98
474.75	415.47
475.11	413.91
475.48	412.65
475.85	411.42
476.21	410.25
476.58	409.26
476.94	408.64
477.31	407.85
477.67	406.97
478.04	406.38
478.41	405.90
478.77	405.83
479.14	405.31
479.50	405.11
479.87	405.15
480.23	405.04
480.60	404.96
480.96	404.96
481.33	405.52
481.69	406.05
482.06	406.26
482.42	406.44
482.79	406.91
483.15	407.56
483.52	408.59
483.88	409.40
484.25	410.41
484.61	411.41
484.98	412.48
485.34	414.05
485.71	415.64
486.07	417.20
486.44	418.59
486.80	420.50
487.17	422.54
487.53	424.71
487.90	427.01
488.26	429.54
488.62	432.30
488.99	434.77
489.35	437.37
489.72	440.40
490.08	443.62
490.44	446.59
490.81	449.87
491.17	453.03
491.54	456.62
491.90	460.14
492.26	463.93
492.63	467.82
492.99	471.58
493.36	475.69
493.72	480.02
494.08	484.64
494.45	489.30
494.81	494.16
495.17	499.01
495.54	504.14
495.90	509.23
496.26	514.37
496.63	519.92
496.99	525.40
497.35	531.14
497.72	537.03
498.08	543.16
498.44	549.26
498.80	555.80
499.17	562.14
499.53	568.63
499.89	575.34
500.26	581.95
500.62	588.70
500.98	595.51
501.34	602.39
501.71	609.50
502.07	616.54
502.43	623.54
502.79	630.50
503.16	637.69
503.52	644.89
503.88	652.17
504.24	659.25
504.60	666.70
504.97	673.95
505.33	681.15
505.69	688.93
506.05	696.50
506.41	703.69
506.78	710.89
507.14	718.05
507.50	725.22
507.86	732.67
508.22	740.14
508.59	747.24
508.95	754.53
509.31	761.62
509.67	768.85
510.03	775.94
510.39	783.39
510.75	790.53
511.12	797.60
511.48	804.51
511.84	811.69
512.20	818.54
512.56	825.49
512.92	832.57
513.28	839.00
513.64	845.47
514.00	852.08
514.37	858.55
514.73	865.31
515.09	871.86
515.45	877.95
515.81	883.81
516.17	889.87
516.53	895.82
516.89	901.34
517.25	906.95
517.61	912.39
517.97	917.51
518.33	922.45
518.69	927.50
519.05	932.49
519.41	937.32
519.77	942.39
520.13	947.08
520.49	951.23
520.85	955.77
521.21	960.20
521.57	964.58
521.93	968.55
522.29	972.67
522.65	976.72
523.01	980.92
523.37	984.79
523.73	988.72
524.09	992.18
524.45	995.95
524.81	999.67
525.17	1003.62
525.53	1007.36
525.89	1011.11
526.25	1014.82
526.61	1018.03
526.97	1021.09
527.33	1024.38
527.68	1027.82
528.04	1031.28
528.40	1034.20
528.76	1037.13
529.12	1040.17
529.48	1043.77
529.84	1046.77
530.20	1049.45
530.56	1052.19
530.91	1055.46
531.27	1058.40
531.63	1061.53
531.99	1064.37
532.35	1067.03
532.71	1069.61
533.07	1072.62
533.42	1075.37
533.78	1078.03
534.14	1081.03
534.50	1083.60
534.86	1086.09
535.21	1088.00
535.57	1090.68
535.93	1093.08
536.29	1095.68
536.65	1098.27
537.00	1100.40
537.36	1102.39
537.72	1104.64
538.08	1106.75
538.44	1108.78
538.79	1111.20
539.15	1113.38
539.51	1115.67
539.87	1117.89
540.22	1120.11
540.58	1122.40
540.94	1124.46
541.29	1126.48
541.65	1127.88
542.01	1130.07
542.37	1131.88
542.72	1133.99
543.08	1135.48
543.44	1137.53
543.79	1138.93
544.15	1140.42
544.51	1142.21
544.87	1144.29
545.22	1146.00
545.58	1147.66
545.94	1148.98
546.29	1149.82
546.65	1150.71
547.01	1151.84
547.36	1153.09
547.72	1154.28
548.07	1155.05
548.43	1155.66
548.79	1156.05
549.14	1157.16
549.50	1157.87
549.86	1158.56
550.21	1159.56
550.57	1160.85
550.92	1161.36
551.28	1162.33
551.64	1163.11
551.99	1163.92
552.35	1164.36
552.70	1164.87
553.06	1165.93
553.41	1166.69
553.77	1167.70
554.13	1168.95
554.48	1169.96
554.84	1170.91
555.19	1171.33
555.55	1172.11
555.90	1173.03
556.26	1173.67
556.61	1174.20
556.97	1174.58
557.32	1175.27
557.68	1175.45
558.03	1175.45
558.39	1175.63
558.74	1176.00
559.10	1176.27
559.45	1176.54
559.81	1177.01
560.16	1177.40
560.52	1177.20
560.87	1177.44
561.23	1177.14
561.58	1177.46
561.94	1177.38
562.29	1176.70
562.64	1176.92
563.00	1176.77
563.35	1176.94
563.71	1177.70
564.06	1177.83
564.42	1178.36
564.77	1178.71
565.12	1179.16
565.48	1179.69
565.83	1180.06
566.19	1180.76
566.54	1180.67
566.89	1180.79
567.25	1181.03
567.60	1181.18
567.96	1181.52
568.31	1181.83
568.66	1182.16
569.02	1181.44
569.37	1180.67
569.72	1180.77
570.08	1180.37
570.43	1179.71
570.78	1179.05
571.14	1177.85
571.49	1176.97
571.84	1176.03
572.20	1174.77
572.55	1173.66
572.90	1172.01
573.26	1170.64
573.61	1168.73
573.96	1167.33
574.31	1165.35
574.67	1163.32
575.02	1160.95
575.37	1158.70
575.72	1156.01
576.08	1153.95
576.43	1151.73
576.78	1149.79
577.13	1147.60
577.49	1145.54
577.84	1143.57
578.19	1141.43
578.54	1139.65
578.90	1137.94
579.25	1135.65
579.60	1133.04
579.95	1130.48
580.30	1128.50
580.66	1126.23
581.01	1123.84
581.36	1120.92
581.71	1118.24
582.06	1115.82
582.42	1113.69
582.77	1110.81
583.12	1108.32
583.47	1105.43
583.82	1102.66
584.17	1099.84
584.53	1097.11
584.88	1094.20
585.23	1091.25
585.58	1088.24
585.93	1085.06
586.28	1082.14
586.63	1079.32
586.98	1076.60
587.34	1073.97
587.69	1070.74
588.04	1067.80
588.39	1065.00
588.74	1062.09
589.09	1059.55
589.44	1056.07
589.79	1053.01
590.14	1050.48
590.49	1047.71
590.84	1044.80
591.19	1042.21
591.54	1039.51
591.89	1036.04
592.25	1032.76
592.60	1029.52
592.95	1026.03
593.30	1022.36
593.65	1018.53
594.00	1014.77
594.35	1012.34
594.70	1008.76
595.05	1005.44
595.40	1002.00
595.75	998.00
596.10	994.97
596.45	991.32
596.80	988.29
597.15	985.06
597.50	981.22
597.85	977.66
598.19	974.21
598.54	970.66
598.89	967.04
599.24	964.24
599.59	960.89
599.94	957.68
600.29	954.29
600.64	951.18
600.99	947.76
601.34	944.68
601.69	940.35
602.04	936.70
602.39	933.05
602.74	929.67
603.08	926.54
603.43	923.47
603.78	920.10
604.13	916.65
604.48	913.36
604.83	910.54
605.18	907.64
605.53	904.26
605.87	900.78
606.22	897.76
606.57	893.89
606.92	890.38
607.27	886.59
607.62	883.31
607.96	879.96
608.31	876.95
608.66	873.38
609.01	869.79
609.36	866.23
609.70	862.61
610.05	858.89
610.40	855.29
610.75	851.21
611.10	847.82
611.44	843.60
611.79	839.51
612.14	835.49
612.49	831.13
612.83	827.38
613.18	823.43
613.53	819.29
613.88	815.37
614.22	811.66
614.57	807.80
614.92	803.95
615.27	800.02
615.61	795.90
615.96	792.16
616.31	788.65
616.65	785.40
617.00	781.70
617.35	777.89
617.70	774.09
618.04	770.18
618.39	765.97
618.74	762.59
619.08	758.95
619.43	755.19
619.78	751.65
620.12	748.07
620.47	744.52
620.82	740.76
621.16	736.99
621.51	733.20
621.85	729.82
622.20	726.08
622.55	722.41
622.89	718.80
623.24	715.06
623.59	711.03
623.93	707.19
624.28	703.84
624.62	700.77
624.97	697.33
625.32	693.87
625.66	690.63
626.01	687.16
626.35	683.60
626.70	680.09
627.04	676.77
627.39	673.31
627.73	670.13
628.08	667.19
628.43	663.91
628.77	660.63
629.12	656.97
629.46	653.95
629.81	650.63
630.15	647.52
630.50	644.29
630.84	641.15
631.19	637.96
631.53	634.85
631.88	631.24
632.22	627.89
632.57	624.99
632.91	621.81
633.26	618.72
633.60	615.71
633.95	612.79
634.29	609.62
634.64	606.66
634.98	603.36
635.32	600.21
635.67	597.57
636.01	594.65
636.36	591.96
636.70	589.18
637.05	586.48
637.39	583.65
637.73	580.89
638.08	578.54
638.42	575.95
638.77	573.18
639.11	570.50
639.45	567.97
639.80	565.05
640.14	562.28
640.49	559.60
640.83	556.85
641.17	554.19
641.52	551.54
641.86	548.77
642.20	546.32
642.55	543.51
642.89	540.60
643.23	537.94
643.58	535.55
643.92	532.63
644.26	530.07
644.61	527.48
644.95	525.02
645.29	522.20
645.64	519.58
645.98	516.95
646.32	514.67
646.66	511.89
647.01	509.47
647.35	507.18
647.69	504.54
648.04	502.20
648.38	499.75
648.72	497.23
649.06	494.63
649.41	492.17
649.75	489.65
650.09	487.36
650.43	484.91
650.78	482.27
651.12	479.90
651.46	477.55
651.80	475.24
652.14	472.73
652.49	470.49
652.83	468.02
653.17	465.59
653.51	463.08
653.85	461.03
654.20	458.80
654.54	456.37
654.88	454.16
655.22	451.86
655.56	449.33
655.90	447.04
656.25	444.86
656.59	442.55
656.93	440.50
657.27	438.51
657.61	436.30
657.95	434.27
658.29	432.26
658.64	430.29
658.98	428.08
659.32	425.90
659.66	423.75
660.00	421.69
660.34	419.62
660.68	417.50
661.02	415.24
661.36	413.24
661.70	411.37
662.05	409.44
662.39	407.59
662.73	405.99
663.07	404.38
663.41	402.62
663.75	400.69
664.09	398.83
664.43	396.77
664.77	394.97
665.11	393.06
665.45	391.25
665.79	389.43
666.13	387.70
666.47	386.14
666.81	384.40
667.15	382.69
667.49	381.17
667.83	379.61
668.17	378.08
668.51	376.53
668.85	374.89
669.19	373.58
669.53	371.87
669.87	370.17
670.21	368.56
670.55	367.08
670.89	365.86
671.23	364.51
671.57	363.23
671.91	361.83
672.25	360.48
672.58	359.21
672.92	357.72
673.26	356.44
673.60	355.05
673.94	353.68
674.28	352.34
674.62	351.03
674.96	349.78
675.30	348.54
675.64	347.18
675.97	345.89
676.31	344.49
676.65	343.38
676.99	342.40
677.33	341.16
677.67	339.94
678.01	338.54
678.34	337.25
678.68	336.07
679.02	334.86
679.36	333.67
679.70	332.33
680.04	331.20
680.37	329.99
680.71	328.81
681.05	327.78
681.39	326.67
681.73	325.55
682.06	324.49
682.40	323.43
682.74	322.47
683.08	321.53
683.42	320.43
683.75	319.32
684.09	318.09
684.43	316.97
684.77	315.78
685.10	314.77
685.44	313.70
685.78	312.59
686.12	311.64
686.45	310.54
686.79	309.47
687.13	308.58
687.46	307.61
687.80	306.80
688.14	305.83
688.48	304.98
688.81	304.06
689.15	303.10
689.49	302.12
689.82	301.16
690.16	300.08
690.50	299.13
690.83	298.21
691.17	297.21
691.51	296.26
691.84	295.49
692.18	294.69
692.52	293.77
692.85	293.04
693.19	292.35
693.52	291.56
693.86	290.76
694.20	289.85
694.53	288.99
694.87	288.09
695.21	287.22
695.54	286.31
695.88	285.34
696.21	284.47
696.55	283.72
696.88	282.96
697.22	282.23
697.56	281.62
697.89	280.89
698.23	280.23
698.56	279.53
698.90	278.85
699.23	278.01
699.57	277.37
699.90	276.51
700.24	275.61
700.58	274.97
700.91	274.31
701.25	273.90
701.58	273.31
701.92	272.68
702.25	272.02
702.59	271.38
702.92	270.90
703.26	270.23
703.59	269.61
703.93	269.19
704.26	268.57
704.60	267.91
704.93	267.28
705.26	266.62
705.60	266.15
705.93	265.45
706.27	265.01
706.60	264.46
706.94	264.04
707.27	263.50
707.61	262.95
707.94	262.35
708.27	261.49
708.61	260.86
708.94	260.29
709.28	259.85
709.61	259.38
709.94	258.85
710.28	258.35
710.61	257.88
710.95	257.10
711.28	256.84
711.61	256.31
711.95	255.92
712.28	255.41
712.61	254.91
712.95	254.67
713.28	254.25
713.61	253.76
713.95	253.26
714.28	252.87
714.61	252.34
714.95	251.97
715.28	251.49
715.61	251.03
715.95	250.72
716.28	250.19
716.61	249.90
716.95	249.40
717.28	249.05
717.61	248.60
717.94	248.22
718.28	247.58
718.61	247.23
718.94	246.87
719.27	246.58
719.61	246.23
719.94	245.72
720.27	245.19
720.60	244.91
720.94	244.56
721.27	244.25
721.60	243.95
721.93	243.62
722.27	243.49
722.60	243.28
722.93	242.83
723.26	242.64
723.59	242.18
723.93	241.97
724.26	241.66
724.59	241.35
724.92	241.05
725.25	240.87
725.59	240.54
725.92	240.24
726.25	239.95
726.58	239.65
726.91	239.45
727.24	239.30
727.57	238.96
727.91	238.59
728.24	238.31
728.57	238.11
728.90	237.88
729.23	237.52
729.56	237.42
729.89	237.15
730.22	236.80
730.55	236.54
730.89	236.28
731.22	236.00
731.55	235.74
731.88	235.55
732.21	235.24
732.54	235.02
732.87	234.74
733.20	234.52
733.53	234.23
733.86	234.00
734.19	233.67
734.52	233.48
734.85	233.54
735.18	233.24
735.51	233.07
735.84	232.87
736.17	232.65
736.50	232.20
736.83	232.50
737.16	232.24
737.49	232.05
737.82	231.75
738.15	231.56
738.48	231.42
738.81	231.18
739.14	231.05
739.47	230.82
739.80	230.65
740.13	230.45
740.46	230.23
740.79	230.01
741.12	229.85
741.45	229.63
741.78	229.27
742.11	229.16
742.44	228.86
742.77	228.80
743.10	228.59
743.43	228.46
743.75	227.86
744.08	228.20
744.41	227.94
744.74	227.85
745.07	227.67
745.40	227.55
745.73	227.54
746.06	227.30
746.39	227.17
746.71	226.92
747.04	226.74
747.37	226.60
747.70	226.47
748.03	226.32
748.36	226.21
748.68	226.01
749.01	225.78
749.34	225.70
749.67	225.49
750.00	225.39
750.33	225.40
750.65	225.27
750.98	224.69
751.31	224.65
751.64	224.45
751.97	224.54
752.29	224.36
752.62	224.03
752.95	223.91
753.28	223.68
753.60	223.57
753.93	223.50
754.26	223.40
754.59	223.17
754.91	223.03
755.24	222.93
755.57	222.76
755.90	222.65
756.22	222.44
756.55	222.25
756.88	222.09
757.20	221.79
757.53	221.51
757.86	221.44
758.19	221.34
758.51	221.26
758.84	220.93
759.17	220.80
759.49	220.78
759.82	220.88
760.15	220.88
760.47	220.74
760.80	220.60
761.13	220.57
761.45	220.46
761.78	220.34
762.11	220.17
762.43	220.10
762.76	219.96
763.08	219.87
763.41	219.81
763.74	219.78
764.06	219.70
764.39	219.73
764.71	219.60
765.04	219.49
765.37	219.36
765.69	219.26
766.02	219.10
766.34	218.94
766.67	218.67
767.00	218.53
767.32	218.67
767.65	218.76
767.97	218.67
768.30	218.67
768.62	218.57
768.95	218.48
769.27	218.40
769.60	218.42
769.92	218.33
770.25	218.18
770.57	218.02
770.90	217.90
771.22	217.75
771.55	217.68
771.87	217.58
772.20	217.49
772.52	217.75
772.85	218.14
773.17	218.08
773.50	217.99
773.82	217.99
774.15	217.73
774.47	217.45
774.80	217.34
775.12	217.21
775.45	217.15
775.77	217.11
776.09	217.12
776.42	217.09
776.74	217.19
777.07	217.06
777.39	217.00
777.72	216.95
778.04	216.96
778.36	216.97
778.69	217.01
779.01	217.01
779.33	216.64
779.66	216.21
779.98	216.11
780.31	216.11
780.63	216.24
780.95	216.26
781.28	216.24
781.60	216.17
781.92	216.13
782.25	216.09
782.57	216.02
782.89	215.89
783.22	215.73
783.54	215.59
783.86	215.66
784.19	215.61
784.51	215.69
784.83	215.57
785.16	215.44
785.48	215.34
785.80	215.29
786.12	215.28
786.45	215.24
786.77	215.28
787.09	215.19
787.42	215.00
787.74	214.95
788.06	214.91
788.38	214.85
788.71	214.80
789.03	214.80
789.35	214.91
789.67	214.92
789.99	214.89
