SpectraSuite Data File
++++++++++++++++++++++++++++++++++++
Date: Mon Feb 25 17:18:44 EST 2013
User: group
Dark Spectrum Present: No
Reference Spectrum Present: No
Number of Sampled Component Spectra: 1
Spectrometers: USB2E7196
Integration Time (usec): 104000 (USB2E7196)
Spectra Averaged: 20 (USB2E7196)
Boxcar Smoothing: 10 (USB2E7196)
Correct for Electrical Dark: No (USB2E7196)
Strobe/Lamp Enabled: No (USB2E7196)
Correct for Detector Non-linearity: No (USB2E7196)
Correct for Stray Light: No (USB2E7196)
Number of Pixels in Processed Spectrum: 2048
>>>>>Begin Processed Spectral Data<<<<<
339.09	0.00
339.48	196.80
339.86	200.30
340.24	200.50
340.63	204.15
341.01	209.85
341.39	205.10
341.78	206.60
342.16	209.00
342.54	206.80
342.93	197.65
343.31	207.62
343.69	208.18
344.07	208.59
344.46	209.13
344.84	209.45
345.22	209.48
345.60	209.77
345.99	210.02
346.37	210.11
346.75	210.31
347.13	210.40
347.52	210.51
347.90	210.79
348.28	210.90
348.66	210.98
349.05	211.02
349.43	211.14
349.81	211.19
350.19	211.28
350.57	211.28
350.96	211.44
351.34	211.53
351.72	211.68
352.10	211.87
352.48	211.84
352.87	211.90
353.25	212.04
353.63	212.07
354.01	212.08
354.39	212.19
354.77	212.24
355.15	212.49
355.54	212.49
355.92	212.49
356.30	212.55
356.68	212.90
357.06	212.94
357.44	212.97
357.82	213.08
358.20	213.23
358.58	213.38
358.97	213.40
359.35	213.63
359.73	213.80
360.11	213.80
360.49	213.95
360.87	214.08
361.25	214.16
361.63	214.44
362.01	214.61
362.39	214.63
362.77	214.70
363.15	214.74
363.53	214.82
363.91	214.91
364.29	214.98
364.67	214.71
365.05	214.71
365.43	214.78
365.81	214.81
366.19	214.99
366.57	215.21
366.95	215.24
367.33	215.18
367.71	215.20
368.09	215.33
368.47	215.36
368.85	215.31
369.23	215.43
369.61	215.25
369.99	215.29
370.37	215.41
370.75	215.64
371.13	215.49
371.51	215.44
371.89	215.38
372.27	215.38
372.65	215.38
373.03	215.37
373.41	215.32
373.78	215.30
374.16	215.08
374.54	214.93
374.92	214.82
375.30	214.79
375.68	214.59
376.06	214.57
376.44	214.49
376.82	214.50
377.19	214.34
377.57	214.26
377.95	214.05
378.33	213.93
378.71	213.70
379.09	213.76
379.47	213.76
379.84	213.72
380.22	213.64
380.60	213.55
380.98	213.49
381.36	213.43
381.73	213.29
382.11	213.26
382.49	213.22
382.87	213.21
383.25	213.21
383.62	213.59
384.00	213.44
384.38	213.45
384.76	213.41
385.13	213.55
385.51	213.55
385.89	213.47
386.27	213.45
386.64	213.41
387.02	213.37
387.40	213.31
387.78	213.28
388.15	213.22
388.53	213.10
388.91	213.09
389.29	213.10
389.66	213.14
390.04	213.09
390.42	213.10
390.79	213.09
391.17	212.99
391.55	212.63
391.92	212.65
392.30	212.59
392.68	212.53
393.05	212.43
393.43	212.37
393.81	212.42
394.18	212.32
394.56	212.31
394.94	212.34
395.31	212.27
395.69	212.39
396.06	212.54
396.44	212.64
396.82	212.57
397.19	212.67
397.57	212.69
397.95	212.77
398.32	212.74
398.70	212.76
399.07	212.87
399.45	212.87
399.82	212.90
400.20	212.95
400.58	212.99
400.95	212.93
401.33	213.12
401.70	213.45
402.08	213.57
402.45	213.66
402.83	213.77
403.20	213.87
403.58	213.91
403.95	213.96
404.33	214.08
404.71	214.23
405.08	214.52
405.46	214.65
405.83	214.85
406.21	215.01
406.58	215.30
406.96	215.54
407.33	215.83
407.70	216.08
408.08	216.57
408.45	216.86
408.83	217.19
409.20	217.43
409.58	217.53
409.95	217.93
410.33	218.29
410.70	218.60
411.08	219.13
411.45	219.55
411.82	220.05
412.20	220.73
412.57	221.51
412.95	221.84
413.32	222.55
413.69	223.14
414.07	223.85
414.44	224.51
414.82	225.24
415.19	226.16
415.56	227.05
415.94	227.89
416.31	229.08
416.68	230.24
417.06	231.50
417.43	232.87
417.81	234.22
418.18	235.66
418.55	237.25
418.93	238.78
419.30	240.43
419.67	242.17
420.04	243.87
420.42	245.61
420.79	247.96
421.16	250.11
421.54	252.52
421.91	254.95
422.28	257.36
422.66	259.92
423.03	262.54
423.40	265.19
423.77	267.97
424.15	270.70
424.52	273.58
424.89	276.80
425.26	279.79
425.64	282.75
426.01	285.94
426.38	289.29
426.75	292.79
427.13	296.34
427.50	300.13
427.87	304.02
428.24	307.91
428.61	311.45
428.99	315.61
429.36	319.86
429.73	324.13
430.10	328.54
430.47	332.99
430.85	337.61
431.22	342.54
431.59	347.76
431.96	352.65
432.33	358.21
432.70	363.48
433.08	369.58
433.45	375.33
433.82	381.05
434.19	387.46
434.56	393.78
434.93	399.73
435.30	405.60
435.68	412.18
436.05	418.76
436.42	425.10
436.79	430.89
437.16	437.35
437.53	443.87
437.90	450.45
438.27	456.93
438.64	463.64
439.01	469.96
439.38	475.45
439.75	480.96
440.13	486.94
440.50	492.73
440.87	497.40
441.24	502.35
441.61	507.88
441.98	511.77
442.35	516.36
442.72	521.16
443.09	525.80
443.46	528.54
443.83	530.31
444.20	532.10
444.57	534.47
444.94	535.55
445.31	536.89
445.68	538.20
446.05	538.69
446.42	537.90
446.79	536.95
447.16	536.11
447.53	535.18
447.90	532.63
448.27	529.86
448.64	526.29
449.01	523.65
449.37	519.05
449.74	514.75
450.11	509.65
450.48	503.91
450.85	497.89
451.22	492.90
451.59	488.20
451.96	483.53
452.33	477.60
452.70	472.13
453.07	465.48
453.43	458.69
453.80	452.35
454.17	446.23
454.54	440.46
454.91	434.20
455.28	428.39
455.65	422.83
456.02	417.86
456.38	413.30
456.75	407.50
457.12	402.65
457.49	397.86
457.86	393.06
458.23	389.23
458.59	384.94
458.96	380.50
459.33	376.54
459.70	372.72
460.07	369.62
460.43	365.91
460.80	362.70
461.17	359.81
461.54	356.76
461.91	353.90
462.27	351.00
462.64	348.46
463.01	345.85
463.38	343.34
463.74	340.29
464.11	337.81
464.48	335.81
464.85	333.59
465.21	331.91
465.58	330.18
465.95	327.93
466.32	326.26
466.68	324.52
467.05	322.80
467.42	321.05
467.78	319.15
468.15	317.58
468.52	316.33
468.88	314.68
469.25	313.22
469.62	312.10
469.98	310.85
470.35	309.83
470.72	308.70
471.08	307.47
471.45	306.52
471.82	305.70
472.18	304.58
472.55	303.99
472.92	303.11
473.28	302.40
473.65	301.79
474.02	301.10
474.38	300.72
474.75	300.44
475.11	299.97
475.48	299.69
475.85	299.53
476.21	299.37
476.58	299.21
476.94	299.29
477.31	299.22
477.67	299.31
478.04	299.31
478.41	299.58
478.77	300.16
479.14	300.34
479.50	300.78
479.87	301.41
480.23	301.83
480.60	302.37
480.96	302.85
481.33	303.59
481.69	304.35
482.06	305.05
482.42	305.86
482.79	306.89
483.15	307.99
483.52	309.19
483.88	310.25
484.25	311.60
484.61	312.93
484.98	314.46
485.34	316.17
485.71	318.04
486.07	319.85
486.44	321.55
486.80	323.75
487.17	325.89
487.53	328.26
487.90	330.82
488.26	333.56
488.62	336.60
488.99	339.54
489.35	342.52
489.72	345.93
490.08	349.47
490.44	353.11
490.81	356.94
491.17	360.64
491.54	364.90
491.90	369.26
492.26	373.84
492.63	378.72
492.99	383.77
493.36	389.10
493.72	394.73
494.08	400.37
494.45	406.45
494.81	412.96
495.17	419.49
495.54	426.48
495.90	433.52
496.26	440.80
496.63	448.58
496.99	456.78
497.35	465.28
497.72	473.94
498.08	483.04
498.44	492.45
498.80	502.65
499.17	513.15
499.53	523.93
499.89	535.22
500.26	546.60
500.62	558.13
500.98	570.50
501.34	583.15
501.71	596.44
502.07	610.08
502.43	623.93
502.79	638.13
503.16	652.95
503.52	668.22
503.88	683.87
504.24	699.97
504.60	716.54
504.97	733.43
505.33	750.87
505.69	769.24
506.05	787.89
506.41	806.56
506.78	825.62
507.14	845.11
507.50	865.01
507.86	885.62
508.22	906.85
508.59	928.11
508.95	950.04
509.31	972.27
509.67	994.95
510.03	1018.28
510.39	1042.41
510.75	1066.77
511.12	1091.54
511.48	1116.49
511.84	1141.60
512.20	1166.97
512.56	1193.21
512.92	1219.57
513.28	1246.12
513.64	1272.73
514.00	1299.96
514.37	1327.00
514.73	1355.03
515.09	1382.99
515.45	1411.01
515.81	1439.14
516.17	1467.55
516.53	1495.93
516.89	1524.74
517.25	1553.07
517.61	1581.72
517.97	1610.18
518.33	1638.57
518.69	1666.95
519.05	1695.94
519.41	1725.29
519.77	1754.71
520.13	1783.41
520.49	1812.11
520.85	1840.89
521.21	1870.42
521.57	1899.81
521.93	1928.94
522.29	1958.01
522.65	1987.58
523.01	2016.52
523.37	2044.57
523.73	2073.18
524.09	2101.71
524.45	2130.07
524.81	2159.04
525.17	2187.83
525.53	2216.26
525.89	2244.43
526.25	2272.60
526.61	2299.69
526.97	2326.60
527.33	2353.69
527.68	2380.76
528.04	2407.40
528.40	2432.78
528.76	2458.48
529.12	2484.44
529.48	2511.30
529.84	2536.89
530.20	2561.85
530.56	2587.37
530.91	2613.89
531.27	2639.21
531.63	2663.92
531.99	2688.35
532.35	2711.83
532.71	2734.88
533.07	2758.88
533.42	2781.80
533.78	2804.65
534.14	2827.05
534.50	2847.91
534.86	2869.67
535.21	2889.79
535.57	2911.27
535.93	2932.10
536.29	2951.92
536.65	2971.43
537.00	2989.35
537.36	3006.99
537.72	3024.56
538.08	3041.80
538.44	3059.03
538.79	3076.49
539.15	3093.46
539.51	3110.17
539.87	3127.63
540.22	3143.56
540.58	3159.95
540.94	3175.63
541.29	3189.55
541.65	3203.28
542.01	3217.84
542.37	3230.57
542.72	3244.64
543.08	3256.52
543.44	3270.07
543.79	3281.18
544.15	3291.78
544.51	3303.57
544.87	3315.62
545.22	3325.81
545.58	3334.64
545.94	3342.54
546.29	3349.36
546.65	3356.26
547.01	3363.14
547.36	3369.21
547.72	3375.55
548.07	3379.54
548.43	3384.13
548.79	3388.62
549.14	3393.49
549.50	3398.09
549.86	3401.43
550.21	3404.25
550.57	3407.79
550.92	3408.96
551.28	3411.31
551.64	3413.78
551.99	3415.45
552.35	3416.06
552.70	3417.28
553.06	3419.25
553.41	3420.60
553.77	3421.40
554.13	3422.14
554.48	3422.55
554.84	3422.80
555.19	3421.79
555.55	3420.56
555.90	3418.91
556.26	3417.68
556.61	3415.53
556.97	3412.49
557.32	3411.05
557.68	3408.17
558.03	3405.08
558.39	3402.61
558.74	3400.97
559.10	3398.69
559.45	3395.30
559.81	3392.82
560.16	3388.69
560.52	3385.12
560.87	3380.80
561.23	3376.20
561.58	3372.36
561.94	3366.72
562.29	3360.51
562.64	3356.25
563.00	3352.33
563.35	3348.47
563.71	3345.04
564.06	3341.11
564.42	3337.69
564.77	3333.37
565.12	3329.37
565.48	3324.86
565.83	3320.59
566.19	3315.97
566.54	3308.90
566.89	3303.09
567.25	3297.23
567.60	3291.88
567.96	3285.66
568.31	3280.26
568.66	3274.30
569.02	3267.14
569.37	3260.11
569.72	3253.50
570.08	3246.20
570.43	3238.36
570.78	3230.25
571.14	3221.04
571.49	3212.30
571.84	3204.02
572.20	3194.65
572.55	3186.09
572.90	3176.52
573.26	3166.28
573.61	3155.79
573.96	3146.25
574.31	3135.78
574.67	3124.53
575.02	3113.14
575.37	3102.25
575.72	3090.49
576.08	3080.51
576.43	3069.06
576.78	3059.13
577.13	3049.56
577.49	3039.26
577.84	3028.57
578.19	3018.61
578.54	3009.44
578.90	3000.00
579.25	2988.85
579.60	2977.90
579.95	2966.31
580.30	2955.90
580.66	2946.27
581.01	2935.19
581.36	2924.51
581.71	2913.60
582.06	2902.98
582.42	2892.91
582.77	2881.47
583.12	2870.30
583.47	2859.66
583.82	2850.04
584.17	2838.76
584.53	2827.63
584.88	2816.47
585.23	2805.36
585.58	2794.35
585.93	2782.56
586.28	2771.71
586.63	2760.82
586.98	2750.11
587.34	2740.35
587.69	2729.84
588.04	2718.55
588.39	2708.53
588.74	2697.56
589.09	2687.47
589.44	2676.52
589.79	2666.54
590.14	2656.97
590.49	2646.91
590.84	2636.04
591.19	2626.21
591.54	2616.11
591.89	2604.35
592.25	2593.27
592.60	2582.30
592.95	2570.66
593.30	2558.89
593.65	2546.73
594.00	2535.84
594.35	2526.69
594.70	2515.54
595.05	2505.07
595.40	2494.50
595.75	2482.69
596.10	2472.85
596.45	2462.65
596.80	2453.34
597.15	2443.41
597.50	2432.68
597.85	2422.83
598.19	2412.47
598.54	2401.92
598.89	2392.33
599.24	2384.17
599.59	2375.01
599.94	2366.90
600.29	2357.85
600.64	2349.15
600.99	2339.62
601.34	2330.20
601.69	2319.23
602.04	2308.92
602.39	2299.03
602.74	2289.68
603.08	2281.76
603.43	2273.32
603.78	2263.87
604.13	2254.51
604.48	2245.20
604.83	2237.51
605.18	2229.76
605.53	2220.64
605.87	2211.04
606.22	2202.46
606.57	2192.57
606.92	2183.26
607.27	2173.17
607.62	2163.83
607.96	2154.93
608.31	2146.98
608.66	2137.40
609.01	2128.01
609.36	2118.69
609.70	2108.33
610.05	2098.19
610.40	2088.01
610.75	2077.22
611.10	2068.23
611.44	2056.74
611.79	2045.55
612.14	2033.71
612.49	2021.45
612.83	2011.03
613.18	2000.23
613.53	1988.67
613.88	1976.98
614.22	1966.49
614.57	1955.34
614.92	1944.47
615.27	1933.16
615.61	1921.58
615.96	1911.29
616.31	1901.01
616.65	1891.40
617.00	1881.96
617.35	1871.74
617.70	1860.66
618.04	1849.62
618.39	1837.41
618.74	1827.45
619.08	1816.90
619.43	1806.63
619.78	1796.77
620.12	1786.52
620.47	1776.45
620.82	1765.41
621.16	1754.95
621.51	1744.17
621.85	1734.16
622.20	1723.39
622.55	1713.01
622.89	1702.77
623.24	1692.19
623.59	1681.33
623.93	1670.67
624.28	1660.36
624.62	1650.29
624.97	1640.43
625.32	1630.90
625.66	1621.78
626.01	1612.25
626.35	1603.05
626.70	1593.58
627.04	1584.60
627.39	1575.21
627.73	1565.66
628.08	1557.13
628.43	1547.81
628.77	1538.32
629.12	1528.49
629.46	1520.12
629.81	1511.03
630.15	1501.80
630.50	1492.96
630.84	1483.90
631.19	1474.82
631.53	1465.69
631.88	1455.92
632.22	1446.66
632.57	1437.96
632.91	1428.62
633.26	1419.51
633.60	1410.55
633.95	1401.69
634.29	1392.16
634.64	1383.60
634.98	1374.41
635.32	1365.57
635.67	1357.56
636.01	1349.15
636.36	1340.62
636.70	1332.22
637.05	1323.77
637.39	1315.62
637.73	1307.71
638.08	1300.47
638.42	1292.87
638.77	1284.83
639.11	1277.20
639.45	1269.07
639.80	1260.66
640.14	1252.29
640.49	1244.06
640.83	1235.77
641.17	1227.70
641.52	1219.36
641.86	1210.62
642.20	1203.00
642.55	1194.25
642.89	1185.65
643.23	1177.21
643.58	1169.49
643.92	1160.62
644.26	1152.52
644.61	1144.32
644.95	1135.80
645.29	1127.14
645.64	1118.48
645.98	1110.37
646.32	1102.51
646.66	1094.50
647.01	1086.68
647.35	1079.32
647.69	1071.23
648.04	1063.55
648.38	1055.75
648.72	1048.09
649.06	1040.29
649.41	1032.40
649.75	1025.05
650.09	1017.70
650.43	1010.11
650.78	1002.17
651.12	994.64
651.46	987.10
651.80	979.81
652.14	972.40
652.49	964.92
652.83	957.45
653.17	949.54
653.51	941.74
653.85	934.69
654.20	927.36
654.54	919.79
654.88	912.74
655.22	905.30
655.56	897.97
655.90	890.71
656.25	883.48
656.59	876.35
656.93	869.50
657.27	862.60
657.61	855.54
657.95	848.81
658.29	842.12
658.64	835.80
658.98	828.89
659.32	822.09
659.66	815.50
660.00	808.80
660.34	802.25
660.68	795.78
661.02	789.08
661.36	782.81
661.70	776.67
662.05	770.78
662.39	765.28
662.73	759.52
663.07	754.00
663.41	748.47
663.75	742.71
664.09	736.81
664.43	730.87
664.77	725.54
665.11	719.92
665.45	714.35
665.79	708.73
666.13	703.39
666.47	698.01
666.81	692.83
667.15	687.80
667.49	683.06
667.83	678.24
668.17	673.45
668.51	668.60
668.85	663.81
669.19	659.00
669.53	653.88
669.87	648.78
670.21	644.08
670.55	639.27
670.89	634.87
671.23	630.65
671.57	626.28
671.91	621.65
672.25	617.14
672.58	612.89
672.92	608.45
673.26	604.22
673.60	600.12
673.94	595.85
674.28	591.95
674.62	587.99
674.96	583.93
675.30	579.96
675.64	575.88
675.97	572.00
676.31	568.14
676.65	564.48
676.99	561.10
677.33	557.24
677.67	553.60
678.01	549.79
678.34	546.08
678.68	542.44
679.02	538.85
679.36	535.49
679.70	532.03
680.04	528.53
680.37	524.97
680.71	521.49
681.05	518.16
681.39	514.60
681.73	511.19
682.06	507.98
682.40	504.79
682.74	501.48
683.08	498.25
683.42	494.95
683.75	491.74
684.09	488.45
684.43	485.18
684.77	481.84
685.10	478.71
685.44	475.45
685.78	472.43
686.12	469.59
686.45	466.69
686.79	463.61
687.13	460.84
687.46	458.16
687.80	455.50
688.14	452.52
688.48	449.73
688.81	446.80
689.15	444.10
689.49	441.26
689.82	438.68
690.16	435.70
690.50	432.85
690.83	430.02
691.17	427.27
691.51	424.68
691.84	422.17
692.18	419.71
692.52	417.33
692.85	414.99
693.19	412.56
693.52	410.04
693.86	407.64
694.20	405.21
694.53	402.80
694.87	400.24
695.21	397.96
695.54	395.63
695.88	393.30
696.21	390.85
696.55	388.67
696.88	386.51
697.22	384.35
697.56	382.38
697.89	380.33
698.23	378.30
698.56	376.25
698.90	374.49
699.23	372.38
699.57	370.34
699.90	368.20
700.24	366.25
700.58	364.35
700.91	362.60
701.25	360.83
701.58	359.02
701.92	357.29
702.25	355.50
702.59	353.60
702.92	351.89
703.26	350.15
703.59	348.36
703.93	347.02
704.26	345.38
704.60	343.68
704.93	342.03
705.26	340.32
705.60	338.88
705.93	337.04
706.27	335.58
706.60	334.19
706.94	332.88
707.27	331.23
707.61	329.68
707.94	328.06
708.27	326.44
708.61	324.94
708.94	323.43
709.28	322.08
709.61	320.84
709.94	319.57
710.28	318.28
710.61	317.04
710.95	315.21
711.28	314.23
711.61	312.95
711.95	311.78
712.28	310.58
712.61	309.30
712.95	308.29
713.28	307.22
713.61	306.06
713.95	304.89
714.28	303.95
714.61	302.89
714.95	301.79
715.28	300.69
715.61	299.48
715.95	298.54
716.28	297.45
716.61	296.43
716.95	295.27
717.28	294.27
717.61	293.33
717.94	292.46
718.28	291.31
718.61	290.38
718.94	289.30
719.27	288.40
719.61	287.51
719.94	286.58
720.27	285.46
720.60	284.52
720.94	283.59
721.27	282.64
721.60	281.87
721.93	281.04
722.27	280.37
722.60	279.75
722.93	278.86
723.26	278.15
723.59	277.31
723.93	276.66
724.26	275.88
724.59	275.10
724.92	274.37
725.25	273.76
725.59	273.09
725.92	272.57
726.25	271.85
726.58	271.15
726.91	270.51
727.24	270.02
727.57	269.32
727.91	268.63
728.24	267.99
728.57	267.36
728.90	266.87
729.23	266.09
729.56	265.64
729.89	265.10
730.22	264.40
730.55	263.78
730.89	263.17
731.22	262.62
731.55	261.98
731.88	261.41
732.21	260.63
732.54	259.97
732.87	259.37
733.20	258.84
733.53	258.36
733.86	257.83
734.19	257.24
734.52	256.72
734.85	256.49
735.18	255.95
735.51	255.55
735.84	255.07
736.17	254.71
736.50	253.98
736.83	253.88
737.16	253.51
737.49	253.14
737.82	252.62
738.15	252.24
738.48	251.89
738.81	251.47
739.14	251.08
739.47	250.69
739.80	250.23
740.13	249.83
740.46	249.27
740.79	248.72
741.12	248.20
741.45	247.77
741.78	247.16
742.11	246.91
742.44	246.37
742.77	245.98
743.10	245.62
743.43	245.25
743.75	244.51
744.08	244.51
744.41	244.06
744.74	243.74
745.07	243.29
745.40	242.94
745.73	242.63
746.06	242.28
746.39	242.04
746.71	241.68
747.04	241.27
747.37	240.98
747.70	240.75
748.03	240.52
748.36	240.24
748.68	239.91
749.01	239.46
749.34	239.14
749.67	238.83
750.00	238.45
750.33	238.35
750.65	238.02
750.98	237.29
751.31	237.05
751.64	236.70
751.97	236.59
752.29	236.23
752.62	235.84
752.95	235.53
753.28	235.11
753.60	234.83
753.93	234.67
754.26	234.38
754.59	234.00
754.91	233.68
755.24	233.42
755.57	233.15
755.90	232.84
756.22	232.56
756.55	232.27
756.88	232.00
757.20	231.55
757.53	231.22
757.86	230.92
758.19	230.65
758.51	230.45
758.84	230.04
759.17	229.82
759.49	229.68
759.82	229.66
760.15	229.55
760.47	229.34
760.80	229.02
761.13	228.86
761.45	228.68
761.78	228.43
762.11	228.23
762.43	227.99
762.76	227.85
763.08	227.64
763.41	227.47
763.74	227.23
764.06	226.99
764.39	226.78
764.71	226.70
765.04	226.46
765.37	226.24
765.69	226.10
766.02	225.91
766.34	225.61
766.67	225.28
767.00	225.13
767.32	225.15
767.65	225.20
767.97	224.95
768.30	224.77
768.62	224.68
768.95	224.48
769.27	224.32
769.60	224.19
769.92	223.97
770.25	223.71
770.57	223.61
770.90	223.56
771.22	223.45
771.55	223.32
771.87	223.26
772.20	223.13
772.52	223.24
772.85	223.51
773.17	223.45
773.50	223.33
773.82	223.12
774.15	222.85
774.47	222.50
774.80	222.41
775.12	222.26
775.45	222.12
775.77	222.03
776.09	221.95
776.42	221.91
776.74	222.05
777.07	221.89
777.39	221.77
777.72	221.61
778.04	221.60
778.36	221.39
778.69	221.28
779.01	221.25
779.33	220.89
779.66	220.43
779.98	220.34
780.31	220.26
780.63	220.35
780.95	220.29
781.28	220.26
781.60	220.09
781.92	220.05
782.25	219.99
782.57	219.92
782.89	219.81
783.22	219.69
783.54	219.42
783.86	219.46
784.19	219.36
784.51	219.34
784.83	219.16
785.16	219.08
785.48	219.01
785.80	218.89
