SpectraSuite Data File
++++++++++++++++++++++++++++++++++++
Date: Mon Feb 25 16:56:05 EST 2013
User: group
Dark Spectrum Present: No
Reference Spectrum Present: No
Number of Sampled Component Spectra: 1
Spectrometers: USB2E7196
Integration Time (usec): 104000 (USB2E7196)
Spectra Averaged: 20 (USB2E7196)
Boxcar Smoothing: 10 (USB2E7196)
Correct for Electrical Dark: No (USB2E7196)
Strobe/Lamp Enabled: No (USB2E7196)
Correct for Detector Non-linearity: No (USB2E7196)
Correct for Stray Light: No (USB2E7196)
Number of Pixels in Processed Spectrum: 2048
>>>>>Begin Processed Spectral Data<<<<<
339.09	0.00
339.48	198.30
339.86	200.60
340.24	201.60
340.63	203.30
341.01	208.85
341.39	207.20
341.78	207.65
342.16	209.75
342.54	209.60
342.93	198.55
343.31	208.57
343.69	209.19
344.07	209.60
344.46	210.09
344.84	210.50
345.22	210.64
345.60	210.83
345.99	211.05
346.37	211.10
346.75	211.16
347.13	211.28
347.52	211.39
347.90	211.56
348.28	211.58
348.66	211.68
349.05	211.62
349.43	211.76
349.81	211.90
350.19	211.88
350.57	211.92
350.96	211.95
351.34	212.08
351.72	212.16
352.10	212.33
352.48	212.32
352.87	212.36
353.25	212.43
353.63	212.47
354.01	212.52
354.39	212.62
354.77	212.70
355.15	212.83
355.54	212.78
355.92	212.65
356.30	212.76
356.68	213.05
357.06	213.09
357.44	213.09
357.82	213.14
358.20	213.27
358.58	213.26
358.97	213.38
359.35	213.41
359.73	213.43
360.11	213.45
360.49	213.55
360.87	213.58
361.25	213.62
361.63	213.78
362.01	213.82
362.39	213.83
362.77	213.96
363.15	213.95
363.53	214.03
363.91	214.16
364.29	214.13
364.67	213.88
365.05	213.87
365.43	213.94
365.81	214.04
366.19	214.24
366.57	214.44
366.95	214.37
367.33	214.40
367.71	214.46
368.09	214.55
368.47	214.53
368.85	214.55
369.23	214.55
369.61	214.45
369.99	214.50
370.37	214.57
370.75	214.64
371.13	214.50
371.51	214.43
371.89	214.41
372.27	214.42
372.65	214.38
373.03	214.40
373.41	214.31
373.78	214.19
374.16	214.00
374.54	213.90
374.92	213.84
375.30	213.75
375.68	213.61
376.06	213.54
376.44	213.44
376.82	213.32
377.19	213.27
377.57	213.16
377.95	212.99
378.33	212.86
378.71	212.62
379.09	212.60
379.47	212.66
379.84	212.59
380.22	212.49
380.60	212.38
380.98	212.34
381.36	212.29
381.73	212.25
382.11	212.26
382.49	212.16
382.87	212.11
383.25	212.07
383.62	212.40
384.00	212.30
384.38	212.31
384.76	212.50
385.13	212.64
385.51	212.67
385.89	212.68
386.27	212.71
386.64	212.77
387.02	212.81
387.40	212.76
387.78	212.75
388.15	212.78
388.53	212.79
388.91	212.78
389.29	212.70
389.66	212.73
390.04	212.64
390.42	212.71
390.79	212.78
391.17	212.82
391.55	212.47
391.92	212.49
392.30	212.53
392.68	212.41
393.05	212.29
393.43	212.31
393.81	212.35
394.18	212.36
394.56	212.26
394.94	212.32
395.31	212.29
395.69	212.43
396.06	212.48
396.44	212.54
396.82	212.51
397.19	212.76
397.57	212.71
397.95	212.78
398.32	212.75
398.70	212.80
399.07	212.92
399.45	213.05
399.82	213.13
400.20	213.16
400.58	213.20
400.95	213.25
401.33	213.41
401.70	213.77
402.08	213.86
402.45	214.06
402.83	214.28
403.20	214.45
403.58	214.59
403.95	214.91
404.33	215.18
404.71	215.44
405.08	215.85
405.46	216.18
405.83	216.56
406.21	216.90
406.58	217.31
406.96	217.66
407.33	218.09
407.70	218.53
408.08	219.33
408.45	219.89
408.83	220.56
409.20	221.17
409.58	221.62
409.95	222.40
410.33	223.25
410.70	224.03
411.08	225.03
411.45	226.03
411.82	226.95
412.20	228.06
412.57	229.51
412.95	230.61
413.32	232.04
413.69	233.51
414.07	235.08
414.44	236.78
414.82	238.54
415.19	240.57
415.56	242.73
415.94	244.75
416.31	247.32
416.68	249.79
417.06	252.53
417.43	255.33
417.81	258.34
418.18	261.51
418.55	265.01
418.93	268.55
419.30	272.27
419.67	276.26
420.04	280.50
420.42	284.75
420.79	289.74
421.16	294.86
421.54	300.09
421.91	305.56
422.28	311.28
422.66	317.26
423.03	323.25
423.40	329.41
423.77	336.15
424.15	342.87
424.52	349.87
424.89	357.63
425.26	365.11
425.64	372.22
426.01	380.16
426.38	388.15
426.75	396.47
427.13	405.20
427.50	414.26
427.87	423.75
428.24	433.28
428.61	442.44
428.99	452.36
429.36	463.36
429.73	474.02
430.10	484.58
430.47	495.62
430.85	507.05
431.22	519.25
431.59	532.01
431.96	544.36
432.33	558.09
432.70	571.37
433.08	586.95
433.45	601.86
433.82	616.71
434.19	633.12
434.56	649.41
434.93	665.06
435.30	680.91
435.68	698.22
436.05	715.62
436.42	732.88
436.79	748.83
437.16	765.95
437.53	784.10
437.90	802.45
438.27	820.18
438.64	838.80
439.01	856.18
439.38	871.72
439.75	886.89
440.13	904.13
440.50	920.63
440.87	934.38
441.24	948.68
441.61	964.47
441.98	976.66
442.35	990.44
442.72	1004.23
443.09	1017.40
443.46	1026.02
443.83	1032.08
444.20	1037.53
444.57	1045.12
444.94	1049.41
445.31	1054.06
445.68	1058.09
446.05	1060.91
446.42	1060.55
446.79	1059.71
447.16	1058.97
447.53	1058.78
447.90	1053.60
448.27	1048.43
448.64	1040.19
449.01	1034.69
449.37	1023.70
449.74	1013.38
450.11	1000.75
450.48	986.95
450.85	972.97
451.22	960.96
451.59	949.44
451.96	938.75
452.33	923.66
452.70	910.22
453.07	893.58
453.43	876.96
453.80	861.04
454.17	845.58
454.54	830.98
454.91	815.05
455.28	799.54
455.65	785.24
456.02	770.39
456.38	758.30
456.75	742.90
457.12	730.15
457.49	717.48
457.86	705.22
458.23	694.70
458.59	683.16
458.96	671.48
459.33	661.26
459.70	650.64
460.07	642.40
460.43	632.68
460.80	623.68
461.17	615.81
461.54	607.37
461.91	599.59
462.27	591.70
462.64	584.97
463.01	577.55
463.38	570.17
463.74	563.12
464.11	556.90
464.48	551.39
464.85	545.34
465.21	540.68
465.58	535.84
465.95	529.83
466.32	524.82
466.68	519.91
467.05	514.94
467.42	510.15
467.78	505.10
468.15	500.34
468.52	496.87
468.88	492.07
469.25	488.00
469.62	484.51
469.98	480.81
470.35	477.52
470.72	474.17
471.08	470.75
471.45	467.65
471.82	464.59
472.18	461.23
472.55	458.80
472.92	455.92
473.28	453.32
473.65	450.93
474.02	448.49
474.38	446.50
474.75	444.85
475.11	442.99
475.48	441.54
475.85	440.30
476.21	439.01
476.58	438.01
476.94	437.18
477.31	436.32
477.67	435.47
478.04	434.83
478.41	434.46
478.77	434.40
479.14	434.08
479.50	433.89
479.87	433.98
480.23	434.18
480.60	434.27
480.96	434.32
481.33	435.02
481.69	435.79
482.06	436.41
482.42	436.83
482.79	437.42
483.15	438.32
483.52	439.49
483.88	440.59
484.25	441.80
484.61	443.05
484.98	444.40
485.34	446.11
485.71	447.95
486.07	449.84
486.44	451.61
486.80	453.85
487.17	456.18
487.53	458.77
487.90	461.54
488.26	464.53
488.62	467.67
488.99	470.63
489.35	473.64
489.72	476.97
490.08	480.67
490.44	484.49
490.81	488.38
491.17	492.24
491.54	496.37
491.90	500.70
492.26	505.25
492.63	510.00
492.99	514.96
493.36	519.95
493.72	525.38
494.08	530.83
494.45	536.72
494.81	542.65
495.17	548.64
495.54	554.87
495.90	561.37
496.26	567.71
496.63	574.47
496.99	581.59
497.35	588.80
497.72	596.13
498.08	603.45
498.44	611.12
498.80	619.19
499.17	627.58
499.53	635.85
499.89	644.48
500.26	652.85
500.62	661.07
500.98	669.86
501.34	678.60
501.71	687.64
502.07	696.56
502.43	705.61
502.79	714.64
503.16	723.89
503.52	732.99
503.88	742.58
504.24	752.13
504.60	761.32
504.97	770.88
505.33	780.52
505.69	790.72
506.05	800.57
506.41	810.28
506.78	819.65
507.14	829.25
507.50	838.85
507.86	848.60
508.22	858.66
508.59	868.31
508.95	878.11
509.31	887.76
509.67	897.55
510.03	907.45
510.39	917.51
510.75	927.25
511.12	936.94
511.48	946.59
511.84	956.16
512.20	965.91
512.56	975.75
512.92	985.26
513.28	994.64
513.64	1003.81
514.00	1012.98
514.37	1022.27
514.73	1031.65
515.09	1040.72
515.45	1049.61
515.81	1058.40
516.17	1067.18
516.53	1075.54
516.89	1084.09
517.25	1092.13
517.61	1099.98
517.97	1107.77
518.33	1115.42
518.69	1122.91
519.05	1130.68
519.41	1138.18
519.77	1145.55
520.13	1152.25
520.49	1158.84
520.85	1165.56
521.21	1172.57
521.57	1179.51
521.93	1185.74
522.29	1192.28
522.65	1198.46
523.01	1204.75
523.37	1210.49
523.73	1216.38
524.09	1222.27
524.45	1227.95
524.81	1233.80
525.17	1239.99
525.53	1245.77
525.89	1251.30
526.25	1256.83
526.61	1261.42
526.97	1266.46
527.33	1271.60
527.68	1277.01
528.04	1281.87
528.40	1286.18
528.76	1290.44
529.12	1294.85
529.48	1299.95
529.84	1303.85
530.20	1308.09
530.56	1312.59
530.91	1317.14
531.27	1321.42
531.63	1325.50
531.99	1329.56
532.35	1333.12
532.71	1336.49
533.07	1340.35
533.42	1344.25
533.78	1347.95
534.14	1351.93
534.50	1354.96
534.86	1358.33
535.21	1361.13
535.57	1365.01
535.93	1368.16
536.29	1371.41
536.65	1374.27
537.00	1376.63
537.36	1379.17
537.72	1381.58
538.08	1383.58
538.44	1385.92
538.79	1388.31
539.15	1390.68
539.51	1393.01
539.87	1395.71
540.22	1397.77
540.58	1400.44
540.94	1402.54
541.29	1404.30
541.65	1405.60
542.01	1407.60
542.37	1409.31
542.72	1411.11
543.08	1412.15
543.44	1414.02
543.79	1414.90
544.15	1416.07
544.51	1417.72
544.87	1419.72
545.22	1421.19
545.58	1422.28
545.94	1423.05
546.29	1423.42
546.65	1424.00
547.01	1424.32
547.36	1424.84
547.72	1425.35
548.07	1424.80
548.43	1424.61
548.79	1424.44
549.14	1424.79
549.50	1424.83
549.86	1424.63
550.21	1424.39
550.57	1424.79
550.92	1424.57
551.28	1424.69
551.64	1424.28
551.99	1424.13
552.35	1423.32
552.70	1422.49
553.06	1422.41
553.41	1422.34
553.77	1422.50
554.13	1422.31
554.48	1422.28
554.84	1422.13
555.19	1422.04
555.55	1422.07
555.90	1421.65
556.26	1421.45
556.61	1420.98
556.97	1420.03
557.32	1419.54
557.68	1418.66
558.03	1417.39
558.39	1416.08
558.74	1415.42
559.10	1414.90
559.45	1414.06
559.81	1413.56
560.16	1412.76
560.52	1411.83
560.87	1410.84
561.23	1409.29
561.58	1408.47
561.94	1407.10
562.29	1405.12
562.64	1403.76
563.00	1402.29
563.35	1401.29
563.71	1400.48
564.06	1399.30
564.42	1398.95
564.77	1398.38
565.12	1397.84
565.48	1397.06
565.83	1396.47
566.19	1395.95
566.54	1394.93
566.89	1393.44
567.25	1392.50
567.60	1391.87
567.96	1391.14
568.31	1390.21
568.66	1389.57
569.02	1387.91
569.37	1386.25
569.72	1385.50
570.08	1384.14
570.43	1382.62
570.78	1381.08
571.14	1378.94
571.49	1376.92
571.84	1375.16
572.20	1372.50
572.55	1370.34
572.90	1367.83
573.26	1365.32
573.61	1362.39
573.96	1359.71
574.31	1356.87
574.67	1353.84
575.02	1350.30
575.37	1346.74
575.72	1343.20
576.08	1339.96
576.43	1336.57
576.78	1333.38
577.13	1330.01
577.49	1326.81
577.84	1323.50
578.19	1320.21
578.54	1317.70
578.90	1315.17
579.25	1311.54
579.60	1308.03
579.95	1304.15
580.30	1301.17
580.66	1297.99
581.01	1294.45
581.36	1290.54
581.71	1286.82
582.06	1283.14
582.42	1279.84
582.77	1276.10
583.12	1272.08
583.47	1268.03
583.82	1264.43
584.17	1260.59
584.53	1256.84
584.88	1252.44
585.23	1248.59
585.58	1244.54
585.93	1239.97
586.28	1235.84
586.63	1231.67
586.98	1227.81
587.34	1224.55
587.69	1220.33
588.04	1216.17
588.39	1212.36
588.74	1208.38
589.09	1204.74
589.44	1200.32
589.79	1196.47
590.14	1192.85
590.49	1189.32
590.84	1185.40
591.19	1182.07
591.54	1178.45
591.89	1174.15
592.25	1170.55
592.60	1166.31
592.95	1161.80
593.30	1157.50
593.65	1152.73
594.00	1148.11
594.35	1144.92
594.70	1140.24
595.05	1136.06
595.40	1131.93
595.75	1127.01
596.10	1123.18
596.45	1119.01
596.80	1115.30
597.15	1111.26
597.50	1106.54
597.85	1102.18
598.19	1097.88
598.54	1093.35
598.89	1089.05
599.24	1085.20
599.59	1080.89
599.94	1076.75
600.29	1072.88
600.64	1068.73
600.99	1064.30
601.34	1060.54
601.69	1055.20
602.04	1050.61
602.39	1046.29
602.74	1042.00
603.08	1038.39
603.43	1034.54
603.78	1030.22
604.13	1025.97
604.48	1021.84
604.83	1018.24
605.18	1014.47
605.53	1010.28
605.87	1005.69
606.22	1001.74
606.57	997.25
606.92	992.97
607.27	988.63
607.62	984.45
607.96	980.45
608.31	976.84
608.66	972.44
609.01	968.11
609.36	963.99
609.70	959.47
610.05	954.85
610.40	950.19
610.75	945.11
611.10	940.81
611.44	935.75
611.79	930.73
612.14	925.79
612.49	920.75
612.83	916.29
613.18	911.56
613.53	906.62
613.88	901.70
614.22	896.78
614.57	891.94
614.92	887.03
615.27	882.13
615.61	877.21
615.96	872.67
616.31	868.48
616.65	864.30
617.00	860.01
617.35	855.64
617.70	851.26
618.04	846.69
618.39	841.80
618.74	837.62
619.08	833.14
619.43	828.88
619.78	824.87
620.12	820.59
620.47	816.45
620.82	811.83
621.16	807.27
621.51	803.13
621.85	798.93
622.20	794.55
622.55	790.27
622.89	785.88
623.24	781.66
623.59	777.03
623.93	772.76
624.28	768.75
624.62	765.09
624.97	760.90
625.32	756.93
625.66	753.16
626.01	749.13
626.35	745.25
626.70	740.97
627.04	736.87
627.39	732.75
627.73	729.04
628.08	725.62
628.43	721.89
628.77	718.11
629.12	714.11
629.46	710.55
629.81	706.76
630.15	703.07
630.50	699.30
630.84	695.62
631.19	691.85
631.53	688.12
631.88	683.78
632.22	679.99
632.57	676.56
632.91	672.83
633.26	669.26
633.60	665.56
633.95	662.20
634.29	658.62
634.64	655.43
634.98	651.74
635.32	648.34
635.67	645.40
636.01	641.95
636.36	638.75
636.70	635.56
637.05	632.35
637.39	629.31
637.73	626.40
638.08	623.63
638.42	620.54
638.77	617.46
639.11	614.53
639.45	611.69
639.80	608.32
640.14	605.17
640.49	602.07
640.83	599.24
641.17	596.18
641.52	593.07
641.86	589.76
642.20	587.01
642.55	583.59
642.89	580.30
643.23	577.21
643.58	574.56
643.92	571.40
644.26	568.46
644.61	565.60
644.95	562.38
645.29	559.18
645.64	556.12
645.98	552.99
646.32	550.19
646.66	546.98
647.01	544.27
647.35	541.65
647.69	538.63
648.04	535.92
648.38	533.16
648.72	530.36
649.06	527.62
649.41	524.50
649.75	521.87
650.09	519.28
650.43	516.58
650.78	513.55
651.12	510.80
651.46	508.02
651.80	505.41
652.14	502.83
652.49	500.26
652.83	497.61
653.17	494.88
653.51	492.12
653.85	489.68
654.20	487.10
654.54	484.32
654.88	481.82
655.22	479.13
655.56	476.37
655.90	473.69
656.25	471.17
656.59	468.71
656.93	466.38
657.27	463.93
657.61	461.45
657.95	458.95
658.29	456.46
658.64	454.22
658.98	451.66
659.32	449.05
659.66	446.58
660.00	444.21
660.34	442.02
660.68	439.66
661.02	437.28
661.36	434.99
661.70	432.73
662.05	430.61
662.39	428.50
662.73	426.69
663.07	424.89
663.41	422.83
663.75	420.78
664.09	418.47
664.43	416.20
664.77	414.15
665.11	412.15
665.45	410.22
665.79	408.27
666.13	406.31
666.47	404.52
666.81	402.55
667.15	400.55
667.49	398.64
667.83	396.97
668.17	395.15
668.51	393.39
668.85	391.82
669.19	390.34
669.53	388.48
669.87	386.52
670.21	384.71
670.55	382.97
670.89	381.48
671.23	380.03
671.57	378.48
671.91	376.99
672.25	375.40
672.58	373.98
672.92	372.32
673.26	370.82
673.60	369.30
673.94	367.80
674.28	366.36
674.62	364.99
674.96	363.42
675.30	362.11
675.64	360.62
675.97	359.16
676.31	357.58
676.65	356.29
676.99	355.19
677.33	353.80
677.67	352.53
678.01	350.98
678.34	349.54
678.68	348.37
679.02	346.98
679.36	345.78
679.70	344.42
680.04	343.18
680.37	341.74
680.71	340.45
681.05	339.35
681.39	338.09
681.73	336.73
682.06	335.59
682.40	334.23
682.74	333.10
683.08	331.95
683.42	330.56
683.75	329.37
684.09	328.01
684.43	326.78
684.77	325.48
685.10	324.31
685.44	323.25
685.78	321.92
686.12	320.82
686.45	319.67
686.79	318.47
687.13	317.45
687.46	316.43
687.80	315.49
688.14	314.32
688.48	313.36
688.81	312.31
689.15	311.30
689.49	310.30
689.82	309.29
690.16	308.10
690.50	307.16
690.83	306.05
691.17	304.83
691.51	303.84
691.84	302.84
692.18	301.87
692.52	300.87
692.85	300.04
693.19	299.21
693.52	298.30
693.86	297.35
694.20	296.31
694.53	295.47
694.87	294.38
695.21	293.51
695.54	292.57
695.88	291.60
696.21	290.65
696.55	289.78
696.88	288.81
697.22	287.93
697.56	287.23
697.89	286.37
698.23	285.69
698.56	284.78
698.90	284.10
699.23	283.30
699.57	282.40
699.90	281.51
700.24	280.59
700.58	279.72
700.91	279.04
701.25	278.55
701.58	277.89
701.92	277.18
702.25	276.46
702.59	275.72
702.92	275.10
703.26	274.34
703.59	273.66
703.93	273.33
704.26	272.71
704.60	271.96
704.93	271.31
705.26	270.66
705.60	270.13
705.93	269.39
706.27	268.95
706.60	268.56
706.94	268.14
707.27	267.53
707.61	266.96
707.94	266.29
708.27	265.40
708.61	264.75
708.94	264.14
709.28	263.47
709.61	262.83
709.94	262.35
710.28	261.82
710.61	261.28
710.95	260.45
711.28	260.09
711.61	259.55
711.95	259.12
712.28	258.67
712.61	258.20
712.95	257.81
713.28	257.39
713.61	256.75
713.95	256.16
714.28	255.70
714.61	255.18
714.95	254.80
715.28	254.36
715.61	253.81
715.95	253.43
716.28	252.96
716.61	252.67
716.95	252.05
717.28	251.65
717.61	251.22
717.94	250.85
718.28	250.20
718.61	249.76
718.94	249.31
719.27	248.87
719.61	248.43
719.94	247.99
720.27	247.35
720.60	247.04
720.94	246.63
721.27	246.25
721.60	245.92
721.93	245.55
722.27	245.33
722.60	245.03
722.93	244.68
723.26	244.42
723.59	243.90
723.93	243.72
724.26	243.36
724.59	242.98
724.92	242.59
725.25	242.37
725.59	242.05
725.92	241.78
726.25	241.46
726.58	241.08
726.91	240.78
727.24	240.50
727.57	240.17
727.91	239.81
728.24	239.62
728.57	239.35
728.90	239.18
729.23	238.81
729.56	238.69
729.89	238.37
730.22	238.09
730.55	237.85
730.89	237.54
731.22	237.29
731.55	237.03
731.88	236.81
732.21	236.54
732.54	236.33
732.87	236.02
733.20	235.82
733.53	235.66
733.86	235.45
734.19	235.29
734.52	235.14
734.85	235.13
735.18	234.80
735.51	234.65
735.84	234.39
736.17	234.22
736.50	233.84
736.83	234.01
737.16	233.83
737.49	233.64
737.82	233.40
738.15	233.30
738.48	233.10
738.81	232.89
739.14	232.63
739.47	232.41
739.80	232.24
740.13	232.02
740.46	231.71
740.79	231.43
741.12	231.05
741.45	230.77
741.78	230.45
742.11	230.38
742.44	230.10
742.77	229.87
743.10	229.60
743.43	229.42
743.75	228.87
744.08	229.09
744.41	228.92
744.74	228.66
745.07	228.39
745.40	228.33
745.73	228.25
746.06	228.10
746.39	227.90
746.71	227.65
747.04	227.44
747.37	227.30
747.70	227.21
748.03	227.22
748.36	227.12
748.68	226.93
749.01	226.66
749.34	226.50
749.67	226.41
750.00	226.33
750.33	226.44
750.65	226.33
750.98	225.83
751.31	225.66
751.64	225.55
751.97	225.55
752.29	225.35
752.62	225.09
752.95	224.87
753.28	224.76
753.60	224.64
753.93	224.66
754.26	224.57
754.59	224.36
754.91	224.19
755.24	224.02
755.57	223.89
755.90	223.76
756.22	223.67
756.55	223.43
756.88	223.30
757.20	222.90
757.53	222.71
757.86	222.50
758.19	222.39
758.51	222.30
758.84	222.05
759.17	221.83
759.49	221.78
759.82	221.82
760.15	221.70
760.47	221.63
760.80	221.36
761.13	221.28
761.45	221.15
761.78	220.96
762.11	220.89
762.43	220.74
762.76	220.63
763.08	220.49
763.41	220.44
763.74	220.28
764.06	220.14
764.39	220.09
764.71	220.07
765.04	219.98
765.37	219.86
765.69	219.74
766.02	219.70
766.34	219.54
766.67	219.40
767.00	219.39
767.32	219.45
767.65	219.61
767.97	219.50
768.30	219.41
768.62	219.38
768.95	219.26
769.27	219.21
769.60	219.16
769.92	219.05
770.25	218.94
770.57	218.90
770.90	218.86
771.22	218.72
771.55	218.59
771.87	218.56
772.20	218.44
772.52	218.66
772.85	219.03
773.17	219.03
773.50	218.94
773.82	218.78
774.15	218.63
774.47	218.26
774.80	218.21
775.12	218.13
775.45	218.06
775.77	218.00
776.09	217.93
776.42	217.89
776.74	217.96
777.07	217.88
777.39	217.79
777.72	217.71
778.04	217.81
778.36	217.73
778.69	217.64
779.01	217.65
779.33	217.32
779.66	216.78
779.98	216.63
780.31	216.54
780.63	216.67
780.95	216.59
781.28	216.62
781.60	216.51
781.92	216.47
782.25	216.43
782.57	216.40
782.89	216.39
783.22	216.36
783.54	216.28
783.86	216.20
784.19	216.09
784.51	216.11
784.83	215.95
785.16	215.90
785.48	215.84
785.80	215.80
786.12	215.84
786.45	215.86
786.77	215.91
787.09	215.92
787.42	215.68
787.74	215.68
788.06	215.60
