SpectraSuite Data File
++++++++++++++++++++++++++++++++++++
Date: Mon Feb 25 17:15:16 EST 2013
User: group
Dark Spectrum Present: No
Reference Spectrum Present: No
Number of Sampled Component Spectra: 1
Spectrometers: USB2E7196
Integration Time (usec): 104000 (USB2E7196)
Spectra Averaged: 20 (USB2E7196)
Boxcar Smoothing: 10 (USB2E7196)
Correct for Electrical Dark: No (USB2E7196)
Strobe/Lamp Enabled: No (USB2E7196)
Correct for Detector Non-linearity: No (USB2E7196)
Correct for Stray Light: No (USB2E7196)
Number of Pixels in Processed Spectrum: 2048
>>>>>Begin Processed Spectral Data<<<<<
339.09	0.00
339.48	199.70
339.86	200.50
340.24	201.55
340.63	204.15
341.01	211.25
341.39	205.90
341.78	207.75
342.16	208.80
342.54	209.45
342.93	198.68
343.31	208.71
343.69	209.20
344.07	209.70
344.46	210.11
344.84	210.43
345.22	210.37
345.60	210.62
345.99	210.75
346.37	210.87
346.75	210.90
347.13	210.96
347.52	210.94
347.90	211.05
348.28	211.06
348.66	211.06
349.05	210.98
349.43	211.02
349.81	211.04
350.19	211.12
350.57	211.15
350.96	211.19
351.34	211.24
351.72	211.39
352.10	211.31
352.48	211.34
352.87	211.33
353.25	211.39
353.63	211.46
354.01	211.58
354.39	211.58
354.77	211.60
355.15	211.75
355.54	211.79
355.92	211.70
356.30	211.73
356.68	211.97
357.06	212.05
357.44	212.07
357.82	212.11
358.20	212.18
358.58	212.26
358.97	212.38
359.35	212.45
359.73	212.49
360.11	212.61
360.49	212.66
360.87	212.76
361.25	212.94
361.63	213.05
362.01	213.07
362.39	213.15
362.77	213.32
363.15	213.28
363.53	213.33
363.91	213.41
364.29	213.43
364.67	213.15
365.05	213.18
365.43	213.25
365.81	213.38
366.19	213.57
366.57	213.72
366.95	213.68
367.33	213.66
367.71	213.65
368.09	213.83
368.47	213.92
368.85	213.93
369.23	213.92
369.61	213.84
369.99	213.92
370.37	213.93
370.75	214.08
371.13	214.07
371.51	214.04
371.89	214.00
372.27	213.98
372.65	214.01
373.03	214.05
373.41	214.02
373.78	213.92
374.16	213.75
374.54	213.61
374.92	213.63
375.30	213.63
375.68	213.54
376.06	213.46
376.44	213.36
376.82	213.34
377.19	213.29
377.57	213.22
377.95	213.15
378.33	213.11
378.71	212.89
379.09	212.85
379.47	212.86
379.84	212.85
380.22	212.85
380.60	212.76
380.98	212.71
381.36	212.68
381.73	212.57
382.11	212.56
382.49	212.49
382.87	212.37
383.25	212.35
383.62	212.73
384.00	212.56
384.38	212.56
384.76	212.65
385.13	212.73
385.51	212.70
385.89	212.55
386.27	212.51
386.64	212.52
387.02	212.52
387.40	212.46
387.78	212.46
388.15	212.41
388.53	212.41
388.91	212.42
389.29	212.31
389.66	212.36
390.04	212.29
390.42	212.39
390.79	212.40
391.17	212.33
391.55	211.91
391.92	211.92
392.30	211.91
392.68	211.74
393.05	211.68
393.43	211.67
393.81	211.70
394.18	211.61
394.56	211.62
394.94	211.59
395.31	211.56
395.69	211.70
396.06	211.80
396.44	211.82
396.82	211.72
397.19	211.93
397.57	211.92
397.95	212.00
398.32	211.91
398.70	211.97
399.07	212.06
399.45	212.10
399.82	212.18
400.20	212.18
400.58	212.17
400.95	212.08
401.33	212.19
401.70	212.42
402.08	212.50
402.45	212.53
402.83	212.70
403.20	212.76
403.58	212.74
403.95	212.84
404.33	212.96
404.71	213.11
405.08	213.39
405.46	213.47
405.83	213.57
406.21	213.71
406.58	213.85
406.96	213.92
407.33	214.07
407.70	214.29
408.08	214.70
408.45	215.02
408.83	215.35
409.20	215.55
409.58	215.60
409.95	215.93
410.33	216.25
410.70	216.35
411.08	216.72
411.45	216.94
411.82	217.16
412.20	217.49
412.57	218.01
412.95	218.11
413.32	218.59
413.69	219.03
414.07	219.48
414.44	219.95
414.82	220.61
415.19	221.20
415.56	221.76
415.94	222.27
416.31	222.94
416.68	223.71
417.06	224.52
417.43	225.48
417.81	226.38
418.18	227.38
418.55	228.46
418.93	229.54
419.30	230.78
419.67	231.98
420.04	233.32
420.42	234.56
420.79	236.28
421.16	237.75
421.54	239.46
421.91	241.19
422.28	242.83
422.66	244.61
423.03	246.66
423.40	248.55
423.77	250.48
424.15	252.55
424.52	254.58
424.89	256.89
425.26	258.98
425.64	261.08
426.01	263.36
426.38	265.81
426.75	268.30
427.13	270.67
427.50	273.31
427.87	275.96
428.24	278.70
428.61	281.08
428.99	284.12
429.36	287.08
429.73	290.06
430.10	293.14
430.47	296.20
430.85	299.25
431.22	302.65
431.59	306.48
431.96	309.90
432.33	313.64
432.70	317.32
433.08	321.46
433.45	325.48
433.82	329.40
434.19	333.87
434.56	338.32
434.93	342.56
435.30	346.82
435.68	351.53
436.05	355.98
436.42	360.56
436.79	364.68
437.16	369.06
437.53	373.67
437.90	378.23
438.27	382.88
438.64	387.50
439.01	391.93
439.38	395.60
439.75	399.42
440.13	403.65
440.50	407.75
440.87	411.19
441.24	414.68
441.61	418.52
441.98	421.18
442.35	424.18
442.72	427.47
443.09	430.69
443.46	432.43
443.83	433.72
444.20	434.75
444.57	436.30
444.94	437.02
445.31	437.89
445.68	438.95
446.05	439.16
446.42	438.65
446.79	437.99
447.16	437.31
447.53	436.77
447.90	434.95
448.27	432.95
448.64	430.45
449.01	428.60
449.37	425.34
449.74	422.30
450.11	419.00
450.48	415.01
450.85	410.78
451.22	407.33
451.59	404.15
451.96	401.03
452.33	396.84
452.70	393.09
453.07	388.55
453.43	383.70
453.80	379.35
454.17	375.21
454.54	371.24
454.91	367.00
455.28	362.84
455.65	359.04
456.02	355.74
456.38	352.50
456.75	348.40
457.12	344.98
457.49	341.65
457.86	338.22
458.23	335.47
458.59	332.45
458.96	329.46
459.33	326.56
459.70	323.71
460.07	321.42
460.43	318.92
460.80	316.55
461.17	314.64
461.54	312.42
461.91	310.30
462.27	308.16
462.64	306.38
463.01	304.43
463.38	302.67
463.74	300.30
464.11	298.55
464.48	297.19
464.85	295.75
465.21	294.61
465.58	293.30
465.95	291.75
466.32	290.46
466.68	289.16
467.05	287.97
467.42	286.83
467.78	285.52
468.15	284.39
468.52	283.56
468.88	282.24
469.25	281.22
469.62	280.42
469.98	279.55
470.35	278.71
470.72	277.99
471.08	277.06
471.45	276.44
471.82	275.85
472.18	275.06
472.55	274.55
472.92	273.88
473.28	273.36
473.65	272.85
474.02	272.37
474.38	272.15
474.75	271.87
475.11	271.57
475.48	271.46
475.85	271.22
476.21	271.03
476.58	271.02
476.94	270.92
477.31	270.94
477.67	270.93
478.04	270.97
478.41	271.02
478.77	271.41
479.14	271.51
479.50	271.68
479.87	271.92
480.23	272.17
480.60	272.48
480.96	272.81
481.33	273.32
481.69	273.85
482.06	274.16
482.42	274.61
482.79	275.15
483.15	275.80
483.52	276.57
483.88	277.20
484.25	277.88
484.61	278.77
484.98	279.55
485.34	280.55
485.71	281.69
486.07	282.77
486.44	283.66
486.80	284.89
487.17	286.14
487.53	287.70
487.90	289.29
488.26	291.03
488.62	292.73
488.99	294.50
489.35	296.33
489.72	298.40
490.08	300.45
490.44	302.61
490.81	304.98
491.17	307.34
491.54	309.93
491.90	312.66
492.26	315.55
492.63	318.62
492.99	321.70
493.36	324.89
493.72	328.30
494.08	331.89
494.45	335.64
494.81	339.60
495.17	343.61
495.54	347.83
495.90	352.23
496.26	356.82
496.63	361.57
496.99	366.60
497.35	371.73
497.72	377.23
498.08	382.78
498.44	388.54
498.80	394.64
499.17	401.01
499.53	407.48
499.89	414.30
500.26	421.15
500.62	428.24
500.98	435.83
501.34	443.40
501.71	451.33
502.07	459.57
502.43	468.07
502.79	476.73
503.16	485.82
503.52	494.96
503.88	504.33
504.24	514.22
504.60	524.27
504.97	534.69
505.33	545.09
505.69	556.40
506.05	567.73
506.41	579.17
506.78	590.85
507.14	602.73
507.50	614.92
507.86	627.35
508.22	640.18
508.59	652.96
508.95	666.51
509.31	680.10
509.67	694.18
510.03	708.23
510.39	722.82
510.75	737.57
511.12	752.63
511.48	768.03
511.84	783.52
512.20	798.98
512.56	815.02
512.92	831.51
513.28	847.89
513.64	864.21
514.00	881.04
514.37	897.67
514.73	915.01
515.09	932.35
515.45	949.72
515.81	967.26
516.17	985.05
516.53	1002.75
516.89	1020.78
517.25	1038.22
517.61	1056.57
517.97	1074.34
518.33	1092.24
518.69	1110.35
519.05	1128.62
519.41	1147.08
519.77	1166.10
520.13	1184.41
520.49	1202.66
520.85	1221.03
521.21	1239.74
521.57	1258.47
521.93	1276.66
522.29	1295.65
522.65	1314.25
523.01	1333.13
523.37	1351.32
523.73	1369.69
524.09	1388.18
524.45	1406.62
524.81	1425.43
525.17	1443.85
525.53	1462.42
525.89	1480.88
526.25	1499.38
526.61	1517.10
526.97	1534.66
527.33	1552.10
527.68	1569.99
528.04	1587.26
528.40	1603.86
528.76	1621.01
529.12	1637.87
529.48	1655.86
529.84	1672.43
530.20	1689.22
530.56	1705.65
530.91	1722.99
531.27	1739.90
531.63	1756.58
531.99	1772.71
532.35	1788.24
532.71	1803.51
533.07	1819.42
533.42	1834.66
533.78	1849.83
534.14	1864.97
534.50	1879.27
534.86	1893.66
535.21	1906.96
535.57	1921.44
535.93	1935.56
536.29	1948.70
536.65	1962.00
537.00	1974.35
537.36	1986.57
537.72	1998.24
538.08	2010.58
538.44	2022.44
538.79	2034.16
539.15	2045.34
539.51	2056.68
539.87	2069.20
540.22	2080.34
540.58	2091.25
540.94	2101.85
541.29	2111.37
541.65	2120.71
542.01	2130.50
542.37	2139.55
542.72	2149.35
543.08	2157.73
543.44	2166.65
543.79	2174.56
544.15	2182.26
544.51	2190.44
544.87	2198.66
545.22	2205.99
545.58	2212.44
545.94	2218.27
546.29	2223.60
546.65	2228.95
547.01	2234.12
547.36	2238.11
547.72	2242.55
548.07	2246.38
548.43	2250.07
548.79	2253.45
549.14	2257.12
549.50	2260.43
549.86	2263.40
550.21	2265.72
550.57	2268.76
550.92	2270.17
551.28	2272.15
551.64	2274.00
551.99	2275.90
552.35	2276.77
552.70	2278.37
553.06	2279.82
553.41	2280.82
553.77	2281.99
554.13	2282.45
554.48	2283.20
554.84	2283.99
555.19	2284.22
555.55	2283.83
555.90	2282.91
556.26	2282.45
556.61	2281.46
556.97	2280.27
557.32	2279.23
557.68	2277.48
558.03	2275.61
558.39	2274.57
558.74	2273.97
559.10	2272.70
559.45	2270.58
559.81	2269.19
560.16	2266.74
560.52	2264.69
560.87	2262.43
561.23	2259.61
561.58	2257.87
561.94	2254.63
562.29	2250.92
562.64	2248.08
563.00	2245.60
563.35	2243.75
563.71	2241.86
564.06	2239.51
564.42	2237.48
564.77	2235.45
565.12	2233.64
565.48	2231.28
565.83	2228.60
566.19	2225.83
566.54	2222.18
566.89	2218.80
567.25	2215.60
567.60	2212.60
567.96	2208.75
568.31	2205.19
568.66	2201.32
569.02	2196.83
569.37	2192.26
569.72	2188.53
570.08	2184.36
570.43	2179.70
570.78	2174.43
571.14	2169.20
571.49	2163.70
571.84	2158.44
572.20	2152.31
572.55	2146.70
572.90	2140.63
573.26	2134.44
573.61	2127.60
573.96	2121.86
574.31	2115.05
574.67	2107.64
575.02	2100.56
575.37	2093.80
575.72	2086.62
576.08	2080.40
576.43	2073.62
576.78	2067.15
577.13	2060.68
577.49	2054.04
577.84	2047.45
578.19	2041.17
578.54	2034.90
578.90	2029.22
579.25	2022.40
579.60	2015.36
579.95	2007.95
580.30	2001.33
580.66	1995.24
581.01	1988.61
581.36	1981.17
581.71	1974.60
582.06	1968.20
582.42	1961.78
582.77	1954.72
583.12	1948.07
583.47	1941.37
583.82	1935.05
584.17	1928.31
584.53	1921.59
584.88	1914.80
585.23	1907.76
585.58	1901.03
585.93	1893.75
586.28	1887.04
586.63	1880.20
586.98	1873.83
587.34	1868.04
587.69	1861.59
588.04	1854.71
588.39	1848.52
588.74	1841.70
589.09	1835.37
589.44	1828.64
589.79	1821.98
590.14	1816.12
590.49	1809.39
590.84	1802.84
591.19	1796.88
591.54	1790.66
591.89	1783.12
592.25	1776.10
592.60	1768.92
592.95	1761.74
593.30	1754.29
593.65	1746.61
594.00	1739.68
594.35	1733.98
594.70	1726.80
595.05	1720.09
595.40	1713.15
595.75	1705.97
596.10	1699.75
596.45	1693.12
596.80	1687.11
597.15	1680.97
597.50	1674.07
597.85	1668.05
598.19	1661.23
598.54	1654.29
598.89	1648.05
599.24	1642.69
599.59	1636.94
599.94	1631.85
600.29	1626.00
600.64	1620.34
600.99	1614.11
601.34	1608.32
601.69	1601.40
602.04	1594.86
602.39	1588.51
602.74	1582.62
603.08	1577.30
603.43	1572.13
603.78	1566.40
604.13	1560.44
604.48	1554.40
604.83	1549.36
605.18	1544.23
605.53	1538.54
605.87	1532.30
606.22	1526.66
606.57	1520.71
606.92	1514.60
607.27	1508.33
607.62	1502.38
607.96	1496.89
608.31	1491.83
608.66	1485.44
609.01	1478.94
609.36	1472.97
609.70	1466.40
610.05	1459.85
610.40	1453.17
610.75	1446.28
611.10	1439.98
611.44	1432.54
611.79	1425.42
612.14	1417.78
612.49	1410.05
612.83	1403.19
613.18	1395.95
613.53	1388.62
613.88	1380.91
614.22	1373.86
614.57	1366.32
614.92	1358.98
615.27	1351.42
615.61	1343.72
615.96	1336.95
616.31	1330.62
616.65	1324.38
617.00	1317.90
617.35	1311.23
617.70	1304.16
618.04	1296.65
618.39	1289.06
618.74	1282.53
619.08	1275.70
619.43	1268.89
619.78	1262.30
620.12	1255.42
620.47	1248.90
620.82	1241.86
621.16	1234.69
621.51	1227.56
621.85	1220.82
622.20	1214.19
622.55	1207.34
622.89	1200.55
623.24	1193.54
623.59	1186.29
623.93	1179.14
624.28	1172.35
624.62	1165.85
624.97	1159.15
625.32	1152.99
625.66	1146.91
626.01	1140.22
626.35	1133.99
626.70	1127.72
627.04	1121.61
627.39	1115.60
627.73	1109.48
628.08	1103.58
628.43	1097.51
628.77	1091.33
629.12	1085.07
629.46	1079.24
629.81	1073.25
630.15	1067.36
630.50	1061.36
630.84	1055.14
631.19	1049.11
631.53	1043.07
631.88	1036.47
632.22	1030.28
632.57	1024.33
632.91	1018.16
633.26	1012.50
633.60	1006.56
633.95	1000.96
634.29	994.78
634.64	988.98
634.98	982.83
635.32	977.10
635.67	972.05
636.01	966.33
636.36	960.70
636.70	955.06
637.05	949.65
637.39	944.19
637.73	939.03
638.08	934.32
638.42	929.20
638.77	924.00
639.11	918.83
639.45	913.56
639.80	907.95
640.14	902.31
640.49	896.74
640.83	891.38
641.17	885.88
641.52	880.57
641.86	874.97
642.20	870.02
642.55	864.20
642.89	858.45
643.23	853.11
643.58	848.13
643.92	842.33
644.26	836.90
644.61	831.58
644.95	826.00
645.29	820.31
645.64	814.91
645.98	809.66
646.32	804.70
646.66	799.44
647.01	794.36
647.35	789.59
647.69	784.45
648.04	779.36
648.38	774.17
648.72	769.09
649.06	763.93
649.41	758.64
649.75	753.80
650.09	749.03
650.43	744.18
650.78	738.88
651.12	733.92
651.46	729.05
651.80	724.18
652.14	719.42
652.49	714.60
652.83	709.62
653.17	704.25
653.51	699.10
653.85	694.50
654.20	689.88
654.54	684.97
654.88	680.29
655.22	675.51
655.56	670.67
655.90	665.94
656.25	661.29
656.59	656.81
656.93	652.43
657.27	647.80
657.61	643.22
657.95	638.96
658.29	634.75
658.64	630.53
658.98	626.00
659.32	621.55
659.66	617.25
660.00	612.92
660.34	608.73
660.68	604.50
661.02	600.16
661.36	595.92
661.70	591.94
662.05	587.85
662.39	584.16
662.73	580.45
663.07	576.94
663.41	573.15
663.75	569.33
664.09	565.43
664.43	561.59
664.77	557.84
665.11	554.19
665.45	550.59
665.79	546.93
666.13	543.44
666.47	539.92
666.81	536.49
667.15	533.02
667.49	529.85
667.83	526.67
668.17	523.46
668.51	520.38
668.85	517.24
669.19	514.42
669.53	511.08
669.87	507.82
670.21	504.44
670.55	501.30
670.89	498.50
671.23	495.59
671.57	492.74
671.91	489.88
672.25	486.96
672.58	484.18
672.92	481.22
673.26	478.60
673.60	475.80
673.94	473.11
674.28	470.60
674.62	467.99
674.96	465.32
675.30	462.79
675.64	460.10
675.97	457.42
676.31	454.93
676.65	452.53
676.99	450.41
677.33	447.94
677.67	445.59
678.01	442.90
678.34	440.45
678.68	438.01
679.02	435.59
679.36	433.10
679.70	430.64
680.04	428.38
680.37	425.91
680.71	423.64
681.05	421.47
681.39	419.10
681.73	416.80
682.06	414.75
682.40	412.59
682.74	410.45
683.08	408.46
683.42	406.01
683.75	403.91
684.09	401.50
684.43	399.50
684.77	397.40
685.10	395.32
685.44	393.29
685.78	391.27
686.12	389.38
686.45	387.58
686.79	385.57
687.13	383.77
687.46	381.93
687.80	380.20
688.14	378.10
688.48	376.33
688.81	374.51
689.15	372.64
689.49	370.73
689.82	368.89
690.16	366.78
690.50	364.92
690.83	363.07
691.17	361.15
691.51	359.22
691.84	357.50
692.18	355.79
692.52	354.06
692.85	352.57
693.19	351.00
693.52	349.27
693.86	347.58
694.20	345.95
694.53	344.35
694.87	342.62
695.21	341.01
695.54	339.30
695.88	337.61
696.21	335.91
696.55	334.45
696.88	332.95
697.22	331.56
697.56	330.28
697.89	328.81
698.23	327.54
698.56	326.27
698.90	325.02
699.23	323.58
699.57	322.27
699.90	320.75
700.24	319.31
700.58	317.96
700.91	316.79
701.25	315.72
701.58	314.55
701.92	313.42
702.25	312.24
702.59	311.09
702.92	309.98
703.26	308.89
703.59	307.66
703.93	306.71
704.26	305.69
704.60	304.60
704.93	303.45
705.26	302.28
705.60	301.21
705.93	300.06
706.27	299.23
706.60	298.24
706.94	297.42
707.27	296.40
707.61	295.43
707.94	294.44
708.27	293.18
708.61	292.00
708.94	290.99
709.28	290.02
709.61	289.02
709.94	288.18
710.28	287.30
710.61	286.50
710.95	285.35
711.28	284.64
711.61	283.67
711.95	282.92
712.28	282.15
712.61	281.34
712.95	280.65
713.28	279.90
713.61	279.01
713.95	278.08
714.28	277.27
714.61	276.50
714.95	275.74
715.28	274.93
715.61	274.25
715.95	273.56
716.28	272.81
716.61	272.17
716.95	271.41
717.28	270.71
717.61	269.95
717.94	269.33
718.28	268.42
718.61	267.83
718.94	267.06
719.27	266.35
719.61	265.78
719.94	265.05
720.27	264.31
720.60	263.73
720.94	263.21
721.27	262.72
721.60	262.21
721.93	261.58
722.27	261.15
722.60	260.67
722.93	260.08
723.26	259.62
723.59	258.96
723.93	258.49
724.26	257.94
724.59	257.46
724.92	257.06
725.25	256.62
725.59	256.04
725.92	255.74
726.25	255.34
726.58	254.86
726.91	254.38
727.24	253.94
727.57	253.49
727.91	252.92
728.24	252.46
728.57	251.95
728.90	251.61
729.23	251.07
729.56	250.76
729.89	250.28
730.22	249.82
730.55	249.45
730.89	248.95
731.22	248.53
731.55	248.10
731.88	247.65
732.21	247.27
732.54	246.90
732.87	246.39
733.20	246.09
733.53	245.65
733.86	245.38
734.19	244.94
734.52	244.60
734.85	244.54
735.18	244.19
735.51	243.96
735.84	243.64
736.17	243.45
736.50	242.84
736.83	243.00
737.16	242.68
737.49	242.42
737.82	242.10
738.15	241.81
738.48	241.43
738.81	241.12
739.14	240.79
739.47	240.50
739.80	240.20
740.13	239.85
740.46	239.56
740.79	239.12
741.12	238.83
741.45	238.55
741.78	237.97
742.11	237.72
742.44	237.34
742.77	237.04
743.10	236.66
743.43	236.41
743.75	235.76
744.08	235.95
744.41	235.67
744.74	235.44
745.07	235.12
745.40	234.99
745.73	234.73
746.06	234.40
746.39	234.16
746.71	233.91
747.04	233.60
747.37	233.36
747.70	233.20
748.03	232.98
748.36	232.77
748.68	232.59
749.01	232.24
749.34	232.07
749.67	231.86
750.00	231.69
750.33	231.74
750.65	231.49
750.98	230.84
751.31	230.57
751.64	230.33
751.97	230.30
752.29	230.01
752.62	229.65
752.95	229.41
753.28	229.19
753.60	228.95
753.93	228.83
754.26	228.56
754.59	228.25
754.91	228.04
755.24	227.83
755.57	227.66
755.90	227.46
756.22	227.19
756.55	226.94
756.88	226.67
757.20	226.24
757.53	225.86
757.86	225.67
758.19	225.54
758.51	225.38
758.84	225.07
759.17	224.89
759.49	224.82
759.82	224.87
760.15	224.65
760.47	224.53
760.80	224.29
761.13	224.25
761.45	224.08
761.78	223.93
762.11	223.79
762.43	223.62
762.76	223.50
763.08	223.44
763.41	223.32
763.74	223.21
764.06	223.11
764.39	223.13
764.71	222.94
765.04	222.75
765.37	222.68
765.69	222.45
766.02	222.38
766.34	222.24
766.67	221.98
767.00	222.00
767.32	222.04
767.65	222.11
767.97	221.96
768.30	221.95
768.62	221.83
768.95	221.62
769.27	221.50
769.60	221.50
769.92	221.31
770.25	221.13
770.57	220.93
770.90	220.78
771.22	220.58
771.55	220.59
771.87	220.49
772.20	220.33
772.52	220.64
772.85	220.89
773.17	220.76
773.50	220.66
773.82	220.45
774.15	220.24
774.47	219.91
774.80	219.78
775.12	219.59
775.45	219.49
775.77	219.51
776.09	219.42
776.42	219.26
776.74	219.33
777.07	219.24
777.39	219.24
777.72	219.22
778.04	219.19
778.36	219.02
778.69	218.96
779.01	218.95
779.33	218.54
779.66	218.07
779.98	217.97
780.31	217.91
780.63	218.00
780.95	217.91
781.28	217.86
781.60	217.72
781.92	217.71
782.25	217.67
782.57	217.59
782.89	217.52
783.22	217.45
783.54	217.29
783.86	217.34
784.19	217.29
784.51	217.30
784.83	217.17
785.16	217.10
785.48	217.06
785.80	216.97
786.12	216.89
786.45	216.85
786.77	216.88
787.09	216.78
