SpectraSuite Data File
++++++++++++++++++++++++++++++++++++
Date: Mon Feb 25 16:56:49 EST 2013
User: group
Dark Spectrum Present: No
Reference Spectrum Present: No
Number of Sampled Component Spectra: 1
Spectrometers: USB2E7196
Integration Time (usec): 104000 (USB2E7196)
Spectra Averaged: 20 (USB2E7196)
Boxcar Smoothing: 10 (USB2E7196)
Correct for Electrical Dark: No (USB2E7196)
Strobe/Lamp Enabled: No (USB2E7196)
Correct for Detector Non-linearity: No (USB2E7196)
Correct for Stray Light: No (USB2E7196)
Number of Pixels in Processed Spectrum: 2048
>>>>>Begin Processed Spectral Data<<<<<
339.09	0.00
339.48	198.30
339.86	200.20
340.24	201.55
340.63	202.80
341.01	209.55
341.39	206.30
341.78	207.40
342.16	209.20
342.54	209.35
342.93	198.29
343.31	208.27
343.69	208.83
344.07	209.25
344.46	209.69
344.84	210.09
345.22	210.17
345.60	210.39
345.99	210.58
346.37	210.67
346.75	210.76
347.13	210.86
347.52	210.90
347.90	211.16
348.28	211.25
348.66	211.34
349.05	211.22
349.43	211.31
349.81	211.47
350.19	211.58
350.57	211.72
350.96	211.85
351.34	211.98
351.72	212.10
352.10	212.32
352.48	212.40
352.87	212.43
353.25	212.51
353.63	212.60
354.01	212.67
354.39	212.78
354.77	212.82
355.15	213.02
355.54	213.09
355.92	213.06
356.30	213.12
356.68	213.40
357.06	213.48
357.44	213.45
357.82	213.46
358.20	213.49
358.58	213.50
358.97	213.51
359.35	213.56
359.73	213.67
360.11	213.73
360.49	213.75
360.87	213.79
361.25	213.84
361.63	214.01
362.01	214.05
362.39	214.00
362.77	214.05
363.15	214.04
363.53	214.02
363.91	214.02
364.29	213.99
364.67	213.73
365.05	213.75
365.43	213.86
365.81	213.85
366.19	213.95
366.57	214.08
366.95	214.14
367.33	214.15
367.71	214.17
368.09	214.19
368.47	214.20
368.85	214.24
369.23	214.28
369.61	214.14
369.99	214.20
370.37	214.30
370.75	214.42
371.13	214.29
371.51	214.31
371.89	214.33
372.27	214.42
372.65	214.36
373.03	214.38
373.41	214.36
373.78	214.33
374.16	214.14
374.54	214.03
374.92	213.84
375.30	213.76
375.68	213.62
376.06	213.55
376.44	213.44
376.82	213.39
377.19	213.31
377.57	213.23
377.95	213.20
378.33	213.07
378.71	212.89
379.09	212.93
379.47	212.88
379.84	212.77
380.22	212.69
380.60	212.59
380.98	212.54
381.36	212.50
381.73	212.44
382.11	212.43
382.49	212.35
382.87	212.31
383.25	212.34
383.62	212.69
384.00	212.58
384.38	212.57
384.76	212.61
385.13	212.74
385.51	212.73
385.89	212.55
386.27	212.55
386.64	212.55
387.02	212.45
387.40	212.30
387.78	212.29
388.15	212.16
388.53	212.11
388.91	212.07
389.29	211.97
389.66	212.01
390.04	211.99
390.42	212.10
390.79	212.13
391.17	212.12
391.55	211.67
391.92	211.71
392.30	211.74
392.68	211.70
393.05	211.63
393.43	211.71
393.81	211.74
394.18	211.69
394.56	211.67
394.94	211.77
395.31	211.86
395.69	211.97
396.06	212.12
396.44	212.23
396.82	212.26
397.19	212.48
397.57	212.43
397.95	212.56
398.32	212.48
398.70	212.54
399.07	212.69
399.45	212.85
399.82	212.89
400.20	212.94
400.58	213.00
400.95	212.98
401.33	213.07
401.70	213.40
402.08	213.57
402.45	213.77
402.83	214.03
403.20	214.21
403.58	214.35
403.95	214.55
404.33	214.81
404.71	215.01
405.08	215.49
405.46	215.75
405.83	216.01
406.21	216.38
406.58	216.75
406.96	217.02
407.33	217.39
407.70	217.94
408.08	218.72
408.45	219.39
408.83	220.03
409.20	220.60
409.58	221.11
409.95	221.82
410.33	222.57
410.70	223.21
411.08	224.06
411.45	224.90
411.82	225.87
412.20	226.90
412.57	228.20
412.95	228.96
413.32	230.39
413.69	231.69
414.07	233.03
414.44	234.63
414.82	236.24
415.19	238.08
415.56	239.91
415.94	241.86
416.31	244.08
416.68	246.39
417.06	248.99
417.43	251.48
417.81	254.36
418.18	257.29
418.55	260.44
418.93	263.82
419.30	267.32
419.67	270.91
420.04	274.77
420.42	278.73
420.79	283.50
421.16	288.16
421.54	293.06
421.91	298.20
422.28	303.40
422.66	309.01
423.03	314.53
423.40	320.26
423.77	326.25
424.15	332.41
424.52	338.87
424.89	345.92
425.26	352.87
425.64	359.46
426.01	366.75
426.38	374.35
426.75	382.02
427.13	390.07
427.50	398.54
427.87	407.29
428.24	416.21
428.61	424.73
428.99	434.06
429.36	444.17
429.73	454.14
430.10	464.15
430.47	474.31
430.85	485.04
431.22	496.23
431.59	508.33
431.96	519.66
432.33	532.33
432.70	544.61
433.08	559.14
433.45	572.76
433.82	586.38
434.19	601.60
434.56	616.65
434.93	631.23
435.30	645.93
435.68	662.12
436.05	678.13
436.42	694.21
436.79	708.84
437.16	724.85
437.53	741.70
437.90	758.45
438.27	775.16
438.64	792.40
439.01	808.61
439.38	823.15
439.75	837.46
440.13	853.68
440.50	868.91
440.87	881.58
441.24	894.75
441.61	909.34
441.98	920.35
442.35	933.22
442.72	945.89
443.09	957.99
443.46	966.02
443.83	971.80
444.20	976.82
444.57	984.05
444.94	988.06
445.31	992.23
445.68	996.00
446.05	998.33
446.42	998.05
446.79	997.33
447.16	996.26
447.53	996.01
447.90	991.20
448.27	986.32
448.64	978.95
449.01	974.22
449.37	964.49
449.74	955.16
450.11	943.43
450.48	930.64
450.85	917.76
451.22	906.49
451.59	895.92
451.96	885.87
452.33	871.80
452.70	859.21
453.07	843.87
453.43	828.61
453.80	813.89
454.17	799.51
454.54	786.01
454.91	771.56
455.28	757.21
455.65	743.80
456.02	730.39
456.38	719.19
456.75	704.59
457.12	692.71
457.49	680.99
457.86	669.56
458.23	659.85
458.59	649.06
458.96	638.33
459.33	628.75
459.70	618.91
460.07	611.24
460.43	602.39
460.80	594.20
461.17	586.80
461.54	579.07
461.91	571.93
462.27	564.58
462.64	558.22
463.01	551.28
463.38	544.56
463.74	537.95
464.11	531.79
464.48	526.85
464.85	521.10
465.21	516.93
465.58	512.39
465.95	506.91
466.32	502.34
466.68	497.84
467.05	493.09
467.42	488.66
467.78	483.83
468.15	479.42
468.52	475.95
468.88	471.63
469.25	467.75
469.62	464.55
469.98	461.07
470.35	457.89
470.72	454.84
471.08	451.50
471.45	448.74
471.82	446.01
472.18	442.83
472.55	440.59
472.92	437.73
473.28	435.40
473.65	433.15
474.02	430.92
474.38	429.01
474.75	427.55
475.11	425.91
475.48	424.51
475.85	423.09
476.21	422.01
476.58	421.03
476.94	420.28
477.31	419.38
477.67	418.49
478.04	417.90
478.41	417.52
478.77	417.58
479.14	417.07
479.50	416.94
479.87	417.17
480.23	417.33
480.60	417.31
480.96	417.39
481.33	418.06
481.69	418.65
482.06	419.00
482.42	419.34
482.79	419.86
483.15	420.85
483.52	422.17
483.88	423.10
484.25	424.08
484.61	425.16
484.98	426.30
485.34	428.04
485.71	429.66
486.07	431.40
486.44	432.94
486.80	434.93
487.17	437.04
487.53	439.39
487.90	441.90
488.26	444.60
488.62	447.35
488.99	449.97
489.35	452.74
489.72	455.96
490.08	459.28
490.44	462.57
490.81	466.05
491.17	469.46
491.54	473.29
491.90	477.18
492.26	481.30
492.63	485.53
492.99	489.72
493.36	494.11
493.72	498.95
494.08	503.73
494.45	508.88
494.81	514.13
495.17	519.43
495.54	524.94
495.90	530.64
496.26	536.54
496.63	542.34
496.99	548.46
497.35	554.68
497.72	561.14
498.08	567.74
498.44	574.38
498.80	581.56
499.17	588.73
499.53	596.03
499.89	603.40
500.26	610.81
500.62	618.36
500.98	626.30
501.34	633.95
501.71	641.87
502.07	649.70
502.43	657.62
502.79	665.45
503.16	673.44
503.52	681.49
503.88	689.42
504.24	697.61
504.60	705.97
504.97	714.24
505.33	722.41
505.69	731.30
506.05	739.92
506.41	748.14
506.78	756.10
507.14	764.40
507.50	772.60
507.86	780.91
508.22	789.07
508.59	796.97
508.95	805.22
509.31	813.61
509.67	821.91
510.03	830.15
510.39	838.51
510.75	846.80
511.12	855.02
511.48	863.29
511.84	871.53
512.20	879.30
512.56	887.62
512.92	895.86
513.28	903.43
513.64	910.93
514.00	918.57
514.37	926.25
514.73	933.95
515.09	941.49
515.45	948.66
515.81	955.98
516.17	963.35
516.53	970.24
516.89	976.80
517.25	983.30
517.61	989.73
517.97	996.03
518.33	1002.02
518.69	1008.04
519.05	1014.14
519.41	1020.16
519.77	1026.39
520.13	1031.84
520.49	1037.06
520.85	1042.27
521.21	1047.86
521.57	1053.30
521.93	1058.27
522.29	1063.28
522.65	1068.59
523.01	1073.80
523.37	1078.18
523.73	1082.82
524.09	1087.35
524.45	1092.03
524.81	1096.78
525.17	1101.68
525.53	1106.26
525.89	1110.70
526.25	1114.91
526.61	1118.54
526.97	1122.38
527.33	1126.11
527.68	1130.30
528.04	1134.04
528.40	1137.57
528.76	1141.21
529.12	1144.78
529.48	1148.93
529.84	1152.31
530.20	1155.31
530.56	1158.51
530.91	1162.65
531.27	1166.05
531.63	1169.42
531.99	1172.70
532.35	1175.71
532.71	1178.30
533.07	1181.53
533.42	1184.71
533.78	1188.06
534.14	1191.45
534.50	1193.97
534.86	1196.94
535.21	1199.33
535.57	1202.52
535.93	1205.23
536.29	1207.70
536.65	1210.29
537.00	1212.29
537.36	1214.52
537.72	1216.70
538.08	1219.04
538.44	1220.99
538.79	1223.50
539.15	1225.62
539.51	1227.86
539.87	1230.15
540.22	1232.41
540.58	1234.75
540.94	1236.99
541.29	1238.50
541.65	1239.75
542.01	1241.95
542.37	1243.68
542.72	1245.23
543.08	1246.36
543.44	1248.44
543.79	1249.61
544.15	1251.02
544.51	1252.84
544.87	1254.90
545.22	1256.74
545.58	1257.99
545.94	1259.01
546.29	1259.51
546.65	1260.27
547.01	1260.84
547.36	1261.60
547.72	1262.34
548.07	1262.75
548.43	1262.74
548.79	1263.17
549.14	1263.95
549.50	1264.40
549.86	1264.92
550.21	1265.61
550.57	1266.53
550.92	1266.75
551.28	1267.48
551.64	1267.47
551.99	1267.69
552.35	1267.45
552.70	1267.34
553.06	1267.58
553.41	1267.91
553.77	1268.80
554.13	1269.46
554.48	1270.26
554.84	1270.99
555.19	1271.34
555.55	1271.56
555.90	1271.88
556.26	1271.90
556.61	1271.89
556.97	1271.67
557.32	1271.62
557.68	1271.22
558.03	1270.69
558.39	1270.17
558.74	1269.84
559.10	1269.62
559.45	1269.55
559.81	1269.67
560.16	1269.36
560.52	1269.25
560.87	1268.88
561.23	1267.77
561.58	1267.50
561.94	1266.55
562.29	1265.41
562.64	1265.01
563.00	1264.32
563.35	1264.00
563.71	1264.01
564.06	1263.79
564.42	1263.94
564.77	1263.89
565.12	1263.95
565.48	1264.09
565.83	1264.03
566.19	1263.99
566.54	1263.74
566.89	1263.14
567.25	1262.81
567.60	1262.80
567.96	1262.75
568.31	1262.76
568.66	1262.37
569.02	1261.34
569.37	1260.41
569.72	1259.77
570.08	1258.87
570.43	1258.07
570.78	1257.00
571.14	1255.48
571.49	1254.15
571.84	1252.72
572.20	1250.90
572.55	1249.41
572.90	1247.48
573.26	1245.47
573.61	1243.49
573.96	1241.46
574.31	1239.16
574.67	1236.59
575.02	1233.68
575.37	1230.45
575.72	1227.28
576.08	1225.00
576.43	1222.23
576.78	1219.74
577.13	1217.29
577.49	1214.49
577.84	1211.65
578.19	1209.06
578.54	1206.98
578.90	1204.74
579.25	1201.85
579.60	1198.73
579.95	1195.50
580.30	1192.76
580.66	1190.36
581.01	1187.26
581.36	1184.04
581.71	1181.00
582.06	1178.23
582.42	1175.15
582.77	1172.12
583.12	1169.00
583.47	1165.91
583.82	1162.77
584.17	1159.59
584.53	1156.23
584.88	1152.92
585.23	1149.66
585.58	1146.08
585.93	1142.38
586.28	1138.83
586.63	1135.48
586.98	1132.47
587.34	1129.56
587.69	1125.95
588.04	1122.28
588.39	1119.01
588.74	1115.66
589.09	1112.41
589.44	1108.31
589.79	1105.28
590.14	1102.19
590.49	1098.76
590.84	1095.05
591.19	1092.20
591.54	1088.95
591.89	1085.25
592.25	1082.05
592.60	1078.36
592.95	1074.56
593.30	1070.56
593.65	1066.40
594.00	1062.40
594.35	1059.60
594.70	1055.34
595.05	1051.69
595.40	1047.82
595.75	1043.74
596.10	1040.31
596.45	1036.64
596.80	1033.50
597.15	1029.74
597.50	1025.60
597.85	1022.07
598.19	1018.40
598.54	1014.32
598.89	1010.46
599.24	1007.20
599.59	1003.35
599.94	999.79
600.29	996.18
600.64	992.68
600.99	988.84
601.34	985.24
601.69	980.22
602.04	976.45
602.39	972.52
602.74	968.87
603.08	965.40
603.43	962.05
603.78	958.18
604.13	954.30
604.48	950.76
604.83	947.64
605.18	944.22
605.53	940.33
605.87	936.55
606.22	932.86
606.57	928.61
606.92	924.26
607.27	920.24
607.62	916.23
607.96	912.55
608.31	909.32
608.66	905.59
609.01	901.92
609.36	898.00
609.70	893.95
610.05	889.90
610.40	885.81
610.75	881.23
611.10	877.56
611.44	873.17
611.79	868.75
612.14	864.40
612.49	859.80
612.83	855.73
613.18	851.46
613.53	847.07
613.88	842.78
614.22	838.97
614.57	834.86
614.92	830.90
615.27	826.67
615.61	822.46
615.96	818.34
616.31	814.44
616.65	810.84
617.00	806.92
617.35	803.05
617.70	799.00
618.04	794.82
618.39	790.23
618.74	786.49
619.08	782.42
619.43	778.37
619.78	774.69
620.12	771.03
620.47	767.05
620.82	763.14
621.16	759.05
621.51	755.02
621.85	751.13
622.20	747.31
622.55	743.30
622.89	739.13
623.24	735.24
623.59	731.08
623.93	727.12
624.28	723.53
624.62	720.13
624.97	716.47
625.32	712.94
625.66	709.58
626.01	705.72
626.35	702.11
626.70	698.40
627.04	694.83
627.39	691.07
627.73	687.94
628.08	684.85
628.43	681.51
628.77	678.18
629.12	674.49
629.46	671.17
629.81	667.96
630.15	664.80
630.50	661.42
630.84	658.09
631.19	654.63
631.53	651.39
631.88	647.50
632.22	644.18
632.57	641.05
632.91	637.75
633.26	634.57
633.60	631.39
633.95	628.34
634.29	625.05
634.64	621.83
634.98	618.48
635.32	615.29
635.67	612.53
636.01	609.45
636.36	606.51
636.70	603.60
637.05	600.42
637.39	597.44
637.73	594.70
638.08	592.18
638.42	589.49
638.77	586.54
639.11	583.90
639.45	581.10
639.80	578.10
640.14	575.10
640.49	572.28
640.83	569.43
641.17	566.52
641.52	563.62
641.86	560.89
642.20	558.07
642.55	554.90
642.89	551.88
643.23	549.07
643.58	546.70
643.92	543.78
644.26	541.25
644.61	538.62
644.95	535.76
645.29	532.92
645.64	530.16
645.98	527.49
646.32	524.93
646.66	522.19
647.01	519.69
647.35	517.21
647.69	514.61
648.04	512.05
648.38	509.38
648.72	506.89
649.06	504.09
649.41	501.54
649.75	499.16
650.09	496.78
650.43	494.28
650.78	491.41
651.12	488.72
651.46	486.17
651.80	483.77
652.14	481.35
652.49	479.05
652.83	476.57
653.17	473.94
653.51	471.43
653.85	469.09
654.20	466.76
654.54	464.33
654.88	461.99
655.22	459.68
655.56	457.32
655.90	454.87
656.25	452.70
656.59	450.35
656.93	448.15
657.27	446.03
657.61	443.66
657.95	441.67
658.29	439.66
658.64	437.62
658.98	435.26
659.32	432.87
659.66	430.60
660.00	428.51
660.34	426.40
660.68	424.14
661.02	421.84
661.36	419.80
661.70	417.72
662.05	415.69
662.39	413.83
662.73	412.08
663.07	410.40
663.41	408.61
663.75	406.63
664.09	404.71
664.43	402.62
664.77	400.88
665.11	398.87
665.45	397.18
665.79	395.32
666.13	393.50
666.47	391.78
666.81	390.07
667.15	388.20
667.49	386.55
667.83	385.06
668.17	383.55
668.51	381.80
668.85	380.30
669.19	378.94
669.53	377.21
669.87	375.46
670.21	373.84
670.55	372.24
670.89	370.91
671.23	369.46
671.57	368.08
671.91	366.59
672.25	365.10
672.58	363.61
672.92	362.17
673.26	360.86
673.60	359.54
673.94	358.06
674.28	356.77
674.62	355.45
674.96	354.15
675.30	352.96
675.64	351.64
675.97	350.37
676.31	348.95
676.65	347.66
676.99	346.60
677.33	345.22
677.67	343.95
678.01	342.60
678.34	341.27
678.68	340.03
679.02	338.74
679.36	337.53
679.70	336.20
680.04	334.92
680.37	333.65
680.71	332.46
681.05	331.35
681.39	330.14
681.73	329.07
682.06	327.95
682.40	326.77
682.74	325.69
683.08	324.60
683.42	323.35
683.75	322.21
684.09	321.01
684.43	320.00
684.77	318.90
685.10	317.82
685.44	316.75
685.78	315.59
686.12	314.59
686.45	313.53
686.79	312.52
687.13	311.61
687.46	310.70
687.80	309.80
688.14	308.84
688.48	307.94
688.81	306.86
689.15	305.84
689.49	304.79
689.82	303.79
690.16	302.72
690.50	301.81
690.83	300.82
691.17	299.78
691.51	298.74
691.84	297.78
692.18	296.85
692.52	295.94
692.85	295.22
693.19	294.48
693.52	293.71
693.86	292.81
694.20	291.83
694.53	291.06
694.87	290.10
695.21	289.09
695.54	288.15
695.88	287.30
696.21	286.42
696.55	285.62
696.88	284.85
697.22	284.04
697.56	283.33
697.89	282.56
698.23	281.91
698.56	281.19
698.90	280.59
699.23	279.83
699.57	279.11
699.90	278.23
700.24	277.33
700.58	276.59
700.91	275.96
701.25	275.50
701.58	274.77
701.92	274.16
702.25	273.49
702.59	272.85
702.92	272.19
703.26	271.52
703.59	270.83
703.93	270.43
704.26	269.82
704.60	269.20
704.93	268.66
705.26	267.88
705.60	267.34
705.93	266.59
706.27	266.15
706.60	265.66
706.94	265.28
707.27	264.70
707.61	264.10
707.94	263.46
708.27	262.62
708.61	262.02
708.94	261.54
709.28	261.13
709.61	260.57
709.94	260.07
710.28	259.46
710.61	259.03
710.95	258.20
711.28	258.00
711.61	257.39
711.95	257.03
712.28	256.53
712.61	255.98
712.95	255.71
713.28	255.25
713.61	254.68
713.95	254.06
714.28	253.60
714.61	253.16
714.95	252.72
715.28	252.30
715.61	251.81
715.95	251.28
716.28	250.68
716.61	250.32
716.95	249.85
717.28	249.49
717.61	249.06
717.94	248.72
718.28	247.95
718.61	247.62
718.94	247.07
719.27	246.74
719.61	246.40
719.94	245.95
720.27	245.44
720.60	245.14
720.94	244.84
721.27	244.57
721.60	244.27
721.93	243.99
722.27	243.80
722.60	243.56
722.93	243.29
723.26	243.17
723.59	242.84
723.93	242.64
724.26	242.37
724.59	242.04
724.92	241.77
725.25	241.60
725.59	241.35
725.92	241.13
726.25	240.87
726.58	240.55
726.91	240.24
727.24	240.00
727.57	239.67
727.91	239.30
728.24	239.10
728.57	238.75
728.90	238.51
729.23	238.16
729.56	238.00
729.89	237.68
730.22	237.30
730.55	237.02
730.89	236.73
731.22	236.45
731.55	236.20
731.88	235.97
732.21	235.71
732.54	235.47
732.87	235.24
733.20	234.99
733.53	234.85
733.86	234.62
734.19	234.34
734.52	234.18
734.85	234.21
735.18	233.82
735.51	233.75
735.84	233.55
736.17	233.41
736.50	233.05
736.83	233.20
737.16	233.05
737.49	232.83
737.82	232.59
738.15	232.40
738.48	232.15
738.81	231.89
739.14	231.61
739.47	231.36
739.80	231.17
740.13	230.96
740.46	230.72
740.79	230.49
741.12	230.36
741.45	230.12
741.78	229.76
742.11	229.74
742.44	229.53
742.77	229.35
743.10	229.11
743.43	228.90
743.75	228.44
744.08	228.66
744.41	228.48
744.74	228.28
745.07	228.00
745.40	227.95
745.73	227.96
746.06	227.81
746.39	227.71
746.71	227.47
747.04	227.22
747.37	226.94
747.70	226.86
748.03	226.67
748.36	226.57
748.68	226.33
749.01	226.05
749.34	225.82
749.67	225.69
750.00	225.54
750.33	225.62
750.65	225.47
750.98	224.95
751.31	224.76
751.64	224.60
751.97	224.76
752.29	224.52
752.62	224.15
752.95	223.93
753.28	223.69
753.60	223.55
753.93	223.61
754.26	223.62
754.59	223.41
754.91	223.30
755.24	223.14
755.57	223.03
755.90	222.85
756.22	222.66
756.55	222.53
756.88	222.38
757.20	221.99
757.53	221.75
757.86	221.56
758.19	221.51
758.51	221.35
758.84	221.02
759.17	220.94
759.49	220.85
759.82	220.94
760.15	220.97
760.47	220.95
760.80	220.71
761.13	220.55
761.45	220.36
761.78	220.26
762.11	220.15
762.43	220.06
762.76	220.00
763.08	220.01
763.41	219.88
763.74	219.72
764.06	219.73
764.39	219.70
764.71	219.68
765.04	219.59
765.37	219.54
765.69	219.47
766.02	219.37
766.34	219.28
766.67	219.02
767.00	218.92
767.32	218.93
767.65	219.05
767.97	219.00
768.30	218.99
768.62	218.91
768.95	218.82
769.27	218.79
769.60	218.78
769.92	218.66
770.25	218.53
770.57	218.42
770.90	218.29
771.22	218.20
771.55	218.14
771.87	218.08
772.20	218.02
772.52	218.17
772.85	218.55
773.17	218.55
773.50	218.47
773.82	218.39
774.15	218.21
774.47	217.96
774.80	217.86
775.12	217.78
775.45	217.76
775.77	217.69
776.09	217.66
776.42	217.59
776.74	217.65
777.07	217.57
777.39	217.60
777.72	217.58
778.04	217.53
778.36	217.38
778.69	217.33
779.01	217.28
779.33	216.98
779.66	216.42
779.98	216.29
780.31	216.30
780.63	216.30
780.95	216.30
781.28	216.30
781.60	216.31
781.92	216.29
782.25	216.25
782.57	216.19
782.89	216.02
783.22	216.00
783.54	215.87
783.86	215.85
784.19	215.76
784.51	215.78
784.83	215.67
785.16	215.59
785.48	215.47
785.80	215.44
786.12	215.40
786.45	215.45
786.77	215.41
787.09	215.38
787.42	215.32
787.74	215.20
788.06	215.10
788.38	214.94
788.71	214.81
789.03	214.70
789.35	214.70
