SpectraSuite Data File
++++++++++++++++++++++++++++++++++++
Date: Mon Feb 25 17:06:58 EST 2013
User: group
Dark Spectrum Present: No
Reference Spectrum Present: No
Number of Sampled Component Spectra: 1
Spectrometers: USB2E7196
Integration Time (usec): 104000 (USB2E7196)
Spectra Averaged: 20 (USB2E7196)
Boxcar Smoothing: 10 (USB2E7196)
Correct for Electrical Dark: No (USB2E7196)
Strobe/Lamp Enabled: No (USB2E7196)
Correct for Detector Non-linearity: No (USB2E7196)
Correct for Stray Light: No (USB2E7196)
Number of Pixels in Processed Spectrum: 2048
>>>>>Begin Processed Spectral Data<<<<<
339.09	0.00
339.48	198.65
339.86	200.10
340.24	200.45
340.63	203.05
341.01	209.40
341.39	205.45
341.78	205.60
342.16	208.40
342.54	208.55
342.93	197.92
343.31	207.88
343.69	208.40
344.07	208.86
344.46	209.42
344.84	209.76
345.22	209.84
345.60	210.10
345.99	210.37
346.37	210.45
346.75	210.51
347.13	210.57
347.52	210.60
347.90	210.70
348.28	210.71
348.66	210.86
349.05	210.80
349.43	210.82
349.81	210.81
350.19	210.84
350.57	210.87
350.96	211.03
351.34	211.15
351.72	211.26
352.10	211.37
352.48	211.30
352.87	211.37
353.25	211.38
353.63	211.47
354.01	211.55
354.39	211.64
354.77	211.73
355.15	211.84
355.54	211.92
355.92	211.86
356.30	211.96
356.68	212.23
357.06	212.35
357.44	212.35
357.82	212.36
358.20	212.44
358.58	212.52
358.97	212.56
359.35	212.69
359.73	212.79
360.11	212.80
360.49	212.91
360.87	212.94
361.25	213.04
361.63	213.16
362.01	213.20
362.39	213.20
362.77	213.26
363.15	213.33
363.53	213.37
363.91	213.40
364.29	213.47
364.67	213.17
365.05	213.19
365.43	213.30
365.81	213.42
366.19	213.57
366.57	213.64
366.95	213.65
367.33	213.54
367.71	213.51
368.09	213.54
368.47	213.56
368.85	213.51
369.23	213.57
369.61	213.41
369.99	213.45
370.37	213.46
370.75	213.56
371.13	213.48
371.51	213.32
371.89	213.32
372.27	213.26
372.65	213.19
373.03	213.17
373.41	213.15
373.78	213.08
374.16	212.94
374.54	212.81
374.92	212.73
375.30	212.72
375.68	212.63
376.06	212.64
376.44	212.53
376.82	212.54
377.19	212.46
377.57	212.42
377.95	212.23
378.33	212.20
378.71	212.02
379.09	211.94
379.47	212.00
379.84	211.92
380.22	211.80
380.60	211.71
380.98	211.65
381.36	211.54
381.73	211.45
382.11	211.44
382.49	211.41
382.87	211.26
383.25	211.20
383.62	211.54
384.00	211.39
384.38	211.36
384.76	211.38
385.13	211.45
385.51	211.44
385.89	211.37
386.27	211.30
386.64	211.25
387.02	211.23
387.40	211.15
387.78	211.12
388.15	211.06
388.53	211.05
388.91	211.02
389.29	210.94
389.66	210.97
390.04	210.90
390.42	210.93
390.79	210.99
391.17	210.96
391.55	210.57
391.92	210.58
392.30	210.62
392.68	210.51
393.05	210.45
393.43	210.46
393.81	210.50
394.18	210.46
394.56	210.45
394.94	210.48
395.31	210.47
395.69	210.60
396.06	210.73
396.44	210.73
396.82	210.67
397.19	210.92
397.57	210.83
397.95	210.84
398.32	210.71
398.70	210.67
399.07	210.79
399.45	210.74
399.82	210.75
400.20	210.79
400.58	210.82
400.95	210.71
401.33	210.82
401.70	211.05
402.08	211.16
402.45	211.21
402.83	211.37
403.20	211.41
403.58	211.40
403.95	211.51
404.33	211.61
404.71	211.72
405.08	211.91
405.46	212.04
405.83	212.16
406.21	212.25
406.58	212.36
406.96	212.41
407.33	212.62
407.70	212.82
408.08	213.15
408.45	213.36
408.83	213.63
409.20	213.56
409.58	213.56
409.95	213.72
410.33	213.98
410.70	214.07
411.08	214.34
411.45	214.63
411.82	214.77
412.20	215.10
412.57	215.63
412.95	215.67
413.32	216.10
413.69	216.49
414.07	216.92
414.44	217.40
414.82	217.91
415.19	218.47
415.56	219.00
415.94	219.37
416.31	220.06
416.68	220.74
417.06	221.70
417.43	222.61
417.81	223.51
418.18	224.42
418.55	225.34
418.93	226.40
419.30	227.45
419.67	228.58
420.04	229.72
420.42	230.82
420.79	232.43
421.16	233.84
421.54	235.47
421.91	236.94
422.28	238.46
422.66	240.14
423.03	241.96
423.40	243.68
423.77	245.50
424.15	247.30
424.52	249.18
424.89	251.25
425.26	253.16
425.64	255.11
426.01	257.15
426.38	259.40
426.75	261.75
427.13	264.18
427.50	266.63
427.87	269.22
428.24	271.78
428.61	274.08
428.99	276.90
429.36	279.67
429.73	282.64
430.10	285.69
430.47	288.73
430.85	291.58
431.22	294.82
431.59	298.55
431.96	301.87
432.33	305.51
432.70	309.16
433.08	313.42
433.45	317.43
433.82	321.54
434.19	325.87
434.56	330.22
434.93	334.22
435.30	338.46
435.68	343.00
436.05	347.38
436.42	351.85
436.79	355.92
437.16	360.38
437.53	365.10
437.90	369.65
438.27	374.21
438.64	379.06
439.01	383.55
439.38	387.33
439.75	391.31
440.13	395.80
440.50	399.91
440.87	403.18
441.24	406.73
441.61	410.64
441.98	413.60
442.35	416.84
442.72	420.27
443.09	423.63
443.46	425.70
443.83	427.30
444.20	428.72
444.57	430.40
444.94	431.27
445.31	432.23
445.68	433.50
446.05	433.86
446.42	433.65
446.79	433.42
447.16	432.99
447.53	432.71
447.90	431.05
448.27	429.39
448.64	427.27
449.01	425.58
449.37	422.71
449.74	420.04
450.11	416.91
450.48	413.34
450.85	409.45
451.22	406.23
451.59	403.21
451.96	400.16
452.33	396.22
452.70	392.63
453.07	388.38
453.43	383.66
453.80	379.57
454.17	375.45
454.54	371.46
454.91	367.35
455.28	363.25
455.65	359.57
456.02	356.29
456.38	353.04
456.75	349.08
457.12	345.61
457.49	342.15
457.86	338.65
458.23	335.86
458.59	332.83
458.96	329.79
459.33	326.95
459.70	324.27
460.07	322.10
460.43	319.65
460.80	317.33
461.17	315.24
461.54	312.98
461.91	310.90
462.27	308.78
462.64	306.95
463.01	305.03
463.38	303.20
463.74	300.79
464.11	299.05
464.48	297.59
464.85	295.98
465.21	294.86
465.58	293.67
465.95	291.90
466.32	290.58
466.68	289.29
467.05	287.97
467.42	286.61
467.78	285.25
468.15	283.94
468.52	282.85
468.88	281.60
469.25	280.52
469.62	279.65
469.98	278.65
470.35	277.73
470.72	276.71
471.08	275.62
471.45	274.97
471.82	274.21
472.18	273.29
472.55	272.65
472.92	271.78
473.28	271.00
473.65	270.38
474.02	269.74
474.38	269.12
474.75	268.71
475.11	268.23
475.48	267.77
475.85	267.34
476.21	266.96
476.58	266.72
476.94	266.40
477.31	266.06
477.67	265.80
478.04	265.50
478.41	265.40
478.77	265.57
479.14	265.23
479.50	265.10
479.87	265.10
480.23	264.96
480.60	264.82
480.96	264.73
481.33	264.95
481.69	264.99
482.06	264.97
482.42	265.05
482.79	265.08
483.15	265.23
483.52	265.46
483.88	265.56
484.25	265.68
484.61	265.81
484.98	265.96
485.34	266.34
485.71	266.65
486.07	266.94
486.44	266.90
486.80	267.28
487.17	267.79
487.53	268.21
487.90	268.79
488.26	269.51
488.62	270.14
488.99	270.59
489.35	271.12
489.72	271.86
490.08	272.52
490.44	273.18
490.81	273.96
491.17	274.66
491.54	275.57
491.90	276.38
492.26	277.30
492.63	278.22
492.99	279.08
493.36	280.07
493.72	281.19
494.08	282.39
494.45	283.57
494.81	284.62
495.17	285.82
495.54	287.07
495.90	288.23
496.26	289.42
496.63	290.69
496.99	292.04
497.35	293.28
497.72	294.60
498.08	296.12
498.44	297.53
498.80	299.09
499.17	300.54
499.53	302.02
499.89	303.65
500.26	305.18
500.62	306.75
500.98	308.44
501.34	309.97
501.71	311.64
502.07	313.26
502.43	314.96
502.79	316.55
503.16	318.18
503.52	319.82
503.88	321.50
504.24	323.29
504.60	325.12
504.97	327.03
505.33	328.77
505.69	330.66
506.05	332.48
506.41	334.38
506.78	336.12
507.14	337.95
507.50	339.81
507.86	341.71
508.22	343.61
508.59	345.46
508.95	347.37
509.31	349.34
509.67	351.17
510.03	353.07
510.39	355.05
510.75	356.93
511.12	358.90
511.48	360.88
511.84	362.90
512.20	364.80
512.56	366.75
512.92	368.75
513.28	370.79
513.64	372.75
514.00	374.75
514.37	376.88
514.73	379.02
515.09	381.11
515.45	383.14
515.81	385.20
516.17	387.25
516.53	389.44
516.89	391.39
517.25	393.60
517.61	395.89
517.97	398.10
518.33	400.39
518.69	402.62
519.05	405.06
519.41	407.46
519.77	410.00
520.13	412.27
520.49	414.72
520.85	417.01
521.21	419.64
521.57	421.98
521.93	424.31
522.29	426.80
522.65	429.26
523.01	431.91
523.37	434.37
523.73	437.05
524.09	439.57
524.45	442.26
524.81	445.03
525.17	447.75
525.53	450.49
525.89	453.35
526.25	456.16
526.61	458.78
526.97	461.50
527.33	464.19
527.68	467.47
528.04	470.42
528.40	473.10
528.76	475.88
529.12	479.06
529.48	482.26
529.84	485.34
530.20	488.52
530.56	491.77
530.91	495.19
531.27	498.42
531.63	501.72
531.99	505.12
532.35	508.30
532.71	511.35
533.07	514.64
533.42	518.21
533.78	521.54
534.14	525.05
534.50	528.27
534.86	531.77
535.21	534.77
535.57	538.22
535.93	541.75
536.29	545.40
536.65	548.70
537.00	551.90
537.36	555.25
537.72	558.45
538.08	561.59
538.44	564.76
538.79	568.13
539.15	571.38
539.51	574.56
539.87	577.97
540.22	581.37
540.58	584.80
540.94	587.82
541.29	591.20
541.65	594.27
542.01	597.59
542.37	600.76
542.72	604.05
543.08	607.05
543.44	610.40
543.79	613.28
544.15	616.42
544.51	619.81
544.87	623.07
545.22	626.27
545.58	629.41
545.94	632.30
546.29	635.08
546.65	638.07
547.01	640.88
547.36	643.67
547.72	646.51
548.07	649.19
548.43	651.86
548.79	654.18
549.14	656.76
549.50	659.53
549.86	661.86
550.21	664.22
550.57	666.84
550.92	669.03
551.28	671.30
551.64	673.56
551.99	675.87
552.35	677.90
552.70	679.95
553.06	682.23
553.41	684.45
553.77	686.80
554.13	688.94
554.48	691.21
554.84	693.46
555.19	695.46
555.55	697.67
555.90	699.47
556.26	701.45
556.61	703.25
556.97	704.74
557.32	706.38
557.68	708.12
558.03	709.61
558.39	711.30
558.74	713.07
559.10	714.82
559.45	716.30
559.81	718.07
560.16	719.63
560.52	720.99
560.87	722.55
561.23	723.70
561.58	725.23
561.94	726.31
562.29	727.37
562.64	728.63
563.00	729.59
563.35	730.87
563.71	732.23
564.06	733.59
564.42	734.85
564.77	736.39
565.12	737.71
565.48	739.26
565.83	740.58
566.19	741.75
566.54	742.51
566.89	743.25
567.25	744.24
567.60	745.38
567.96	746.51
568.31	747.37
568.66	748.21
569.02	748.53
569.37	749.00
569.72	749.56
570.08	750.02
570.43	750.65
570.78	750.92
571.14	751.19
571.49	751.18
571.84	751.25
572.20	751.09
572.55	751.11
572.90	750.57
573.26	750.25
573.61	749.85
573.96	749.80
574.31	749.51
574.67	748.91
575.02	748.00
575.37	747.01
575.72	746.21
576.08	745.71
576.43	745.06
576.78	744.70
577.13	744.09
577.49	743.53
577.84	742.81
578.19	742.28
578.54	741.72
578.90	741.42
579.25	740.97
579.60	740.22
579.95	739.34
580.30	738.80
580.66	738.24
581.01	737.56
581.36	736.59
581.71	735.89
582.06	735.37
582.42	734.81
582.77	734.11
583.12	733.50
583.47	732.72
583.82	732.14
584.17	731.44
584.53	730.84
584.88	729.99
585.23	729.20
585.58	728.38
585.93	727.44
586.28	726.57
586.63	725.60
586.98	724.97
587.34	724.38
587.69	723.44
588.04	722.46
588.39	721.62
588.74	720.68
589.09	719.94
589.44	718.63
589.79	717.53
590.14	716.74
590.49	715.62
590.84	714.56
591.19	713.74
591.54	712.54
591.89	711.11
592.25	710.25
592.60	708.77
592.95	707.38
593.30	706.01
593.65	704.58
594.00	703.14
594.35	702.90
594.70	701.43
595.05	700.15
595.40	698.88
595.75	697.27
596.10	696.19
596.45	694.80
596.80	693.90
597.15	692.96
597.50	691.41
597.85	690.29
598.19	688.97
598.54	687.66
598.89	686.57
599.24	685.59
599.59	684.37
599.94	683.60
600.29	682.65
600.64	681.47
600.99	680.28
601.34	679.44
601.69	677.14
602.04	675.77
602.39	674.53
602.74	673.31
603.08	672.49
603.43	671.56
603.78	670.50
604.13	669.11
604.48	667.84
604.83	667.02
605.18	666.11
605.53	664.90
605.87	663.51
606.22	662.24
606.57	660.87
606.92	659.27
607.27	657.77
607.62	656.35
607.96	655.28
608.31	654.18
608.66	652.70
609.01	651.36
609.36	649.89
609.70	648.48
610.05	647.00
610.40	645.46
610.75	643.66
611.10	642.35
611.44	640.57
611.79	638.82
612.14	637.03
612.49	634.94
612.83	633.23
613.18	631.30
613.53	629.39
613.88	627.49
614.22	625.83
614.57	624.00
614.92	622.08
615.27	620.06
615.61	618.07
615.96	616.18
616.31	614.17
616.65	612.78
617.00	610.96
617.35	609.01
617.70	607.16
618.04	604.96
618.39	602.53
618.74	600.68
619.08	598.69
619.43	596.77
619.78	594.81
620.12	592.94
620.47	591.08
620.82	589.06
621.16	587.01
621.51	585.04
621.85	582.91
622.20	580.88
622.55	578.83
622.89	576.78
623.24	574.63
623.59	572.65
623.93	570.45
624.28	568.40
624.62	566.68
624.97	564.82
625.32	563.00
625.66	561.33
626.01	559.41
626.35	557.41
626.70	555.35
627.04	553.74
627.39	551.59
627.73	549.87
628.08	548.05
628.43	546.15
628.77	544.07
629.12	542.24
629.46	540.56
629.81	538.71
630.15	536.69
630.50	534.78
630.84	532.77
631.19	530.83
631.53	528.89
631.88	526.66
632.22	524.41
632.57	522.68
632.91	520.63
633.26	518.83
633.60	517.05
633.95	515.22
634.29	513.16
634.64	511.60
634.98	509.59
635.32	507.83
635.67	506.24
636.01	504.56
636.36	502.75
636.70	501.05
637.05	499.13
637.39	497.40
637.73	495.86
638.08	494.32
638.42	492.74
638.77	491.19
639.11	489.64
639.45	488.02
639.80	486.09
640.14	484.29
640.49	482.40
640.83	480.63
641.17	478.95
641.52	477.10
641.86	475.12
642.20	473.50
642.55	471.43
642.89	469.55
643.23	467.70
643.58	466.09
643.92	464.05
644.26	462.40
644.61	460.70
644.95	458.86
645.29	456.98
645.64	455.03
645.98	453.08
646.32	451.25
646.66	449.34
647.01	447.51
647.35	445.80
647.69	443.89
648.04	442.20
648.38	440.22
648.72	438.46
649.06	436.68
649.41	434.75
649.75	433.11
650.09	431.30
650.43	429.57
650.78	427.62
651.12	425.83
651.46	423.93
651.80	422.17
652.14	420.42
652.49	418.80
652.83	417.07
653.17	415.35
653.51	413.53
653.85	412.01
654.20	410.42
654.54	408.59
654.88	406.83
655.22	405.14
655.56	403.41
655.90	401.70
656.25	399.98
656.59	398.21
656.93	396.63
657.27	395.10
657.61	393.35
657.95	391.71
658.29	390.27
658.64	388.82
658.98	387.15
659.32	385.41
659.66	383.79
660.00	382.15
660.34	380.43
660.68	378.84
661.02	377.15
661.36	375.59
661.70	374.11
662.05	372.76
662.39	371.35
662.73	370.16
663.07	368.93
663.41	367.49
663.75	366.02
664.09	364.54
664.43	363.01
664.77	361.67
665.11	360.26
665.45	358.80
665.79	357.48
666.13	356.06
666.47	354.77
666.81	353.39
667.15	352.06
667.49	350.97
667.83	349.82
668.17	348.51
668.51	347.24
668.85	346.04
669.19	344.93
669.53	343.56
669.87	342.24
670.21	340.94
670.55	339.78
670.89	338.97
671.23	337.92
671.57	336.91
671.91	335.77
672.25	334.59
672.58	333.49
672.92	332.29
673.26	331.32
673.60	330.25
673.94	329.23
674.28	328.24
674.62	327.17
674.96	325.99
675.30	325.03
675.64	323.99
675.97	323.01
676.31	321.98
676.65	321.04
676.99	320.23
677.33	319.06
677.67	318.05
678.01	316.85
678.34	315.84
678.68	314.80
679.02	313.82
679.36	312.93
679.70	311.95
680.04	311.01
680.37	309.97
680.71	309.08
681.05	308.09
681.39	307.19
681.73	306.22
682.06	305.37
682.40	304.50
682.74	303.67
683.08	302.90
683.42	301.94
683.75	301.07
684.09	299.97
684.43	299.21
684.77	298.31
685.10	297.51
685.44	296.60
685.78	295.70
686.12	294.91
686.45	294.06
686.79	293.26
687.13	292.59
687.46	291.77
687.80	291.08
688.14	290.30
688.48	289.50
688.81	288.77
689.15	288.06
689.49	287.23
689.82	286.46
690.16	285.43
690.50	284.65
690.83	283.83
691.17	283.13
691.51	282.37
691.84	281.81
692.18	280.98
692.52	280.20
692.85	279.58
693.19	278.96
693.52	278.30
693.86	277.63
694.20	276.82
694.53	276.21
694.87	275.43
695.21	274.70
695.54	273.96
695.88	273.17
696.21	272.36
696.55	271.75
696.88	271.07
697.22	270.49
697.56	269.96
697.89	269.27
698.23	268.65
698.56	267.99
698.90	267.40
699.23	266.71
699.57	266.20
699.90	265.47
700.24	264.78
700.58	264.20
700.91	263.56
701.25	263.26
701.58	262.75
701.92	262.23
702.25	261.74
702.59	261.25
702.92	260.79
703.26	260.27
703.59	259.73
703.93	259.44
704.26	259.03
704.60	258.46
704.93	258.00
705.26	257.46
705.60	257.07
705.93	256.46
706.27	256.14
706.60	255.74
706.94	255.42
707.27	254.84
707.61	254.38
707.94	253.91
708.27	253.22
708.61	252.67
708.94	252.19
709.28	251.74
709.61	251.28
709.94	250.85
710.28	250.52
710.61	250.12
710.95	249.45
711.28	249.22
711.61	248.75
711.95	248.45
712.28	248.03
712.61	247.56
712.95	247.37
713.28	247.14
713.61	246.64
713.95	246.20
714.28	245.99
714.61	245.60
714.95	245.19
715.28	244.79
715.61	244.43
715.95	244.07
716.28	243.68
716.61	243.37
716.95	242.99
717.28	242.58
717.61	242.28
717.94	241.97
718.28	241.39
718.61	241.12
718.94	240.72
719.27	240.39
719.61	240.07
719.94	239.67
720.27	239.19
720.60	238.90
720.94	238.58
721.27	238.20
721.60	237.96
721.93	237.73
722.27	237.64
722.60	237.52
722.93	237.31
723.26	237.17
723.59	236.80
723.93	236.60
724.26	236.36
724.59	236.08
724.92	235.83
725.25	235.64
725.59	235.35
725.92	235.15
726.25	234.93
726.58	234.80
726.91	234.57
727.24	234.38
727.57	234.24
727.91	234.03
728.24	233.92
728.57	233.67
728.90	233.55
729.23	233.12
729.56	232.98
729.89	232.74
730.22	232.42
730.55	232.22
730.89	232.03
731.22	231.86
731.55	231.61
731.88	231.41
732.21	231.15
732.54	231.02
732.87	230.78
733.20	230.66
733.53	230.43
733.86	230.22
734.19	229.98
734.52	229.74
734.85	229.82
735.18	229.53
735.51	229.54
735.84	229.37
736.17	229.30
736.50	228.98
736.83	229.19
737.16	229.12
737.49	228.96
737.82	228.70
738.15	228.58
738.48	228.44
738.81	228.28
739.14	228.13
739.47	227.86
739.80	227.73
740.13	227.60
740.46	227.40
740.79	227.15
741.12	227.01
741.45	226.86
741.78	226.43
742.11	226.39
742.44	226.12
742.77	225.97
743.10	225.77
743.43	225.60
743.75	225.07
744.08	225.35
744.41	225.18
744.74	225.10
745.07	224.82
745.40	224.69
745.73	224.73
746.06	224.59
746.39	224.52
746.71	224.40
747.04	224.12
747.37	223.90
747.70	223.94
748.03	223.84
748.36	223.75
748.68	223.68
749.01	223.41
749.34	223.22
749.67	223.05
750.00	223.04
750.33	223.15
750.65	223.07
750.98	222.43
751.31	222.33
751.64	222.21
751.97	222.34
752.29	222.26
752.62	221.91
752.95	221.81
753.28	221.68
753.60	221.50
753.93	221.59
754.26	221.61
754.59	221.28
754.91	221.16
755.24	221.04
755.57	220.92
755.90	220.83
756.22	220.73
756.55	220.61
756.88	220.43
757.20	220.06
757.53	219.85
757.86	219.78
758.19	219.80
758.51	219.61
758.84	219.45
759.17	219.29
759.49	219.25
759.82	219.31
760.15	219.24
760.47	219.13
760.80	218.90
761.13	218.89
761.45	218.86
761.78	218.75
762.11	218.63
762.43	218.55
762.76	218.49
763.08	218.47
763.41	218.38
763.74	218.30
764.06	218.28
764.39	218.18
764.71	218.13
765.04	217.94
765.37	217.88
765.69	217.74
766.02	217.70
766.34	217.60
766.67	217.39
767.00	217.36
767.32	217.55
767.65	217.71
767.97	217.55
768.30	217.52
768.62	217.48
768.95	217.42
769.27	217.28
769.60	217.27
769.92	217.11
770.25	216.99
770.57	216.89
770.90	216.79
771.22	216.82
771.55	216.73
771.87	216.70
772.20	216.67
772.52	216.93
772.85	217.29
773.17	217.25
773.50	217.20
773.82	217.16
774.15	216.85
774.47	216.53
774.80	216.50
775.12	216.46
775.45	216.42
775.77	216.35
776.09	216.40
776.42	216.39
776.74	216.44
777.07	216.42
777.39	216.44
777.72	216.35
778.04	216.33
778.36	216.32
778.69	216.32
779.01	216.30
779.33	215.95
779.66	215.51
779.98	215.47
780.31	215.41
780.63	215.48
780.95	215.55
781.28	215.54
781.60	215.40
781.92	215.35
782.25	215.31
782.57	215.30
782.89	215.21
783.22	215.05
783.54	215.03
783.86	214.98
784.19	214.92
784.51	215.02
784.83	214.96
785.16	214.91
785.48	214.94
785.80	214.90
786.12	214.85
786.45	214.77
786.77	214.81
787.09	214.79
787.42	214.62
787.74	214.61
788.06	214.64
788.38	214.61
788.71	214.50
789.03	214.49
789.35	214.51
789.67	214.45
789.99	214.52
790.32	214.40
790.64	214.49
790.96	214.73
791.28	214.62
791.61	214.55
791.93	214.42
792.25	214.32
792.57	214.57
792.89	214.47
793.21	214.50
793.54	214.37
793.86	214.31
794.18	214.32
