SpectraSuite Data File
++++++++++++++++++++++++++++++++++++
Date: Mon Feb 25 17:15:02 EST 2013
User: group
Dark Spectrum Present: No
Reference Spectrum Present: No
Number of Sampled Component Spectra: 1
Spectrometers: USB2E7196
Integration Time (usec): 104000 (USB2E7196)
Spectra Averaged: 20 (USB2E7196)
Boxcar Smoothing: 10 (USB2E7196)
Correct for Electrical Dark: No (USB2E7196)
Strobe/Lamp Enabled: No (USB2E7196)
Correct for Detector Non-linearity: No (USB2E7196)
Correct for Stray Light: No (USB2E7196)
Number of Pixels in Processed Spectrum: 2048
>>>>>Begin Processed Spectral Data<<<<<
339.09	0.00
339.48	199.05
339.86	201.60
340.24	201.25
340.63	203.45
341.01	209.95
341.39	205.75
341.78	208.40
342.16	208.60
342.54	209.00
342.93	198.75
343.31	208.81
343.69	209.33
344.07	209.70
344.46	210.20
344.84	210.55
345.22	210.62
345.60	210.87
345.99	211.02
346.37	211.13
346.75	211.25
347.13	211.28
347.52	211.27
347.90	211.36
348.28	211.29
348.66	211.36
349.05	211.30
349.43	211.30
349.81	211.32
350.19	211.37
350.57	211.38
350.96	211.46
351.34	211.49
351.72	211.56
352.10	211.64
352.48	211.61
352.87	211.64
353.25	211.73
353.63	211.76
354.01	211.81
354.39	211.90
354.77	211.96
355.15	212.12
355.54	212.15
355.92	212.13
356.30	212.21
356.68	212.55
357.06	212.57
357.44	212.60
357.82	212.58
358.20	212.63
358.58	212.67
358.97	212.73
359.35	212.88
359.73	213.04
360.11	213.15
360.49	213.30
360.87	213.31
361.25	213.34
361.63	213.53
362.01	213.56
362.39	213.51
362.77	213.53
363.15	213.50
363.53	213.50
363.91	213.60
364.29	213.63
364.67	213.26
365.05	213.27
365.43	213.31
365.81	213.41
366.19	213.60
366.57	213.76
366.95	213.79
367.33	213.71
367.71	213.68
368.09	213.65
368.47	213.65
368.85	213.69
369.23	213.74
369.61	213.63
369.99	213.77
370.37	213.84
370.75	214.09
371.13	214.04
371.51	214.04
371.89	214.02
372.27	214.05
372.65	214.04
373.03	214.10
373.41	214.04
373.78	214.04
374.16	213.80
374.54	213.60
374.92	213.47
375.30	213.40
375.68	213.21
376.06	213.20
376.44	213.10
376.82	213.02
377.19	212.97
377.57	212.90
377.95	212.71
378.33	212.72
378.71	212.38
379.09	212.39
379.47	212.34
379.84	212.27
380.22	212.19
380.60	212.14
380.98	212.05
381.36	212.02
381.73	211.93
382.11	211.97
382.49	211.97
382.87	211.94
383.25	211.92
383.62	212.36
384.00	212.27
384.38	212.24
384.76	212.38
385.13	212.45
385.51	212.49
385.89	212.37
386.27	212.33
386.64	212.31
387.02	212.22
387.40	212.12
387.78	212.11
388.15	212.10
388.53	212.13
388.91	212.07
389.29	212.07
389.66	212.10
390.04	212.05
390.42	212.11
390.79	212.06
391.17	212.08
391.55	211.68
391.92	211.67
392.30	211.71
392.68	211.61
393.05	211.60
393.43	211.58
393.81	211.65
394.18	211.55
394.56	211.52
394.94	211.60
395.31	211.61
395.69	211.74
396.06	211.79
396.44	211.78
396.82	211.81
397.19	212.00
397.57	212.00
397.95	212.06
398.32	211.98
398.70	212.09
399.07	212.20
399.45	212.14
399.82	212.24
400.20	212.20
400.58	212.17
400.95	212.05
401.33	212.08
401.70	212.36
402.08	212.42
402.45	212.54
402.83	212.71
403.20	212.78
403.58	212.72
403.95	212.88
404.33	212.99
404.71	213.05
405.08	213.25
405.46	213.32
405.83	213.43
406.21	213.52
406.58	213.61
406.96	213.64
407.33	213.85
407.70	213.99
408.08	214.44
408.45	214.61
408.83	214.87
409.20	215.08
409.58	215.03
409.95	215.29
410.33	215.46
410.70	215.60
411.08	215.98
411.45	216.34
411.82	216.58
412.20	217.03
412.57	217.56
412.95	217.69
413.32	218.12
413.69	218.53
414.07	219.03
414.44	219.59
414.82	220.15
415.19	220.82
415.56	221.47
415.94	221.92
416.31	222.79
416.68	223.58
417.06	224.37
417.43	225.31
417.81	226.23
418.18	227.28
418.55	228.31
418.93	229.38
419.30	230.49
419.67	231.70
420.04	232.90
420.42	234.20
420.79	235.93
421.16	237.43
421.54	239.16
421.91	240.75
422.28	242.35
422.66	244.11
423.03	246.03
423.40	247.89
423.77	249.82
424.15	251.73
424.52	253.63
424.89	255.93
425.26	257.95
425.64	260.02
426.01	262.18
426.38	264.46
426.75	266.95
427.13	269.47
427.50	272.00
427.87	274.59
428.24	277.14
428.61	279.45
428.99	282.35
429.36	285.19
429.73	288.20
430.10	291.28
430.47	294.35
430.85	297.32
431.22	300.62
431.59	304.35
431.96	307.71
432.33	311.49
432.70	315.06
433.08	319.31
433.45	323.30
433.82	327.34
434.19	331.78
434.56	336.04
434.93	340.05
435.30	344.15
435.68	348.65
436.05	353.15
436.42	357.55
436.79	361.62
437.16	366.04
437.53	370.68
437.90	375.17
438.27	379.74
438.64	384.45
439.01	388.75
439.38	392.29
439.75	396.03
440.13	400.19
440.50	404.17
440.87	407.51
441.24	410.82
441.61	414.45
441.98	417.09
442.35	420.04
442.72	423.30
443.09	426.45
443.46	428.22
443.83	429.47
444.20	430.65
444.57	432.12
444.94	432.85
445.31	433.46
445.68	434.49
446.05	434.66
446.42	434.04
446.79	433.40
447.16	432.88
447.53	432.44
447.90	430.78
448.27	428.95
448.64	426.42
449.01	424.65
449.37	421.70
449.74	418.70
450.11	415.46
450.48	411.50
450.85	407.46
451.22	404.17
451.59	400.96
451.96	397.76
452.33	393.74
452.70	389.94
453.07	385.56
453.43	380.74
453.80	376.43
454.17	372.35
454.54	368.42
454.91	364.23
455.28	360.06
455.65	356.22
456.02	352.88
456.38	349.67
456.75	345.76
457.12	342.39
457.49	339.16
457.86	335.75
458.23	333.12
458.59	330.16
458.96	327.20
459.33	324.40
459.70	321.72
460.07	319.47
460.43	317.03
460.80	314.76
461.17	312.76
461.54	310.62
461.91	308.63
462.27	306.56
462.64	304.71
463.01	302.79
463.38	301.08
463.74	298.79
464.11	297.12
464.48	295.63
464.85	294.05
465.21	292.96
465.58	291.76
465.95	290.24
466.32	289.02
466.68	287.73
467.05	286.61
467.42	285.35
467.78	284.10
468.15	282.86
468.52	282.01
468.88	280.78
469.25	279.75
469.62	279.01
469.98	278.21
470.35	277.49
470.72	276.75
471.08	275.74
471.45	275.12
471.82	274.64
472.18	273.99
472.55	273.54
472.92	272.86
473.28	272.37
473.65	271.83
474.02	271.36
474.38	271.04
474.75	270.83
475.11	270.53
475.48	270.38
475.85	270.20
476.21	270.00
476.58	269.91
476.94	269.90
477.31	269.72
477.67	269.67
478.04	269.71
478.41	269.86
478.77	270.34
479.14	270.37
479.50	270.40
479.87	270.61
480.23	270.89
480.60	271.06
480.96	271.23
481.33	271.78
481.69	272.12
482.06	272.55
482.42	272.89
482.79	273.55
483.15	274.01
483.52	274.79
483.88	275.48
484.25	276.26
484.61	276.96
484.98	277.87
485.34	278.94
485.71	279.89
486.07	280.90
486.44	281.74
486.80	283.03
487.17	284.26
487.53	285.79
487.90	287.19
488.26	288.92
488.62	290.74
488.99	292.32
489.35	294.18
489.72	296.11
490.08	298.18
490.44	300.24
490.81	302.63
491.17	304.92
491.54	307.40
491.90	309.99
492.26	312.80
492.63	315.60
492.99	318.47
493.36	321.63
493.72	325.04
494.08	328.46
494.45	332.10
494.81	336.10
495.17	339.94
495.54	344.12
495.90	348.30
496.26	352.70
496.63	357.50
496.99	362.34
497.35	367.37
497.72	372.60
498.08	378.07
498.44	383.63
498.80	389.64
499.17	395.74
499.53	402.16
499.89	408.79
500.26	415.52
500.62	422.39
500.98	429.71
501.34	437.16
501.71	445.02
502.07	452.87
502.43	460.92
502.79	469.27
503.16	477.99
503.52	487.06
503.88	496.32
504.24	505.72
504.60	515.37
504.97	525.52
505.33	535.73
505.69	546.55
506.05	557.45
506.41	568.47
506.78	579.68
507.14	591.03
507.50	602.94
507.86	615.09
508.22	627.70
508.59	640.14
508.95	653.23
509.31	666.35
509.67	679.81
510.03	693.61
510.39	707.79
510.75	722.13
511.12	736.53
511.48	751.15
511.84	766.14
512.20	781.27
512.56	796.81
512.92	812.64
513.28	828.25
513.64	844.24
514.00	860.24
514.37	876.55
514.73	893.31
515.09	909.84
515.45	926.40
515.81	943.13
516.17	960.20
516.53	977.22
516.89	994.33
517.25	1011.71
517.61	1029.06
517.97	1046.34
518.33	1063.61
518.69	1080.94
519.05	1098.59
519.41	1116.63
519.77	1134.87
520.13	1152.25
520.49	1169.60
520.85	1187.53
521.21	1205.58
521.57	1224.05
521.93	1241.78
522.29	1260.16
522.65	1278.27
523.01	1296.51
523.37	1314.23
523.73	1332.30
524.09	1350.10
524.45	1368.18
524.81	1386.21
525.17	1404.21
525.53	1421.91
525.89	1440.00
526.25	1457.75
526.61	1474.83
526.97	1491.72
527.33	1508.39
527.68	1525.94
528.04	1542.97
528.40	1559.11
528.76	1575.37
529.12	1591.98
529.48	1609.51
529.84	1625.45
530.20	1641.70
530.56	1657.76
530.91	1674.45
531.27	1690.82
531.63	1706.53
531.99	1722.27
532.35	1737.32
532.71	1752.48
533.07	1768.11
533.42	1782.80
533.78	1797.86
534.14	1812.79
534.50	1826.25
534.86	1840.48
535.21	1853.40
535.57	1867.35
535.93	1881.05
536.29	1894.33
536.65	1907.19
537.00	1918.75
537.36	1930.97
537.72	1942.71
538.08	1954.55
538.44	1966.09
538.79	1977.46
539.15	1988.71
539.51	1999.62
539.87	2011.05
540.22	2021.79
540.58	2032.42
540.94	2042.64
541.29	2052.25
541.65	2061.17
542.01	2070.90
542.37	2080.09
542.72	2089.47
543.08	2097.54
543.44	2106.48
543.79	2114.19
544.15	2121.68
544.51	2129.92
544.87	2137.54
545.22	2144.63
545.58	2151.17
545.94	2157.06
546.29	2162.12
546.65	2167.19
547.01	2172.35
547.36	2176.84
547.72	2181.25
548.07	2184.92
548.43	2188.42
548.79	2191.50
549.14	2195.25
549.50	2198.53
549.86	2201.15
550.21	2203.67
550.57	2206.67
550.92	2208.26
551.28	2209.93
551.64	2211.78
551.99	2213.85
552.35	2214.97
552.70	2216.11
553.06	2217.43
553.41	2218.52
553.77	2219.64
554.13	2220.50
554.48	2220.98
554.84	2221.87
555.19	2221.99
555.55	2221.75
555.90	2221.34
556.26	2221.05
556.61	2220.11
556.97	2218.90
557.32	2217.84
557.68	2216.39
558.03	2214.71
558.39	2213.42
558.74	2213.07
559.10	2211.80
559.45	2209.33
559.81	2207.96
560.16	2205.82
560.52	2203.95
560.87	2201.92
561.23	2199.22
561.58	2197.45
561.94	2194.48
562.29	2191.02
562.64	2188.44
563.00	2185.92
563.35	2183.95
563.71	2182.23
564.06	2180.28
564.42	2178.45
564.77	2176.65
565.12	2174.76
565.48	2172.46
565.83	2169.92
566.19	2167.47
566.54	2163.94
566.89	2160.49
567.25	2157.31
567.60	2154.79
567.96	2151.24
568.31	2147.65
568.66	2144.17
569.02	2139.68
569.37	2135.59
569.72	2131.91
570.08	2127.07
570.43	2122.39
570.78	2117.12
571.14	2111.71
571.49	2106.19
571.84	2101.38
572.20	2095.22
572.55	2090.01
572.90	2084.20
573.26	2077.95
573.61	2071.30
573.96	2065.44
574.31	2059.32
574.67	2052.73
575.02	2045.41
575.37	2038.54
575.72	2031.36
576.08	2025.44
576.43	2018.74
576.78	2012.50
577.13	2006.09
577.49	2000.01
577.84	1993.95
578.19	1988.27
578.54	1982.62
578.90	1977.18
579.25	1970.41
579.60	1963.88
579.95	1956.39
580.30	1950.25
580.66	1944.46
581.01	1937.87
581.36	1930.93
581.71	1924.47
582.06	1917.75
582.42	1911.60
582.77	1904.80
583.12	1898.27
583.47	1891.81
583.82	1886.03
584.17	1879.47
584.53	1873.30
584.88	1866.96
585.23	1860.28
585.58	1853.53
585.93	1846.36
586.28	1839.82
586.63	1833.26
586.98	1827.13
587.34	1821.59
587.69	1814.97
588.04	1808.61
588.39	1802.31
588.74	1795.50
589.09	1789.38
589.44	1782.93
589.79	1776.67
590.14	1770.93
590.49	1764.73
590.84	1757.95
591.19	1751.75
591.54	1745.46
591.89	1738.12
592.25	1731.40
592.60	1724.44
592.95	1717.47
593.30	1710.01
593.65	1702.53
594.00	1695.76
594.35	1690.54
594.70	1683.61
595.05	1677.27
595.40	1670.57
595.75	1663.67
596.10	1657.70
596.45	1651.48
596.80	1645.69
597.15	1640.03
597.50	1633.66
597.85	1627.63
598.19	1621.32
598.54	1614.98
598.89	1609.14
599.24	1604.10
599.59	1598.35
599.94	1593.25
600.29	1587.60
600.64	1582.44
600.99	1576.16
601.34	1570.53
601.69	1563.05
602.04	1556.73
602.39	1550.56
602.74	1544.70
603.08	1539.64
603.43	1534.72
603.78	1528.91
604.13	1523.00
604.48	1516.88
604.83	1512.15
605.18	1507.39
605.53	1501.87
605.87	1495.87
606.22	1490.29
606.57	1484.15
606.92	1478.36
607.27	1472.06
607.62	1466.25
607.96	1460.55
608.31	1455.79
608.66	1449.65
609.01	1443.87
609.36	1437.96
609.70	1431.79
610.05	1425.34
610.40	1418.93
610.75	1412.24
611.10	1406.30
611.44	1399.22
611.79	1392.32
612.14	1384.45
612.49	1376.58
612.83	1369.98
613.18	1362.89
613.53	1355.82
613.88	1348.23
614.22	1341.43
614.57	1334.56
614.92	1327.41
615.27	1320.25
615.61	1312.72
615.96	1306.23
616.31	1299.91
616.65	1293.98
617.00	1287.38
617.35	1280.80
617.70	1274.03
618.04	1266.89
618.39	1259.28
618.74	1252.88
619.08	1246.08
619.43	1239.61
619.78	1233.45
620.12	1226.75
620.47	1220.45
620.82	1213.59
621.16	1207.00
621.51	1200.06
621.85	1193.62
622.20	1186.99
622.55	1180.14
622.89	1173.65
623.24	1166.77
623.59	1159.60
623.93	1152.84
624.28	1146.42
624.62	1140.21
624.97	1133.78
625.32	1127.64
625.66	1121.61
626.01	1115.43
626.35	1109.70
626.70	1103.62
627.04	1097.81
627.39	1091.73
627.73	1085.78
628.08	1080.05
628.43	1073.95
628.77	1067.73
629.12	1061.23
629.46	1055.64
629.81	1050.07
630.15	1044.27
630.50	1038.32
630.84	1032.33
631.19	1026.01
631.53	1020.11
631.88	1013.81
632.22	1007.62
632.57	1001.81
632.91	995.82
633.26	989.92
633.60	983.82
633.95	978.31
634.29	972.29
634.64	966.78
634.98	960.77
635.32	955.30
635.67	950.31
636.01	945.24
636.36	939.93
636.70	934.72
637.05	929.32
637.39	923.96
637.73	919.07
638.08	914.51
638.42	909.84
638.77	904.88
639.11	899.81
639.45	894.83
639.80	889.44
640.14	884.31
640.49	878.91
640.83	873.75
641.17	868.52
641.52	863.27
641.86	857.75
642.20	852.85
642.55	847.15
642.89	841.61
643.23	836.19
643.58	831.27
643.92	825.84
644.26	820.71
644.61	815.69
644.95	810.32
645.29	805.00
645.64	799.62
645.98	794.35
646.32	789.37
646.66	784.09
647.01	779.24
647.35	774.60
647.69	769.62
648.04	764.64
648.38	759.52
648.72	754.66
649.06	749.86
649.41	744.81
649.75	740.22
650.09	735.51
650.43	730.72
650.78	725.58
651.12	720.63
651.46	715.82
651.80	711.23
652.14	706.65
652.49	701.74
652.83	696.85
653.17	691.90
653.51	687.21
653.85	682.79
654.20	678.13
654.54	673.10
654.88	668.68
655.22	664.20
655.56	659.51
655.90	654.91
656.25	650.29
656.59	645.82
656.93	641.31
657.27	636.94
657.61	632.32
657.95	628.20
658.29	623.83
658.64	619.85
658.98	615.32
659.32	610.76
659.66	606.74
660.00	602.61
660.34	598.36
660.68	593.95
661.02	589.70
661.36	585.61
661.70	581.81
662.05	577.90
662.39	574.19
662.73	570.65
663.07	567.16
663.41	563.55
663.75	559.91
664.09	556.18
664.43	552.37
664.77	548.93
665.11	545.42
665.45	542.15
665.79	538.48
666.13	535.26
666.47	532.02
666.81	528.56
667.15	525.24
667.49	522.31
667.83	519.42
668.17	516.28
668.51	513.26
668.85	510.31
669.19	507.47
669.53	504.20
669.87	501.07
670.21	497.83
670.55	494.67
670.89	492.02
671.23	489.35
671.57	486.63
671.91	483.79
672.25	480.82
672.58	477.88
672.92	475.13
673.26	472.25
673.60	469.58
673.94	466.75
674.28	464.17
674.62	461.65
674.96	459.00
675.30	456.54
675.64	454.02
675.97	451.38
676.31	448.91
676.65	446.62
676.99	444.46
677.33	441.96
677.67	439.69
678.01	437.09
678.34	434.60
678.68	432.30
679.02	429.94
679.36	427.72
679.70	425.33
680.04	423.09
680.37	420.81
680.71	418.60
681.05	416.62
681.39	414.49
681.73	412.14
682.06	410.15
682.40	408.13
682.74	405.93
683.08	404.00
683.42	401.71
683.75	399.69
684.09	397.41
684.43	395.53
684.77	393.47
685.10	391.46
685.44	389.31
685.78	387.27
686.12	385.44
686.45	383.55
686.79	381.65
687.13	379.79
687.46	377.95
687.80	376.21
688.14	374.21
688.48	372.34
688.81	370.49
689.15	368.57
689.49	366.59
689.82	364.84
690.16	362.88
690.50	361.02
690.83	359.05
691.17	357.26
691.51	355.39
691.84	353.69
692.18	352.09
692.52	350.51
692.85	349.11
693.19	347.63
693.52	345.92
693.86	344.33
694.20	342.80
694.53	341.24
694.87	339.58
695.21	338.05
695.54	336.47
695.88	334.95
696.21	333.32
696.55	331.91
696.88	330.42
697.22	328.94
697.56	327.79
697.89	326.44
698.23	325.10
698.56	323.74
698.90	322.45
699.23	320.94
699.57	319.69
699.90	318.15
700.24	316.65
700.58	315.40
700.91	314.18
701.25	313.09
701.58	311.95
701.92	310.70
702.25	309.56
702.59	308.40
702.92	307.25
703.26	306.21
703.59	305.08
703.93	304.34
704.26	303.29
704.60	302.13
704.93	301.06
705.26	299.93
705.60	299.02
705.93	297.95
706.27	297.06
706.60	296.11
706.94	295.34
707.27	294.41
707.61	293.44
707.94	292.54
708.27	291.32
708.61	290.32
708.94	289.40
709.28	288.52
709.61	287.63
709.94	286.78
710.28	285.94
710.61	285.10
710.95	283.89
711.28	283.27
711.61	282.33
711.95	281.57
712.28	280.80
712.61	279.94
712.95	279.39
713.28	278.75
713.61	277.91
713.95	277.00
714.28	276.26
714.61	275.46
714.95	274.70
715.28	273.93
715.61	273.19
715.95	272.45
716.28	271.63
716.61	270.95
716.95	270.14
717.28	269.47
717.61	268.83
717.94	268.19
718.28	267.28
718.61	266.65
718.94	265.99
719.27	265.35
719.61	264.73
719.94	263.92
720.27	263.05
720.60	262.41
720.94	261.86
721.27	261.31
721.60	260.83
721.93	260.31
722.27	259.86
722.60	259.37
722.93	258.84
723.26	258.40
723.59	257.74
723.93	257.28
724.26	256.75
724.59	256.20
724.92	255.77
725.25	255.32
725.59	254.89
725.92	254.46
726.25	253.98
726.58	253.52
726.91	252.99
727.24	252.72
727.57	252.30
727.91	251.75
728.24	251.35
728.57	250.83
728.90	250.40
729.23	249.88
729.56	249.59
729.89	249.18
730.22	248.69
730.55	248.33
730.89	247.95
731.22	247.50
731.55	247.05
731.88	246.57
732.21	246.21
732.54	245.79
732.87	245.43
733.20	245.05
733.53	244.67
733.86	244.41
734.19	243.93
734.52	243.64
734.85	243.60
735.18	243.15
735.51	242.95
735.84	242.67
736.17	242.45
736.50	241.90
736.83	241.90
737.16	241.69
737.49	241.37
737.82	241.01
738.15	240.72
738.48	240.47
738.81	240.16
739.14	239.70
739.47	239.36
739.80	239.00
740.13	238.76
740.46	238.43
740.79	238.09
741.12	237.75
741.45	237.36
741.78	236.86
742.11	236.69
742.44	236.33
742.77	236.02
743.10	235.75
743.43	235.46
743.75	234.88
744.08	235.04
744.41	234.82
744.74	234.63
745.07	234.34
745.40	234.16
745.73	234.07
746.06	233.89
746.39	233.67
746.71	233.39
747.04	233.07
747.37	232.80
747.70	232.66
748.03	232.54
748.36	232.33
748.68	232.07
749.01	231.72
749.34	231.54
749.67	231.38
750.00	231.24
750.33	231.30
750.65	231.16
750.98	230.53
751.31	230.31
751.64	230.02
751.97	230.05
752.29	229.79
752.62	229.41
752.95	229.24
753.28	229.03
753.60	228.90
753.93	228.82
754.26	228.63
754.59	228.30
754.91	228.02
755.24	227.88
755.57	227.71
755.90	227.55
756.22	227.28
756.55	226.97
756.88	226.73
757.20	226.39
757.53	226.12
757.86	225.95
758.19	225.86
758.51	225.70
758.84	225.27
759.17	225.04
759.49	224.96
759.82	224.85
760.15	224.70
760.47	224.40
760.80	224.15
761.13	224.07
761.45	223.94
761.78	223.83
762.11	223.65
762.43	223.47
762.76	223.36
763.08	223.27
763.41	223.21
763.74	222.98
764.06	222.80
764.39	222.70
764.71	222.52
765.04	222.28
765.37	222.15
765.69	222.05
766.02	221.95
766.34	221.74
766.67	221.52
767.00	221.51
767.32	221.67
767.65	221.81
767.97	221.70
768.30	221.56
768.62	221.38
768.95	221.20
769.27	221.10
769.60	221.01
769.92	220.83
770.25	220.62
770.57	220.48
770.90	220.36
771.22	220.29
771.55	220.14
771.87	220.06
772.20	219.99
772.52	220.19
772.85	220.53
773.17	220.51
773.50	220.50
773.82	220.34
774.15	220.01
774.47	219.67
774.80	219.52
775.12	219.44
775.45	219.43
775.77	219.42
776.09	219.35
776.42	219.28
776.74	219.35
777.07	219.26
777.39	219.27
777.72	219.16
778.04	218.99
778.36	218.92
778.69	218.89
779.01	218.77
779.33	218.40
779.66	217.96
779.98	217.81
780.31	217.80
780.63	217.81
780.95	217.87
781.28	217.75
781.60	217.67
781.92	217.64
782.25	217.60
782.57	217.54
782.89	217.37
783.22	217.28
783.54	217.13
783.86	217.09
784.19	216.99
784.51	217.05
784.83	217.02
785.16	216.96
785.48	216.85
785.80	216.85
786.12	216.84
786.45	216.76
786.77	216.80
787.09	216.60
