SpectraSuite Data File
++++++++++++++++++++++++++++++++++++
Date: Mon Feb 25 17:06:53 EST 2013
User: group
Dark Spectrum Present: No
Reference Spectrum Present: No
Number of Sampled Component Spectra: 1
Spectrometers: USB2E7196
Integration Time (usec): 104000 (USB2E7196)
Spectra Averaged: 20 (USB2E7196)
Boxcar Smoothing: 10 (USB2E7196)
Correct for Electrical Dark: No (USB2E7196)
Strobe/Lamp Enabled: No (USB2E7196)
Correct for Detector Non-linearity: No (USB2E7196)
Correct for Stray Light: No (USB2E7196)
Number of Pixels in Processed Spectrum: 2048
>>>>>Begin Processed Spectral Data<<<<<
339.09	0.00
339.48	197.90
339.86	200.95
340.24	202.95
340.63	202.25
341.01	209.00
341.39	206.80
341.78	206.55
342.16	209.30
342.54	208.95
342.93	198.35
343.31	208.33
343.69	208.91
344.07	209.35
344.46	209.78
344.84	210.19
345.22	210.23
345.60	210.43
345.99	210.60
346.37	210.70
346.75	210.77
347.13	210.75
347.52	210.83
347.90	210.99
348.28	211.00
348.66	211.10
349.05	211.04
349.43	211.08
349.81	211.06
350.19	211.05
350.57	211.08
350.96	211.11
351.34	211.19
351.72	211.28
352.10	211.34
352.48	211.30
352.87	211.32
353.25	211.34
353.63	211.35
354.01	211.44
354.39	211.46
354.77	211.56
355.15	211.80
355.54	211.76
355.92	211.60
356.30	211.63
356.68	211.85
357.06	211.92
357.44	211.88
357.82	211.93
358.20	211.94
358.58	211.98
358.97	212.12
359.35	212.26
359.73	212.35
360.11	212.37
360.49	212.45
360.87	212.53
361.25	212.66
361.63	212.77
362.01	212.75
362.39	212.70
362.77	212.73
363.15	212.68
363.53	212.68
363.91	212.78
364.29	212.82
364.67	212.49
365.05	212.54
365.43	212.63
365.81	212.67
366.19	212.90
366.57	213.09
366.95	212.99
367.33	212.89
367.71	212.86
368.09	212.92
368.47	212.89
368.85	212.81
369.23	212.79
369.61	212.75
369.99	212.90
370.37	212.93
370.75	213.06
371.13	212.90
371.51	212.82
371.89	212.82
372.27	212.85
372.65	212.93
373.03	212.83
373.41	212.81
373.78	212.73
374.16	212.43
374.54	212.19
374.92	212.17
375.30	212.15
375.68	212.00
376.06	211.96
376.44	211.82
376.82	211.87
377.19	211.83
377.57	211.81
377.95	211.58
378.33	211.59
378.71	211.38
379.09	211.45
379.47	211.49
379.84	211.40
380.22	211.25
380.60	211.08
380.98	211.04
381.36	210.88
381.73	210.80
382.11	210.92
382.49	210.87
382.87	210.78
383.25	210.70
383.62	211.09
384.00	211.02
384.38	211.03
384.76	211.02
385.13	211.16
385.51	211.05
385.89	211.02
386.27	210.98
386.64	211.02
387.02	210.89
387.40	210.82
387.78	210.81
388.15	210.79
388.53	210.73
388.91	210.65
389.29	210.69
389.66	210.71
390.04	210.64
390.42	210.71
390.79	210.65
391.17	210.63
391.55	210.21
391.92	210.22
392.30	210.26
392.68	210.16
393.05	210.08
393.43	210.06
393.81	210.09
394.18	210.04
394.56	209.98
394.94	210.15
395.31	210.15
395.69	210.26
396.06	210.40
396.44	210.53
396.82	210.51
397.19	210.70
397.57	210.71
397.95	210.79
398.32	210.74
398.70	210.82
399.07	211.01
399.45	211.03
399.82	210.97
400.20	210.99
400.58	211.03
400.95	210.92
401.33	211.03
401.70	211.29
402.08	211.33
402.45	211.32
402.83	211.37
403.20	211.42
403.58	211.47
403.95	211.52
404.33	211.56
404.71	211.64
405.08	211.83
405.46	211.89
405.83	211.98
406.21	212.09
406.58	212.16
406.96	212.13
407.33	212.34
407.70	212.53
408.08	212.91
408.45	213.12
408.83	213.33
409.20	213.45
409.58	213.51
409.95	213.75
410.33	214.01
410.70	214.13
411.08	214.47
411.45	214.70
411.82	214.95
412.20	215.32
412.57	215.86
412.95	215.93
413.32	216.40
413.69	216.70
414.07	217.17
414.44	217.72
414.82	218.34
415.19	218.86
415.56	219.47
415.94	219.95
416.31	220.58
416.68	221.31
417.06	222.15
417.43	222.96
417.81	223.88
418.18	224.88
418.55	225.87
418.93	226.81
419.30	227.88
419.67	229.04
420.04	230.19
420.42	231.32
420.79	233.03
421.16	234.45
421.54	236.12
421.91	237.62
422.28	239.17
422.66	240.83
423.03	242.71
423.40	244.36
423.77	246.13
424.15	248.00
424.52	249.92
424.89	252.00
425.26	254.00
425.64	255.92
426.01	257.95
426.38	260.18
426.75	262.58
427.13	264.95
427.50	267.49
427.87	270.02
428.24	272.66
428.61	275.05
428.99	277.82
429.36	280.64
429.73	283.55
430.10	286.51
430.47	289.53
430.85	292.39
431.22	295.74
431.59	299.40
431.96	302.77
432.33	306.52
432.70	310.15
433.08	314.34
433.45	318.39
433.82	322.40
434.19	326.92
434.56	331.30
434.93	335.42
435.30	339.48
435.68	344.17
436.05	348.68
436.42	353.00
436.79	357.19
437.16	361.80
437.53	366.63
437.90	371.35
438.27	375.92
438.64	380.75
439.01	385.37
439.38	389.30
439.75	393.21
440.13	397.63
440.50	401.80
440.87	405.27
441.24	408.82
441.61	412.91
441.98	415.80
442.35	419.15
442.72	422.67
443.09	426.12
443.46	428.25
443.83	429.72
444.20	431.21
444.57	433.00
444.94	433.86
445.31	434.78
445.68	436.11
446.05	436.75
446.42	436.54
446.79	436.15
447.16	435.74
447.53	435.65
447.90	434.10
448.27	432.56
448.64	430.33
449.01	428.80
449.37	425.93
449.74	423.19
450.11	420.00
450.48	416.15
450.85	412.25
451.22	408.92
451.59	405.87
451.96	402.89
452.33	398.87
452.70	395.38
453.07	390.98
453.43	386.12
453.80	381.75
454.17	377.64
454.54	373.67
454.91	369.45
455.28	365.20
455.65	361.42
456.02	358.04
456.38	354.85
456.75	350.77
457.12	347.17
457.49	343.75
457.86	340.25
458.23	337.61
458.59	334.53
458.96	331.40
459.33	328.57
459.70	325.72
460.07	323.56
460.43	320.83
460.80	318.54
461.17	316.56
461.54	314.39
461.91	312.28
462.27	310.19
462.64	308.24
463.01	306.16
463.38	304.34
463.74	301.90
464.11	300.07
464.48	298.53
464.85	296.93
465.21	295.72
465.58	294.36
465.95	292.72
466.32	291.43
466.68	290.06
467.05	288.77
467.42	287.39
467.78	285.85
468.15	284.58
468.52	283.52
468.88	282.13
469.25	280.93
469.62	280.00
469.98	278.88
470.35	277.99
470.72	277.13
471.08	276.00
471.45	275.23
471.82	274.49
472.18	273.61
472.55	273.00
472.92	272.12
473.28	271.42
473.65	270.63
474.02	269.90
474.38	269.46
474.75	269.07
475.11	268.53
475.48	268.15
475.85	267.76
476.21	267.32
476.58	266.93
476.94	266.73
477.31	266.38
477.67	266.18
478.04	265.94
478.41	265.84
478.77	266.00
479.14	265.78
479.50	265.65
479.87	265.56
480.23	265.38
480.60	265.27
480.96	265.18
481.33	265.33
481.69	265.41
482.06	265.42
482.42	265.37
482.79	265.48
483.15	265.58
483.52	265.81
483.88	265.96
484.25	266.22
484.61	266.24
484.98	266.50
485.34	266.92
485.71	267.19
486.07	267.42
486.44	267.41
486.80	267.82
487.17	268.12
487.53	268.68
487.90	269.20
488.26	269.88
488.62	270.51
488.99	271.04
489.35	271.66
489.72	272.24
490.08	272.90
490.44	273.60
490.81	274.40
491.17	275.05
491.54	275.96
491.90	276.80
492.26	277.72
492.63	278.69
492.99	279.45
493.36	280.55
493.72	281.65
494.08	282.64
494.45	283.70
494.81	284.89
495.17	286.02
495.54	287.26
495.90	288.34
496.26	289.58
496.63	290.85
496.99	292.09
497.35	293.41
497.72	294.73
498.08	296.07
498.44	297.43
498.80	298.97
499.17	300.40
499.53	301.84
499.89	303.43
500.26	304.89
500.62	306.33
500.98	307.92
501.34	309.38
501.71	311.20
502.07	312.91
502.43	314.44
502.79	315.98
503.16	317.56
503.52	319.29
503.88	320.95
504.24	322.57
504.60	324.30
504.97	326.13
505.33	327.78
505.69	329.70
506.05	331.45
506.41	333.19
506.78	334.90
507.14	336.61
507.50	338.39
507.86	340.24
508.22	342.21
508.59	343.95
508.95	345.90
509.31	347.81
509.67	349.57
510.03	351.52
510.39	353.37
510.75	355.34
511.12	357.34
511.48	359.24
511.84	361.26
512.20	363.10
512.56	365.04
512.92	367.26
513.28	369.21
513.64	371.15
514.00	373.12
514.37	375.17
514.73	377.32
515.09	379.44
515.45	381.42
515.81	383.40
516.17	385.47
516.53	387.48
516.89	389.39
517.25	391.43
517.61	393.62
517.97	395.85
518.33	397.97
518.69	400.06
519.05	402.20
519.41	404.41
519.77	406.85
520.13	408.99
520.49	411.00
520.85	413.13
521.21	415.62
521.57	418.11
521.93	420.33
522.29	422.70
522.65	424.98
523.01	427.43
523.37	429.85
523.73	432.31
524.09	434.85
524.45	437.37
524.81	440.01
525.17	442.67
525.53	445.40
525.89	448.10
526.25	450.91
526.61	453.64
526.97	456.29
527.33	459.06
527.68	462.26
528.04	465.27
528.40	468.21
528.76	471.11
529.12	474.00
529.48	477.18
529.84	480.12
530.20	483.34
530.56	486.56
530.91	489.77
531.27	492.96
531.63	496.22
531.99	499.44
532.35	502.69
532.71	505.84
533.07	509.00
533.42	512.52
533.78	515.67
534.14	519.03
534.50	522.36
534.86	525.75
535.21	528.75
535.57	532.04
535.93	535.31
536.29	538.85
536.65	542.16
537.00	545.33
537.36	548.65
537.72	551.75
538.08	554.90
538.44	558.17
538.79	561.56
539.15	564.73
539.51	567.94
539.87	571.22
540.22	574.52
540.58	577.98
540.94	581.07
541.29	584.30
541.65	587.31
542.01	590.70
542.37	593.89
542.72	597.00
543.08	600.01
543.44	603.41
543.79	606.20
544.15	609.45
544.51	612.87
544.87	616.14
545.22	619.20
545.58	622.18
545.94	625.22
546.29	627.92
546.65	630.71
547.01	633.71
547.36	636.58
547.72	639.51
548.07	642.12
548.43	644.73
548.79	647.52
549.14	650.20
549.50	652.76
549.86	655.29
550.21	657.90
550.57	660.66
550.92	662.97
551.28	665.41
551.64	667.67
551.99	670.01
552.35	672.13
552.70	674.52
553.06	676.88
553.41	679.11
553.77	681.65
554.13	683.95
554.48	686.12
554.84	688.22
555.19	690.10
555.55	692.27
555.90	694.11
556.26	695.88
556.61	697.75
556.97	699.29
557.32	700.95
557.68	702.36
558.03	703.90
558.39	705.38
558.74	707.12
559.10	708.76
559.45	710.23
559.81	711.89
560.16	713.22
560.52	714.70
560.87	716.19
561.23	717.18
561.58	718.66
561.94	719.71
562.29	720.78
562.64	722.00
563.00	722.95
563.35	724.44
563.71	725.92
564.06	727.12
564.42	728.41
564.77	729.79
565.12	731.45
565.48	732.94
565.83	734.18
566.19	735.29
566.54	736.11
566.89	736.82
567.25	737.90
567.60	739.02
567.96	739.96
568.31	740.86
568.66	741.89
569.02	742.34
569.37	742.99
569.72	743.87
570.08	744.41
570.43	744.88
570.78	744.96
571.14	744.96
571.49	745.23
571.84	745.63
572.20	745.27
572.55	745.15
572.90	744.69
573.26	744.66
573.61	744.29
573.96	744.08
574.31	743.97
574.67	743.30
575.02	742.66
575.37	742.06
575.72	741.22
576.08	740.75
576.43	740.13
576.78	739.52
577.13	738.86
577.49	738.27
577.84	737.75
578.19	737.30
578.54	736.90
578.90	736.48
579.25	735.68
579.60	735.41
579.95	734.38
580.30	733.77
580.66	733.16
581.01	732.47
581.36	731.75
581.71	730.92
582.06	730.31
582.42	729.68
582.77	728.90
583.12	728.17
583.47	727.23
583.82	726.56
584.17	725.90
584.53	725.35
584.88	724.59
585.23	723.84
585.58	723.08
585.93	722.18
586.28	721.29
586.63	720.53
586.98	719.62
587.34	719.18
587.69	718.25
588.04	717.35
588.39	716.52
588.74	715.47
589.09	714.82
589.44	713.67
589.79	712.80
590.14	711.77
590.49	710.76
590.84	709.78
591.19	708.97
591.54	708.08
591.89	706.72
592.25	705.82
592.60	704.47
592.95	703.16
593.30	701.72
593.65	700.44
594.00	699.16
594.35	698.73
594.70	697.30
595.05	696.23
595.40	694.80
595.75	693.39
596.10	692.31
596.45	690.91
596.80	689.87
597.15	688.67
597.50	687.48
597.85	686.43
598.19	685.16
598.54	683.97
598.89	682.64
599.24	681.70
599.59	680.38
599.94	679.45
600.29	678.43
600.64	677.33
600.99	676.19
601.34	675.20
601.69	673.05
602.04	671.76
602.39	670.61
602.74	669.54
603.08	668.64
603.43	667.81
603.78	666.50
604.13	665.40
604.48	664.08
604.83	663.20
605.18	662.12
605.53	660.91
605.87	659.52
606.22	658.43
606.57	657.15
606.92	655.82
607.27	654.39
607.62	652.96
607.96	651.89
608.31	650.71
608.66	649.19
609.01	647.96
609.36	646.63
609.70	645.07
610.05	643.55
610.40	642.01
610.75	640.18
611.10	639.00
611.44	637.21
611.79	635.50
612.14	633.45
612.49	631.43
612.83	629.70
613.18	627.87
613.53	626.10
613.88	623.95
614.22	622.13
614.57	620.36
614.92	618.56
615.27	616.50
615.61	614.56
615.96	612.81
616.31	611.05
616.65	609.63
617.00	607.77
617.35	605.94
617.70	603.98
618.04	602.01
618.39	599.67
618.74	597.85
619.08	595.87
619.43	594.02
619.78	592.22
620.12	590.35
620.47	588.65
620.82	586.51
621.16	584.53
621.51	582.76
621.85	580.68
622.20	578.68
622.55	576.79
622.89	574.56
623.24	572.45
623.59	570.20
623.93	567.91
624.28	565.97
624.62	564.22
624.97	562.37
625.32	560.47
625.66	558.67
626.01	556.70
626.35	554.89
626.70	553.07
627.04	551.37
627.39	549.63
627.73	547.70
628.08	545.94
628.43	543.96
628.77	541.92
629.12	540.17
629.46	538.51
629.81	536.61
630.15	534.79
630.50	532.88
630.84	531.01
631.19	529.09
631.53	527.25
631.88	524.99
632.22	522.88
632.57	521.24
632.91	519.39
633.26	517.60
633.60	515.69
633.95	513.82
634.29	511.80
634.64	509.86
634.98	507.81
635.32	506.13
635.67	504.62
636.01	502.92
636.36	501.01
636.70	499.17
637.05	497.39
637.39	495.66
637.73	494.09
638.08	492.61
638.42	491.07
638.77	489.35
639.11	487.70
639.45	486.06
639.80	483.96
640.14	482.14
640.49	480.18
640.83	478.41
641.17	476.74
641.52	474.91
641.86	473.14
642.20	471.58
642.55	469.61
642.89	467.65
643.23	465.61
643.58	464.01
643.92	461.91
644.26	460.02
644.61	458.28
644.95	456.34
645.29	454.42
645.64	452.59
645.98	450.59
646.32	448.90
646.66	446.90
647.01	445.19
647.35	443.53
647.69	441.85
648.04	440.28
648.38	438.45
648.72	436.77
649.06	434.97
649.41	433.09
649.75	431.31
650.09	429.58
650.43	427.97
650.78	426.15
651.12	424.55
651.46	422.90
651.80	421.16
652.14	419.53
652.49	417.85
652.83	415.96
653.17	414.31
653.51	412.51
653.85	411.02
654.20	409.36
654.54	407.47
654.88	405.72
655.22	403.95
655.56	402.12
655.90	400.40
656.25	398.66
656.59	396.95
656.93	395.25
657.27	393.79
657.61	391.99
657.95	390.36
658.29	388.78
658.64	387.31
658.98	385.62
659.32	383.89
659.66	382.34
660.00	380.79
660.34	379.08
660.68	377.47
661.02	375.76
661.36	374.13
661.70	372.74
662.05	371.38
662.39	370.02
662.73	368.79
663.07	367.47
663.41	366.14
663.75	364.74
664.09	363.31
664.43	361.74
664.77	360.41
665.11	358.99
665.45	357.58
665.79	356.22
666.13	354.95
666.47	353.59
666.81	352.20
667.15	350.95
667.49	349.85
667.83	348.77
668.17	347.65
668.51	346.56
668.85	345.35
669.19	344.23
669.53	342.87
669.87	341.56
670.21	340.26
670.55	339.07
670.89	338.12
671.23	337.13
671.57	336.01
671.91	334.94
672.25	333.89
672.58	332.88
672.92	331.61
673.26	330.49
673.60	329.55
673.94	328.50
674.28	327.48
674.62	326.56
674.96	325.54
675.30	324.46
675.64	323.44
675.97	322.39
676.31	321.36
676.65	320.35
676.99	319.54
677.33	318.48
677.67	317.50
678.01	316.37
678.34	315.39
678.68	314.54
679.02	313.42
679.36	312.43
679.70	311.45
680.04	310.64
680.37	309.75
680.71	308.81
681.05	307.93
681.39	306.94
681.73	305.92
682.06	305.00
682.40	304.16
682.74	303.30
683.08	302.62
683.42	301.61
683.75	300.79
684.09	299.80
684.43	298.98
684.77	298.02
685.10	297.20
685.44	296.28
685.78	295.35
686.12	294.61
686.45	293.76
686.79	292.94
687.13	292.21
687.46	291.47
687.80	290.68
688.14	289.84
688.48	289.17
688.81	288.48
689.15	287.70
689.49	286.82
689.82	286.08
690.16	285.00
690.50	284.28
690.83	283.56
691.17	282.71
691.51	281.95
691.84	281.31
692.18	280.59
692.52	279.77
692.85	279.17
693.19	278.61
693.52	277.95
693.86	277.24
694.20	276.49
694.53	275.84
694.87	275.13
695.21	274.49
695.54	273.77
695.88	272.95
696.21	272.14
696.55	271.60
696.88	270.96
697.22	270.40
697.56	269.85
697.89	269.09
698.23	268.63
698.56	268.08
698.90	267.49
699.23	266.82
699.57	266.27
699.90	265.57
700.24	264.97
700.58	264.41
700.91	263.85
701.25	263.51
701.58	262.92
701.92	262.44
702.25	261.87
702.59	261.35
702.92	260.88
703.26	260.34
703.59	259.75
703.93	259.47
704.26	259.04
704.60	258.44
704.93	258.01
705.26	257.34
705.60	256.90
705.93	256.29
706.27	255.99
706.60	255.62
706.94	255.41
707.27	254.85
707.61	254.37
707.94	253.84
708.27	253.17
708.61	252.67
708.94	252.18
709.28	251.72
709.61	251.23
709.94	250.79
710.28	250.48
710.61	250.15
710.95	249.49
711.28	249.28
711.61	248.90
711.95	248.62
712.28	248.32
712.61	247.90
712.95	247.81
713.28	247.47
713.61	247.10
713.95	246.53
714.28	246.22
714.61	245.83
714.95	245.49
715.28	245.08
715.61	244.72
715.95	244.38
716.28	243.94
716.61	243.69
716.95	243.36
717.28	242.97
717.61	242.64
717.94	242.40
718.28	241.84
718.61	241.51
718.94	241.12
719.27	240.84
719.61	240.60
719.94	240.10
720.27	239.62
720.60	239.29
720.94	238.98
721.27	238.63
721.60	238.42
721.93	238.15
722.27	238.01
722.60	237.86
722.93	237.54
723.26	237.40
723.59	236.98
723.93	236.71
724.26	236.46
724.59	236.17
724.92	235.83
725.25	235.64
725.59	235.41
725.92	235.19
726.25	234.86
726.58	234.60
726.91	234.40
727.24	234.25
727.57	233.99
727.91	233.75
728.24	233.60
728.57	233.32
728.90	233.14
729.23	232.83
729.56	232.75
729.89	232.56
730.22	232.35
730.55	232.14
730.89	231.95
731.22	231.76
731.55	231.54
731.88	231.30
732.21	230.98
732.54	230.75
732.87	230.60
733.20	230.51
733.53	230.29
733.86	230.19
734.19	229.96
734.52	229.89
734.85	230.02
735.18	229.86
735.51	229.80
735.84	229.58
736.17	229.52
736.50	229.10
736.83	229.32
737.16	229.06
737.49	228.90
737.82	228.65
738.15	228.55
738.48	228.35
738.81	228.23
739.14	228.09
739.47	227.98
739.80	227.74
740.13	227.55
740.46	227.33
740.79	227.11
741.12	226.94
741.45	226.69
741.78	226.21
742.11	226.08
742.44	225.82
742.77	225.74
743.10	225.49
743.43	225.36
743.75	224.87
744.08	225.24
744.41	225.15
744.74	225.01
745.07	224.81
745.40	224.75
745.73	224.74
746.06	224.64
746.39	224.53
746.71	224.35
747.04	224.20
747.37	223.99
747.70	223.88
748.03	223.79
748.36	223.70
748.68	223.61
749.01	223.39
749.34	223.28
749.67	223.16
750.00	223.07
750.33	223.17
750.65	223.05
750.98	222.51
751.31	222.36
751.64	222.28
751.97	222.31
752.29	222.18
752.62	221.83
752.95	221.64
753.28	221.47
753.60	221.40
753.93	221.35
754.26	221.33
754.59	221.11
754.91	220.93
755.24	220.77
755.57	220.72
755.90	220.61
756.22	220.43
756.55	220.29
756.88	220.12
757.20	219.82
757.53	219.65
757.86	219.51
758.19	219.41
758.51	219.33
758.84	219.04
759.17	218.86
759.49	218.84
759.82	219.05
760.15	218.92
760.47	218.77
760.80	218.57
761.13	218.52
761.45	218.41
761.78	218.31
762.11	218.28
762.43	218.14
762.76	218.10
763.08	218.17
763.41	218.13
763.74	218.05
764.06	217.96
764.39	217.87
764.71	217.80
765.04	217.70
765.37	217.58
765.69	217.50
766.02	217.51
766.34	217.41
766.67	217.14
767.00	217.18
767.32	217.36
767.65	217.54
767.97	217.50
768.30	217.51
768.62	217.49
768.95	217.36
769.27	217.30
769.60	217.22
769.92	217.04
770.25	216.89
770.57	216.78
770.90	216.71
771.22	216.63
771.55	216.54
771.87	216.49
772.20	216.41
772.52	216.65
772.85	216.94
773.17	216.95
773.50	216.88
773.82	216.81
774.15	216.52
774.47	216.29
774.80	216.19
775.12	216.19
775.45	216.18
775.77	216.12
776.09	216.12
776.42	216.04
776.74	216.14
777.07	216.08
777.39	216.03
777.72	215.99
778.04	216.04
778.36	215.92
778.69	215.94
779.01	215.94
779.33	215.67
779.66	215.25
779.98	215.20
780.31	215.16
780.63	215.26
780.95	215.33
781.28	215.28
781.60	215.20
781.92	215.10
782.25	215.01
782.57	214.95
782.89	214.86
783.22	214.78
783.54	214.60
783.86	214.63
784.19	214.60
784.51	214.63
784.83	214.55
785.16	214.57
785.48	214.53
785.80	214.54
786.12	214.52
786.45	214.51
786.77	214.42
787.09	214.43
787.42	214.23
787.74	214.18
788.06	214.16
788.38	214.13
788.71	214.10
789.03	214.15
789.35	214.19
789.67	214.19
789.99	214.17
790.32	214.10
790.64	214.14
790.96	214.35
791.28	214.24
791.61	214.18
791.93	214.22
792.25	214.18
792.57	214.33
792.89	214.23
793.21	214.18
793.54	214.15
793.86	214.07
794.18	214.15
