SpectraSuite Data File
++++++++++++++++++++++++++++++++++++
Date: Mon Feb 25 16:57:18 EST 2013
User: group
Dark Spectrum Present: No
Reference Spectrum Present: No
Number of Sampled Component Spectra: 1
Spectrometers: USB2E7196
Integration Time (usec): 104000 (USB2E7196)
Spectra Averaged: 20 (USB2E7196)
Boxcar Smoothing: 10 (USB2E7196)
Correct for Electrical Dark: No (USB2E7196)
Strobe/Lamp Enabled: No (USB2E7196)
Correct for Detector Non-linearity: No (USB2E7196)
Correct for Stray Light: No (USB2E7196)
Number of Pixels in Processed Spectrum: 2048
>>>>>Begin Processed Spectral Data<<<<<
339.09	0.00
339.48	199.60
339.86	200.65
340.24	201.80
340.63	203.10
341.01	210.50
341.39	206.50
341.78	207.95
342.16	209.60
342.54	209.70
342.93	198.83
343.31	208.89
343.69	209.39
344.07	209.88
344.46	210.39
344.84	210.84
345.22	210.87
345.60	211.20
345.99	211.37
346.37	211.47
346.75	211.55
347.13	211.75
347.52	211.78
347.90	211.99
348.28	212.11
348.66	212.18
349.05	212.10
349.43	212.17
349.81	212.19
350.19	212.15
350.57	212.16
350.96	212.26
351.34	212.32
351.72	212.47
352.10	212.59
352.48	212.65
352.87	212.63
353.25	212.66
353.63	212.62
354.01	212.62
354.39	212.77
354.77	212.87
355.15	212.96
355.54	213.01
355.92	212.90
356.30	212.95
356.68	213.23
357.06	213.27
357.44	213.22
357.82	213.31
358.20	213.41
358.58	213.48
358.97	213.52
359.35	213.66
359.73	213.70
360.11	213.69
360.49	213.67
360.87	213.73
361.25	213.87
361.63	214.00
362.01	214.15
362.39	214.05
362.77	214.07
363.15	214.06
363.53	214.14
363.91	214.21
364.29	214.16
364.67	213.84
365.05	213.84
365.43	213.95
365.81	214.02
366.19	214.15
366.57	214.33
366.95	214.28
367.33	214.15
367.71	214.10
368.09	214.13
368.47	214.12
368.85	214.06
369.23	214.03
369.61	213.95
369.99	213.96
370.37	213.98
370.75	214.14
371.13	214.03
371.51	213.91
371.89	213.90
372.27	213.96
372.65	214.02
373.03	213.96
373.41	213.91
373.78	213.80
374.16	213.57
374.54	213.35
374.92	213.29
375.30	213.24
375.68	213.17
376.06	213.16
376.44	213.10
376.82	213.10
377.19	213.03
377.57	212.90
377.95	212.76
378.33	212.70
378.71	212.44
379.09	212.38
379.47	212.35
379.84	212.24
380.22	212.21
380.60	212.08
380.98	212.06
381.36	212.02
381.73	211.99
382.11	212.06
382.49	212.09
382.87	212.06
383.25	212.06
383.62	212.42
384.00	212.29
384.38	212.27
384.76	212.23
385.13	212.34
385.51	212.35
385.89	212.29
386.27	212.24
386.64	212.28
387.02	212.24
387.40	212.13
387.78	212.07
388.15	212.04
388.53	211.98
388.91	212.00
389.29	211.90
389.66	211.84
390.04	211.77
390.42	211.78
390.79	211.75
391.17	211.74
391.55	211.40
391.92	211.47
392.30	211.55
392.68	211.54
393.05	211.55
393.43	211.59
393.81	211.57
394.18	211.60
394.56	211.65
394.94	211.74
395.31	211.83
395.69	211.96
396.06	212.04
396.44	212.07
396.82	212.09
397.19	212.36
397.57	212.45
397.95	212.55
398.32	212.54
398.70	212.65
399.07	212.75
399.45	212.77
399.82	212.77
400.20	212.75
400.58	212.89
400.95	212.82
401.33	212.90
401.70	213.30
402.08	213.42
402.45	213.52
402.83	213.82
403.20	214.08
403.58	214.23
403.95	214.45
404.33	214.72
404.71	214.96
405.08	215.32
405.46	215.51
405.83	215.86
406.21	216.15
406.58	216.47
406.96	216.82
407.33	217.18
407.70	217.65
408.08	218.33
408.45	218.83
408.83	219.50
409.20	220.10
409.58	220.47
409.95	221.21
410.33	221.93
410.70	222.41
411.08	223.17
411.45	224.01
411.82	224.88
412.20	226.01
412.57	227.24
412.95	228.08
413.32	229.34
413.69	230.52
414.07	231.83
414.44	233.35
414.82	234.83
415.19	236.59
415.56	238.35
415.94	240.17
416.31	242.26
416.68	244.32
417.06	246.64
417.43	248.95
417.81	251.59
418.18	254.31
418.55	257.31
418.93	260.43
419.30	263.67
419.67	267.07
420.04	270.55
420.42	274.15
420.79	278.48
421.16	282.89
421.54	287.52
421.91	292.26
422.28	297.13
422.66	302.43
423.03	307.65
423.40	312.99
423.77	318.65
424.15	324.53
424.52	330.55
424.89	337.29
425.26	343.78
425.64	349.88
426.01	356.59
426.38	363.72
426.75	370.91
427.13	378.41
427.50	386.25
427.87	394.40
428.24	402.62
428.61	410.42
428.99	419.00
429.36	428.43
429.73	437.69
430.10	446.82
430.47	456.35
430.85	466.12
431.22	476.55
431.59	487.70
431.96	498.25
432.33	510.14
432.70	521.55
433.08	535.09
433.45	547.82
433.82	560.49
434.19	574.66
434.56	588.50
434.93	602.07
435.30	615.61
435.68	630.46
436.05	645.45
436.42	660.45
436.79	674.29
437.16	688.88
437.53	704.48
437.90	720.01
438.27	735.31
438.64	751.50
439.01	766.52
439.38	779.96
439.75	792.99
440.13	807.95
440.50	821.96
440.87	833.70
441.24	845.99
441.61	859.65
441.98	869.86
442.35	881.68
442.72	893.44
443.09	904.79
443.46	912.47
443.83	917.71
444.20	922.48
444.57	928.93
444.94	932.63
445.31	936.71
445.68	940.45
446.05	942.72
446.42	942.39
446.79	941.80
447.16	941.07
447.53	940.99
447.90	936.50
448.27	932.21
448.64	925.24
449.01	920.66
449.37	911.35
449.74	902.61
450.11	891.66
450.48	879.98
450.85	867.93
451.22	857.40
451.59	847.67
451.96	838.20
452.33	825.20
452.70	813.60
453.07	799.33
453.43	785.13
453.80	771.24
454.17	757.85
454.54	745.29
454.91	731.59
455.28	718.42
455.65	705.90
456.02	693.33
456.38	682.86
456.75	669.48
457.12	658.64
457.49	647.65
457.86	637.44
458.23	628.23
458.59	618.31
458.96	608.41
459.33	599.51
459.70	590.59
460.07	583.45
460.43	575.26
460.80	567.51
461.17	560.54
461.54	553.48
461.91	546.80
462.27	539.94
462.64	534.16
463.01	527.53
463.38	521.32
463.74	515.07
464.11	509.59
464.48	504.93
464.85	499.64
465.21	495.76
465.58	491.46
465.95	486.31
466.32	481.95
466.68	477.55
467.05	473.16
467.42	468.76
467.78	464.35
468.15	460.13
468.52	456.85
468.88	452.75
469.25	449.06
469.62	446.10
469.98	442.74
470.35	439.66
470.72	436.73
471.08	433.62
471.45	431.02
471.82	428.42
472.18	425.42
472.55	423.29
472.92	420.66
473.28	418.43
473.65	416.30
474.02	414.23
474.38	412.51
474.75	410.99
475.11	409.42
475.48	408.26
475.85	407.25
476.21	406.15
476.58	405.32
476.94	404.74
477.31	403.91
477.67	403.28
478.04	402.76
478.41	402.49
478.77	402.57
479.14	402.17
479.50	401.95
479.87	401.97
480.23	402.04
480.60	401.96
480.96	401.92
481.33	402.52
481.69	403.02
482.06	403.49
482.42	403.74
482.79	404.15
483.15	404.79
483.52	405.70
483.88	406.49
484.25	407.37
484.61	408.34
484.98	409.28
485.34	410.59
485.71	412.12
486.07	413.65
486.44	414.90
486.80	416.55
487.17	418.44
487.53	420.57
487.90	422.81
488.26	425.37
488.62	428.00
488.99	430.24
489.35	432.69
489.72	435.40
490.08	438.48
490.44	441.61
490.81	444.77
491.17	447.78
491.54	451.28
491.90	454.78
492.26	458.41
492.63	462.31
492.99	466.17
493.36	470.07
493.72	474.25
494.08	478.55
494.45	483.21
494.81	488.16
495.17	492.93
495.54	497.79
495.90	502.79
496.26	507.71
496.63	513.04
496.99	518.64
497.35	524.21
497.72	529.99
498.08	535.83
498.44	541.70
498.80	547.99
499.17	554.27
499.53	560.54
499.89	567.04
500.26	573.35
500.62	579.76
500.98	586.43
501.34	593.08
501.71	599.95
502.07	606.71
502.43	613.41
502.79	620.16
503.16	627.10
503.52	633.89
503.88	641.06
504.24	648.01
504.60	654.96
504.97	662.04
505.33	668.96
505.69	676.43
506.05	683.82
506.41	690.90
506.78	697.82
507.14	704.72
507.50	711.76
507.86	718.95
508.22	726.09
508.59	732.98
508.95	740.09
509.31	746.98
509.67	753.94
510.03	760.60
510.39	767.66
510.75	774.47
511.12	781.45
511.48	787.92
511.84	794.57
512.20	801.01
512.56	807.76
512.92	814.30
513.28	820.69
513.64	826.67
514.00	832.93
514.37	839.08
514.73	845.30
515.09	851.48
515.45	857.37
515.81	863.22
516.17	868.80
516.53	874.26
516.89	879.64
517.25	884.70
517.61	889.90
517.97	894.82
518.33	899.56
518.69	904.32
519.05	909.22
519.41	913.91
519.77	918.84
520.13	923.14
520.49	927.50
520.85	931.40
521.21	935.84
521.57	940.15
521.93	943.76
522.29	947.95
522.65	951.53
523.01	955.33
523.37	958.75
523.73	962.55
524.09	965.85
524.45	969.53
524.81	973.35
525.17	977.02
525.53	980.57
525.89	984.07
526.25	987.07
526.61	990.10
526.97	993.15
527.33	996.13
527.68	999.29
528.04	1002.23
528.40	1004.93
528.76	1007.44
529.12	1010.25
529.48	1013.73
529.84	1016.38
530.20	1019.23
530.56	1021.74
530.91	1024.91
531.27	1027.87
531.63	1030.90
531.99	1033.52
532.35	1035.94
532.71	1038.38
533.07	1041.04
533.42	1044.02
533.78	1047.06
534.14	1049.95
534.50	1052.28
534.86	1054.97
535.21	1056.92
535.57	1059.47
535.93	1061.98
536.29	1064.70
536.65	1067.04
537.00	1069.12
537.36	1071.14
537.72	1073.23
538.08	1075.56
538.44	1077.52
538.79	1079.71
539.15	1081.76
539.51	1083.87
539.87	1086.38
540.22	1088.55
540.58	1091.03
540.94	1092.96
541.29	1094.65
541.65	1096.16
542.01	1098.41
542.37	1100.32
542.72	1102.32
543.08	1103.91
543.44	1106.09
543.79	1107.65
544.15	1109.18
544.51	1111.02
544.87	1113.12
545.22	1114.78
545.58	1116.58
545.94	1117.88
546.29	1119.02
546.65	1120.14
547.01	1121.32
547.36	1122.45
547.72	1123.78
548.07	1124.40
548.43	1125.28
548.79	1126.13
549.14	1127.18
549.50	1128.10
549.86	1128.85
550.21	1129.95
550.57	1131.29
550.92	1131.92
551.28	1132.81
551.64	1133.65
551.99	1134.67
552.35	1135.32
552.70	1136.20
553.06	1136.94
553.41	1138.01
553.77	1139.18
554.13	1140.43
554.48	1141.46
554.84	1142.48
555.19	1143.26
555.55	1144.36
555.90	1144.94
556.26	1146.03
556.61	1146.84
556.97	1147.37
557.32	1148.13
557.68	1148.59
558.03	1148.93
558.39	1149.34
558.74	1149.98
559.10	1150.63
559.45	1151.00
559.81	1151.72
560.16	1151.87
560.52	1152.14
560.87	1152.30
561.23	1152.13
561.58	1152.58
561.94	1152.60
562.29	1152.13
562.64	1152.25
563.00	1152.08
563.35	1152.32
563.71	1152.59
564.06	1152.88
564.42	1153.45
564.77	1153.76
565.12	1154.46
565.48	1154.98
565.83	1155.45
566.19	1155.89
566.54	1155.91
566.89	1156.01
567.25	1156.35
567.60	1156.93
567.96	1157.54
568.31	1158.12
568.66	1158.30
569.02	1157.85
569.37	1157.46
569.72	1157.72
570.08	1157.51
570.43	1157.46
570.78	1157.08
571.14	1156.31
571.49	1155.56
571.84	1154.63
572.20	1153.53
572.55	1152.36
572.90	1150.78
573.26	1149.55
573.61	1147.96
573.96	1146.64
574.31	1144.90
574.67	1142.88
575.02	1140.72
575.37	1138.32
575.72	1136.04
576.08	1134.25
576.43	1132.10
576.78	1130.33
577.13	1128.43
577.49	1126.47
577.84	1124.29
578.19	1122.43
578.54	1120.92
578.90	1119.26
579.25	1117.25
579.60	1114.84
579.95	1112.30
580.30	1110.59
580.66	1108.51
581.01	1106.31
581.36	1103.75
581.71	1101.29
582.06	1098.99
582.42	1096.57
582.77	1093.97
583.12	1091.24
583.47	1088.53
583.82	1086.26
584.17	1083.79
584.53	1081.14
584.88	1078.20
585.23	1075.32
585.58	1072.47
585.93	1069.28
586.28	1066.34
586.63	1063.57
586.98	1061.19
587.34	1058.64
587.69	1055.46
588.04	1052.72
588.39	1049.75
588.74	1046.67
589.09	1044.00
589.44	1040.70
589.79	1038.19
590.14	1035.65
590.49	1032.95
590.84	1030.08
591.19	1027.28
591.54	1024.37
591.89	1020.93
592.25	1018.32
592.60	1015.16
592.95	1011.75
593.30	1008.13
593.65	1004.34
594.00	1000.60
594.35	998.20
594.70	994.95
595.05	991.91
595.40	988.26
595.75	984.67
596.10	981.68
596.45	978.57
596.80	975.71
597.15	972.48
597.50	968.88
597.85	965.74
598.19	962.26
598.54	958.86
598.89	955.57
599.24	952.82
599.59	949.15
599.94	945.86
600.29	942.74
600.64	939.67
600.99	936.44
601.34	933.66
601.69	929.30
602.04	925.80
602.39	922.29
602.74	919.01
603.08	916.07
603.43	913.16
603.78	909.66
604.13	906.24
604.48	902.65
604.83	899.87
605.18	896.91
605.53	893.72
605.87	890.38
606.22	887.01
606.57	883.22
606.92	879.73
607.27	876.26
607.62	873.01
607.96	869.86
608.31	866.86
608.66	863.29
609.01	859.77
609.36	856.41
609.70	852.90
610.05	849.31
610.40	845.78
610.75	841.84
611.10	838.55
611.44	834.66
611.79	830.83
612.14	826.95
612.49	822.68
612.83	818.97
613.18	815.08
613.53	811.26
613.88	807.35
614.22	803.67
614.57	799.96
614.92	796.09
615.27	792.22
615.61	788.30
615.96	784.69
616.31	781.17
616.65	777.91
617.00	774.30
617.35	770.75
617.70	766.85
618.04	763.00
618.39	758.75
618.74	755.13
619.08	751.61
619.43	747.94
619.78	744.50
620.12	741.04
620.47	737.47
620.82	733.75
621.16	730.05
621.51	726.54
621.85	723.08
622.20	719.39
622.55	715.64
622.89	712.06
623.24	708.42
623.59	704.56
623.93	700.64
624.28	697.21
624.62	694.06
624.97	690.71
625.32	687.37
625.66	684.22
626.01	680.82
626.35	677.55
626.70	673.96
627.04	670.72
627.39	667.42
627.73	664.27
628.08	661.37
628.43	658.19
628.77	654.97
629.12	651.55
629.46	648.62
629.81	645.60
630.15	642.53
630.50	639.31
630.84	636.25
631.19	633.15
631.53	629.94
631.88	626.40
632.22	623.21
632.57	620.35
632.91	617.32
633.26	614.37
633.60	611.24
633.95	608.33
634.29	605.15
634.64	602.22
634.98	598.97
635.32	595.96
635.67	593.38
636.01	590.62
636.36	588.04
636.70	585.36
637.05	582.50
637.39	579.75
637.73	577.15
638.08	574.86
638.42	572.25
638.77	569.63
639.11	567.13
639.45	564.60
639.80	561.79
640.14	559.07
640.49	556.52
640.83	553.90
641.17	551.39
641.52	548.79
641.86	546.00
642.20	543.61
642.55	540.74
642.89	538.05
643.23	535.25
643.58	532.73
643.92	530.02
644.26	527.50
644.61	525.04
644.95	522.42
645.29	519.63
645.64	517.14
645.98	514.51
646.32	511.99
646.66	509.46
647.01	506.96
647.35	504.62
647.69	501.97
648.04	499.65
648.38	497.16
648.72	494.80
649.06	492.29
649.41	489.81
649.75	487.51
650.09	485.17
650.43	482.86
650.78	480.35
651.12	477.67
651.46	475.32
651.80	472.97
652.14	470.66
652.49	468.43
652.83	466.09
653.17	463.76
653.51	461.37
653.85	459.16
654.20	456.99
654.54	454.60
654.88	452.51
655.22	450.30
655.56	447.94
655.90	445.63
656.25	443.36
656.59	441.10
656.93	439.05
657.27	437.00
657.61	434.68
657.95	432.55
658.29	430.58
658.64	428.68
658.98	426.53
659.32	424.39
659.66	422.22
660.00	420.10
660.34	418.14
660.68	416.09
661.02	413.88
661.36	411.80
661.70	409.92
662.05	407.93
662.39	406.03
662.73	404.30
663.07	402.71
663.41	401.14
663.75	399.34
664.09	397.49
664.43	395.50
664.77	393.91
665.11	392.12
665.45	390.47
665.79	388.75
666.13	387.04
666.47	385.37
666.81	383.71
667.15	381.95
667.49	380.42
667.83	378.98
668.17	377.51
668.51	376.06
668.85	374.60
669.19	373.26
669.53	371.70
669.87	370.09
670.21	368.47
670.55	366.94
670.89	365.74
671.23	364.35
671.57	362.93
671.91	361.48
672.25	360.11
672.58	358.67
672.92	357.07
673.26	355.77
673.60	354.51
673.94	353.18
674.28	351.91
674.62	350.54
674.96	349.29
675.30	348.13
675.64	346.72
675.97	345.38
676.31	344.07
676.65	342.75
676.99	341.76
677.33	340.52
677.67	339.20
678.01	337.78
678.34	336.52
678.68	335.35
679.02	334.17
679.36	333.04
679.70	331.91
680.04	330.81
680.37	329.68
680.71	328.48
681.05	327.49
681.39	326.43
681.73	325.33
682.06	324.15
682.40	322.97
682.74	322.01
683.08	321.02
683.42	319.89
683.75	318.88
684.09	317.74
684.43	316.71
684.77	315.66
685.10	314.54
685.44	313.47
685.78	312.47
686.12	311.45
686.45	310.35
686.79	309.31
687.13	308.51
687.46	307.45
687.80	306.53
688.14	305.47
688.48	304.66
688.81	303.68
689.15	302.77
689.49	301.88
689.82	300.94
690.16	299.85
690.50	298.81
690.83	297.84
691.17	296.71
691.51	295.70
691.84	294.88
692.18	294.10
692.52	293.30
692.85	292.56
693.19	291.88
693.52	291.12
693.86	290.16
694.20	289.22
694.53	288.40
694.87	287.54
695.21	286.67
695.54	285.75
695.88	284.88
696.21	284.00
696.55	283.22
696.88	282.43
697.22	281.64
697.56	280.95
697.89	280.22
698.23	279.55
698.56	278.86
698.90	278.13
699.23	277.36
699.57	276.60
699.90	275.70
700.24	274.85
700.58	274.07
700.91	273.51
701.25	273.05
701.58	272.50
701.92	271.90
702.25	271.22
702.59	270.43
702.92	269.91
703.26	269.28
703.59	268.57
703.93	268.30
704.26	267.77
704.60	267.18
704.93	266.56
705.26	265.93
705.60	265.30
705.93	264.58
706.27	264.07
706.60	263.60
706.94	263.27
707.27	262.62
707.61	262.05
707.94	261.55
708.27	260.67
708.61	260.07
708.94	259.48
709.28	258.98
709.61	258.64
709.94	258.10
710.28	257.60
710.61	257.22
710.95	256.36
711.28	256.14
711.61	255.66
711.95	255.25
712.28	254.85
712.61	254.48
712.95	254.36
713.28	254.09
713.61	253.57
713.95	253.01
714.28	252.70
714.61	252.32
714.95	251.77
715.28	251.34
715.61	250.84
715.95	250.35
716.28	249.85
716.61	249.30
716.95	248.84
717.28	248.43
717.61	248.02
717.94	247.67
718.28	246.97
718.61	246.58
718.94	246.17
719.27	245.85
719.61	245.49
719.94	244.96
720.27	244.44
720.60	244.04
720.94	243.71
721.27	243.36
721.60	243.07
721.93	242.81
722.27	242.72
722.60	242.45
722.93	242.17
723.26	241.95
723.59	241.66
723.93	241.41
724.26	241.12
724.59	240.80
724.92	240.51
725.25	240.38
725.59	240.07
725.92	239.92
726.25	239.58
726.58	239.28
726.91	239.01
727.24	238.76
727.57	238.54
727.91	238.18
728.24	237.95
728.57	237.72
728.90	237.50
729.23	237.11
729.56	237.06
729.89	236.85
730.22	236.59
730.55	236.39
730.89	236.17
731.22	235.99
731.55	235.68
731.88	235.43
732.21	235.14
732.54	234.94
732.87	234.59
733.20	234.33
733.53	234.13
733.86	233.96
734.19	233.67
734.52	233.50
734.85	233.55
735.18	233.29
735.51	233.16
735.84	232.94
736.17	232.85
736.50	232.47
736.83	232.67
737.16	232.42
737.49	232.23
737.82	231.93
738.15	231.67
738.48	231.56
738.81	231.30
739.14	231.03
739.47	230.74
739.80	230.55
740.13	230.46
740.46	230.18
740.79	229.89
741.12	229.77
741.45	229.50
741.78	229.12
742.11	229.02
742.44	228.69
742.77	228.52
743.10	228.26
743.43	228.05
743.75	227.46
744.08	227.76
744.41	227.57
744.74	227.42
745.07	227.17
745.40	226.98
745.73	226.98
746.06	226.79
746.39	226.72
746.71	226.55
747.04	226.34
747.37	226.17
747.70	226.08
748.03	225.91
748.36	225.82
748.68	225.68
749.01	225.46
749.34	225.24
749.67	225.10
750.00	225.05
750.33	225.11
750.65	224.99
750.98	224.38
751.31	224.32
751.64	224.23
751.97	224.36
752.29	224.20
752.62	223.93
752.95	223.82
753.28	223.61
753.60	223.46
753.93	223.45
754.26	223.40
754.59	223.17
754.91	222.94
755.24	222.86
755.57	222.72
755.90	222.58
756.22	222.48
756.55	222.27
756.88	222.04
757.20	221.69
757.53	221.48
757.86	221.33
758.19	221.18
758.51	220.99
758.84	220.64
759.17	220.53
759.49	220.38
759.82	220.47
760.15	220.39
760.47	220.35
760.80	220.04
761.13	219.94
761.45	219.82
761.78	219.79
762.11	219.70
762.43	219.59
762.76	219.44
763.08	219.43
763.41	219.41
763.74	219.29
764.06	219.24
764.39	219.20
764.71	219.13
765.04	218.98
765.37	218.95
765.69	218.90
766.02	218.83
766.34	218.78
766.67	218.55
767.00	218.61
767.32	218.63
767.65	218.79
767.97	218.67
768.30	218.63
768.62	218.50
768.95	218.35
769.27	218.31
769.60	218.35
769.92	218.14
770.25	218.03
770.57	217.95
770.90	217.90
771.22	217.76
771.55	217.77
771.87	217.78
772.20	217.68
772.52	217.82
772.85	218.17
773.17	218.07
773.50	217.93
773.82	217.80
774.15	217.61
774.47	217.39
774.80	217.28
775.12	217.26
775.45	217.25
775.77	217.29
776.09	217.14
776.42	217.08
776.74	217.22
777.07	217.18
777.39	217.09
777.72	216.96
778.04	217.03
778.36	216.90
778.69	216.85
779.01	216.85
779.33	216.56
779.66	216.15
779.98	216.04
780.31	216.06
780.63	216.07
780.95	216.11
781.28	216.01
781.60	215.95
781.92	215.85
782.25	215.73
782.57	215.56
782.89	215.45
783.22	215.37
783.54	215.24
783.86	215.17
784.19	215.15
784.51	215.28
784.83	215.17
785.16	215.07
785.48	215.05
785.80	215.06
786.12	215.05
786.45	215.07
786.77	215.13
787.09	214.99
787.42	214.79
787.74	214.72
788.06	214.69
788.38	214.68
788.71	214.67
789.03	214.70
789.35	214.71
789.67	214.74
789.99	214.83
790.32	214.71
