SpectraSuite Data File
++++++++++++++++++++++++++++++++++++
Date: Mon Feb 25 17:19:49 EST 2013
User: group
Dark Spectrum Present: No
Reference Spectrum Present: No
Number of Sampled Component Spectra: 1
Spectrometers: USB2E7196
Integration Time (usec): 104000 (USB2E7196)
Spectra Averaged: 20 (USB2E7196)
Boxcar Smoothing: 10 (USB2E7196)
Correct for Electrical Dark: No (USB2E7196)
Strobe/Lamp Enabled: No (USB2E7196)
Correct for Detector Non-linearity: No (USB2E7196)
Correct for Stray Light: No (USB2E7196)
Number of Pixels in Processed Spectrum: 2048
>>>>>Begin Processed Spectral Data<<<<<
339.09	0.00
339.48	198.45
339.86	199.85
340.24	200.15
340.63	202.35
341.01	208.70
341.39	205.70
341.78	207.95
342.16	208.45
342.54	208.20
342.93	198.04
343.31	208.01
343.69	208.57
344.07	209.06
344.46	209.58
344.84	209.99
345.22	210.09
345.60	210.43
345.99	210.60
346.37	210.75
346.75	210.89
347.13	210.99
347.52	211.04
347.90	211.27
348.28	211.31
348.66	211.38
349.05	211.33
349.43	211.42
349.81	211.57
350.19	211.63
350.57	211.76
350.96	211.91
351.34	212.10
351.72	212.27
352.10	212.40
352.48	212.52
352.87	212.61
353.25	212.76
353.63	212.77
354.01	212.88
354.39	212.96
354.77	213.02
355.15	213.29
355.54	213.38
355.92	213.36
356.30	213.41
356.68	213.75
357.06	213.84
357.44	213.94
357.82	213.99
358.20	214.15
358.58	214.27
358.97	214.30
359.35	214.48
359.73	214.56
360.11	214.64
360.49	214.68
360.87	214.80
361.25	214.88
361.63	215.05
362.01	215.17
362.39	215.22
362.77	215.37
363.15	215.36
363.53	215.45
363.91	215.55
364.29	215.61
364.67	215.29
365.05	215.35
365.43	215.34
365.81	215.44
366.19	215.50
366.57	215.61
366.95	215.64
367.33	215.53
367.71	215.52
368.09	215.57
368.47	215.59
368.85	215.55
369.23	215.66
369.61	215.56
369.99	215.65
370.37	215.70
370.75	215.88
371.13	215.80
371.51	215.73
371.89	215.72
372.27	215.76
372.65	215.81
373.03	215.80
373.41	215.74
373.78	215.69
374.16	215.56
374.54	215.46
374.92	215.40
375.30	215.36
375.68	215.32
376.06	215.34
376.44	215.28
376.82	215.25
377.19	215.14
377.57	215.07
377.95	214.84
378.33	214.79
378.71	214.54
379.09	214.55
379.47	214.51
379.84	214.42
380.22	214.34
380.60	214.22
380.98	214.06
381.36	214.06
381.73	213.96
382.11	214.00
382.49	213.88
382.87	213.80
383.25	213.74
383.62	214.07
384.00	213.90
384.38	213.89
384.76	213.90
385.13	213.95
385.51	213.90
385.89	213.93
386.27	213.92
386.64	213.87
387.02	213.75
387.40	213.73
387.78	213.72
388.15	213.67
388.53	213.58
388.91	213.67
389.29	213.61
389.66	213.67
390.04	213.54
390.42	213.65
390.79	213.67
391.17	213.65
391.55	213.25
391.92	213.21
392.30	213.23
392.68	213.19
393.05	213.17
393.43	213.19
393.81	213.20
394.18	213.13
394.56	213.20
394.94	213.32
395.31	213.22
395.69	213.35
396.06	213.33
396.44	213.41
396.82	213.36
397.19	213.54
397.57	213.53
397.95	213.68
398.32	213.59
398.70	213.62
399.07	213.74
399.45	213.79
399.82	213.93
400.20	213.94
400.58	213.99
400.95	213.88
401.33	214.06
401.70	214.32
402.08	214.38
402.45	214.44
402.83	214.58
403.20	214.77
403.58	214.80
403.95	215.02
404.33	215.20
404.71	215.34
405.08	215.67
405.46	215.82
405.83	215.95
406.21	216.14
406.58	216.37
406.96	216.54
407.33	216.75
407.70	217.00
408.08	217.54
408.45	217.85
408.83	218.30
409.20	218.60
409.58	218.73
409.95	219.22
410.33	219.67
410.70	220.02
411.08	220.49
411.45	221.06
411.82	221.51
412.20	222.13
412.57	222.95
412.95	223.34
413.32	224.10
413.69	224.84
414.07	225.67
414.44	226.54
414.82	227.48
415.19	228.57
415.56	229.57
415.94	230.57
416.31	231.93
416.68	233.15
417.06	234.55
417.43	235.99
417.81	237.54
418.18	239.08
418.55	240.81
418.93	242.68
419.30	244.46
419.67	246.45
420.04	248.45
420.42	250.53
420.79	253.19
421.16	255.68
421.54	258.42
421.91	261.05
422.28	263.81
422.66	266.75
423.03	269.71
423.40	272.75
423.77	275.82
424.15	278.86
424.52	282.16
424.89	285.77
425.26	289.25
425.64	292.59
426.01	296.24
426.38	300.08
426.75	303.88
427.13	307.87
427.50	312.14
427.87	316.54
428.24	320.98
428.61	325.06
428.99	329.76
429.36	334.51
429.73	339.45
430.10	344.31
430.47	349.21
430.85	354.22
431.22	359.54
431.59	365.50
431.96	371.08
432.33	377.17
432.70	383.20
433.08	390.07
433.45	396.56
433.82	402.97
434.19	410.27
434.56	417.47
434.93	424.24
435.30	430.95
435.68	438.36
436.05	445.73
436.42	453.05
436.79	459.80
437.16	467.03
437.53	474.60
437.90	482.14
438.27	489.58
438.64	497.18
439.01	504.47
439.38	510.61
439.75	516.72
440.13	523.76
440.50	530.30
440.87	535.73
441.24	541.42
441.61	547.76
441.98	552.11
442.35	557.29
442.72	562.57
443.09	567.68
443.46	570.76
443.83	572.81
444.20	574.49
444.57	576.96
444.94	578.08
445.31	579.26
445.68	580.73
446.05	581.22
446.42	580.55
446.79	579.44
447.16	578.34
447.53	577.54
447.90	574.65
448.27	571.64
448.64	567.48
449.01	564.39
449.37	559.14
449.74	554.31
450.11	548.47
450.48	542.13
450.85	535.59
451.22	529.96
451.59	524.47
451.96	519.43
452.33	512.59
452.70	506.52
453.07	499.23
453.43	491.43
453.80	484.33
454.17	477.54
454.54	471.18
454.91	464.26
455.28	457.38
455.65	451.03
456.02	445.01
456.38	439.75
456.75	433.16
457.12	427.66
457.49	422.24
457.86	416.93
458.23	412.55
458.59	407.67
458.96	402.65
459.33	398.32
459.70	393.76
460.07	390.21
460.43	386.09
460.80	382.36
461.17	379.21
461.54	375.72
461.91	372.39
462.27	369.06
462.64	366.27
463.01	363.45
463.38	360.52
463.74	357.25
464.11	354.57
464.48	352.30
464.85	349.85
465.21	348.00
465.58	346.08
465.95	343.53
466.32	341.60
466.68	339.69
467.05	337.68
467.42	335.83
467.78	333.74
468.15	331.93
468.52	330.61
468.88	328.68
469.25	327.09
469.62	325.80
469.98	324.38
470.35	323.11
470.72	321.82
471.08	320.54
471.45	319.56
471.82	318.69
472.18	317.60
472.55	316.89
472.92	315.77
473.28	314.83
473.65	314.15
474.02	313.26
474.38	312.73
474.75	312.39
475.11	311.92
475.48	311.72
475.85	311.50
476.21	311.20
476.58	311.15
476.94	311.24
477.31	311.28
477.67	311.42
478.04	311.64
478.41	311.89
478.77	312.45
479.14	312.74
479.50	313.09
479.87	313.76
480.23	314.33
480.60	314.96
480.96	315.68
481.33	316.58
481.69	317.59
482.06	318.52
482.42	319.49
482.79	320.65
483.15	321.90
483.52	323.36
483.88	324.78
484.25	326.20
484.61	327.76
484.98	329.42
485.34	331.27
485.71	333.35
486.07	335.47
486.44	337.44
486.80	339.86
487.17	342.46
487.53	345.19
487.90	348.08
488.26	351.22
488.62	354.63
488.99	357.97
489.35	361.42
489.72	365.18
490.08	369.11
490.44	373.14
490.81	377.60
491.17	382.00
491.54	386.88
491.90	391.98
492.26	397.32
492.63	402.89
492.99	408.66
493.36	414.68
493.72	421.21
494.08	427.87
494.45	434.86
494.81	442.09
495.17	449.47
495.54	457.50
495.90	465.80
496.26	474.34
496.63	483.21
496.99	492.62
497.35	502.41
497.72	512.56
498.08	523.16
498.44	533.94
498.80	545.55
499.17	557.55
499.53	569.83
499.89	582.61
500.26	595.69
500.62	609.17
500.98	623.34
501.34	637.81
501.71	653.10
502.07	668.57
502.43	684.61
502.79	701.16
503.16	718.01
503.52	735.42
503.88	753.49
504.24	772.02
504.60	790.88
504.97	810.50
505.33	830.35
505.69	851.35
506.05	872.63
506.41	894.19
506.78	915.84
507.14	938.31
507.50	961.47
507.86	984.87
508.22	1009.23
508.59	1033.48
508.95	1058.71
509.31	1084.04
509.67	1110.10
510.03	1136.64
510.39	1164.04
510.75	1191.76
511.12	1219.86
511.48	1248.04
511.84	1276.90
512.20	1305.98
512.56	1335.64
512.92	1366.05
513.28	1396.13
513.64	1426.66
514.00	1457.18
514.37	1488.30
514.73	1519.86
515.09	1550.96
515.45	1582.84
515.81	1614.58
516.17	1646.81
516.53	1678.64
516.89	1711.12
517.25	1743.73
517.61	1775.93
517.97	1808.26
518.33	1840.36
518.69	1872.79
519.05	1905.49
519.41	1938.39
519.77	1971.74
520.13	2004.29
520.49	2036.24
520.85	2069.09
521.21	2102.10
521.57	2135.35
521.93	2167.70
522.29	2200.98
522.65	2234.40
523.01	2266.66
523.37	2298.54
523.73	2330.98
524.09	2362.92
524.45	2394.98
524.81	2426.92
525.17	2459.35
525.53	2491.02
525.89	2522.92
526.25	2554.34
526.61	2584.47
526.97	2614.85
527.33	2645.16
527.68	2675.66
528.04	2705.44
528.40	2733.75
528.76	2762.27
529.12	2791.56
529.48	2821.64
529.84	2849.99
530.20	2878.05
530.56	2906.58
530.91	2935.71
531.27	2963.94
531.63	2992.04
531.99	3019.30
532.35	3045.60
532.71	3071.40
533.07	3097.69
533.42	3122.91
533.78	3148.47
534.14	3174.14
534.50	3197.59
534.86	3221.40
535.21	3243.91
535.57	3268.14
535.93	3291.12
536.29	3313.23
536.65	3335.07
537.00	3354.71
537.36	3374.37
537.72	3393.62
538.08	3413.03
538.44	3432.04
538.79	3450.65
539.15	3469.10
539.51	3487.39
539.87	3506.30
540.22	3524.38
540.58	3542.76
540.94	3559.75
541.29	3575.01
541.65	3589.67
542.01	3605.61
542.37	3619.91
542.72	3634.85
543.08	3647.69
543.44	3662.38
543.79	3675.05
544.15	3686.62
544.51	3699.90
544.87	3713.18
545.22	3724.43
545.58	3734.48
545.94	3743.06
546.29	3751.27
546.65	3759.00
547.01	3766.25
547.36	3773.11
547.72	3779.48
548.07	3784.01
548.43	3789.24
548.79	3793.81
549.14	3799.11
549.50	3803.35
549.86	3807.07
550.21	3809.92
550.57	3813.91
550.92	3815.38
551.28	3817.52
551.64	3819.72
551.99	3822.16
552.35	3822.69
552.70	3824.22
553.06	3825.59
553.41	3826.96
553.77	3827.73
554.13	3828.39
554.48	3828.85
554.84	3829.13
555.19	3828.46
555.55	3826.91
555.90	3824.91
556.26	3823.68
556.61	3820.93
556.97	3818.07
557.32	3816.18
557.68	3813.02
558.03	3809.29
558.39	3806.31
558.74	3804.40
559.10	3801.57
559.45	3796.98
559.81	3793.87
560.16	3789.38
560.52	3785.82
560.87	3781.25
561.23	3775.72
561.58	3771.04
561.94	3765.02
562.29	3758.01
562.64	3752.53
563.00	3748.19
563.35	3744.15
563.71	3740.12
564.06	3736.00
564.42	3731.68
564.77	3726.57
565.12	3722.32
565.48	3717.41
565.83	3712.54
566.19	3707.45
566.54	3700.08
566.89	3693.46
567.25	3686.65
567.60	3680.65
567.96	3673.44
568.31	3667.28
568.66	3660.31
569.02	3652.57
569.37	3644.27
569.72	3637.11
570.08	3629.02
570.43	3620.03
570.78	3610.69
571.14	3600.70
571.49	3590.89
571.84	3582.11
572.20	3571.60
572.55	3561.96
572.90	3551.07
573.26	3539.59
573.61	3527.65
573.96	3517.45
574.31	3506.01
574.67	3493.72
575.02	3480.88
575.37	3468.85
575.72	3455.64
576.08	3444.82
576.43	3432.01
576.78	3420.86
577.13	3409.49
577.49	3397.63
577.84	3385.61
578.19	3374.66
578.54	3364.20
578.90	3353.48
579.25	3341.00
579.60	3328.41
579.95	3315.24
580.30	3303.61
580.66	3292.83
581.01	3280.28
581.36	3267.40
581.71	3254.66
582.06	3242.61
582.42	3231.23
582.77	3218.33
583.12	3205.65
583.47	3193.65
583.82	3182.73
584.17	3170.28
584.53	3158.28
584.88	3146.25
585.23	3134.38
585.58	3121.73
585.93	3108.44
586.28	3095.90
586.63	3083.57
586.98	3072.22
587.34	3061.34
587.69	3049.27
588.04	3036.74
588.39	3024.87
588.74	3012.50
589.09	3001.63
589.44	2989.22
589.79	2977.72
590.14	2966.86
590.49	2955.51
590.84	2943.27
591.19	2932.36
591.54	2921.22
591.89	2907.68
592.25	2894.84
592.60	2882.03
592.95	2869.12
593.30	2855.75
593.65	2842.43
594.00	2829.59
594.35	2818.85
594.70	2806.30
595.05	2794.56
595.40	2782.37
595.75	2770.11
596.10	2758.85
596.45	2747.38
596.80	2737.00
597.15	2725.91
597.50	2713.74
597.85	2702.59
598.19	2690.99
598.54	2678.88
598.89	2667.90
599.24	2658.46
599.59	2648.42
599.94	2638.95
600.29	2628.94
600.64	2619.00
600.99	2607.84
601.34	2597.77
601.69	2585.62
602.04	2574.40
602.39	2562.96
602.74	2552.36
603.08	2543.10
603.43	2533.80
603.78	2522.82
604.13	2512.10
604.48	2501.22
604.83	2492.45
605.18	2483.52
605.53	2472.95
605.87	2462.13
606.22	2452.20
606.57	2441.33
606.92	2430.63
607.27	2419.14
607.62	2408.18
607.96	2398.17
608.31	2389.45
608.66	2378.34
609.01	2367.50
609.36	2356.58
609.70	2345.30
610.05	2333.91
610.40	2322.28
610.75	2310.37
611.10	2299.85
611.44	2287.09
611.79	2274.95
612.14	2261.56
612.49	2248.22
612.83	2236.35
613.18	2223.85
613.53	2210.51
613.88	2197.36
614.22	2185.20
614.57	2173.04
614.92	2160.55
615.27	2147.74
615.61	2134.80
615.96	2123.04
616.31	2111.90
616.65	2101.20
617.00	2090.49
617.35	2078.96
617.70	2066.58
618.04	2053.68
618.39	2040.53
618.74	2029.44
619.08	2017.64
619.43	2006.43
619.78	1995.08
620.12	1983.58
620.47	1972.81
620.82	1960.86
621.16	1949.26
621.51	1937.36
621.85	1926.03
622.20	1914.36
622.55	1902.75
622.89	1890.98
623.24	1879.28
623.59	1866.83
623.93	1854.62
624.28	1842.71
624.62	1831.30
624.97	1820.20
625.32	1809.98
625.66	1799.50
626.01	1788.76
626.35	1778.11
626.70	1767.18
627.04	1756.92
627.39	1746.38
627.73	1735.64
628.08	1725.91
628.43	1715.26
628.77	1704.87
629.12	1693.96
629.46	1684.50
629.81	1674.57
630.15	1664.39
630.50	1654.07
630.84	1643.78
631.19	1633.75
631.53	1623.69
631.88	1613.10
632.22	1602.70
632.57	1592.75
632.91	1582.63
633.26	1572.13
633.60	1562.11
633.95	1552.38
634.29	1542.01
634.64	1532.44
634.98	1521.96
635.32	1512.23
635.67	1503.69
636.01	1494.37
636.36	1484.71
636.70	1475.08
637.05	1465.63
637.39	1456.59
637.73	1447.93
638.08	1439.78
638.42	1431.16
638.77	1422.48
639.11	1413.85
639.45	1405.02
639.80	1395.09
640.14	1385.53
640.49	1376.40
640.83	1367.00
641.17	1357.80
641.52	1348.67
641.86	1339.08
642.20	1330.17
642.55	1320.51
642.89	1310.47
643.23	1300.92
643.58	1292.36
643.92	1282.57
644.26	1273.17
644.61	1263.93
644.95	1254.46
645.29	1245.04
645.64	1235.33
645.98	1226.04
646.32	1217.17
646.66	1208.04
647.01	1199.51
647.35	1191.12
647.69	1181.97
648.04	1173.25
648.38	1164.42
648.72	1155.58
649.06	1146.72
649.41	1138.00
649.75	1129.54
650.09	1121.28
650.43	1112.76
650.78	1103.53
651.12	1095.06
651.46	1086.80
651.80	1078.65
652.14	1070.42
652.49	1061.80
652.83	1053.26
653.17	1044.22
653.51	1035.31
653.85	1027.11
654.20	1018.84
654.54	1010.50
654.88	1002.41
655.22	994.01
655.56	985.60
655.90	977.47
656.25	969.49
656.59	961.56
656.93	953.67
657.27	945.84
657.61	937.62
657.95	930.25
658.29	922.85
658.64	915.34
658.98	907.28
659.32	899.21
659.66	891.88
660.00	884.47
660.34	877.17
660.68	869.77
661.02	862.26
661.36	855.12
661.70	848.03
662.05	841.45
662.39	835.09
662.73	828.63
663.07	822.29
663.41	815.66
663.75	809.10
664.09	802.36
664.43	795.55
664.77	789.43
665.11	782.93
665.45	776.67
665.79	770.43
666.13	764.48
666.47	758.54
666.81	752.34
667.15	746.41
667.49	740.97
667.83	735.48
668.17	730.07
668.51	724.67
668.85	719.25
669.19	713.80
669.53	708.34
669.87	702.74
670.21	697.17
670.55	691.85
670.89	686.99
671.23	682.22
671.57	677.25
671.91	672.14
672.25	667.05
672.58	662.01
672.92	657.05
673.26	652.26
673.60	647.70
673.94	642.96
674.28	638.31
674.62	633.77
674.96	629.30
675.30	624.70
675.64	620.11
675.97	615.66
676.31	611.27
676.65	606.97
676.99	603.07
677.33	598.83
677.67	594.72
678.01	590.31
678.34	586.16
678.68	582.10
679.02	578.05
679.36	574.26
679.70	570.35
680.04	566.31
680.37	562.32
680.71	558.39
681.05	554.80
681.39	551.10
681.73	547.24
682.06	543.64
682.40	540.10
682.74	536.41
683.08	532.82
683.42	529.09
683.75	525.44
684.09	521.60
684.43	518.10
684.77	514.50
685.10	510.91
685.44	507.20
685.78	503.92
686.12	500.71
686.45	497.30
686.79	493.98
687.13	490.91
687.46	487.73
687.80	484.65
688.14	481.21
688.48	478.10
688.81	474.92
689.15	471.63
689.49	468.40
689.82	465.41
690.16	461.98
690.50	458.90
690.83	455.73
691.17	452.65
691.51	449.55
691.84	446.69
692.18	443.90
692.52	441.27
692.85	438.60
693.19	436.06
693.52	433.38
693.86	430.58
694.20	427.88
694.53	425.21
694.87	422.47
695.21	419.87
695.54	417.04
695.88	414.21
696.21	411.63
696.55	409.25
696.88	406.81
697.22	404.48
697.56	402.19
697.89	399.87
698.23	397.64
698.56	395.44
698.90	393.28
699.23	390.99
699.57	388.70
699.90	386.44
700.24	384.00
700.58	381.75
700.91	379.70
701.25	377.69
701.58	375.72
701.92	373.69
702.25	371.72
702.59	369.82
702.92	368.01
703.26	366.15
703.59	364.20
703.93	362.51
704.26	360.66
704.60	358.80
704.93	356.99
705.26	355.08
705.60	353.26
705.93	351.42
706.27	349.82
706.60	348.20
706.94	346.56
707.27	344.78
707.61	343.04
707.94	341.38
708.27	339.62
708.61	337.83
708.94	336.21
709.28	334.65
709.61	333.12
709.94	331.66
710.28	330.25
710.61	328.89
710.95	327.04
711.28	325.83
711.61	324.34
711.95	322.99
712.28	321.69
712.61	320.37
712.95	319.15
713.28	317.95
713.61	316.59
713.95	315.25
714.28	314.12
714.61	312.92
714.95	311.71
715.28	310.45
715.61	309.26
715.95	308.10
716.28	306.83
716.61	305.75
716.95	304.51
717.28	303.31
717.61	302.12
717.94	301.16
718.28	299.88
718.61	298.93
718.94	297.86
719.27	296.77
719.61	295.84
719.94	294.76
720.27	293.50
720.60	292.49
720.94	291.55
721.27	290.58
721.60	289.72
721.93	288.81
722.27	287.96
722.60	287.22
722.93	286.34
723.26	285.64
723.59	284.67
723.93	283.86
724.26	283.08
724.59	282.23
724.92	281.41
725.25	280.66
725.59	279.80
725.92	279.07
726.25	278.32
726.58	277.55
726.91	276.78
727.24	276.22
727.57	275.46
727.91	274.56
728.24	273.92
728.57	273.31
728.90	272.64
729.23	271.89
729.56	271.35
729.89	270.69
730.22	269.96
730.55	269.27
730.89	268.61
731.22	267.93
731.55	267.31
731.88	266.67
732.21	266.02
732.54	265.34
732.87	264.73
733.20	264.17
733.53	263.54
733.86	262.98
734.19	262.25
734.52	261.86
734.85	261.62
735.18	261.01
735.51	260.45
735.84	259.91
736.17	259.45
736.50	258.71
736.83	258.53
737.16	257.99
737.49	257.53
737.82	257.01
738.15	256.52
738.48	256.13
738.81	255.68
739.14	255.12
739.47	254.67
739.80	254.17
740.13	253.72
740.46	253.16
740.79	252.59
741.12	252.10
741.45	251.45
741.78	250.79
742.11	250.42
742.44	249.89
742.77	249.46
743.10	248.98
743.43	248.52
743.75	247.67
744.08	247.61
744.41	247.19
744.74	246.73
745.07	246.26
745.40	245.81
745.73	245.58
746.06	245.23
746.39	244.88
746.71	244.42
747.04	243.97
747.37	243.66
747.70	243.44
748.03	243.12
748.36	242.80
748.68	242.39
749.01	241.87
749.34	241.47
749.67	241.11
750.00	240.86
750.33	240.76
750.65	240.51
750.98	239.72
751.31	239.37
751.64	239.09
751.97	239.02
752.29	238.64
752.62	238.02
752.95	237.65
753.28	237.32
753.60	237.04
753.93	236.84
754.26	236.56
754.59	236.10
754.91	235.76
755.24	235.47
755.57	235.19
755.90	234.99
756.22	234.74
756.55	234.50
756.88	234.14
757.20	233.61
757.53	233.23
757.86	233.15
758.19	232.95
758.51	232.72
758.84	232.21
759.17	231.94
759.49	231.80
759.82	231.80
760.15	231.56
760.47	231.26
760.80	230.91
761.13	230.70
761.45	230.43
761.78	230.16
762.11	229.95
762.43	229.72
762.76	229.47
763.08	229.30
763.41	229.05
763.74	228.89
764.06	228.72
764.39	228.52
764.71	228.23
765.04	228.00
765.37	227.82
765.69	227.65
766.02	227.45
766.34	227.25
766.67	226.89
767.00	226.78
767.32	226.84
767.65	226.91
767.97	226.73
768.30	226.56
768.62	226.40
768.95	226.15
769.27	225.97
769.60	225.84
769.92	225.62
770.25	225.32
770.57	225.13
770.90	224.96
771.22	224.73
771.55	224.58
771.87	224.45
772.20	224.29
772.52	224.38
772.85	224.68
773.17	224.52
773.50	224.39
773.82	224.17
774.15	223.82
774.47	223.38
774.80	223.18
775.12	223.09
775.45	223.05
775.77	223.03
776.09	222.93
776.42	222.79
776.74	222.76
777.07	222.64
777.39	222.46
777.72	222.35
778.04	222.33
778.36	222.14
778.69	222.04
779.01	221.95
779.33	221.57
779.66	220.99
779.98	220.84
780.31	220.72
780.63	220.73
780.95	220.73
781.28	220.65
781.60	220.57
781.92	220.49
782.25	220.32
782.57	220.20
782.89	220.13
783.22	219.96
783.54	219.85
783.86	219.84
784.19	219.72
784.51	219.73
784.83	219.63
785.16	219.59
