SpectraSuite Data File
++++++++++++++++++++++++++++++++++++
Date: Mon Feb 25 17:00:35 EST 2013
User: group
Dark Spectrum Present: No
Reference Spectrum Present: No
Number of Sampled Component Spectra: 1
Spectrometers: USB2E7196
Integration Time (usec): 104000 (USB2E7196)
Spectra Averaged: 20 (USB2E7196)
Boxcar Smoothing: 10 (USB2E7196)
Correct for Electrical Dark: No (USB2E7196)
Strobe/Lamp Enabled: No (USB2E7196)
Correct for Detector Non-linearity: No (USB2E7196)
Correct for Stray Light: No (USB2E7196)
Number of Pixels in Processed Spectrum: 2048
>>>>>Begin Processed Spectral Data<<<<<
339.09	0.00
339.48	198.40
339.86	200.15
340.24	201.85
340.63	202.70
341.01	210.45
341.39	206.00
341.78	207.45
342.16	208.80
342.54	208.85
342.93	198.34
343.31	208.31
343.69	208.79
344.07	209.27
344.46	209.71
344.84	210.07
345.22	210.07
345.60	210.27
345.99	210.41
346.37	210.48
346.75	210.58
347.13	210.62
347.52	210.68
347.90	210.88
348.28	210.90
348.66	210.94
349.05	210.82
349.43	210.87
349.81	210.87
350.19	210.86
350.57	210.85
350.96	211.02
351.34	211.16
351.72	211.29
352.10	211.34
352.48	211.35
352.87	211.45
353.25	211.54
353.63	211.65
354.01	211.69
354.39	211.77
354.77	211.85
355.15	211.99
355.54	211.97
355.92	211.88
356.30	211.99
356.68	212.24
357.06	212.34
357.44	212.37
357.82	212.42
358.20	212.55
358.58	212.59
358.97	212.57
359.35	212.64
359.73	212.80
360.11	212.82
360.49	212.93
360.87	212.89
361.25	212.95
361.63	213.11
362.01	213.14
362.39	213.17
362.77	213.18
363.15	213.20
363.53	213.28
363.91	213.29
364.29	213.27
364.67	213.02
365.05	213.01
365.43	213.00
365.81	213.04
366.19	213.07
366.57	213.20
366.95	213.24
367.33	213.19
367.71	213.14
368.09	213.25
368.47	213.17
368.85	213.16
369.23	213.15
369.61	212.92
369.99	213.03
370.37	213.05
370.75	213.15
371.13	213.02
371.51	212.93
371.89	213.02
372.27	213.03
372.65	212.98
373.03	212.95
373.41	212.92
373.78	212.89
374.16	212.73
374.54	212.58
374.92	212.54
375.30	212.55
375.68	212.41
376.06	212.35
376.44	212.31
376.82	212.29
377.19	212.30
377.57	212.24
377.95	212.10
378.33	212.09
378.71	211.88
379.09	211.89
379.47	211.90
379.84	211.81
380.22	211.65
380.60	211.58
380.98	211.51
381.36	211.45
381.73	211.35
382.11	211.40
382.49	211.41
382.87	211.31
383.25	211.24
383.62	211.59
384.00	211.44
384.38	211.46
384.76	211.59
385.13	211.65
385.51	211.64
385.89	211.61
386.27	211.55
386.64	211.56
387.02	211.47
387.40	211.34
387.78	211.30
388.15	211.40
388.53	211.33
388.91	211.38
389.29	211.32
389.66	211.38
390.04	211.27
390.42	211.27
390.79	211.19
391.17	211.13
391.55	210.74
391.92	210.75
392.30	210.73
392.68	210.51
393.05	210.44
393.43	210.45
393.81	210.45
394.18	210.34
394.56	210.33
394.94	210.50
395.31	210.57
395.69	210.65
396.06	210.68
396.44	210.69
396.82	210.68
397.19	210.84
397.57	210.83
397.95	210.95
398.32	210.86
398.70	211.01
399.07	211.10
399.45	211.15
399.82	211.22
400.20	211.26
400.58	211.29
400.95	211.22
401.33	211.34
401.70	211.55
402.08	211.68
402.45	211.77
402.83	211.90
403.20	211.94
403.58	211.96
403.95	212.14
404.33	212.34
404.71	212.50
405.08	212.88
405.46	212.99
405.83	213.19
406.21	213.42
406.58	213.57
406.96	213.77
407.33	214.03
407.70	214.42
408.08	214.97
408.45	215.43
408.83	215.91
409.20	216.22
409.58	216.44
409.95	216.93
410.33	217.42
410.70	217.77
411.08	218.31
411.45	218.91
411.82	219.45
412.20	220.11
412.57	220.86
412.95	221.31
413.32	222.20
413.69	222.96
414.07	223.82
414.44	224.84
414.82	225.88
415.19	227.01
415.56	228.08
415.94	229.11
416.31	230.48
416.68	231.85
417.06	233.41
417.43	235.07
417.81	236.82
418.18	238.60
418.55	240.48
418.93	242.61
419.30	244.65
419.67	246.87
420.04	249.24
420.42	251.67
420.79	254.60
421.16	257.45
421.54	260.53
421.91	263.64
422.28	266.75
422.66	270.08
423.03	273.61
423.40	277.11
423.77	280.77
424.15	284.43
424.52	288.28
424.89	292.60
425.26	296.68
425.64	300.59
426.01	304.86
426.38	309.48
426.75	314.03
427.13	318.85
427.50	323.88
427.87	329.07
428.24	334.25
428.61	339.23
428.99	344.85
429.36	350.81
429.73	356.80
430.10	362.82
430.47	368.98
430.85	375.28
431.22	382.05
431.59	389.39
431.96	396.40
432.33	404.20
432.70	411.60
433.08	420.36
433.45	428.68
433.82	436.98
434.19	446.29
434.56	455.43
434.93	464.29
435.30	473.03
435.68	482.89
436.05	492.68
436.42	502.27
436.79	511.11
437.16	520.71
437.53	530.72
437.90	540.65
438.27	550.69
438.64	560.97
439.01	570.63
439.38	579.22
439.75	587.64
440.13	597.17
440.50	606.39
440.87	613.88
441.24	621.71
441.61	630.44
441.98	636.82
442.35	644.33
442.72	651.94
443.09	659.32
443.46	664.00
443.83	667.35
444.20	670.33
444.57	674.36
444.94	676.64
445.31	679.10
445.68	681.79
446.05	683.10
446.42	682.84
446.79	682.47
447.16	681.94
447.53	681.76
447.90	678.75
448.27	675.63
448.64	671.37
449.01	668.43
449.37	662.42
449.74	656.83
450.11	649.92
450.48	642.28
450.85	634.44
451.22	627.65
451.59	621.25
451.96	615.24
452.33	606.95
452.70	599.43
453.07	590.27
453.43	580.78
453.80	571.87
454.17	563.31
454.54	555.04
454.91	546.25
455.28	537.63
455.65	529.75
456.02	521.90
456.38	514.88
456.75	506.21
457.12	499.24
457.49	492.12
457.86	485.21
458.23	479.30
458.59	472.79
458.96	466.38
459.33	460.65
459.70	454.85
460.07	450.26
460.43	444.90
460.80	439.83
461.17	435.51
461.54	430.86
461.91	426.40
462.27	421.97
462.64	418.17
463.01	414.01
463.38	409.96
463.74	405.74
464.11	402.19
464.48	399.12
464.85	395.69
465.21	393.17
465.58	390.41
465.95	387.05
466.32	384.30
466.68	381.45
467.05	378.64
467.42	375.85
467.78	372.80
468.15	370.05
468.52	368.25
468.88	365.35
469.25	362.93
469.62	361.10
469.98	358.96
470.35	356.96
470.72	355.07
471.08	352.87
471.45	351.20
471.82	349.49
472.18	347.59
472.55	346.20
472.92	344.43
473.28	342.93
473.65	341.51
474.02	340.15
474.38	338.99
474.75	337.87
475.11	336.68
475.48	335.91
475.85	335.13
476.21	334.13
476.58	333.60
476.94	333.10
477.31	332.42
477.67	331.89
478.04	331.42
478.41	331.09
478.77	331.11
479.14	330.66
479.50	330.45
479.87	330.32
480.23	330.06
480.60	329.93
480.96	329.65
481.33	329.86
481.69	329.97
482.06	330.02
482.42	330.13
482.79	330.36
483.15	330.67
483.52	331.23
483.88	331.54
484.25	331.87
484.61	332.14
484.98	332.54
485.34	333.25
485.71	333.86
486.07	334.52
486.44	334.96
486.80	335.82
487.17	336.74
487.53	337.81
487.90	338.96
488.26	340.19
488.62	341.69
488.99	342.75
489.35	344.03
489.72	345.41
490.08	346.95
490.44	348.39
490.81	349.91
491.17	351.43
491.54	353.17
491.90	354.92
492.26	356.90
492.63	358.76
492.99	360.51
493.36	362.48
493.72	364.56
494.08	366.66
494.45	368.95
494.81	371.26
495.17	373.41
495.54	375.81
495.90	378.24
496.26	380.55
496.63	382.95
496.99	385.46
497.35	388.10
497.72	390.63
498.08	393.27
498.44	395.96
498.80	398.66
499.17	401.43
499.53	404.19
499.89	407.06
500.26	409.86
500.62	412.63
500.98	415.55
501.34	418.34
501.71	421.25
502.07	423.92
502.43	426.66
502.79	429.35
503.16	431.94
503.52	434.46
503.88	437.06
504.24	439.85
504.60	442.42
504.97	444.97
505.33	447.65
505.69	450.40
506.05	452.93
506.41	455.25
506.78	457.60
507.14	459.88
507.50	462.03
507.86	464.22
508.22	466.39
508.59	468.31
508.95	470.42
509.31	472.53
509.67	474.45
510.03	476.15
510.39	478.07
510.75	479.86
511.12	481.53
511.48	483.19
511.84	484.70
512.20	486.06
512.56	487.47
512.92	488.81
513.28	489.96
513.64	491.12
514.00	492.34
514.37	493.36
514.73	494.50
515.09	495.49
515.45	496.36
515.81	497.11
516.17	498.02
516.53	498.72
516.89	499.16
517.25	499.81
517.61	500.44
517.97	500.83
518.33	501.25
518.69	501.70
519.05	501.99
519.41	502.28
519.77	502.94
520.13	503.23
520.49	503.38
520.85	503.50
521.21	503.84
521.57	504.12
521.93	504.12
522.29	504.29
522.65	504.41
523.01	504.52
523.37	504.63
523.73	504.83
524.09	504.98
524.45	505.16
524.81	505.37
525.17	505.78
525.53	506.18
525.89	506.57
526.25	506.99
526.61	507.34
526.97	507.82
527.33	508.11
527.68	508.82
528.04	509.35
528.40	509.78
528.76	510.22
529.12	510.84
529.48	511.81
529.84	512.41
530.20	513.23
530.56	514.17
530.91	515.24
531.27	516.13
531.63	517.06
531.99	518.09
532.35	519.17
532.71	520.09
533.07	521.19
533.42	522.55
533.78	523.69
534.14	524.88
534.50	526.13
534.86	527.54
535.21	528.73
535.57	530.43
535.93	532.04
536.29	533.80
536.65	535.32
537.00	536.75
537.36	538.35
537.72	539.88
538.08	541.52
538.44	543.15
538.79	544.97
539.15	546.81
539.51	548.75
539.87	550.77
540.22	552.82
540.58	555.20
540.94	557.26
541.29	559.38
541.65	561.46
542.01	563.68
542.37	565.91
542.72	568.09
543.08	570.11
543.44	572.60
543.79	574.62
544.15	577.11
544.51	579.87
544.87	582.57
545.22	585.31
545.58	587.95
545.94	590.52
546.29	593.05
546.65	595.56
547.01	597.97
547.36	600.53
547.72	603.00
548.07	605.26
548.43	607.60
548.79	610.09
549.14	612.77
549.50	615.30
549.86	617.77
550.21	620.53
550.57	623.14
550.92	625.44
551.28	628.07
551.64	630.48
551.99	632.75
552.35	635.05
552.70	637.48
553.06	639.93
553.41	642.42
553.77	645.07
554.13	647.69
554.48	650.54
554.84	653.32
555.19	655.84
555.55	658.58
555.90	661.03
556.26	663.55
556.61	665.97
556.97	668.22
557.32	670.64
557.68	672.84
558.03	675.04
558.39	677.35
558.74	679.72
559.10	682.23
559.45	684.69
559.81	687.32
560.16	689.38
560.52	691.68
560.87	694.00
561.23	695.94
561.58	698.32
561.94	700.20
562.29	701.90
562.64	704.19
563.00	705.98
563.35	708.12
563.71	710.50
564.06	712.59
564.42	714.90
564.77	717.16
565.12	719.47
565.48	721.92
565.83	724.09
566.19	726.25
566.54	727.91
566.89	729.80
567.25	731.74
567.60	733.99
567.96	736.03
568.31	738.09
568.66	739.95
569.02	741.13
569.37	742.51
569.72	744.07
570.08	745.45
570.43	746.68
570.78	748.00
571.14	748.99
571.49	750.02
571.84	751.01
572.20	751.60
572.55	752.27
572.90	752.75
573.26	753.43
573.61	753.65
573.96	754.43
574.31	754.58
574.67	754.62
575.02	754.56
575.37	754.48
575.72	754.13
576.08	754.22
576.43	754.34
576.78	754.54
577.13	754.68
577.49	754.58
577.84	754.78
578.19	754.75
578.54	754.84
578.90	754.99
579.25	754.78
579.60	754.55
579.95	754.28
580.30	754.16
580.66	753.95
581.01	753.77
581.36	753.19
581.71	752.93
582.06	752.85
582.42	752.58
582.77	752.10
583.12	751.67
583.47	751.29
583.82	751.02
584.17	750.63
584.53	750.15
584.88	749.68
585.23	749.13
585.58	748.51
585.93	747.82
586.28	747.14
586.63	746.46
586.98	746.11
587.34	745.66
587.69	744.74
588.04	744.07
588.39	743.56
588.74	742.70
589.09	742.17
589.44	740.99
589.79	740.33
590.14	739.71
590.49	739.04
590.84	738.04
591.19	737.19
591.54	736.07
591.89	734.80
592.25	733.80
592.60	732.50
592.95	731.14
593.30	729.62
593.65	728.09
594.00	726.75
594.35	726.22
594.70	724.50
595.05	723.27
595.40	721.81
595.75	720.08
596.10	718.94
596.45	717.43
596.80	716.20
597.15	714.79
597.50	713.13
597.85	711.63
598.19	710.13
598.54	708.47
598.89	707.25
599.24	706.02
599.59	704.57
599.94	703.28
600.29	702.02
600.64	700.75
600.99	699.32
601.34	698.05
601.69	695.62
602.04	694.12
602.39	692.68
602.74	691.36
603.08	690.17
603.43	688.98
603.78	687.49
604.13	685.91
604.48	684.45
604.83	683.35
605.18	682.19
605.53	680.62
605.87	679.00
606.22	677.40
606.57	675.86
606.92	674.19
607.27	672.53
607.62	670.89
607.96	669.37
608.31	668.00
608.66	666.26
609.01	664.55
609.36	663.09
609.70	661.36
610.05	659.31
610.40	657.40
610.75	655.28
611.10	653.52
611.44	651.52
611.79	649.38
612.14	647.14
612.49	644.75
612.83	642.84
613.18	640.78
613.53	638.66
613.88	636.28
614.22	634.20
614.57	632.07
614.92	629.95
615.27	627.70
615.61	625.48
615.96	623.58
616.31	621.60
616.65	619.62
617.00	617.47
617.35	615.65
617.70	613.63
618.04	611.25
618.39	608.86
618.74	606.72
619.08	604.39
619.43	602.28
619.78	600.38
620.12	598.35
620.47	596.45
620.82	594.22
621.16	592.09
621.51	589.99
621.85	587.85
622.20	585.60
622.55	583.31
622.89	581.12
623.24	578.80
623.59	576.51
623.93	574.33
624.28	572.29
624.62	570.50
624.97	568.39
625.32	566.50
625.66	564.61
626.01	562.69
626.35	560.90
626.70	558.72
627.04	556.86
627.39	554.71
627.73	552.75
628.08	551.04
628.43	549.16
628.77	547.12
629.12	545.11
629.46	543.29
629.81	541.38
630.15	539.55
630.50	537.46
630.84	535.52
631.19	533.39
631.53	531.48
631.88	528.92
632.22	526.81
632.57	525.02
632.91	523.01
633.26	521.09
633.60	519.06
633.95	517.33
634.29	515.14
634.64	513.29
634.98	511.11
635.32	509.15
635.67	507.38
636.01	505.42
636.36	503.46
636.70	501.61
637.05	499.81
637.39	497.77
637.73	496.08
638.08	494.51
638.42	492.88
638.77	490.91
639.11	489.27
639.45	487.44
639.80	485.37
640.14	483.49
640.49	481.58
640.83	479.68
641.17	477.73
641.52	475.72
641.86	473.80
642.20	472.08
642.55	470.06
642.89	467.96
643.23	466.08
643.58	464.46
643.92	462.61
644.26	460.72
644.61	459.02
644.95	457.12
645.29	455.12
645.64	453.05
645.98	451.25
646.32	449.45
646.66	447.58
647.01	445.89
647.35	444.17
647.69	442.21
648.04	440.47
648.38	438.81
648.72	437.15
649.06	435.30
649.41	433.48
649.75	431.66
650.09	430.15
650.43	428.41
650.78	426.45
651.12	424.64
651.46	422.95
651.80	421.31
652.14	419.68
652.49	418.01
652.83	416.33
653.17	414.58
653.51	412.74
653.85	411.18
654.20	409.38
654.54	407.57
654.88	405.97
655.22	404.41
655.56	402.54
655.90	400.86
656.25	399.20
656.59	397.60
656.93	396.02
657.27	394.42
657.61	392.81
657.95	391.41
658.29	389.72
658.64	388.21
658.98	386.44
659.32	384.70
659.66	383.02
660.00	381.42
660.34	379.90
660.68	378.21
661.02	376.45
661.36	374.95
661.70	373.45
662.05	372.03
662.39	370.57
662.73	369.21
663.07	367.91
663.41	366.56
663.75	365.10
664.09	363.70
664.43	362.16
664.77	360.68
665.11	359.11
665.45	357.78
665.79	356.44
666.13	355.02
666.47	353.63
666.81	352.38
667.15	351.17
667.49	349.99
667.83	348.97
668.17	347.80
668.51	346.54
668.85	345.37
669.19	344.24
669.53	342.91
669.87	341.64
670.21	340.35
670.55	339.17
670.89	338.23
671.23	337.18
671.57	336.07
671.91	334.97
672.25	333.97
672.58	333.00
672.92	331.81
673.26	330.88
673.60	329.90
673.94	328.85
674.28	327.76
674.62	326.73
674.96	325.60
675.30	324.63
675.64	323.72
675.97	322.76
676.31	321.77
676.65	320.78
676.99	319.98
677.33	318.97
677.67	318.05
678.01	316.88
678.34	315.82
678.68	314.89
679.02	313.88
679.36	312.86
679.70	311.82
680.04	310.92
680.37	309.91
680.71	308.96
681.05	308.11
681.39	307.25
681.73	306.30
682.06	305.54
682.40	304.79
682.74	303.91
683.08	303.10
683.42	302.14
683.75	301.38
684.09	300.46
684.43	299.65
684.77	298.77
685.10	297.94
685.44	297.07
685.78	296.18
686.12	295.45
686.45	294.74
686.79	294.01
687.13	293.27
687.46	292.57
687.80	291.85
688.14	291.03
688.48	290.34
688.81	289.52
689.15	288.84
689.49	287.93
689.82	287.12
690.16	286.24
690.50	285.48
690.83	284.63
691.17	283.76
691.51	282.95
691.84	282.22
692.18	281.50
692.52	280.87
692.85	280.25
693.19	279.61
693.52	278.81
693.86	278.05
694.20	277.33
694.53	276.66
694.87	275.93
695.21	275.19
695.54	274.41
695.88	273.65
696.21	272.82
696.55	272.23
696.88	271.55
697.22	270.89
697.56	270.35
697.89	269.67
698.23	269.15
698.56	268.57
698.90	268.02
699.23	267.41
699.57	266.78
699.90	266.11
700.24	265.45
700.58	264.97
700.91	264.37
701.25	264.06
701.58	263.54
701.92	263.10
702.25	262.51
702.59	261.95
702.92	261.47
703.26	260.96
703.59	260.39
703.93	260.25
704.26	259.73
704.60	259.23
704.93	258.74
705.26	258.10
705.60	257.69
705.93	257.12
706.27	256.72
706.60	256.35
706.94	256.00
707.27	255.56
707.61	255.04
707.94	254.61
708.27	253.89
708.61	253.38
708.94	252.91
709.28	252.57
709.61	252.14
709.94	251.67
710.28	251.26
710.61	250.95
710.95	250.11
711.28	249.95
711.61	249.48
711.95	249.20
712.28	248.79
712.61	248.33
712.95	248.17
713.28	247.85
713.61	247.31
713.95	246.89
714.28	246.52
714.61	246.17
714.95	245.77
715.28	245.40
715.61	245.01
715.95	244.58
716.28	244.22
716.61	243.92
716.95	243.67
717.28	243.32
717.61	242.95
717.94	242.71
718.28	242.15
718.61	241.81
718.94	241.42
719.27	241.18
719.61	240.94
719.94	240.55
720.27	240.15
720.60	239.91
720.94	239.57
721.27	239.25
721.60	238.93
721.93	238.70
722.27	238.55
722.60	238.30
722.93	238.05
723.26	237.72
723.59	237.39
723.93	237.08
724.26	236.86
724.59	236.52
724.92	236.32
725.25	236.12
725.59	235.93
725.92	235.74
726.25	235.47
726.58	235.15
726.91	234.88
727.24	234.71
727.57	234.51
727.91	234.29
728.24	234.19
728.57	233.98
728.90	233.79
729.23	233.46
729.56	233.46
729.89	233.30
730.22	233.12
730.55	232.96
730.89	232.78
731.22	232.51
731.55	232.28
731.88	232.08
732.21	231.86
732.54	231.58
732.87	231.35
733.20	231.22
733.53	231.13
733.86	230.97
734.19	230.70
734.52	230.51
734.85	230.61
735.18	230.32
735.51	230.30
735.84	230.10
736.17	229.95
736.50	229.50
736.83	229.71
737.16	229.56
737.49	229.35
737.82	229.16
738.15	229.04
738.48	228.91
738.81	228.64
739.14	228.40
739.47	228.29
739.80	228.11
740.13	227.98
740.46	227.68
740.79	227.43
741.12	227.27
741.45	227.03
741.78	226.56
742.11	226.45
742.44	226.10
742.77	226.01
743.10	225.86
743.43	225.69
743.75	225.20
744.08	225.52
744.41	225.34
744.74	225.16
745.07	224.93
745.40	224.88
745.73	224.97
746.06	224.84
746.39	224.71
746.71	224.50
747.04	224.30
747.37	224.15
747.70	224.06
748.03	223.95
748.36	223.88
748.68	223.75
749.01	223.48
749.34	223.38
749.67	223.25
750.00	223.22
750.33	223.39
750.65	223.26
750.98	222.62
751.31	222.48
751.64	222.37
751.97	222.42
752.29	222.27
752.62	221.94
752.95	221.87
753.28	221.65
753.60	221.60
753.93	221.61
754.26	221.56
754.59	221.40
754.91	221.23
755.24	221.07
755.57	220.94
755.90	220.85
756.22	220.72
756.55	220.54
756.88	220.36
757.20	220.01
757.53	219.77
757.86	219.76
758.19	219.75
758.51	219.69
758.84	219.44
759.17	219.24
759.49	219.19
759.82	219.24
760.15	219.25
760.47	219.17
760.80	219.00
761.13	218.93
761.45	218.85
761.78	218.78
762.11	218.74
762.43	218.60
762.76	218.55
763.08	218.60
763.41	218.55
763.74	218.52
764.06	218.41
764.39	218.43
764.71	218.29
765.04	218.20
765.37	218.11
765.69	218.05
766.02	218.00
766.34	217.97
766.67	217.73
767.00	217.74
767.32	217.81
767.65	217.90
767.97	217.85
768.30	217.77
768.62	217.73
768.95	217.60
769.27	217.60
769.60	217.67
769.92	217.53
770.25	217.34
770.57	217.19
770.90	217.21
771.22	217.06
771.55	217.01
771.87	216.94
772.20	216.83
772.52	217.04
772.85	217.42
773.17	217.36
773.50	217.34
773.82	217.18
774.15	216.96
774.47	216.70
774.80	216.61
775.12	216.60
775.45	216.54
775.77	216.48
776.09	216.45
776.42	216.37
776.74	216.36
777.07	216.40
777.39	216.36
777.72	216.19
778.04	216.20
778.36	216.06
778.69	216.02
779.01	216.01
779.33	215.75
779.66	215.25
779.98	215.12
780.31	215.08
780.63	215.18
780.95	215.20
781.28	215.09
781.60	215.05
781.92	215.01
782.25	214.94
782.57	214.96
782.89	214.90
783.22	214.83
783.54	214.75
783.86	214.70
784.19	214.60
784.51	214.64
784.83	214.54
785.16	214.53
785.48	214.55
785.80	214.58
786.12	214.49
786.45	214.45
786.77	214.47
787.09	214.38
787.42	214.22
787.74	214.21
788.06	214.27
788.38	214.16
788.71	214.07
789.03	214.02
789.35	214.01
789.67	213.94
789.99	213.97
790.32	213.85
790.64	213.88
790.96	214.21
791.28	214.13
791.61	214.09
791.93	214.11
792.25	213.99
792.57	214.12
792.89	214.08
793.21	214.18
793.54	214.13
793.86	214.14
794.18	214.10
