SpectraSuite Data File
++++++++++++++++++++++++++++++++++++
Date: Mon Feb 25 17:20:30 EST 2013
User: group
Dark Spectrum Present: No
Reference Spectrum Present: No
Number of Sampled Component Spectra: 1
Spectrometers: USB2E7196
Integration Time (usec): 104000 (USB2E7196)
Spectra Averaged: 20 (USB2E7196)
Boxcar Smoothing: 10 (USB2E7196)
Correct for Electrical Dark: No (USB2E7196)
Strobe/Lamp Enabled: No (USB2E7196)
Correct for Detector Non-linearity: No (USB2E7196)
Correct for Stray Light: No (USB2E7196)
Number of Pixels in Processed Spectrum: 2048
>>>>>Begin Processed Spectral Data<<<<<
339.09	0.00
339.48	198.40
339.86	201.20
340.24	200.70
340.63	202.95
341.01	208.90
341.39	206.65
341.78	208.55
342.16	208.60
342.54	208.25
342.93	198.59
343.31	208.60
343.69	209.23
344.07	209.66
344.46	210.19
344.84	210.68
345.22	210.80
345.60	211.09
345.99	211.27
346.37	211.42
346.75	211.65
347.13	211.80
347.52	211.96
347.90	212.14
348.28	212.21
348.66	212.37
349.05	212.29
349.43	212.39
349.81	212.59
350.19	212.71
350.57	212.79
350.96	212.93
351.34	213.08
351.72	213.24
352.10	213.40
352.48	213.51
352.87	213.54
353.25	213.67
353.63	213.71
354.01	213.78
354.39	213.93
354.77	213.99
355.15	214.09
355.54	214.14
355.92	214.11
356.30	214.17
356.68	214.35
357.06	214.53
357.44	214.53
357.82	214.52
358.20	214.58
358.58	214.73
358.97	214.74
359.35	214.89
359.73	214.96
360.11	215.05
360.49	215.07
360.87	215.09
361.25	215.18
361.63	215.40
362.01	215.48
362.39	215.46
362.77	215.52
363.15	215.57
363.53	215.57
363.91	215.69
364.29	215.73
364.67	215.48
365.05	215.42
365.43	215.47
365.81	215.48
366.19	215.68
366.57	215.74
366.95	215.81
367.33	215.62
367.71	215.61
368.09	215.59
368.47	215.63
368.85	215.67
369.23	215.73
369.61	215.57
369.99	215.67
370.37	215.65
370.75	215.75
371.13	215.66
371.51	215.65
371.89	215.65
372.27	215.58
372.65	215.53
373.03	215.50
373.41	215.49
373.78	215.44
374.16	215.22
374.54	215.09
374.92	214.95
375.30	214.98
375.68	214.84
376.06	214.84
376.44	214.71
376.82	214.63
377.19	214.51
377.57	214.43
377.95	214.32
378.33	214.32
378.71	214.15
379.09	214.23
379.47	214.27
379.84	214.14
380.22	214.12
380.60	214.08
380.98	214.08
381.36	214.00
381.73	213.95
382.11	214.00
382.49	214.08
382.87	214.07
383.25	214.09
383.62	214.43
384.00	214.29
384.38	214.27
384.76	214.33
385.13	214.39
385.51	214.40
385.89	214.27
386.27	214.21
386.64	214.12
387.02	213.93
387.40	213.82
387.78	213.78
388.15	213.82
388.53	213.78
388.91	213.66
389.29	213.64
389.66	213.71
390.04	213.64
390.42	213.55
390.79	213.54
391.17	213.45
391.55	213.05
391.92	213.10
392.30	213.22
392.68	213.10
393.05	213.11
393.43	213.07
393.81	213.07
394.18	213.07
394.56	213.13
394.94	213.18
395.31	213.09
395.69	213.19
396.06	213.16
396.44	213.16
396.82	213.25
397.19	213.44
397.57	213.38
397.95	213.50
398.32	213.39
398.70	213.44
399.07	213.58
399.45	213.70
399.82	213.72
400.20	213.71
400.58	213.83
400.95	213.74
401.33	213.89
401.70	214.25
402.08	214.39
402.45	214.49
402.83	214.75
403.20	215.00
403.58	215.05
403.95	215.26
404.33	215.43
404.71	215.54
405.08	215.80
405.46	215.95
405.83	216.13
406.21	216.45
406.58	216.65
406.96	216.85
407.33	217.09
407.70	217.37
408.08	217.90
408.45	218.23
408.83	218.64
409.20	218.93
409.58	219.14
409.95	219.59
410.33	220.06
410.70	220.42
411.08	220.89
411.45	221.45
411.82	222.00
412.20	222.71
412.57	223.57
412.95	224.01
413.32	224.88
413.69	225.63
414.07	226.49
414.44	227.48
414.82	228.50
415.19	229.60
415.56	230.72
415.94	231.80
416.31	233.25
416.68	234.66
417.06	236.29
417.43	237.77
417.81	239.33
418.18	241.03
418.55	242.88
418.93	244.82
419.30	246.86
419.67	248.99
420.04	251.18
420.42	253.50
420.79	256.34
421.16	258.98
421.54	261.85
421.91	264.64
422.28	267.51
422.66	270.64
423.03	273.84
423.40	277.02
423.77	280.35
424.15	283.71
424.52	287.20
424.89	291.07
425.26	294.80
425.64	298.40
426.01	302.30
426.38	306.33
426.75	310.51
427.13	314.91
427.50	319.37
427.87	324.08
428.24	328.73
428.61	333.20
428.99	338.14
429.36	343.43
429.73	348.69
430.10	354.08
430.47	359.49
430.85	364.95
431.22	371.00
431.59	377.42
431.96	383.32
432.33	389.99
432.70	396.43
433.08	403.90
433.45	411.04
433.82	418.23
434.19	426.16
434.56	433.82
434.93	440.92
435.30	448.29
435.68	456.40
436.05	464.47
436.42	472.27
436.79	479.49
437.16	487.35
437.53	495.62
437.90	503.70
438.27	511.76
438.64	520.14
439.01	527.74
439.38	534.42
439.75	541.05
440.13	548.65
440.50	555.62
440.87	561.50
441.24	567.51
441.61	574.22
441.98	579.04
442.35	584.76
442.72	590.73
443.09	596.28
443.46	599.72
443.83	601.89
444.20	603.90
444.57	606.66
444.94	607.94
445.31	609.19
445.68	610.62
446.05	611.05
446.42	610.32
446.79	609.38
447.16	608.24
447.53	607.45
447.90	604.33
448.27	601.28
448.64	597.00
449.01	593.89
449.37	588.27
449.74	582.92
450.11	576.68
450.48	569.78
450.85	562.75
451.22	556.57
451.59	550.85
451.96	545.32
452.33	538.11
452.70	531.40
453.07	523.62
453.43	515.37
453.80	507.70
454.17	500.24
454.54	493.22
454.91	485.78
455.28	478.54
455.65	471.65
456.02	465.24
456.38	459.50
456.75	452.30
457.12	446.28
457.49	440.54
457.86	434.70
458.23	429.82
458.59	424.56
458.96	419.16
459.33	414.40
459.70	409.54
460.07	405.77
460.43	401.46
460.80	397.39
461.17	394.03
461.54	390.24
461.91	386.69
462.27	383.12
462.64	380.07
463.01	376.74
463.38	373.67
463.74	370.05
464.11	367.07
464.48	364.72
464.85	362.10
465.21	359.94
465.58	357.80
465.95	355.10
466.32	352.88
466.68	350.81
467.05	348.66
467.42	346.58
467.78	344.29
468.15	342.25
468.52	340.86
468.88	338.83
469.25	337.14
469.62	335.77
469.98	334.29
470.35	332.97
470.72	331.72
471.08	330.31
471.45	329.28
471.82	328.34
472.18	327.01
472.55	326.22
472.92	325.25
473.28	324.40
473.65	323.66
474.02	322.90
474.38	322.35
474.75	321.89
475.11	321.42
475.48	321.20
475.85	320.93
476.21	320.62
476.58	320.44
476.94	320.55
477.31	320.58
477.67	320.53
478.04	320.60
478.41	320.84
478.77	321.45
479.14	321.68
479.50	322.05
479.87	322.66
480.23	323.33
480.60	323.91
480.96	324.64
481.33	325.64
481.69	326.62
482.06	327.59
482.42	328.58
482.79	329.78
483.15	331.20
483.52	332.84
483.88	334.39
484.25	336.06
484.61	337.77
484.98	339.47
485.34	341.66
485.71	343.91
486.07	346.24
486.44	348.31
486.80	350.88
487.17	353.64
487.53	356.69
487.90	359.86
488.26	363.30
488.62	366.91
488.99	370.58
489.35	374.29
489.72	378.32
490.08	382.73
490.44	387.13
490.81	391.73
491.17	396.47
491.54	401.73
491.90	407.10
492.26	412.78
492.63	418.71
492.99	424.87
493.36	431.47
493.72	438.49
494.08	445.69
494.45	453.21
494.81	461.31
495.17	469.34
495.54	477.93
495.90	486.86
496.26	496.13
496.63	505.83
496.99	516.12
497.35	526.72
497.72	537.85
498.08	549.41
498.44	561.36
498.80	573.95
499.17	586.91
499.53	600.34
499.89	614.21
500.26	628.62
500.62	643.29
500.98	658.71
501.34	674.38
501.71	690.93
502.07	707.95
502.43	725.16
502.79	742.77
503.16	761.22
503.52	780.36
503.88	799.83
504.24	819.95
504.60	840.28
504.97	861.54
505.33	883.05
505.69	905.84
506.05	928.88
506.41	952.32
506.78	976.07
507.14	1000.52
507.50	1025.69
507.86	1051.35
508.22	1077.59
508.59	1104.03
508.95	1131.35
509.31	1159.08
509.67	1187.26
510.03	1215.91
510.39	1246.02
510.75	1275.84
511.12	1306.29
511.48	1337.12
511.84	1368.32
512.20	1399.60
512.56	1431.71
512.92	1464.14
513.28	1496.79
513.64	1529.71
514.00	1562.53
514.37	1595.69
514.73	1629.52
515.09	1663.43
515.45	1697.48
515.81	1731.73
516.17	1766.18
516.53	1800.77
516.89	1835.69
517.25	1870.44
517.61	1905.30
517.97	1939.56
518.33	1973.93
518.69	2008.51
519.05	2043.43
519.41	2078.26
519.77	2114.37
520.13	2149.24
520.49	2183.88
520.85	2219.04
521.21	2254.20
521.57	2289.89
521.93	2324.38
522.29	2360.24
522.65	2395.65
523.01	2430.43
523.37	2464.36
523.73	2499.12
524.09	2533.21
524.45	2567.66
524.81	2602.02
525.17	2636.65
525.53	2671.11
525.89	2705.49
526.25	2739.29
526.61	2772.00
526.97	2804.99
527.33	2836.96
527.68	2869.55
528.04	2901.27
528.40	2931.33
528.76	2962.38
529.12	2993.60
529.48	3025.79
529.84	3056.14
530.20	3086.16
530.56	3116.35
530.91	3147.88
531.27	3177.89
531.63	3207.58
531.99	3236.02
532.35	3263.84
532.71	3291.68
533.07	3319.80
533.42	3346.06
533.78	3372.95
534.14	3399.57
534.50	3424.18
534.86	3450.20
535.21	3473.67
535.57	3499.42
535.93	3523.62
536.29	3546.49
536.65	3569.36
537.00	3590.77
537.36	3611.56
537.72	3631.68
538.08	3652.24
538.44	3672.35
538.79	3692.72
539.15	3712.45
539.51	3731.70
539.87	3751.92
540.22	3770.26
540.58	3788.81
540.94	3807.52
541.29	3823.88
541.65	3839.69
542.01	3856.22
542.37	3871.02
542.72	3887.00
543.08	3900.19
543.44	3915.62
543.79	3929.21
544.15	3941.27
544.51	3954.70
544.87	3967.90
545.22	3980.50
545.58	3991.35
545.94	4000.35
546.29	4008.53
546.65	4016.46
547.01	4024.46
547.36	4031.15
547.72	4037.77
548.07	4042.63
548.43	4047.68
548.79	4052.67
549.14	4057.70
549.50	4062.49
549.86	4066.20
550.21	4069.70
550.57	4073.51
550.92	4075.35
551.28	4077.63
551.64	4080.03
551.99	4081.54
552.35	4082.23
552.70	4083.10
553.06	4084.27
553.41	4085.39
553.77	4085.99
554.13	4086.45
554.48	4086.65
554.84	4086.79
555.19	4086.57
555.55	4085.70
555.90	4083.93
556.26	4082.43
556.61	4080.29
556.97	4077.36
557.32	4075.23
557.68	4071.60
558.03	4068.02
558.39	4064.32
558.74	4062.27
559.10	4059.57
559.45	4056.06
559.81	4053.03
560.16	4048.40
560.52	4044.41
560.87	4039.86
561.23	4034.08
561.58	4029.48
561.94	4023.30
562.29	4016.58
562.64	4011.04
563.00	4005.58
563.35	4000.85
563.71	3996.17
564.06	3991.07
564.42	3986.31
564.77	3981.11
565.12	3976.52
565.48	3970.70
565.83	3965.85
566.19	3960.67
566.54	3952.95
566.89	3945.87
567.25	3938.67
567.60	3932.30
567.96	3924.65
568.31	3917.85
568.66	3910.34
569.02	3901.66
569.37	3893.00
569.72	3885.34
570.08	3875.96
570.43	3866.91
570.78	3857.23
571.14	3846.72
571.49	3836.14
571.84	3826.83
572.20	3815.68
572.55	3805.43
572.90	3794.77
573.26	3782.84
573.61	3769.81
573.96	3758.48
574.31	3745.63
574.67	3732.47
575.02	3718.68
575.37	3706.22
575.72	3691.68
576.08	3680.20
576.43	3666.55
576.78	3654.29
577.13	3642.15
577.49	3629.88
577.84	3616.72
578.19	3604.96
578.54	3594.05
578.90	3583.25
579.25	3569.87
579.60	3556.76
579.95	3542.62
580.30	3529.89
580.66	3517.85
581.01	3504.56
581.36	3490.93
581.71	3478.15
582.06	3465.43
582.42	3453.22
582.77	3439.13
583.12	3426.36
583.47	3413.55
583.82	3401.81
584.17	3388.65
584.53	3375.57
584.88	3362.38
585.23	3349.52
585.58	3335.79
585.93	3321.34
586.28	3307.98
586.63	3294.75
586.98	3282.25
587.34	3270.71
587.69	3257.92
588.04	3244.68
588.39	3232.10
588.74	3218.81
589.09	3206.71
589.44	3193.58
589.79	3181.16
590.14	3169.64
590.49	3157.36
590.84	3144.09
591.19	3132.63
591.54	3120.41
591.89	3106.00
592.25	3093.02
592.60	3079.58
592.95	3065.74
593.30	3051.07
593.65	3036.26
594.00	3022.43
594.35	3010.69
594.70	2997.08
595.05	2984.44
595.40	2971.54
595.75	2957.95
596.10	2946.32
596.45	2933.91
596.80	2922.49
597.15	2910.65
597.50	2897.46
597.85	2885.57
598.19	2872.93
598.54	2859.96
598.89	2848.11
599.24	2838.00
599.59	2826.30
599.94	2816.05
600.29	2804.94
600.64	2794.68
600.99	2783.04
601.34	2772.28
601.69	2759.29
602.04	2746.99
602.39	2734.83
602.74	2723.25
603.08	2713.39
603.43	2702.63
603.78	2691.27
604.13	2679.32
604.48	2668.04
604.83	2658.64
605.18	2648.56
605.53	2637.65
605.87	2626.31
606.22	2615.78
606.57	2603.98
606.92	2592.63
607.27	2580.37
607.62	2569.26
607.96	2558.48
608.31	2548.74
608.66	2536.80
609.01	2525.13
609.36	2513.42
609.70	2501.15
610.05	2489.02
610.40	2476.38
610.75	2463.82
611.10	2452.15
611.44	2439.11
611.79	2425.64
612.14	2411.38
612.49	2397.18
612.83	2384.31
613.18	2370.77
613.53	2356.89
613.88	2342.78
614.22	2329.97
614.57	2317.12
614.92	2303.92
615.27	2290.08
615.61	2276.48
615.96	2264.40
616.31	2252.34
616.65	2241.16
617.00	2229.64
617.35	2217.48
617.70	2204.69
618.04	2191.21
618.39	2177.45
618.74	2165.15
619.08	2152.51
619.43	2140.28
619.78	2128.37
620.12	2116.02
620.47	2104.17
620.82	2091.51
621.16	2079.22
621.51	2066.53
621.85	2054.24
622.20	2041.59
622.55	2029.48
622.89	2016.58
623.24	2003.84
623.59	1990.77
623.93	1977.60
624.28	1965.28
624.62	1953.19
624.97	1941.31
625.32	1930.10
625.66	1919.20
626.01	1907.95
626.35	1896.87
626.70	1885.37
627.04	1873.88
627.39	1862.80
627.73	1851.60
628.08	1841.09
628.43	1829.76
628.77	1818.50
629.12	1807.06
629.46	1796.94
629.81	1786.20
630.15	1775.62
630.50	1764.43
630.84	1753.49
631.19	1742.80
631.53	1731.97
631.88	1720.48
632.22	1709.13
632.57	1698.66
632.91	1687.24
633.26	1676.25
633.60	1665.40
633.95	1655.06
634.29	1644.22
634.64	1633.78
634.98	1622.66
635.32	1611.93
635.67	1602.65
636.01	1592.63
636.36	1582.25
636.70	1571.67
637.05	1561.31
637.39	1551.46
637.73	1542.44
638.08	1533.47
638.42	1524.30
638.77	1514.69
639.11	1505.07
639.45	1495.65
639.80	1485.35
640.14	1475.36
640.49	1465.43
640.83	1455.38
641.17	1445.36
641.52	1435.67
641.86	1425.17
642.20	1415.42
642.55	1405.09
642.89	1394.56
643.23	1384.43
643.58	1374.98
643.92	1364.60
644.26	1354.70
644.61	1344.76
644.95	1334.55
645.29	1324.21
645.64	1313.77
645.98	1303.78
646.32	1294.59
646.66	1284.52
647.01	1275.23
647.35	1266.25
647.69	1256.23
648.04	1247.12
648.38	1237.48
648.72	1227.96
649.06	1218.80
649.41	1209.34
649.75	1200.07
650.09	1190.84
650.43	1181.67
650.78	1171.74
651.12	1162.49
651.46	1153.23
651.80	1144.44
652.14	1135.19
652.49	1126.17
652.83	1117.06
653.17	1107.34
653.51	1097.79
653.85	1089.17
654.20	1080.13
654.54	1070.70
654.88	1062.34
655.22	1053.17
655.56	1044.14
655.90	1035.35
656.25	1026.70
656.59	1018.12
656.93	1009.80
657.27	1001.52
657.61	992.82
657.95	985.10
658.29	977.12
658.64	969.25
658.98	960.82
659.32	952.44
659.66	944.45
660.00	936.23
660.34	928.46
660.68	920.36
661.02	912.17
661.36	904.46
661.70	897.25
662.05	889.85
662.39	882.74
662.73	875.72
663.07	868.80
663.41	861.76
663.75	854.90
664.09	847.78
664.43	840.62
664.77	833.71
665.11	826.57
665.45	819.81
665.79	813.12
666.13	806.64
666.47	800.04
666.81	793.51
667.15	787.05
667.49	781.20
667.83	775.56
668.17	769.67
668.51	763.90
668.85	758.00
669.19	752.38
669.53	746.42
669.87	740.51
670.21	734.79
670.55	728.99
670.89	723.66
671.23	718.40
671.57	712.95
671.91	707.64
672.25	702.30
672.58	696.99
672.92	691.70
673.26	686.48
673.60	681.54
673.94	676.48
674.28	671.75
674.62	666.93
674.96	661.94
675.30	657.19
675.64	652.28
675.97	647.29
676.31	642.63
676.65	638.11
676.99	633.75
677.33	629.03
677.67	624.31
678.01	619.37
678.34	614.85
678.68	610.55
679.02	606.07
679.36	601.86
679.70	597.65
680.04	593.31
680.37	589.09
680.71	584.92
681.05	580.87
681.39	576.74
681.73	572.48
682.06	568.61
682.40	564.78
682.74	560.70
683.08	556.87
683.42	552.58
683.75	548.53
684.09	544.59
684.43	540.76
684.77	537.08
685.10	533.52
685.44	529.56
685.78	525.83
686.12	522.55
686.45	518.91
686.79	515.24
687.13	511.84
687.46	508.43
687.80	505.04
688.14	501.43
688.48	498.06
688.81	494.44
689.15	490.95
689.49	487.30
689.82	484.05
690.16	480.44
690.50	476.94
690.83	473.71
691.17	470.40
691.51	467.20
691.84	464.02
692.18	460.90
692.52	457.99
692.85	455.14
693.19	452.02
693.52	449.07
693.86	446.11
694.20	443.26
694.53	440.42
694.87	437.45
695.21	434.72
695.54	431.91
695.88	429.07
696.21	426.18
696.55	423.73
696.88	420.93
697.22	418.38
697.56	416.07
697.89	413.47
698.23	410.81
698.56	408.33
698.90	406.12
699.23	403.52
699.57	401.09
699.90	398.53
700.24	396.07
700.58	393.70
700.91	391.54
701.25	389.46
701.58	387.23
701.92	384.98
702.25	382.77
702.59	380.48
702.92	378.56
703.26	376.48
703.59	374.31
703.93	372.67
704.26	370.84
704.60	368.84
704.93	366.94
705.26	365.06
705.60	363.17
705.93	361.15
706.27	359.39
706.60	357.74
706.94	356.14
707.27	354.30
707.61	352.55
707.94	350.58
708.27	348.49
708.61	346.64
708.94	345.11
709.28	343.53
709.61	341.94
709.94	340.43
710.28	338.96
710.61	337.54
710.95	335.57
711.28	334.12
711.61	332.56
711.95	331.07
712.28	329.63
712.61	328.16
712.95	326.78
713.28	325.45
713.61	323.98
713.95	322.49
714.28	321.24
714.61	319.83
714.95	318.65
715.28	317.34
715.61	316.04
715.95	314.60
716.28	313.23
716.61	311.96
716.95	310.60
717.28	309.23
717.61	307.93
717.94	306.80
718.28	305.44
718.61	304.38
718.94	303.24
719.27	302.17
719.61	301.10
719.94	300.00
720.27	298.83
720.60	297.68
720.94	296.66
721.27	295.68
721.60	294.79
721.93	293.74
722.27	292.88
722.60	291.96
722.93	291.10
723.26	290.29
723.59	289.42
723.93	288.44
724.26	287.69
724.59	286.78
724.92	285.96
725.25	285.19
725.59	284.31
725.92	283.57
726.25	282.74
726.58	282.00
726.91	281.16
727.24	280.43
727.57	279.74
727.91	278.88
728.24	278.14
728.57	277.35
728.90	276.65
729.23	275.84
729.56	275.27
729.89	274.60
730.22	273.70
730.55	272.96
730.89	272.40
731.22	271.58
731.55	270.91
731.88	270.29
732.21	269.61
732.54	268.91
732.87	268.11
733.20	267.49
733.53	266.76
733.86	266.18
734.19	265.50
734.52	264.99
734.85	264.61
735.18	263.98
735.51	263.46
735.84	262.87
736.17	262.40
736.50	261.66
736.83	261.42
737.16	260.98
737.49	260.45
737.82	259.74
738.15	259.31
738.48	258.76
738.81	258.23
739.14	257.66
739.47	257.07
739.80	256.61
740.13	256.08
740.46	255.52
740.79	254.90
741.12	254.37
741.45	253.72
741.78	253.08
742.11	252.68
742.44	252.08
742.77	251.74
743.10	251.20
743.43	250.66
743.75	249.83
744.08	249.78
744.41	249.27
744.74	248.94
745.07	248.45
745.40	248.20
745.73	247.90
746.06	247.45
746.39	247.09
746.71	246.65
747.04	246.22
747.37	245.83
747.70	245.53
748.03	245.16
748.36	244.79
748.68	244.40
749.01	243.86
749.34	243.55
749.67	243.16
750.00	242.84
750.33	242.71
750.65	242.41
750.98	241.57
751.31	241.25
751.64	240.89
751.97	240.69
752.29	240.27
752.62	239.73
752.95	239.37
753.28	239.10
753.60	238.81
753.93	238.57
754.26	238.28
754.59	237.86
754.91	237.57
755.24	237.25
755.57	236.92
755.90	236.65
756.22	236.29
756.55	235.89
756.88	235.49
757.20	235.08
757.53	234.67
757.86	234.45
758.19	234.24
758.51	233.94
758.84	233.48
759.17	233.14
759.49	232.85
759.82	232.72
760.15	232.46
760.47	232.19
760.80	231.84
761.13	231.62
761.45	231.40
761.78	231.14
762.11	230.90
762.43	230.65
762.76	230.43
763.08	230.30
763.41	230.20
763.74	230.07
764.06	229.77
764.39	229.53
764.71	229.29
765.04	228.98
765.37	228.70
765.69	228.56
766.02	228.28
766.34	228.09
766.67	227.77
767.00	227.63
767.32	227.68
767.65	227.72
767.97	227.51
768.30	227.35
768.62	227.17
768.95	226.97
769.27	226.81
769.60	226.74
769.92	226.44
770.25	226.14
770.57	225.91
770.90	225.73
771.22	225.59
771.55	225.45
771.87	225.40
772.20	225.27
772.52	225.40
772.85	225.75
773.17	225.65
773.50	225.50
773.82	225.32
774.15	224.97
774.47	224.56
774.80	224.43
775.12	224.33
775.45	224.14
775.77	224.09
776.09	223.97
776.42	223.76
776.74	223.80
777.07	223.65
777.39	223.52
777.72	223.36
778.04	223.29
778.36	223.15
778.69	222.95
779.01	222.85
779.33	222.40
779.66	221.91
779.98	221.81
780.31	221.70
780.63	221.74
780.95	221.66
781.28	221.60
781.60	221.43
781.92	221.31
782.25	221.24
782.57	221.03
782.89	220.86
783.22	220.79
783.54	220.56
783.86	220.54
784.19	220.45
784.51	220.46
784.83	220.31
785.16	220.34
