SpectraSuite Data File
++++++++++++++++++++++++++++++++++++
Date: Mon Feb 25 17:13:46 EST 2013
User: group
Dark Spectrum Present: No
Reference Spectrum Present: No
Number of Sampled Component Spectra: 1
Spectrometers: USB2E7196
Integration Time (usec): 104000 (USB2E7196)
Spectra Averaged: 20 (USB2E7196)
Boxcar Smoothing: 10 (USB2E7196)
Correct for Electrical Dark: No (USB2E7196)
Strobe/Lamp Enabled: No (USB2E7196)
Correct for Detector Non-linearity: No (USB2E7196)
Correct for Stray Light: No (USB2E7196)
Number of Pixels in Processed Spectrum: 2048
>>>>>Begin Processed Spectral Data<<<<<
339.09	0.00
339.48	198.30
339.86	199.95
340.24	202.45
340.63	203.50
341.01	210.05
341.39	205.55
341.78	209.00
342.16	209.40
342.54	209.45
342.93	198.92
343.31	208.95
343.69	209.53
344.07	210.03
344.46	210.45
344.84	210.85
345.22	210.97
345.60	211.29
345.99	211.45
346.37	211.54
346.75	211.62
347.13	211.62
347.52	211.70
347.90	211.88
348.28	211.89
348.66	211.98
349.05	211.93
349.43	212.03
349.81	212.09
350.19	212.12
350.57	212.19
350.96	212.16
351.34	212.20
351.72	212.26
352.10	212.34
352.48	212.38
352.87	212.46
353.25	212.50
353.63	212.46
354.01	212.52
354.39	212.58
354.77	212.66
355.15	212.84
355.54	212.85
355.92	212.75
356.30	212.81
356.68	213.04
357.06	213.06
357.44	213.06
357.82	213.04
358.20	213.07
358.58	213.03
358.97	213.16
359.35	213.32
359.73	213.42
360.11	213.43
360.49	213.49
360.87	213.41
361.25	213.40
361.63	213.60
362.01	213.58
362.39	213.58
362.77	213.63
363.15	213.54
363.53	213.47
363.91	213.46
364.29	213.50
364.67	213.15
365.05	213.09
365.43	213.14
365.81	213.21
366.19	213.36
366.57	213.52
366.95	213.48
367.33	213.35
367.71	213.34
368.09	213.44
368.47	213.40
368.85	213.43
369.23	213.47
369.61	213.31
369.99	213.41
370.37	213.44
370.75	213.52
371.13	213.45
371.51	213.46
371.89	213.47
372.27	213.46
372.65	213.43
373.03	213.47
373.41	213.37
373.78	213.26
374.16	213.06
374.54	212.90
374.92	212.81
375.30	212.82
375.68	212.68
376.06	212.61
376.44	212.58
376.82	212.53
377.19	212.44
377.57	212.35
377.95	212.16
378.33	211.97
378.71	211.79
379.09	211.78
379.47	211.75
379.84	211.72
380.22	211.63
380.60	211.64
380.98	211.55
381.36	211.58
381.73	211.51
382.11	211.58
382.49	211.52
382.87	211.42
383.25	211.37
383.62	211.82
384.00	211.76
384.38	211.70
384.76	211.76
385.13	211.89
385.51	211.87
385.89	211.84
386.27	211.86
386.64	211.89
387.02	211.77
387.40	211.73
387.78	211.68
388.15	211.66
388.53	211.55
388.91	211.53
389.29	211.41
389.66	211.42
390.04	211.31
390.42	211.40
390.79	211.48
391.17	211.46
391.55	211.03
391.92	210.99
392.30	211.08
392.68	210.99
393.05	210.91
393.43	210.97
393.81	210.95
394.18	210.94
394.56	210.93
394.94	211.08
395.31	210.99
395.69	211.04
396.06	211.07
396.44	211.14
396.82	211.17
397.19	211.33
397.57	211.31
397.95	211.39
398.32	211.30
398.70	211.33
399.07	211.41
399.45	211.38
399.82	211.33
400.20	211.25
400.58	211.25
400.95	211.17
401.33	211.22
401.70	211.54
402.08	211.59
402.45	211.60
402.83	211.68
403.20	211.84
403.58	211.89
403.95	212.04
404.33	212.16
404.71	212.20
405.08	212.45
405.46	212.58
405.83	212.66
406.21	212.78
406.58	212.86
406.96	212.93
407.33	213.11
407.70	213.31
408.08	213.76
408.45	213.96
408.83	214.18
409.20	214.35
409.58	214.34
409.95	214.65
410.33	214.90
410.70	215.05
411.08	215.35
411.45	215.64
411.82	215.84
412.20	216.16
412.57	216.68
412.95	216.72
413.32	217.19
413.69	217.61
414.07	218.10
414.44	218.63
414.82	219.15
415.19	219.70
415.56	220.26
415.94	220.62
416.31	221.39
416.68	222.05
417.06	222.79
417.43	223.58
417.81	224.45
418.18	225.38
418.55	226.30
418.93	227.29
419.30	228.34
419.67	229.53
420.04	230.66
420.42	231.75
420.79	233.44
421.16	234.71
421.54	236.31
421.91	237.78
422.28	239.26
422.66	240.88
423.03	242.64
423.40	244.37
423.77	246.18
424.15	247.84
424.52	249.66
424.89	251.74
425.26	253.64
425.64	255.45
426.01	257.34
426.38	259.46
426.75	261.64
427.13	263.67
427.50	265.86
427.87	268.23
428.24	270.62
428.61	272.64
428.99	275.33
429.36	277.80
429.73	280.41
430.10	283.10
430.47	285.81
430.85	288.49
431.22	291.38
431.59	294.73
431.96	297.77
432.33	301.16
432.70	304.36
433.08	308.19
433.45	311.82
433.82	315.53
434.19	319.58
434.56	323.48
434.93	327.26
435.30	330.96
435.68	335.05
436.05	339.06
436.42	343.11
436.79	346.70
437.16	350.67
437.53	354.82
437.90	358.90
438.27	363.01
438.64	367.18
439.01	371.18
439.38	374.45
439.75	377.92
440.13	381.71
440.50	385.37
440.87	388.26
441.24	391.22
441.61	394.48
441.98	396.90
442.35	399.65
442.72	402.67
443.09	405.57
443.46	407.23
443.83	408.33
444.20	409.27
444.57	410.61
444.94	411.37
445.31	412.14
445.68	413.05
446.05	413.30
446.42	412.89
446.79	412.39
447.16	411.84
447.53	411.38
447.90	409.81
448.27	408.07
448.64	405.88
449.01	404.27
449.37	401.54
449.74	398.75
450.11	395.85
450.48	392.21
450.85	388.60
451.22	385.56
451.59	382.65
451.96	379.82
452.33	376.07
452.70	372.56
453.07	368.44
453.43	364.14
453.80	360.22
454.17	356.51
454.54	352.91
454.91	349.10
455.28	345.36
455.65	341.87
456.02	338.98
456.38	335.97
456.75	332.40
457.12	329.30
457.49	326.34
457.86	323.15
458.23	320.80
458.59	318.07
458.96	315.39
459.33	312.93
459.70	310.56
460.07	308.72
460.43	306.50
460.80	304.49
461.17	302.80
461.54	300.88
461.91	299.02
462.27	297.10
462.64	295.49
463.01	293.75
463.38	292.27
463.74	290.12
464.11	288.70
464.48	287.46
464.85	286.05
465.21	285.03
465.58	283.96
465.95	282.42
466.32	281.39
466.68	280.14
467.05	279.08
467.42	277.96
467.78	276.79
468.15	275.73
468.52	274.97
468.88	273.71
469.25	272.76
469.62	272.09
469.98	271.40
470.35	270.67
470.72	269.96
471.08	269.05
471.45	268.49
471.82	267.92
472.18	267.25
472.55	266.84
472.92	266.23
473.28	265.68
473.65	265.30
474.02	264.79
474.38	264.58
474.75	264.36
475.11	264.02
475.48	263.84
475.85	263.70
476.21	263.44
476.58	263.38
476.94	263.36
477.31	263.25
477.67	263.13
478.04	263.08
478.41	263.14
478.77	263.58
479.14	263.54
479.50	263.75
479.87	263.85
480.23	264.07
480.60	264.21
480.96	264.46
481.33	264.97
481.69	265.25
482.06	265.56
482.42	265.92
482.79	266.37
483.15	266.81
483.52	267.32
483.88	267.83
484.25	268.39
484.61	269.00
484.98	269.67
485.34	270.52
485.71	271.35
486.07	272.23
486.44	272.84
486.80	273.78
487.17	274.72
487.53	275.97
487.90	277.09
488.26	278.52
488.62	279.95
488.99	281.25
489.35	282.77
489.72	284.31
490.08	285.92
490.44	287.55
490.81	289.40
491.17	291.35
491.54	293.43
491.90	295.60
492.26	297.82
492.63	300.17
492.99	302.49
493.36	305.02
493.72	307.72
494.08	310.44
494.45	313.41
494.81	316.53
495.17	319.49
495.54	322.92
495.90	326.32
496.26	329.93
496.63	333.70
496.99	337.55
497.35	341.68
497.72	345.84
498.08	350.30
498.44	354.77
498.80	359.55
499.17	364.54
499.53	369.64
499.89	374.96
500.26	380.26
500.62	385.91
500.98	391.81
501.34	397.73
501.71	404.16
502.07	410.52
502.43	417.00
502.79	423.74
503.16	430.53
503.52	437.69
503.88	444.92
504.24	452.38
504.60	460.21
504.97	468.23
505.33	476.30
505.69	484.97
506.05	493.73
506.41	502.48
506.78	511.23
507.14	520.41
507.50	529.96
507.86	539.76
508.22	549.63
508.59	559.49
508.95	569.79
509.31	580.16
509.67	590.79
510.03	601.61
510.39	612.98
510.75	624.47
511.12	635.91
511.48	647.69
511.84	659.64
512.20	671.58
512.56	683.81
512.92	696.36
513.28	708.70
513.64	721.32
514.00	734.03
514.37	747.17
514.73	760.28
515.09	773.49
515.45	786.58
515.81	799.94
516.17	813.52
516.53	827.07
516.89	840.87
517.25	854.67
517.61	868.90
517.97	882.76
518.33	896.72
518.69	910.71
519.05	924.87
519.41	939.19
519.77	953.71
520.13	967.87
520.49	982.04
520.85	996.48
521.21	1011.13
521.57	1025.86
521.93	1040.11
522.29	1054.98
522.65	1069.46
523.01	1084.16
523.37	1098.58
523.73	1113.22
524.09	1127.79
524.45	1142.07
524.81	1156.66
525.17	1171.29
525.53	1185.67
525.89	1200.13
526.25	1214.73
526.61	1228.81
526.97	1242.78
527.33	1256.78
527.68	1271.17
528.04	1285.07
528.40	1298.64
528.76	1311.91
529.12	1325.68
529.48	1339.95
529.84	1353.21
530.20	1366.73
530.56	1380.15
530.91	1393.93
531.27	1407.44
531.63	1420.50
531.99	1433.86
532.35	1446.39
532.71	1458.56
533.07	1471.51
533.42	1484.04
533.78	1496.08
534.14	1508.24
534.50	1519.59
534.86	1531.36
535.21	1542.47
535.57	1554.35
535.93	1565.61
536.29	1576.85
536.65	1587.67
537.00	1597.54
537.36	1607.55
537.72	1617.38
538.08	1627.10
538.44	1636.73
538.79	1646.26
539.15	1655.86
539.51	1664.79
539.87	1674.85
540.22	1683.83
540.58	1693.00
540.94	1701.62
541.29	1709.77
541.65	1717.36
542.01	1725.96
542.37	1733.67
542.72	1741.36
543.08	1748.17
543.44	1755.86
543.79	1762.39
544.15	1768.83
544.51	1775.84
544.87	1782.70
545.22	1788.67
545.58	1794.51
545.94	1799.50
546.29	1804.20
546.65	1808.53
547.01	1813.10
547.36	1817.04
547.72	1821.22
548.07	1824.42
548.43	1827.68
548.79	1830.90
549.14	1834.15
549.50	1836.85
549.86	1839.31
550.21	1841.41
550.57	1844.18
550.92	1845.48
551.28	1847.49
551.64	1849.34
551.99	1851.32
552.35	1852.63
552.70	1854.03
553.06	1855.36
553.41	1856.58
553.77	1857.91
554.13	1859.37
554.48	1860.43
554.84	1861.13
555.19	1861.51
555.55	1861.66
555.90	1861.31
556.26	1861.23
556.61	1861.09
556.97	1860.20
557.32	1859.88
557.68	1858.80
558.03	1857.66
558.39	1857.05
558.74	1856.62
559.10	1855.89
559.45	1854.43
559.81	1853.56
560.16	1852.18
560.52	1851.20
560.87	1849.99
561.23	1848.16
561.58	1846.75
561.94	1844.73
562.29	1842.36
562.64	1840.48
563.00	1838.66
563.35	1837.48
563.71	1836.29
564.06	1834.47
564.42	1833.33
564.77	1831.96
565.12	1831.11
565.48	1829.40
565.83	1827.64
566.19	1825.70
566.54	1822.91
566.89	1820.62
567.25	1818.15
567.60	1816.06
567.96	1813.23
568.31	1810.65
568.66	1807.78
569.02	1804.32
569.37	1800.89
569.72	1797.97
570.08	1794.71
570.43	1791.35
570.78	1787.64
571.14	1783.45
571.49	1779.45
571.84	1775.84
572.20	1771.03
572.55	1766.81
572.90	1761.91
573.26	1756.97
573.61	1751.99
573.96	1747.69
574.31	1742.47
574.67	1737.10
575.02	1731.40
575.37	1726.01
575.72	1720.29
576.08	1715.44
576.43	1709.80
576.78	1704.87
577.13	1700.02
577.49	1694.86
577.84	1689.65
578.19	1684.94
578.54	1680.31
578.90	1676.00
579.25	1670.62
579.60	1665.16
579.95	1659.29
580.30	1654.76
580.66	1650.18
581.01	1645.04
581.36	1639.27
581.71	1633.89
582.06	1629.05
582.42	1624.21
582.77	1618.68
583.12	1613.65
583.47	1608.64
583.82	1604.00
584.17	1598.93
584.53	1593.74
584.88	1588.75
585.23	1583.41
585.58	1577.96
585.93	1572.50
586.28	1567.01
586.63	1561.71
586.98	1556.78
587.34	1552.64
587.69	1547.38
588.04	1542.24
588.39	1537.27
588.74	1531.98
589.09	1527.29
589.44	1521.94
589.79	1516.99
590.14	1512.31
590.49	1507.07
590.84	1501.54
591.19	1497.03
591.54	1491.86
591.89	1485.97
592.25	1480.70
592.60	1474.96
592.95	1469.06
593.30	1462.95
593.65	1457.16
594.00	1451.37
594.35	1447.63
594.70	1441.69
595.05	1436.43
595.40	1430.85
595.75	1425.12
596.10	1420.14
596.45	1415.05
596.80	1410.20
597.15	1405.57
597.50	1400.35
597.85	1395.42
598.19	1390.27
598.54	1384.85
598.89	1379.98
599.24	1375.84
599.59	1370.85
599.94	1367.11
600.29	1362.75
600.64	1358.57
600.99	1353.47
601.34	1349.22
601.69	1342.82
602.04	1337.64
602.39	1332.66
602.74	1328.07
603.08	1324.06
603.43	1320.04
603.78	1315.34
604.13	1310.68
604.48	1305.56
604.83	1301.68
605.18	1297.59
605.53	1293.08
605.87	1288.29
606.22	1283.87
606.57	1278.87
606.92	1274.22
607.27	1269.07
607.62	1264.08
607.96	1259.67
608.31	1255.85
608.66	1250.79
609.01	1246.00
609.36	1241.31
609.70	1236.10
610.05	1230.73
610.40	1225.43
610.75	1219.82
611.10	1214.78
611.44	1208.55
611.79	1202.72
612.14	1196.47
612.49	1190.56
612.83	1185.07
613.18	1179.16
613.53	1173.02
613.88	1166.90
614.22	1161.44
614.57	1155.38
614.92	1149.62
615.27	1143.74
615.61	1137.70
615.96	1132.20
616.31	1126.90
616.65	1121.82
617.00	1116.52
617.35	1111.25
617.70	1105.33
618.04	1099.58
618.39	1093.31
618.74	1088.17
619.08	1082.70
619.43	1077.21
619.78	1071.58
620.12	1066.01
620.47	1060.86
620.82	1055.15
621.16	1049.60
621.51	1043.83
621.85	1038.65
622.20	1033.18
622.55	1027.39
622.89	1021.75
623.24	1016.28
623.59	1010.38
623.93	1004.78
624.28	999.41
624.62	994.14
624.97	988.97
625.32	983.76
625.66	978.78
626.01	973.74
626.35	968.86
626.70	963.79
627.04	959.21
627.39	954.35
627.73	949.45
628.08	944.97
628.43	939.98
628.77	935.02
629.12	929.65
629.46	925.13
629.81	920.55
630.15	915.67
630.50	910.56
630.84	905.65
631.19	900.63
631.53	895.70
631.88	890.57
632.22	885.50
632.57	881.02
632.91	876.07
633.26	871.34
633.60	866.65
633.95	862.14
634.29	856.95
634.64	852.25
634.98	847.21
635.32	842.50
635.67	838.23
636.01	833.72
636.36	829.11
636.70	824.41
637.05	819.82
637.39	815.46
637.73	811.41
638.08	807.76
638.42	803.85
638.77	799.63
639.11	795.27
639.45	791.09
639.80	786.46
640.14	782.00
640.49	777.37
640.83	772.88
641.17	768.52
641.52	764.17
641.86	759.60
642.20	755.40
642.55	750.78
642.89	746.27
643.23	741.69
643.58	737.77
643.92	733.25
644.26	728.93
644.61	724.65
644.95	720.27
645.29	715.59
645.64	710.96
645.98	706.79
646.32	702.66
646.66	698.31
647.01	694.16
647.35	690.28
647.69	686.07
648.04	682.01
648.38	677.86
648.72	673.84
649.06	669.79
649.41	665.80
649.75	661.73
650.09	657.78
650.43	653.87
650.78	649.62
651.12	645.57
651.46	641.57
651.80	637.74
652.14	633.75
652.49	629.83
652.83	625.85
653.17	621.51
653.51	617.64
653.85	613.98
654.20	610.14
654.54	606.15
654.88	602.28
655.22	598.47
655.56	594.40
655.90	590.56
656.25	586.79
656.59	582.79
656.93	579.23
657.27	575.56
657.61	571.67
657.95	568.32
658.29	564.91
658.64	561.43
658.98	557.80
659.32	554.12
659.66	550.61
660.00	546.96
660.34	543.53
660.68	539.88
661.02	536.19
661.36	532.81
661.70	529.60
662.05	526.47
662.39	523.20
662.73	520.15
663.07	517.26
663.41	514.22
663.75	511.13
664.09	507.89
664.43	504.64
664.77	501.62
665.11	498.35
665.45	495.35
665.79	492.49
666.13	489.52
666.47	486.50
666.81	483.51
667.15	480.80
667.49	478.25
667.83	475.62
668.17	473.05
668.51	470.36
668.85	467.70
669.19	465.20
669.53	462.55
669.87	459.82
670.21	457.17
670.55	454.55
670.89	452.33
671.23	450.11
671.57	447.85
671.91	445.60
672.25	443.22
672.58	440.72
672.92	438.11
673.26	435.82
673.60	433.72
673.94	431.49
674.28	429.23
674.62	427.05
674.96	424.77
675.30	422.58
675.64	420.44
675.97	418.40
676.31	416.20
676.65	414.14
676.99	412.40
677.33	410.23
677.67	408.19
678.01	405.95
678.34	403.84
678.68	401.86
679.02	399.80
679.36	397.87
679.70	395.86
680.04	393.98
680.37	392.07
680.71	390.13
681.05	388.35
681.39	386.56
681.73	384.69
682.06	382.98
682.40	381.21
682.74	379.42
683.08	377.59
683.42	375.90
683.75	374.23
684.09	372.29
684.43	370.59
684.77	368.76
685.10	367.11
685.44	365.33
685.78	363.60
686.12	362.03
686.45	360.52
686.79	358.87
687.13	357.33
687.46	355.74
687.80	354.36
688.14	352.66
688.48	351.08
688.81	349.56
689.15	348.07
689.49	346.49
689.82	344.93
690.16	343.31
690.50	341.70
690.83	340.09
691.17	338.48
691.51	336.91
691.84	335.65
692.18	334.20
692.52	332.89
692.85	331.65
693.19	330.45
693.52	329.00
693.86	327.70
694.20	326.43
694.53	325.08
694.87	323.63
695.21	322.29
695.54	320.93
695.88	319.54
696.21	318.10
696.55	316.84
696.88	315.56
697.22	314.33
697.56	313.25
697.89	312.05
698.23	310.90
698.56	309.72
698.90	308.62
699.23	307.50
699.57	306.31
699.90	305.04
700.24	303.64
700.58	302.44
700.91	301.42
701.25	300.55
701.58	299.57
701.92	298.50
702.25	297.41
702.59	296.41
702.92	295.45
703.26	294.55
703.59	293.64
703.93	292.99
704.26	292.12
704.60	291.13
704.93	290.19
705.26	289.35
705.60	288.48
705.93	287.49
706.27	286.65
706.60	285.95
706.94	285.29
707.27	284.50
707.61	283.74
707.94	282.86
708.27	281.78
708.61	280.89
708.94	280.08
709.28	279.43
709.61	278.60
709.94	277.82
710.28	277.06
710.61	276.30
710.95	275.24
711.28	274.65
711.61	273.84
711.95	273.18
712.28	272.37
712.61	271.71
712.95	271.16
713.28	270.65
713.61	269.83
713.95	269.01
714.28	268.48
714.61	267.72
714.95	267.17
715.28	266.46
715.61	265.73
715.95	265.25
716.28	264.57
716.61	264.10
716.95	263.43
717.28	262.76
717.61	262.16
717.94	261.55
718.28	260.75
718.61	260.21
718.94	259.64
719.27	259.11
719.61	258.57
719.94	257.87
720.27	257.06
720.60	256.51
720.94	256.10
721.27	255.50
721.60	255.11
721.93	254.57
722.27	254.32
722.60	254.00
722.93	253.47
723.26	253.02
723.59	252.43
723.93	252.07
724.26	251.67
724.59	251.28
724.92	250.90
725.25	250.52
725.59	250.12
725.92	249.79
726.25	249.37
726.58	249.03
726.91	248.69
727.24	248.39
727.57	248.02
727.91	247.47
728.24	247.11
728.57	246.74
728.90	246.43
729.23	245.94
729.56	245.76
729.89	245.36
730.22	245.06
730.55	244.75
730.89	244.31
731.22	243.96
731.55	243.51
731.88	243.24
732.21	242.89
732.54	242.45
732.87	242.08
733.20	241.77
733.53	241.47
733.86	241.20
734.19	240.85
734.52	240.67
734.85	240.63
735.18	240.25
735.51	239.99
735.84	239.75
736.17	239.48
736.50	238.88
736.83	238.99
737.16	238.67
737.49	238.40
737.82	238.22
738.15	237.95
738.48	237.71
738.81	237.36
739.14	237.09
739.47	236.86
739.80	236.55
740.13	236.28
740.46	235.88
740.79	235.54
741.12	235.33
741.45	234.95
741.78	234.49
742.11	234.37
742.44	234.10
742.77	233.85
743.10	233.53
743.43	233.30
743.75	232.72
744.08	232.95
744.41	232.69
744.74	232.46
745.07	232.25
745.40	232.14
745.73	232.12
746.06	231.91
746.39	231.73
746.71	231.50
747.04	231.30
747.37	231.06
747.70	230.96
748.03	230.70
748.36	230.53
748.68	230.27
749.01	229.97
749.34	229.78
749.67	229.56
750.00	229.45
750.33	229.53
750.65	229.33
750.98	228.73
751.31	228.56
751.64	228.38
751.97	228.30
752.29	228.07
752.62	227.71
752.95	227.44
753.28	227.25
753.60	227.00
753.93	226.87
754.26	226.75
754.59	226.39
754.91	226.20
755.24	226.04
755.57	225.92
755.90	225.73
756.22	225.56
756.55	225.30
756.88	225.14
757.20	224.71
757.53	224.40
757.86	224.24
758.19	224.09
758.51	223.79
758.84	223.48
759.17	223.24
759.49	223.11
759.82	223.22
760.15	223.05
760.47	222.88
760.80	222.64
761.13	222.53
761.45	222.44
761.78	222.24
762.11	222.09
762.43	221.97
762.76	221.87
763.08	221.72
763.41	221.63
763.74	221.53
764.06	221.39
764.39	221.27
764.71	221.04
765.04	220.92
765.37	220.87
765.69	220.78
766.02	220.74
766.34	220.59
766.67	220.29
767.00	220.31
767.32	220.51
767.65	220.75
767.97	220.65
768.30	220.54
768.62	220.50
768.95	220.33
769.27	220.24
769.60	220.16
769.92	219.91
770.25	219.80
770.57	219.60
770.90	219.61
771.22	219.57
771.55	219.60
771.87	219.50
772.20	219.33
772.52	219.51
772.85	219.85
773.17	219.83
773.50	219.80
773.82	219.57
774.15	219.28
774.47	218.86
774.80	218.78
775.12	218.79
775.45	218.72
775.77	218.74
776.09	218.68
776.42	218.71
776.74	218.81
777.07	218.75
777.39	218.70
777.72	218.54
778.04	218.51
778.36	218.45
778.69	218.39
779.01	218.43
779.33	218.07
779.66	217.55
779.98	217.43
780.31	217.31
780.63	217.43
780.95	217.43
781.28	217.39
781.60	217.27
781.92	217.15
782.25	217.09
782.57	217.07
782.89	216.94
783.22	216.74
783.54	216.68
783.86	216.65
784.19	216.52
784.51	216.63
784.83	216.52
785.16	216.45
785.48	216.52
785.80	216.46
786.12	216.44
786.45	216.40
786.77	216.43
787.09	216.40
787.42	216.17
787.74	216.10
788.06	216.09
