SpectraSuite Data File
++++++++++++++++++++++++++++++++++++
Date: Mon Feb 25 17:00:46 EST 2013
User: group
Dark Spectrum Present: No
Reference Spectrum Present: No
Number of Sampled Component Spectra: 1
Spectrometers: USB2E7196
Integration Time (usec): 104000 (USB2E7196)
Spectra Averaged: 20 (USB2E7196)
Boxcar Smoothing: 10 (USB2E7196)
Correct for Electrical Dark: No (USB2E7196)
Strobe/Lamp Enabled: No (USB2E7196)
Correct for Detector Non-linearity: No (USB2E7196)
Correct for Stray Light: No (USB2E7196)
Number of Pixels in Processed Spectrum: 2048
>>>>>Begin Processed Spectral Data<<<<<
339.09	0.00
339.48	197.85
339.86	199.80
340.24	201.80
340.63	202.95
341.01	209.95
341.39	206.15
341.78	207.40
342.16	208.85
342.54	208.60
342.93	198.32
343.31	208.30
343.69	208.89
344.07	209.33
344.46	209.83
344.84	210.17
345.22	210.21
345.60	210.43
345.99	210.63
346.37	210.70
346.75	210.85
347.13	210.87
347.52	210.95
347.90	211.04
348.28	211.06
348.66	211.14
349.05	211.01
349.43	211.06
349.81	211.04
350.19	211.05
350.57	211.08
350.96	211.13
351.34	211.17
351.72	211.26
352.10	211.35
352.48	211.34
352.87	211.42
353.25	211.42
353.63	211.48
354.01	211.46
354.39	211.60
354.77	211.63
355.15	211.77
355.54	211.79
355.92	211.74
356.30	211.89
356.68	212.14
357.06	212.24
357.44	212.27
357.82	212.35
358.20	212.52
358.58	212.54
358.97	212.51
359.35	212.77
359.73	212.85
360.11	212.97
360.49	212.97
360.87	213.01
361.25	213.15
361.63	213.29
362.01	213.36
362.39	213.32
362.77	213.36
363.15	213.47
363.53	213.50
363.91	213.60
364.29	213.60
364.67	213.35
365.05	213.37
365.43	213.43
365.81	213.48
366.19	213.59
366.57	213.80
366.95	213.85
367.33	213.76
367.71	213.75
368.09	213.75
368.47	213.77
368.85	213.77
369.23	213.87
369.61	213.77
369.99	213.88
370.37	213.94
370.75	214.10
371.13	213.93
371.51	213.92
371.89	213.90
372.27	213.92
372.65	213.94
373.03	213.96
373.41	213.86
373.78	213.85
374.16	213.67
374.54	213.47
374.92	213.44
375.30	213.34
375.68	213.18
376.06	213.15
376.44	213.15
376.82	213.11
377.19	213.03
377.57	212.93
377.95	212.76
378.33	212.69
378.71	212.36
379.09	212.42
379.47	212.35
379.84	212.23
380.22	212.11
380.60	211.97
380.98	211.89
381.36	211.81
381.73	211.66
382.11	211.65
382.49	211.64
382.87	211.54
383.25	211.46
383.62	211.93
384.00	211.88
384.38	211.77
384.76	211.75
385.13	211.85
385.51	211.83
385.89	211.77
386.27	211.71
386.64	211.79
387.02	211.70
387.40	211.63
387.78	211.69
388.15	211.70
388.53	211.64
388.91	211.52
389.29	211.48
389.66	211.53
390.04	211.42
390.42	211.50
390.79	211.47
391.17	211.46
391.55	211.04
391.92	210.94
392.30	210.92
392.68	210.90
393.05	210.81
393.43	210.80
393.81	210.78
394.18	210.75
394.56	210.78
394.94	210.90
395.31	210.88
395.69	210.93
396.06	210.94
396.44	210.97
396.82	210.97
397.19	211.20
397.57	211.15
397.95	211.20
398.32	211.07
398.70	211.09
399.07	211.24
399.45	211.23
399.82	211.31
400.20	211.39
400.58	211.44
400.95	211.36
401.33	211.46
401.70	211.81
402.08	211.92
402.45	211.96
402.83	212.04
403.20	212.14
403.58	212.20
403.95	212.36
404.33	212.53
404.71	212.70
405.08	212.98
405.46	213.22
405.83	213.39
406.21	213.59
406.58	213.87
406.96	213.97
407.33	214.27
407.70	214.59
408.08	215.14
408.45	215.47
408.83	215.87
409.20	216.15
409.58	216.28
409.95	216.68
410.33	217.12
410.70	217.47
411.08	218.07
411.45	218.61
411.82	219.13
412.20	219.86
412.57	220.68
412.95	221.08
413.32	221.82
413.69	222.65
414.07	223.50
414.44	224.46
414.82	225.58
415.19	226.70
415.56	227.80
415.94	228.89
416.31	230.26
416.68	231.64
417.06	233.31
417.43	235.00
417.81	236.78
418.18	238.53
418.55	240.41
418.93	242.43
419.30	244.52
419.67	246.75
420.04	249.02
420.42	251.46
420.79	254.49
421.16	257.26
421.54	260.21
421.91	263.28
422.28	266.39
422.66	269.58
423.03	273.01
423.40	276.52
423.77	280.13
424.15	283.75
424.52	287.61
424.89	291.78
425.26	295.75
425.64	299.57
426.01	303.87
426.38	308.45
426.75	313.00
427.13	317.74
427.50	322.66
427.87	327.87
428.24	332.88
428.61	337.59
428.99	343.20
429.36	349.10
429.73	354.94
430.10	360.86
430.47	366.92
430.85	372.94
431.22	379.45
431.59	386.68
431.96	393.55
432.33	401.02
432.70	408.24
433.08	416.74
433.45	424.88
433.82	432.92
434.19	441.83
434.56	450.60
434.93	459.14
435.30	467.71
435.68	477.06
436.05	486.46
436.42	495.93
436.79	504.51
437.16	513.83
437.53	523.53
437.90	533.14
438.27	542.81
438.64	552.86
439.01	562.29
439.38	570.46
439.75	578.48
440.13	587.67
440.50	596.36
440.87	603.59
441.24	611.14
441.61	619.42
441.98	625.72
442.35	633.10
442.72	640.42
443.09	647.56
443.46	652.09
443.83	655.42
444.20	658.37
444.57	662.31
444.94	664.56
445.31	667.07
445.68	669.49
446.05	670.83
446.42	670.55
446.79	670.16
447.16	669.62
447.53	669.53
447.90	666.81
448.27	663.92
448.64	659.71
449.01	656.67
449.37	650.96
449.74	645.56
450.11	638.88
450.48	631.45
450.85	623.75
451.22	617.19
451.59	611.00
451.96	605.05
452.33	596.87
452.70	589.44
453.07	580.43
453.43	571.23
453.80	562.54
454.17	554.30
454.54	546.33
454.91	537.80
455.28	529.35
455.65	521.54
456.02	514.10
456.38	507.48
456.75	499.24
457.12	492.34
457.49	485.43
457.86	478.65
458.23	472.98
458.59	466.72
458.96	460.48
459.33	454.72
459.70	449.00
460.07	444.60
460.43	439.56
460.80	434.75
461.17	430.60
461.54	426.03
461.91	421.80
462.27	417.37
462.64	413.67
463.01	409.61
463.38	405.70
463.74	401.48
464.11	398.02
464.48	394.93
464.85	391.61
465.21	389.08
465.58	386.40
465.95	383.02
466.32	380.29
466.68	377.46
467.05	374.81
467.42	372.09
467.78	369.09
468.15	366.34
468.52	364.33
468.88	361.62
469.25	359.22
469.62	357.24
469.98	355.25
470.35	353.36
470.72	351.58
471.08	349.45
471.45	347.83
471.82	346.17
472.18	344.33
472.55	342.99
472.92	341.20
473.28	339.68
473.65	338.22
474.02	336.75
474.38	335.64
474.75	334.77
475.11	333.69
475.48	332.96
475.85	332.04
476.21	331.31
476.58	330.61
476.94	330.29
477.31	329.61
477.67	328.97
478.04	328.43
478.41	328.14
478.77	328.14
479.14	327.78
479.50	327.35
479.87	327.34
480.23	327.24
480.60	327.18
480.96	327.03
481.33	327.31
481.69	327.50
482.06	327.65
482.42	327.61
482.79	327.78
483.15	328.01
483.52	328.59
483.88	328.86
484.25	329.25
484.61	329.55
484.98	330.01
485.34	330.63
485.71	331.34
486.07	331.87
486.44	332.15
486.80	332.87
487.17	333.79
487.53	334.71
487.90	335.76
488.26	336.92
488.62	338.29
488.99	339.30
489.35	340.50
489.72	341.84
490.08	343.22
490.44	344.63
490.81	346.18
491.17	347.53
491.54	349.11
491.90	350.76
492.26	352.41
492.63	354.20
492.99	356.00
493.36	357.82
493.72	359.87
494.08	362.05
494.45	364.26
494.81	366.47
495.17	368.64
495.54	370.97
495.90	373.27
496.26	375.47
496.63	377.94
496.99	380.32
497.35	382.69
497.72	385.14
498.08	387.66
498.44	390.20
498.80	393.03
499.17	395.68
499.53	398.38
499.89	401.20
500.26	403.84
500.62	406.48
500.98	409.40
501.34	412.07
501.71	414.86
502.07	417.38
502.43	419.91
502.79	422.36
503.16	424.70
503.52	427.19
503.88	429.53
504.24	432.00
504.60	434.45
504.97	437.08
505.33	439.50
505.69	442.00
506.05	444.37
506.41	446.54
506.78	448.61
507.14	450.67
507.50	452.68
507.86	454.70
508.22	456.71
508.59	458.33
508.95	460.28
509.31	462.09
509.67	463.85
510.03	465.62
510.39	467.38
510.75	469.12
511.12	470.61
511.48	472.19
511.84	473.57
512.20	474.92
512.56	476.04
512.92	477.44
513.28	478.67
513.64	479.60
514.00	480.50
514.37	481.47
514.73	482.47
515.09	483.47
515.45	484.25
515.81	484.88
516.17	485.61
516.53	486.06
516.89	486.46
517.25	487.06
517.61	487.46
517.97	487.90
518.33	488.03
518.69	488.34
519.05	488.67
519.41	488.95
519.77	489.38
520.13	489.53
520.49	489.58
520.85	489.60
521.21	489.82
521.57	489.96
521.93	489.99
522.29	490.02
522.65	489.89
523.01	490.11
523.37	490.11
523.73	490.28
524.09	490.41
524.45	490.52
524.81	490.49
525.17	490.86
525.53	491.11
525.89	491.45
526.25	491.69
526.61	491.77
526.97	492.01
527.33	492.24
527.68	492.96
528.04	493.37
528.40	493.77
528.76	494.27
529.12	494.98
529.48	495.78
529.84	496.44
530.20	497.23
530.56	497.95
530.91	499.08
531.27	500.02
531.63	500.85
531.99	501.85
532.35	503.00
532.71	503.86
533.07	505.00
533.42	506.59
533.78	507.86
534.14	509.30
534.50	510.50
534.86	511.88
535.21	513.02
535.57	514.46
535.93	515.99
536.29	517.69
536.65	519.33
537.00	520.80
537.36	522.35
537.72	524.02
538.08	525.65
538.44	527.19
538.79	528.84
539.15	530.72
539.51	532.62
539.87	534.54
540.22	536.70
540.58	538.93
540.94	540.79
541.29	542.96
541.65	544.95
542.01	547.26
542.37	549.48
542.72	551.76
543.08	554.14
543.44	556.58
543.79	558.74
544.15	561.15
544.51	563.79
544.87	566.56
545.22	569.14
545.58	571.91
545.94	574.43
546.29	576.98
546.65	579.54
547.01	582.10
547.36	584.62
547.72	586.87
548.07	589.35
548.43	591.77
548.79	594.17
549.14	596.82
549.50	599.65
549.86	602.19
550.21	604.73
550.57	607.42
550.92	609.84
551.28	612.40
551.64	614.94
551.99	617.59
552.35	619.99
552.70	622.44
553.06	624.85
553.41	627.54
553.77	630.47
554.13	633.10
554.48	635.87
554.84	638.71
555.19	641.62
555.55	644.28
555.90	646.67
556.26	649.18
556.61	651.60
556.97	653.74
557.32	656.22
557.68	658.61
558.03	660.85
558.39	663.15
558.74	665.52
559.10	667.81
559.45	669.98
559.81	672.43
560.16	674.71
560.52	676.97
560.87	679.34
561.23	681.24
561.58	683.54
561.94	685.51
562.29	687.35
562.64	689.44
563.00	691.40
563.35	693.61
563.71	695.96
564.06	698.17
564.42	700.44
564.77	702.65
565.12	704.80
565.48	707.11
565.83	709.33
566.19	711.62
566.54	713.54
566.89	715.53
567.25	717.49
567.60	719.58
567.96	721.85
568.31	723.73
568.66	725.57
569.02	727.04
569.37	728.48
569.72	730.23
570.08	731.79
570.43	733.19
570.78	734.51
571.14	735.45
571.49	736.41
571.84	737.59
572.20	738.33
572.55	739.31
572.90	739.75
573.26	740.41
573.61	740.72
573.96	741.35
574.31	741.71
574.67	742.06
575.02	742.14
575.37	741.88
575.72	741.74
576.08	741.76
576.43	741.71
576.78	741.86
577.13	741.92
577.49	741.73
577.84	741.68
578.19	741.75
578.54	742.05
578.90	742.35
579.25	742.06
579.60	741.84
579.95	741.33
580.30	741.18
580.66	740.96
581.01	740.74
581.36	740.34
581.71	740.17
582.06	739.81
582.42	739.60
582.77	739.24
583.12	738.97
583.47	738.79
583.82	738.59
584.17	738.22
584.53	737.77
584.88	737.02
585.23	736.58
585.58	735.87
585.93	735.09
586.28	734.55
586.63	734.08
586.98	733.66
587.34	733.59
587.69	732.89
588.04	732.28
588.39	731.69
588.74	730.90
589.09	730.10
589.44	729.31
589.79	728.60
590.14	727.90
590.49	727.04
590.84	725.91
591.19	725.27
591.54	724.28
591.89	723.03
592.25	722.54
592.60	721.16
592.95	719.96
593.30	718.77
593.65	717.32
594.00	715.80
594.35	715.54
594.70	713.70
595.05	712.48
595.40	711.11
595.75	709.53
596.10	708.22
596.45	706.99
596.80	705.81
597.15	704.46
597.50	702.94
597.85	701.71
598.19	700.40
598.54	698.83
598.89	697.55
599.24	696.35
599.59	694.75
599.94	693.61
600.29	692.43
600.64	691.01
600.99	689.57
601.34	688.36
601.69	685.80
602.04	684.47
602.39	683.11
602.74	681.95
603.08	680.92
603.43	679.83
603.78	678.27
604.13	676.60
604.48	675.06
604.83	674.12
605.18	672.78
605.53	671.27
605.87	669.79
606.22	668.32
606.57	666.84
606.92	665.49
607.27	663.90
607.62	662.30
607.96	660.97
608.31	659.68
608.66	658.15
609.01	656.57
609.36	655.07
609.70	653.41
610.05	651.30
610.40	649.51
610.75	647.55
611.10	646.00
611.44	644.04
611.79	642.30
612.14	640.21
612.49	637.94
612.83	636.16
613.18	634.09
613.53	632.15
613.88	629.98
614.22	627.84
614.57	625.82
614.92	623.86
615.27	621.70
615.61	619.58
615.96	617.57
616.31	615.75
616.65	613.86
617.00	611.88
617.35	609.93
617.70	607.68
618.04	605.44
618.39	603.06
618.74	601.16
619.08	598.80
619.43	596.67
619.78	594.80
620.12	592.73
620.47	590.74
620.82	588.47
621.16	586.25
621.51	584.26
621.85	582.22
622.20	580.05
622.55	577.87
622.89	575.55
623.24	573.45
623.59	571.20
623.93	569.01
624.28	566.91
624.62	565.16
624.97	563.39
625.32	561.44
625.66	559.43
626.01	557.39
626.35	555.58
626.70	553.46
627.04	551.53
627.39	549.41
627.73	547.62
628.08	545.83
628.43	543.90
628.77	541.75
629.12	539.62
629.46	537.70
629.81	535.75
630.15	533.96
630.50	531.89
630.84	529.74
631.19	527.72
631.53	525.67
631.88	523.27
632.22	520.89
632.57	519.09
632.91	517.19
633.26	515.26
633.60	513.28
633.95	511.41
634.29	509.49
634.64	507.82
634.98	505.71
635.32	503.88
635.67	502.25
636.01	500.42
636.36	498.67
636.70	496.92
637.05	495.13
637.39	493.25
637.73	491.65
638.08	490.31
638.42	488.75
638.77	487.16
639.11	485.65
639.45	484.04
639.80	482.10
640.14	480.26
640.49	478.33
640.83	476.45
641.17	474.66
641.52	472.71
641.86	470.71
642.20	468.99
642.55	466.90
642.89	464.98
643.23	463.12
643.58	461.43
643.92	459.55
644.26	457.68
644.61	455.93
644.95	454.03
645.29	452.02
645.64	450.08
645.98	448.20
646.32	446.41
646.66	444.52
647.01	442.78
647.35	441.13
647.69	439.43
648.04	437.85
648.38	436.02
648.72	434.31
649.06	432.52
649.41	430.81
649.75	429.21
650.09	427.46
650.43	425.73
650.78	423.81
651.12	422.03
651.46	420.34
651.80	418.73
652.14	416.98
652.49	415.46
652.83	413.83
653.17	412.11
653.51	410.30
653.85	408.87
654.20	407.34
654.54	405.69
654.88	404.00
655.22	402.36
655.56	400.64
655.90	398.87
656.25	397.13
656.59	395.33
656.93	393.73
657.27	392.29
657.61	390.64
657.95	389.10
658.29	387.49
658.64	386.02
658.98	384.39
659.32	382.69
659.66	381.09
660.00	379.35
660.34	377.66
660.68	376.01
661.02	374.23
661.36	372.68
661.70	371.07
662.05	369.61
662.39	368.21
662.73	367.00
663.07	365.86
663.41	364.64
663.75	363.31
664.09	361.91
664.43	360.37
664.77	359.03
665.11	357.72
665.45	356.49
665.79	355.26
666.13	353.70
666.47	352.43
666.81	351.04
667.15	349.77
667.49	348.59
667.83	347.62
668.17	346.49
668.51	345.16
668.85	344.00
669.19	342.98
669.53	341.52
669.87	340.18
670.21	338.91
670.55	337.72
670.89	336.78
671.23	335.70
671.57	334.60
671.91	333.47
672.25	332.41
672.58	331.33
672.92	330.07
673.26	329.13
673.60	328.20
673.94	327.14
674.28	326.09
674.62	325.22
674.96	324.13
675.30	323.12
675.64	322.21
675.97	321.23
676.31	320.20
676.65	319.36
676.99	318.58
677.33	317.64
677.67	316.62
678.01	315.47
678.34	314.59
678.68	313.65
679.02	312.68
679.36	311.75
679.70	310.87
680.04	309.96
680.37	309.08
680.71	308.03
681.05	307.29
681.39	306.51
681.73	305.60
682.06	304.75
682.40	303.99
682.74	303.14
683.08	302.43
683.42	301.48
683.75	300.66
684.09	299.70
684.43	298.82
684.77	298.00
685.10	297.20
685.44	296.24
685.78	295.43
686.12	294.69
686.45	293.82
686.79	292.89
687.13	292.19
687.46	291.48
687.80	290.91
688.14	290.09
688.48	289.24
688.81	288.48
689.15	287.78
689.49	286.86
689.82	286.18
690.16	285.31
690.50	284.52
690.83	283.71
691.17	282.89
691.51	282.11
691.84	281.39
692.18	280.64
692.52	279.95
692.85	279.35
693.19	278.75
693.52	278.04
693.86	277.35
694.20	276.68
694.53	275.94
694.87	275.15
695.21	274.44
695.54	273.82
695.88	273.07
696.21	272.23
696.55	271.66
696.88	270.88
697.22	270.23
697.56	269.73
697.89	269.11
698.23	268.56
698.56	267.95
698.90	267.35
699.23	266.76
699.57	266.25
699.90	265.47
700.24	264.80
700.58	264.31
700.91	263.85
701.25	263.49
701.58	263.09
701.92	262.63
702.25	262.08
702.59	261.53
702.92	261.01
703.26	260.60
703.59	260.09
703.93	259.95
704.26	259.45
704.60	258.96
704.93	258.53
705.26	258.01
705.60	257.60
705.93	257.13
706.27	256.72
706.60	256.30
706.94	256.12
707.27	255.66
707.61	255.20
707.94	254.70
708.27	254.05
708.61	253.44
708.94	252.97
709.28	252.57
709.61	252.15
709.94	251.78
710.28	251.37
710.61	250.99
710.95	250.31
711.28	250.18
711.61	249.76
711.95	249.37
712.28	248.96
712.61	248.53
712.95	248.31
713.28	248.10
713.61	247.66
713.95	247.18
714.28	246.81
714.61	246.36
714.95	245.98
715.28	245.57
715.61	245.18
715.95	244.83
716.28	244.39
716.61	244.10
716.95	243.68
717.28	243.36
717.61	243.07
717.94	242.68
718.28	242.09
718.61	241.69
718.94	241.31
719.27	241.05
719.61	240.74
719.94	240.40
720.27	239.91
720.60	239.69
720.94	239.37
721.27	239.18
721.60	238.98
721.93	238.71
722.27	238.51
722.60	238.32
722.93	237.91
723.26	237.81
723.59	237.50
723.93	237.26
724.26	236.93
724.59	236.60
724.92	236.37
725.25	236.12
725.59	235.95
725.92	235.83
726.25	235.56
726.58	235.36
726.91	235.09
727.24	234.84
727.57	234.55
727.91	234.27
728.24	234.03
728.57	233.79
728.90	233.60
729.23	233.34
729.56	233.39
729.89	233.32
730.22	233.05
730.55	232.82
730.89	232.66
731.22	232.45
731.55	232.24
731.88	232.07
732.21	231.90
732.54	231.61
732.87	231.34
733.20	231.15
733.53	230.88
733.86	230.62
734.19	230.42
734.52	230.30
734.85	230.41
735.18	230.20
735.51	230.15
735.84	229.98
736.17	229.85
736.50	229.35
736.83	229.56
737.16	229.32
737.49	229.14
737.82	228.89
738.15	228.83
738.48	228.67
738.81	228.51
739.14	228.26
739.47	228.20
739.80	228.00
740.13	227.85
740.46	227.70
740.79	227.60
741.12	227.46
741.45	227.25
741.78	226.88
742.11	226.76
742.44	226.44
742.77	226.28
743.10	226.01
743.43	225.90
743.75	225.32
744.08	225.65
744.41	225.48
744.74	225.32
745.07	225.12
745.40	225.07
745.73	225.04
746.06	224.93
746.39	224.76
746.71	224.67
747.04	224.46
747.37	224.34
747.70	224.20
748.03	224.11
748.36	224.05
748.68	223.90
749.01	223.64
749.34	223.50
749.67	223.44
750.00	223.45
750.33	223.57
750.65	223.46
750.98	222.85
751.31	222.75
751.64	222.73
751.97	222.75
752.29	222.54
752.62	222.29
752.95	222.16
753.28	221.97
753.60	221.78
753.93	221.79
754.26	221.67
754.59	221.46
754.91	221.25
755.24	221.11
755.57	221.00
755.90	220.90
756.22	220.77
756.55	220.52
756.88	220.31
757.20	219.91
757.53	219.78
757.86	219.76
758.19	219.74
758.51	219.62
758.84	219.35
759.17	219.24
759.49	219.17
759.82	219.25
760.15	219.16
760.47	219.12
760.80	218.91
761.13	218.83
761.45	218.81
761.78	218.77
762.11	218.64
762.43	218.54
762.76	218.46
763.08	218.54
763.41	218.48
763.74	218.49
764.06	218.45
764.39	218.37
764.71	218.24
765.04	218.08
765.37	217.99
765.69	217.88
766.02	217.87
766.34	217.70
766.67	217.51
767.00	217.52
767.32	217.67
767.65	217.83
767.97	217.81
768.30	217.71
768.62	217.55
768.95	217.49
769.27	217.48
769.60	217.44
769.92	217.24
770.25	217.16
770.57	217.06
770.90	216.96
771.22	216.86
771.55	216.76
771.87	216.73
772.20	216.66
772.52	216.90
772.85	217.24
773.17	217.20
773.50	217.15
773.82	216.99
774.15	216.70
774.47	216.42
774.80	216.33
775.12	216.27
775.45	216.28
775.77	216.22
776.09	216.18
776.42	216.13
776.74	216.22
777.07	216.15
777.39	216.09
777.72	216.03
778.04	216.00
778.36	215.90
778.69	215.85
779.01	215.77
779.33	215.44
779.66	214.97
779.98	214.97
780.31	214.89
780.63	214.99
780.95	215.00
781.28	214.94
781.60	214.85
781.92	214.85
782.25	214.79
782.57	214.74
782.89	214.61
783.22	214.51
783.54	214.37
783.86	214.39
784.19	214.30
784.51	214.40
784.83	214.34
785.16	214.38
785.48	214.37
785.80	214.37
786.12	214.38
786.45	214.33
786.77	214.31
787.09	214.27
787.42	214.16
787.74	214.21
788.06	214.26
788.38	214.24
788.71	214.18
789.03	214.22
789.35	214.18
789.67	214.11
789.99	214.17
790.32	214.14
790.64	214.15
790.96	214.48
791.28	214.37
791.61	214.36
791.93	214.37
792.25	214.34
792.57	214.60
792.89	214.53
793.21	214.57
793.54	214.49
793.86	214.49
794.18	214.53
