SpectraSuite Data File
++++++++++++++++++++++++++++++++++++
Date: Mon Feb 25 17:15:55 EST 2013
User: group
Dark Spectrum Present: No
Reference Spectrum Present: No
Number of Sampled Component Spectra: 1
Spectrometers: USB2E7196
Integration Time (usec): 104000 (USB2E7196)
Spectra Averaged: 20 (USB2E7196)
Boxcar Smoothing: 10 (USB2E7196)
Correct for Electrical Dark: No (USB2E7196)
Strobe/Lamp Enabled: No (USB2E7196)
Correct for Detector Non-linearity: No (USB2E7196)
Correct for Stray Light: No (USB2E7196)
Number of Pixels in Processed Spectrum: 2048
>>>>>Begin Processed Spectral Data<<<<<
339.09	0.00
339.48	197.75
339.86	200.75
340.24	200.70
340.63	201.90
341.01	207.80
341.39	204.95
341.78	207.45
342.16	208.05
342.54	207.50
342.93	197.98
343.31	208.00
343.69	208.59
344.07	208.96
344.46	209.42
344.84	209.84
345.22	209.96
345.60	210.26
345.99	210.47
346.37	210.66
346.75	210.81
347.13	210.85
347.52	210.89
347.90	211.07
348.28	211.11
348.66	211.18
349.05	210.98
349.43	211.02
349.81	211.14
350.19	211.27
350.57	211.30
350.96	211.45
351.34	211.50
351.72	211.58
352.10	211.75
352.48	211.81
352.87	211.95
353.25	212.06
353.63	212.11
354.01	212.12
354.39	212.21
354.77	212.32
355.15	212.46
355.54	212.48
355.92	212.40
356.30	212.45
356.68	212.79
357.06	213.02
357.44	213.05
357.82	213.11
358.20	213.13
358.58	213.23
358.97	213.30
359.35	213.45
359.73	213.55
360.11	213.58
360.49	213.70
360.87	213.69
361.25	213.77
361.63	213.98
362.01	214.10
362.39	214.10
362.77	214.17
363.15	214.20
363.53	214.30
363.91	214.37
364.29	214.37
364.67	214.07
365.05	214.12
365.43	214.21
365.81	214.17
366.19	214.38
366.57	214.49
366.95	214.44
367.33	214.39
367.71	214.45
368.09	214.59
368.47	214.58
368.85	214.53
369.23	214.63
369.61	214.50
369.99	214.63
370.37	214.66
370.75	214.80
371.13	214.69
371.51	214.65
371.89	214.69
372.27	214.71
372.65	214.72
373.03	214.65
373.41	214.55
373.78	214.56
374.16	214.35
374.54	214.22
374.92	214.15
375.30	214.05
375.68	213.93
376.06	213.85
376.44	213.82
376.82	213.86
377.19	213.79
377.57	213.72
377.95	213.54
378.33	213.47
378.71	213.20
379.09	213.25
379.47	213.23
379.84	213.06
380.22	213.05
380.60	212.93
380.98	212.91
381.36	212.93
381.73	212.86
382.11	212.85
382.49	212.79
382.87	212.76
383.25	212.72
383.62	213.11
384.00	212.97
384.38	212.87
384.76	212.83
385.13	212.84
385.51	212.79
385.89	212.61
386.27	212.57
386.64	212.61
387.02	212.50
387.40	212.45
387.78	212.52
388.15	212.47
388.53	212.45
388.91	212.37
389.29	212.28
389.66	212.24
390.04	212.18
390.42	212.26
390.79	212.23
391.17	212.26
391.55	211.86
391.92	211.86
392.30	211.90
392.68	211.84
393.05	211.85
393.43	211.84
393.81	211.83
394.18	211.81
394.56	211.73
394.94	211.87
395.31	211.85
395.69	211.89
396.06	211.87
396.44	211.85
396.82	211.82
397.19	212.02
397.57	211.98
397.95	212.05
398.32	211.98
398.70	212.07
399.07	212.15
399.45	212.06
399.82	212.08
400.20	212.04
400.58	212.10
400.95	211.94
401.33	212.06
401.70	212.35
402.08	212.33
402.45	212.40
402.83	212.47
403.20	212.48
403.58	212.51
403.95	212.68
404.33	212.82
404.71	212.93
405.08	213.17
405.46	213.36
405.83	213.46
406.21	213.52
406.58	213.61
406.96	213.73
407.33	213.96
407.70	214.13
408.08	214.61
408.45	214.88
408.83	215.23
409.20	215.33
409.58	215.43
409.95	215.70
410.33	216.04
410.70	216.19
411.08	216.57
411.45	216.85
411.82	217.13
412.20	217.61
412.57	218.20
412.95	218.32
413.32	218.80
413.69	219.19
414.07	219.70
414.44	220.25
414.82	220.83
415.19	221.46
415.56	222.12
415.94	222.69
416.31	223.50
416.68	224.28
417.06	225.26
417.43	226.25
417.81	227.30
418.18	228.39
418.55	229.49
418.93	230.67
419.30	231.96
419.67	233.25
420.04	234.52
420.42	235.84
420.79	237.74
421.16	239.38
421.54	241.24
421.91	243.03
422.28	244.73
422.66	246.69
423.03	248.78
423.40	250.78
423.77	252.83
424.15	254.83
424.52	256.92
424.89	259.30
425.26	261.49
425.64	263.77
426.01	266.06
426.38	268.63
426.75	271.19
427.13	273.86
427.50	276.56
427.87	279.42
428.24	282.26
428.61	284.72
428.99	287.79
429.36	290.83
429.73	293.97
430.10	297.29
430.47	300.55
430.85	303.75
431.22	307.35
431.59	311.22
431.96	314.83
432.33	318.87
432.70	322.75
433.08	327.31
433.45	331.51
433.82	335.76
434.19	340.43
434.56	345.22
434.93	349.47
435.30	353.88
435.68	358.79
436.05	363.53
436.42	368.30
436.79	372.61
437.16	377.37
437.53	382.37
437.90	387.27
438.27	392.20
438.64	397.16
439.01	401.81
439.38	405.77
439.75	409.81
440.13	414.44
440.50	418.72
440.87	422.19
441.24	425.76
441.61	429.77
441.98	432.71
442.35	435.87
442.72	439.39
443.09	442.77
443.46	444.68
443.83	446.07
444.20	447.21
444.57	448.83
444.94	449.65
445.31	450.47
445.68	451.54
446.05	451.60
446.42	451.26
446.79	450.61
447.16	449.86
447.53	449.26
447.90	447.19
448.27	445.11
448.64	442.47
449.01	440.55
449.37	437.15
449.74	433.85
450.11	430.32
450.48	426.06
450.85	421.75
451.22	418.05
451.59	414.57
451.96	411.30
452.33	406.88
452.70	402.72
453.07	397.92
453.43	392.80
453.80	388.25
454.17	383.66
454.54	379.37
454.91	374.97
455.28	370.59
455.65	366.56
456.02	363.07
456.38	359.61
456.75	355.39
457.12	351.80
457.49	348.29
457.86	344.61
458.23	341.89
458.59	338.69
458.96	335.49
459.33	332.53
459.70	329.66
460.07	327.44
460.43	324.83
460.80	322.46
461.17	320.36
461.54	318.02
461.91	315.85
462.27	313.67
462.64	311.77
463.01	309.81
463.38	307.93
463.74	305.48
464.11	303.70
464.48	302.21
464.85	300.57
465.21	299.45
465.58	298.26
465.95	296.52
466.32	295.22
466.68	293.93
467.05	292.77
467.42	291.43
467.78	290.03
468.15	288.86
468.52	287.85
468.88	286.52
469.25	285.42
469.62	284.63
469.98	283.75
470.35	282.89
470.72	282.01
471.08	281.07
471.45	280.39
471.82	279.86
472.18	279.04
472.55	278.64
472.92	277.90
473.28	277.24
473.65	276.72
474.02	276.25
474.38	275.90
474.75	275.54
475.11	275.15
475.48	274.97
475.85	274.74
476.21	274.60
476.58	274.60
476.94	274.69
477.31	274.63
477.67	274.54
478.04	274.58
478.41	274.72
478.77	275.18
479.14	275.20
479.50	275.33
479.87	275.70
480.23	275.91
480.60	276.15
480.96	276.49
481.33	277.06
481.69	277.48
482.06	278.02
482.42	278.53
482.79	279.14
483.15	279.83
483.52	280.71
483.88	281.45
484.25	282.26
484.61	283.06
484.98	283.94
485.34	285.24
485.71	286.54
486.07	287.81
486.44	288.80
486.80	290.30
487.17	291.73
487.53	293.32
487.90	295.07
488.26	296.93
488.62	298.89
488.99	300.78
489.35	302.82
489.72	304.82
490.08	307.08
490.44	309.51
490.81	312.00
491.17	314.56
491.54	317.37
491.90	320.29
492.26	323.41
492.63	326.69
492.99	329.89
493.36	333.30
493.72	337.05
494.08	340.97
494.45	345.06
494.81	349.25
495.17	353.65
495.54	358.35
495.90	363.12
496.26	368.02
496.63	373.22
496.99	378.73
497.35	384.53
497.72	390.38
498.08	396.40
498.44	402.67
498.80	409.45
499.17	416.32
499.53	423.48
499.89	430.89
500.26	438.47
500.62	446.32
500.98	454.59
501.34	462.97
501.71	471.79
502.07	480.69
502.43	490.00
502.79	499.42
503.16	509.09
503.52	519.20
503.88	529.70
504.24	540.48
504.60	551.31
504.97	562.67
505.33	574.25
505.69	586.51
506.05	598.88
506.41	611.40
506.78	624.18
507.14	637.19
507.50	650.74
507.86	664.50
508.22	678.57
508.59	692.66
508.95	707.48
509.31	722.43
509.67	737.62
510.03	752.95
510.39	769.00
510.75	785.19
511.12	801.83
511.48	818.52
511.84	835.24
512.20	852.32
512.56	869.85
512.92	887.87
513.28	906.01
513.64	924.19
514.00	942.40
514.37	960.81
514.73	979.80
515.09	998.65
515.45	1017.62
515.81	1036.72
516.17	1055.97
516.53	1075.19
516.89	1094.71
517.25	1114.36
517.61	1134.03
517.97	1153.53
518.33	1173.30
518.69	1193.01
519.05	1213.03
519.41	1233.33
519.77	1254.09
520.13	1273.95
520.49	1293.48
520.85	1313.26
521.21	1333.41
521.57	1353.90
521.93	1374.01
522.29	1394.51
522.65	1414.83
523.01	1434.80
523.37	1454.62
523.73	1475.06
524.09	1495.05
524.45	1515.03
524.81	1535.00
525.17	1555.54
525.53	1575.62
525.89	1595.36
526.25	1615.09
526.61	1634.12
526.97	1653.19
527.33	1671.83
527.68	1691.31
528.04	1710.15
528.40	1728.18
528.76	1746.57
529.12	1764.93
529.48	1783.79
529.84	1801.64
530.20	1819.78
530.56	1838.13
530.91	1856.74
531.27	1874.96
531.63	1892.70
531.99	1910.07
532.35	1926.84
532.71	1943.12
533.07	1960.03
533.42	1976.35
533.78	1992.81
534.14	2009.11
534.50	2024.25
534.86	2040.29
535.21	2054.90
535.57	2070.55
535.93	2085.55
536.29	2099.97
536.65	2114.40
537.00	2127.95
537.36	2141.10
537.72	2153.72
538.08	2166.49
538.44	2179.23
538.79	2191.59
539.15	2203.80
539.51	2216.08
539.87	2228.80
540.22	2240.97
540.58	2252.81
540.94	2264.37
541.29	2274.57
541.65	2284.53
542.01	2295.19
542.37	2304.83
542.72	2314.74
543.08	2323.63
543.44	2333.54
543.79	2342.18
544.15	2349.98
544.51	2358.59
544.87	2367.50
545.22	2375.05
545.58	2381.78
545.94	2387.71
546.29	2393.29
546.65	2398.65
547.01	2403.90
547.36	2408.94
547.72	2413.35
548.07	2417.22
548.43	2420.98
548.79	2424.62
549.14	2428.33
549.50	2431.77
549.86	2434.25
550.21	2436.75
550.57	2439.88
550.92	2441.29
551.28	2443.22
551.64	2445.33
551.99	2447.07
552.35	2447.69
552.70	2449.23
553.06	2450.84
553.41	2452.19
553.77	2453.17
554.13	2453.79
554.48	2454.60
554.84	2455.35
555.19	2455.48
555.55	2454.79
555.90	2453.70
556.26	2452.83
556.61	2451.75
556.97	2449.99
557.32	2449.22
557.68	2447.44
558.03	2445.25
558.39	2443.62
558.74	2442.43
559.10	2440.73
559.45	2438.73
559.81	2437.29
560.16	2434.65
560.52	2432.27
560.87	2429.49
561.23	2426.34
561.58	2424.43
561.94	2420.61
562.29	2416.10
562.64	2413.13
563.00	2410.54
563.35	2408.43
563.71	2406.53
564.06	2403.97
564.42	2402.00
564.77	2399.26
565.12	2396.82
565.48	2394.00
565.83	2391.33
566.19	2388.67
566.54	2384.34
566.89	2379.89
567.25	2376.18
567.60	2372.86
567.96	2369.04
568.31	2365.40
568.66	2361.01
569.02	2355.84
569.37	2350.84
569.72	2346.52
570.08	2341.40
570.43	2335.81
570.78	2330.15
571.14	2324.14
571.49	2318.30
571.84	2312.47
572.20	2305.76
572.55	2299.80
572.90	2293.05
573.26	2285.97
573.61	2278.51
573.96	2272.32
574.31	2265.20
574.67	2257.17
575.02	2249.00
575.37	2241.07
575.72	2232.95
576.08	2226.43
576.43	2218.77
576.78	2211.98
577.13	2205.40
577.49	2198.60
577.84	2191.74
578.19	2185.14
578.54	2178.80
578.90	2172.21
579.25	2164.67
579.60	2157.07
579.95	2149.21
580.30	2142.68
580.66	2136.24
581.01	2128.85
581.36	2121.03
581.71	2113.60
582.06	2106.75
582.42	2099.83
582.77	2092.32
583.12	2085.19
583.47	2078.02
583.82	2071.26
584.17	2063.92
584.53	2056.54
584.88	2048.80
585.23	2041.27
585.58	2033.69
585.93	2025.96
586.28	2018.70
586.63	2011.48
586.98	2004.73
587.34	1998.17
587.69	1990.48
588.04	1982.89
588.39	1975.80
588.74	1968.33
589.09	1961.65
589.44	1953.79
589.79	1947.07
590.14	1940.50
590.49	1933.18
590.84	1925.56
591.19	1919.25
591.54	1912.15
591.89	1903.94
592.25	1896.61
592.60	1889.01
592.95	1881.06
593.30	1872.38
593.65	1864.07
594.00	1856.24
594.35	1850.00
594.70	1842.37
595.05	1835.30
595.40	1828.09
595.75	1820.21
596.10	1813.56
596.45	1806.78
596.80	1800.32
597.15	1793.59
597.50	1786.53
597.85	1779.86
598.19	1772.91
598.54	1765.72
598.89	1759.13
599.24	1753.37
599.59	1746.80
599.94	1741.25
600.29	1735.04
600.64	1729.09
600.99	1722.38
601.34	1716.34
601.69	1708.59
602.04	1701.60
602.39	1694.69
602.74	1687.95
603.08	1682.38
603.43	1676.74
603.78	1670.22
604.13	1663.93
604.48	1657.21
604.83	1651.60
605.18	1646.21
605.53	1639.76
605.87	1632.89
606.22	1626.90
606.57	1620.06
606.92	1613.76
607.27	1606.63
607.62	1599.97
607.96	1594.00
608.31	1588.35
608.66	1581.78
609.01	1574.92
609.36	1568.22
609.70	1561.18
610.05	1554.02
610.40	1546.73
610.75	1538.83
611.10	1532.19
611.44	1524.04
611.79	1516.29
612.14	1508.09
612.49	1499.51
612.83	1491.98
613.18	1484.10
613.53	1475.96
613.88	1467.73
614.22	1460.19
614.57	1452.34
614.92	1444.43
615.27	1436.21
615.61	1428.36
615.96	1420.77
616.31	1413.76
616.65	1406.95
617.00	1399.93
617.35	1392.80
617.70	1385.21
618.04	1377.35
618.39	1368.88
618.74	1361.71
619.08	1354.21
619.43	1346.76
619.78	1339.75
620.12	1332.32
620.47	1325.31
620.82	1317.75
621.16	1310.30
621.51	1302.45
621.85	1295.08
622.20	1287.85
622.55	1280.51
622.89	1272.79
623.24	1265.03
623.59	1257.34
623.93	1249.58
624.28	1242.16
624.62	1235.08
624.97	1228.07
625.32	1221.48
625.66	1214.79
626.01	1208.17
626.35	1201.61
626.70	1194.67
627.04	1188.08
627.39	1181.58
627.73	1174.88
628.08	1168.46
628.43	1161.87
628.77	1155.08
629.12	1148.46
629.46	1142.35
629.81	1135.98
630.15	1129.63
630.50	1123.17
630.84	1116.46
631.19	1109.85
631.53	1103.41
631.88	1096.37
632.22	1089.35
632.57	1083.01
632.91	1076.48
633.26	1070.14
633.60	1063.78
633.95	1057.80
634.29	1051.38
634.64	1045.24
634.98	1038.62
635.32	1032.64
635.67	1026.90
636.01	1021.23
636.36	1014.83
636.70	1008.49
637.05	1002.35
637.39	996.61
637.73	991.15
638.08	986.14
638.42	980.97
638.77	975.44
639.11	969.97
639.45	964.44
639.80	958.31
640.14	952.31
640.49	946.25
640.83	940.49
641.17	934.60
641.52	928.75
641.86	922.74
642.20	917.05
642.55	910.79
642.89	904.98
643.23	898.99
643.58	893.98
643.92	888.05
644.26	882.45
644.61	876.52
644.95	870.63
645.29	864.64
645.64	858.69
645.98	852.98
646.32	847.60
646.66	842.01
647.01	836.74
647.35	831.57
647.69	825.93
648.04	820.41
648.38	814.85
648.72	809.40
649.06	803.89
649.41	798.59
649.75	793.31
650.09	787.88
650.43	782.56
650.78	776.78
651.12	771.45
651.46	766.25
651.80	761.31
652.14	756.29
652.49	751.02
652.83	745.63
653.17	740.15
653.51	734.67
653.85	729.64
654.20	724.35
654.54	718.99
654.88	714.09
655.22	708.95
655.56	703.79
655.90	698.75
656.25	693.68
656.59	688.68
656.93	683.76
657.27	679.09
657.61	673.98
657.95	669.27
658.29	664.68
658.64	659.92
658.98	654.96
659.32	649.85
659.66	645.22
660.00	640.71
660.34	636.09
660.68	631.40
661.02	626.70
661.36	622.34
661.70	618.03
662.05	613.66
662.39	609.73
662.73	605.76
663.07	601.78
663.41	597.89
663.75	593.76
664.09	589.63
664.43	585.37
664.77	581.57
665.11	577.62
665.45	573.78
665.79	570.07
666.13	566.21
666.47	562.51
666.81	558.70
667.15	554.95
667.49	551.64
667.83	548.43
668.17	544.90
668.51	541.52
668.85	538.27
669.19	535.28
669.53	531.71
669.87	528.24
670.21	524.86
670.55	521.39
670.89	518.46
671.23	515.47
671.57	512.48
671.91	509.37
672.25	506.24
672.58	503.05
672.92	499.73
673.26	496.92
673.60	494.10
673.94	491.23
674.28	488.38
674.62	485.44
674.96	482.51
675.30	479.85
675.64	477.05
675.97	474.23
676.31	471.35
676.65	468.69
676.99	466.25
677.33	463.40
677.67	460.81
678.01	457.97
678.34	455.34
678.68	452.73
679.02	450.14
679.36	447.61
679.70	445.24
680.04	442.79
680.37	440.16
680.71	437.72
681.05	435.35
681.39	432.90
681.73	430.58
682.06	428.29
682.40	426.04
682.74	423.70
683.08	421.44
683.42	419.02
683.75	416.76
684.09	414.38
684.43	412.28
684.77	409.95
685.10	407.80
685.44	405.50
685.78	403.24
686.12	401.10
686.45	399.03
686.79	396.86
687.13	394.91
687.46	393.08
687.80	391.12
688.14	388.98
688.48	387.07
688.81	384.92
689.15	382.93
689.49	380.89
689.82	378.94
690.16	376.70
690.50	374.70
690.83	372.67
691.17	370.70
691.51	368.62
691.84	366.91
692.18	365.10
692.52	363.43
692.85	361.98
693.19	360.43
693.52	358.64
693.86	356.80
694.20	355.08
694.53	353.31
694.87	351.45
695.21	349.75
695.54	347.96
695.88	346.21
696.21	344.45
696.55	342.95
696.88	341.31
697.22	339.89
697.56	338.37
697.89	336.92
698.23	335.44
698.56	334.07
698.90	332.64
699.23	331.07
699.57	329.57
699.90	327.90
700.24	326.25
700.58	324.87
700.91	323.63
701.25	322.45
701.58	321.09
701.92	319.81
702.25	318.55
702.59	317.28
702.92	316.07
703.26	314.94
703.59	313.61
703.93	312.74
704.26	311.53
704.60	310.34
704.93	309.09
705.26	307.81
705.60	306.53
705.93	305.43
706.27	304.29
706.60	303.27
706.94	302.26
707.27	301.23
707.61	300.07
707.94	298.97
708.27	297.71
708.61	296.57
708.94	295.50
709.28	294.52
709.61	293.57
709.94	292.63
710.28	291.63
710.61	290.71
710.95	289.44
711.28	288.71
711.61	287.82
711.95	286.95
712.28	286.05
712.61	285.29
712.95	284.50
713.28	283.95
713.61	283.02
713.95	282.10
714.28	281.31
714.61	280.51
714.95	279.76
715.28	278.87
715.61	278.10
715.95	277.38
716.28	276.56
716.61	275.85
716.95	275.08
717.28	274.33
717.61	273.56
717.94	272.86
718.28	271.99
718.61	271.22
718.94	270.52
719.27	269.89
719.61	269.23
719.94	268.47
720.27	267.59
720.60	266.97
720.94	266.32
721.27	265.65
721.60	265.07
721.93	264.32
722.27	263.87
722.60	263.34
722.93	262.70
723.26	262.22
723.59	261.49
723.93	260.96
724.26	260.35
724.59	259.82
724.92	259.33
725.25	258.84
725.59	258.32
725.92	257.88
726.25	257.38
726.58	256.90
726.91	256.33
727.24	255.90
727.57	255.39
727.91	254.85
728.24	254.48
728.57	254.03
728.90	253.75
729.23	253.22
729.56	252.85
729.89	252.42
730.22	251.89
730.55	251.51
730.89	251.11
731.22	250.72
731.55	250.20
731.88	249.81
732.21	249.29
732.54	248.83
732.87	248.35
733.20	247.95
733.53	247.55
733.86	247.15
734.19	246.70
734.52	246.39
734.85	246.25
735.18	245.80
735.51	245.55
735.84	245.10
736.17	244.81
736.50	244.27
736.83	244.31
737.16	244.04
737.49	243.65
737.82	243.23
738.15	242.90
738.48	242.62
738.81	242.21
739.14	241.92
739.47	241.58
739.80	241.19
740.13	240.84
740.46	240.41
740.79	240.06
741.12	239.72
741.45	239.27
741.78	238.80
742.11	238.55
742.44	238.06
742.77	237.82
743.10	237.45
743.43	237.18
743.75	236.40
744.08	236.51
744.41	236.15
744.74	235.86
745.07	235.54
745.40	235.41
745.73	235.23
746.06	234.94
746.39	234.72
746.71	234.50
747.04	234.23
747.37	233.99
747.70	233.83
748.03	233.64
748.36	233.51
748.68	233.26
749.01	232.94
749.34	232.76
749.67	232.54
750.00	232.30
750.33	232.36
750.65	232.28
750.98	231.53
751.31	231.34
751.64	231.09
751.97	231.07
752.29	230.75
752.62	230.36
752.95	230.13
753.28	229.83
753.60	229.67
753.93	229.58
754.26	229.34
754.59	228.94
754.91	228.70
755.24	228.47
755.57	228.22
755.90	228.02
756.22	227.78
756.55	227.47
756.88	227.28
757.20	226.83
757.53	226.51
757.86	226.30
758.19	226.15
758.51	226.03
758.84	225.68
759.17	225.39
759.49	225.25
759.82	225.26
760.15	225.19
760.47	224.97
760.80	224.63
761.13	224.58
761.45	224.45
761.78	224.34
762.11	224.17
762.43	224.04
762.76	223.85
763.08	223.77
763.41	223.73
763.74	223.61
764.06	223.49
764.39	223.39
764.71	223.34
765.04	223.17
765.37	223.00
765.69	222.86
766.02	222.79
766.34	222.66
766.67	222.33
767.00	222.34
767.32	222.42
767.65	222.57
767.97	222.38
768.30	222.39
768.62	222.18
768.95	222.03
769.27	221.90
769.60	221.84
769.92	221.65
770.25	221.40
770.57	221.16
770.90	220.98
771.22	220.92
771.55	220.81
771.87	220.77
772.20	220.66
772.52	220.86
772.85	221.14
773.17	221.05
773.50	220.91
773.82	220.62
774.15	220.33
774.47	219.95
774.80	219.81
775.12	219.67
775.45	219.59
775.77	219.51
776.09	219.47
776.42	219.49
776.74	219.50
777.07	219.46
777.39	219.44
777.72	219.34
778.04	219.25
778.36	219.15
778.69	219.11
779.01	219.01
779.33	218.63
779.66	218.24
779.98	218.13
780.31	218.14
780.63	218.30
780.95	218.33
781.28	218.29
781.60	218.15
781.92	218.04
782.25	217.94
782.57	217.89
782.89	217.79
783.22	217.58
783.54	217.47
783.86	217.37
784.19	217.33
784.51	217.42
784.83	217.25
785.16	217.21
785.48	217.13
785.80	217.05
786.12	217.03
786.45	216.94
786.77	216.91
