SpectraSuite Data File
++++++++++++++++++++++++++++++++++++
Date: Mon Feb 25 17:10:07 EST 2013
User: group
Dark Spectrum Present: No
Reference Spectrum Present: No
Number of Sampled Component Spectra: 1
Spectrometers: USB2E7196
Integration Time (usec): 104000 (USB2E7196)
Spectra Averaged: 20 (USB2E7196)
Boxcar Smoothing: 10 (USB2E7196)
Correct for Electrical Dark: No (USB2E7196)
Strobe/Lamp Enabled: No (USB2E7196)
Correct for Detector Non-linearity: No (USB2E7196)
Correct for Stray Light: No (USB2E7196)
Number of Pixels in Processed Spectrum: 2048
>>>>>Begin Processed Spectral Data<<<<<
339.09	0.00
339.48	198.30
339.86	199.45
340.24	201.85
340.63	202.45
341.01	209.30
341.39	206.60
341.78	207.60
342.16	209.60
342.54	208.35
342.93	198.44
343.31	208.48
343.69	209.02
344.07	209.56
344.46	209.99
344.84	210.41
345.22	210.49
345.60	210.72
345.99	210.93
346.37	211.03
346.75	211.17
347.13	211.28
347.52	211.36
347.90	211.46
348.28	211.43
348.66	211.55
349.05	211.51
349.43	211.51
349.81	211.57
350.19	211.59
350.57	211.74
350.96	211.83
351.34	211.85
351.72	212.01
352.10	212.09
352.48	212.13
352.87	212.16
353.25	212.18
353.63	212.23
354.01	212.28
354.39	212.35
354.77	212.39
355.15	212.52
355.54	212.54
355.92	212.45
356.30	212.52
356.68	212.80
357.06	212.86
357.44	212.86
357.82	212.91
358.20	212.98
358.58	213.03
358.97	213.10
359.35	213.32
359.73	213.41
360.11	213.43
360.49	213.49
360.87	213.56
361.25	213.68
361.63	213.83
362.01	213.76
362.39	213.75
362.77	213.80
363.15	213.81
363.53	213.77
363.91	213.86
364.29	213.87
364.67	213.57
365.05	213.49
365.43	213.61
365.81	213.71
366.19	213.85
366.57	213.94
366.95	213.88
367.33	213.73
367.71	213.67
368.09	213.75
368.47	213.77
368.85	213.71
369.23	213.72
369.61	213.55
369.99	213.68
370.37	213.69
370.75	213.81
371.13	213.74
371.51	213.67
371.89	213.67
372.27	213.66
372.65	213.58
373.03	213.65
373.41	213.49
373.78	213.38
374.16	213.17
374.54	213.02
374.92	213.02
375.30	212.97
375.68	212.82
376.06	212.74
376.44	212.61
376.82	212.61
377.19	212.53
377.57	212.43
377.95	212.28
378.33	212.14
378.71	211.90
379.09	211.88
379.47	211.88
379.84	211.76
380.22	211.71
380.60	211.70
380.98	211.57
381.36	211.58
381.73	211.54
382.11	211.53
382.49	211.53
382.87	211.41
383.25	211.35
383.62	211.77
384.00	211.69
384.38	211.74
384.76	211.77
385.13	211.89
385.51	211.90
385.89	211.84
386.27	211.85
386.64	211.87
387.02	211.80
387.40	211.72
387.78	211.73
388.15	211.67
388.53	211.55
388.91	211.56
389.29	211.53
389.66	211.54
390.04	211.45
390.42	211.45
390.79	211.44
391.17	211.42
391.55	211.00
391.92	210.93
392.30	210.91
392.68	210.80
393.05	210.71
393.43	210.66
393.81	210.62
394.18	210.60
394.56	210.57
394.94	210.63
395.31	210.71
395.69	210.82
396.06	210.86
396.44	210.94
396.82	210.85
397.19	211.00
397.57	210.91
397.95	210.97
398.32	210.86
398.70	210.85
399.07	210.96
399.45	211.00
399.82	210.99
400.20	210.95
400.58	210.92
400.95	210.84
401.33	210.95
401.70	211.24
402.08	211.23
402.45	211.22
402.83	211.25
403.20	211.16
403.58	211.14
403.95	211.27
404.33	211.31
404.71	211.44
405.08	211.61
405.46	211.70
405.83	211.77
406.21	211.83
406.58	211.98
406.96	212.01
407.33	212.14
407.70	212.30
408.08	212.65
408.45	212.88
408.83	213.03
409.20	213.06
409.58	213.09
409.95	213.31
410.33	213.57
410.70	213.70
411.08	214.02
411.45	214.24
411.82	214.43
412.20	214.77
412.57	215.28
412.95	215.29
413.32	215.65
413.69	215.94
414.07	216.30
414.44	216.64
414.82	217.14
415.19	217.58
415.56	218.06
415.94	218.40
416.31	218.98
416.68	219.67
417.06	220.47
417.43	221.17
417.81	222.00
418.18	222.78
418.55	223.59
418.93	224.48
419.30	225.39
419.67	226.27
420.04	227.28
420.42	228.18
420.79	229.71
421.16	230.95
421.54	232.40
421.91	233.74
422.28	235.15
422.66	236.52
423.03	238.13
423.40	239.70
423.77	241.34
424.15	242.93
424.52	244.53
424.89	246.37
425.26	248.08
425.64	249.63
426.01	251.50
426.38	253.42
426.75	255.41
427.13	257.43
427.50	259.63
427.87	261.77
428.24	264.00
428.61	265.90
428.99	268.32
429.36	270.73
429.73	273.17
430.10	275.69
430.47	278.31
430.85	280.75
431.22	283.49
431.59	286.53
431.96	289.25
432.33	292.36
432.70	295.36
433.08	298.88
433.45	302.33
433.82	305.67
434.19	309.48
434.56	313.26
434.93	316.69
435.30	320.09
435.68	323.93
436.05	327.80
436.42	331.56
436.79	335.00
437.16	338.60
437.53	342.54
437.90	346.37
438.27	350.27
438.64	354.18
439.01	357.88
439.38	361.10
439.75	364.35
440.13	367.98
440.50	371.41
440.87	374.23
441.24	377.03
441.61	380.23
441.98	382.48
442.35	385.03
442.72	387.92
443.09	390.77
443.46	392.41
443.83	393.50
444.20	394.51
444.57	395.84
444.94	396.69
445.31	397.46
445.68	398.59
446.05	398.78
446.42	398.50
446.79	398.27
447.16	397.74
447.53	397.49
447.90	396.04
448.27	394.58
448.64	392.65
449.01	391.32
449.37	388.88
449.74	386.52
450.11	383.95
450.48	380.72
450.85	377.32
451.22	374.45
451.59	371.79
451.96	369.20
452.33	365.69
452.70	362.58
453.07	358.83
453.43	354.65
453.80	351.04
454.17	347.58
454.54	344.17
454.91	340.59
455.28	337.19
455.65	334.00
456.02	331.27
456.38	328.49
456.75	325.14
457.12	322.12
457.49	319.27
457.86	316.17
458.23	313.90
458.59	311.40
458.96	308.84
459.33	306.51
459.70	304.28
460.07	302.56
460.43	300.42
460.80	298.50
461.17	296.82
461.54	295.04
461.91	293.30
462.27	291.58
462.64	290.16
463.01	288.45
463.38	286.99
463.74	284.89
464.11	283.55
464.48	282.27
464.85	281.06
465.21	280.12
465.58	279.21
465.95	277.86
466.32	276.74
466.68	275.65
467.05	274.53
467.42	273.43
467.78	272.25
468.15	271.17
468.52	270.42
468.88	269.35
469.25	268.45
469.62	267.73
469.98	266.83
470.35	266.12
470.72	265.50
471.08	264.60
471.45	264.11
471.82	263.49
472.18	262.88
472.55	262.37
472.92	261.69
473.28	261.08
473.65	260.55
474.02	260.15
474.38	259.87
474.75	259.54
475.11	259.11
475.48	258.90
475.85	258.72
476.21	258.42
476.58	258.20
476.94	258.01
477.31	257.88
477.67	257.66
478.04	257.47
478.41	257.27
478.77	257.56
479.14	257.40
479.50	257.25
479.87	257.27
480.23	257.28
480.60	257.35
480.96	257.36
481.33	257.57
481.69	257.57
482.06	257.69
482.42	257.86
482.79	258.03
483.15	258.24
483.52	258.48
483.88	258.69
484.25	259.07
484.61	259.38
484.98	259.66
485.34	260.25
485.71	260.79
486.07	261.30
486.44	261.53
486.80	262.11
487.17	262.76
487.53	263.38
487.90	264.03
488.26	264.86
488.62	265.79
488.99	266.45
489.35	267.31
489.72	268.09
490.08	268.94
490.44	269.94
490.81	271.02
491.17	271.95
491.54	273.13
491.90	274.24
492.26	275.44
492.63	276.70
492.99	277.85
493.36	279.20
493.72	280.65
494.08	282.14
494.45	283.74
494.81	285.44
495.17	287.03
495.54	288.80
495.90	290.38
496.26	292.08
496.63	294.10
496.99	296.12
497.35	298.29
497.72	300.51
498.08	302.65
498.44	304.87
498.80	307.45
499.17	309.79
499.53	312.29
499.89	314.85
500.26	317.56
500.62	320.43
500.98	323.31
501.34	326.25
501.71	329.30
502.07	332.34
502.43	335.34
502.79	338.52
503.16	341.82
503.52	345.29
503.88	348.76
504.24	352.22
504.60	355.86
504.97	359.49
505.33	363.20
505.69	367.30
506.05	371.30
506.41	375.20
506.78	379.38
507.14	383.51
507.50	387.75
507.86	392.11
508.22	396.59
508.59	400.91
508.95	405.49
509.31	410.23
509.67	414.91
510.03	419.86
510.39	425.02
510.75	430.14
511.12	435.11
511.48	440.24
511.84	445.65
512.20	450.89
512.56	456.26
512.92	461.77
513.28	467.08
513.64	472.60
514.00	478.13
514.37	483.90
514.73	489.79
515.09	495.73
515.45	501.48
515.81	507.28
516.17	513.20
516.53	519.02
516.89	524.88
517.25	530.96
517.61	537.25
517.97	543.14
518.33	549.22
518.69	555.48
519.05	561.99
519.41	568.30
519.77	574.86
520.13	581.27
520.49	587.54
520.85	594.18
521.21	600.69
521.57	607.42
521.93	613.65
522.29	620.31
522.65	626.87
523.01	633.49
523.37	639.99
523.73	646.78
524.09	653.44
524.45	660.03
524.81	666.82
525.17	673.52
525.53	680.39
525.89	687.10
526.25	693.89
526.61	700.16
526.97	706.68
527.33	713.25
527.68	720.26
528.04	726.85
528.40	733.18
528.76	739.81
529.12	746.40
529.48	753.38
529.84	760.01
530.20	766.82
530.56	773.48
530.91	780.55
531.27	787.20
531.63	794.29
531.99	801.05
532.35	807.49
532.71	813.81
533.07	820.42
533.42	827.01
533.78	833.54
534.14	840.16
534.50	846.35
534.86	852.85
535.21	858.62
535.57	865.12
535.93	871.16
536.29	877.45
536.65	883.66
537.00	889.33
537.36	894.72
537.72	900.12
538.08	905.71
538.44	911.03
538.79	916.58
539.15	921.63
539.51	927.07
539.87	932.65
540.22	937.97
540.58	943.34
540.94	948.39
541.29	953.32
541.65	958.07
542.01	963.03
542.37	967.66
542.72	972.45
543.08	976.80
543.44	981.83
543.79	985.69
544.15	989.64
544.51	994.40
544.87	998.95
545.22	1003.08
545.58	1006.98
545.94	1010.55
546.29	1013.89
546.65	1017.39
547.01	1020.65
547.36	1023.96
547.72	1027.14
548.07	1029.96
548.43	1032.68
548.79	1035.13
549.14	1037.77
549.50	1040.46
549.86	1042.71
550.21	1045.00
550.57	1047.56
550.92	1049.39
551.28	1051.71
551.64	1053.80
551.99	1055.43
552.35	1057.16
552.70	1058.87
553.06	1060.81
553.41	1062.47
553.77	1064.39
554.13	1066.15
554.48	1067.80
554.84	1069.01
555.19	1070.26
555.55	1071.49
555.90	1072.72
556.26	1073.93
556.61	1074.86
556.97	1075.49
557.32	1076.33
557.68	1076.91
558.03	1077.27
558.39	1077.89
558.74	1078.76
559.10	1079.44
559.45	1079.99
559.81	1080.75
560.16	1081.14
560.52	1081.71
560.87	1082.38
561.23	1082.31
561.58	1082.69
561.94	1082.47
562.29	1082.36
562.64	1082.51
563.00	1082.54
563.35	1082.62
563.71	1083.08
564.06	1083.42
564.42	1083.58
564.77	1083.94
565.12	1084.28
565.48	1084.84
565.83	1084.74
566.19	1084.64
566.54	1084.13
566.89	1083.62
567.25	1083.31
567.60	1083.18
567.96	1082.59
568.31	1081.99
568.66	1081.41
569.02	1080.36
569.37	1079.58
569.72	1078.99
570.08	1077.81
570.43	1076.68
570.78	1075.38
571.14	1073.83
571.49	1072.30
571.84	1071.20
572.20	1069.48
572.55	1068.08
572.90	1065.87
573.26	1064.18
573.61	1062.20
573.96	1060.55
574.31	1058.59
574.67	1056.25
575.02	1054.11
575.37	1051.80
575.72	1049.31
576.08	1047.61
576.43	1045.32
576.78	1043.15
577.13	1041.05
577.49	1039.07
577.84	1036.89
578.19	1035.25
578.54	1033.52
578.90	1031.75
579.25	1029.54
579.60	1027.04
579.95	1024.44
580.30	1022.46
580.66	1020.40
581.01	1018.01
581.36	1015.56
581.71	1013.37
582.06	1011.53
582.42	1009.27
582.77	1006.86
583.12	1004.73
583.47	1002.41
583.82	1000.44
584.17	998.34
584.53	996.47
584.88	994.30
585.23	992.19
585.58	989.57
585.93	987.07
586.28	984.86
586.63	982.37
586.98	980.44
587.34	978.65
587.69	976.27
588.04	973.96
588.39	971.93
588.74	969.67
589.09	967.70
589.44	964.89
589.79	962.74
590.14	960.73
590.49	958.35
590.84	956.04
591.19	953.96
591.54	951.63
591.89	948.44
592.25	946.24
592.60	943.51
592.95	940.87
593.30	937.94
593.65	934.97
594.00	932.31
594.35	930.91
594.70	928.17
595.05	925.95
595.40	923.60
595.75	920.69
596.10	918.24
596.45	915.64
596.80	913.55
597.15	911.24
597.50	908.53
597.85	906.28
598.19	903.55
598.54	900.97
598.89	898.70
599.24	896.91
599.59	894.30
599.94	892.41
600.29	890.19
600.64	888.21
600.99	885.90
601.34	883.91
601.69	880.43
602.04	877.78
602.39	875.32
602.74	873.00
603.08	871.25
603.43	869.47
603.78	867.24
604.13	864.81
604.48	862.35
604.83	860.59
605.18	858.72
605.53	856.55
605.87	854.06
606.22	851.92
606.57	849.35
606.92	847.03
607.27	844.34
607.62	841.99
607.96	839.74
608.31	837.67
608.66	835.32
609.01	832.86
609.36	830.45
609.70	827.76
610.05	824.90
610.40	822.21
610.75	819.20
611.10	816.72
611.44	813.65
611.79	810.71
612.14	807.56
612.49	803.95
612.83	801.10
613.18	798.05
613.53	794.68
613.88	791.45
614.22	788.50
614.57	785.48
614.92	782.44
615.27	779.19
615.61	775.90
615.96	772.76
616.31	769.80
616.65	767.11
617.00	764.22
617.35	761.38
617.70	758.20
618.04	754.89
618.39	751.25
618.74	748.41
619.08	745.22
619.43	742.09
619.78	739.17
620.12	736.08
620.47	733.17
620.82	730.05
621.16	726.94
621.51	723.89
621.85	720.85
622.20	717.75
622.55	714.57
622.89	711.43
623.24	708.39
623.59	705.16
623.93	701.99
624.28	698.90
624.62	696.01
624.97	693.04
625.32	690.25
625.66	687.56
626.01	684.51
626.35	681.70
626.70	678.72
627.04	676.21
627.39	673.27
627.73	670.56
628.08	668.07
628.43	665.11
628.77	661.95
629.12	659.00
629.46	656.36
629.81	653.67
630.15	650.80
630.50	647.69
630.84	644.83
631.19	642.08
631.53	639.21
631.88	636.19
632.22	633.16
632.57	630.53
632.91	627.75
633.26	625.08
633.60	622.36
633.95	619.88
634.29	616.91
634.64	614.34
634.98	611.37
635.32	608.61
635.67	606.20
636.01	603.83
636.36	601.30
636.70	598.75
637.05	596.03
637.39	593.61
637.73	591.16
638.08	589.03
638.42	586.61
638.77	584.19
639.11	581.59
639.45	579.16
639.80	576.31
640.14	573.55
640.49	570.95
640.83	568.31
641.17	565.57
641.52	562.96
641.86	560.18
642.20	557.75
642.55	554.94
642.89	552.21
643.23	549.41
643.58	547.08
643.92	544.24
644.26	541.77
644.61	539.13
644.95	536.58
645.29	533.75
645.64	531.11
645.98	528.45
646.32	525.98
646.66	523.38
647.01	521.02
647.35	518.68
647.69	516.06
648.04	513.63
648.38	511.20
648.72	508.81
649.06	506.37
649.41	503.79
649.75	501.27
650.09	499.02
650.43	496.65
650.78	493.98
651.12	491.45
651.46	488.95
651.80	486.57
652.14	484.21
652.49	481.84
652.83	479.43
653.17	476.99
653.51	474.68
653.85	472.46
654.20	470.08
654.54	467.57
654.88	465.23
655.22	462.98
655.56	460.51
655.90	458.05
656.25	455.67
656.59	453.38
656.93	451.24
657.27	449.01
657.61	446.60
657.95	444.40
658.29	442.36
658.64	440.37
658.98	438.16
659.32	435.83
659.66	433.65
660.00	431.41
660.34	429.34
660.68	426.98
661.02	424.79
661.36	422.69
661.70	420.75
662.05	418.72
662.39	416.69
662.73	414.88
663.07	413.23
663.41	411.46
663.75	409.47
664.09	407.50
664.43	405.40
664.77	403.49
665.11	401.57
665.45	399.78
665.79	397.85
666.13	396.02
666.47	394.30
666.81	392.52
667.15	390.67
667.49	389.02
667.83	387.58
668.17	385.86
668.51	384.19
668.85	382.62
669.19	381.26
669.53	379.56
669.87	377.92
670.21	376.19
670.55	374.45
670.89	373.17
671.23	371.72
671.57	370.37
671.91	368.96
672.25	367.40
672.58	365.78
672.92	364.27
673.26	362.82
673.60	361.43
673.94	359.95
674.28	358.61
674.62	357.33
674.96	355.82
675.30	354.52
675.64	353.14
675.97	351.65
676.31	350.25
676.65	349.06
676.99	347.89
677.33	346.42
677.67	345.22
678.01	343.75
678.34	342.42
678.68	341.13
679.02	339.91
679.36	338.75
679.70	337.52
680.04	336.25
680.37	335.13
680.71	333.90
681.05	332.79
681.39	331.58
681.73	330.25
682.06	329.10
682.40	327.95
682.74	326.85
683.08	325.84
683.42	324.52
683.75	323.28
684.09	321.95
684.43	320.92
684.77	319.68
685.10	318.61
685.44	317.47
685.78	316.37
686.12	315.31
686.45	314.22
686.79	313.20
687.13	312.22
687.46	311.11
687.80	310.15
688.14	309.02
688.48	307.99
688.81	306.91
689.15	305.94
689.49	304.87
689.82	303.87
690.16	302.72
690.50	301.70
690.83	300.71
691.17	299.70
691.51	298.70
691.84	297.89
692.18	296.98
692.52	296.12
692.85	295.29
693.19	294.44
693.52	293.52
693.86	292.52
694.20	291.60
694.53	290.80
694.87	289.82
695.21	288.93
695.54	288.05
695.88	287.23
696.21	286.26
696.55	285.48
696.88	284.64
697.22	283.76
697.56	283.12
697.89	282.22
698.23	281.45
698.56	280.72
698.90	280.02
699.23	279.12
699.57	278.30
699.90	277.41
700.24	276.64
700.58	275.83
700.91	275.27
701.25	274.79
701.58	274.07
701.92	273.45
702.25	272.78
702.59	272.09
702.92	271.34
703.26	270.74
703.59	270.02
703.93	269.63
704.26	269.11
704.60	268.40
704.93	267.76
705.26	267.10
705.60	266.50
705.93	265.75
706.27	265.28
706.60	264.83
706.94	264.39
707.27	263.69
707.61	263.21
707.94	262.50
708.27	261.67
708.61	261.07
708.94	260.49
709.28	260.00
709.61	259.47
709.94	259.02
710.28	258.52
710.61	257.96
710.95	257.13
711.28	256.85
711.61	256.37
711.95	256.01
712.28	255.56
712.61	255.08
712.95	254.77
713.28	254.45
713.61	253.87
713.95	253.33
714.28	253.00
714.61	252.51
714.95	252.06
715.28	251.68
715.61	251.19
715.95	250.79
716.28	250.21
716.61	249.80
716.95	249.30
717.28	248.90
717.61	248.58
717.94	248.22
718.28	247.53
718.61	247.10
718.94	246.63
719.27	246.20
719.61	245.73
719.94	245.26
720.27	244.70
720.60	244.30
720.94	243.92
721.27	243.50
721.60	243.14
721.93	242.85
722.27	242.52
722.60	242.28
722.93	241.92
723.26	241.74
723.59	241.38
723.93	241.20
724.26	240.86
724.59	240.47
724.92	240.19
725.25	239.95
725.59	239.67
725.92	239.52
726.25	239.20
726.58	239.00
726.91	238.70
727.24	238.45
727.57	238.20
727.91	237.80
728.24	237.63
728.57	237.38
728.90	237.18
729.23	236.94
729.56	236.85
729.89	236.60
730.22	236.35
730.55	236.11
730.89	235.83
731.22	235.57
731.55	235.33
731.88	235.12
732.21	234.86
732.54	234.56
732.87	234.28
733.20	234.15
733.53	233.93
733.86	233.77
734.19	233.50
734.52	233.44
734.85	233.59
735.18	233.28
735.51	233.20
735.84	233.07
736.17	232.93
736.50	232.58
736.83	232.81
737.16	232.61
737.49	232.45
737.82	232.20
738.15	231.96
738.48	231.77
738.81	231.55
739.14	231.42
739.47	231.26
739.80	231.09
740.13	230.93
740.46	230.75
740.79	230.53
741.12	230.36
741.45	230.06
741.78	229.67
742.11	229.61
742.44	229.32
742.77	229.14
743.10	228.90
743.43	228.63
743.75	227.98
744.08	228.29
744.41	228.08
744.74	227.90
745.07	227.69
745.40	227.60
745.73	227.65
746.06	227.51
746.39	227.37
746.71	227.17
747.04	226.97
747.37	226.80
747.70	226.76
748.03	226.61
748.36	226.52
748.68	226.29
749.01	226.03
749.34	225.88
749.67	225.67
750.00	225.56
750.33	225.68
750.65	225.68
750.98	225.05
751.31	224.91
751.64	224.80
751.97	224.99
752.29	224.84
752.62	224.45
752.95	224.19
753.28	224.06
753.60	223.93
753.93	223.84
754.26	223.70
754.59	223.42
754.91	223.25
755.24	223.06
755.57	222.92
755.90	222.81
756.22	222.65
756.55	222.45
756.88	222.23
757.20	221.83
757.53	221.55
757.86	221.39
758.19	221.28
758.51	221.23
758.84	220.81
759.17	220.62
759.49	220.51
759.82	220.62
760.15	220.54
760.47	220.48
760.80	220.26
761.13	220.27
761.45	220.18
761.78	220.00
762.11	219.88
762.43	219.83
762.76	219.75
763.08	219.78
763.41	219.79
763.74	219.72
764.06	219.70
764.39	219.59
764.71	219.45
765.04	219.30
765.37	219.11
765.69	219.06
766.02	218.99
766.34	218.97
766.67	218.69
767.00	218.65
767.32	218.60
767.65	218.78
767.97	218.62
768.30	218.55
768.62	218.54
768.95	218.41
769.27	218.34
769.60	218.30
769.92	218.10
770.25	217.85
770.57	217.75
770.90	217.62
771.22	217.59
771.55	217.60
771.87	217.50
772.20	217.43
772.52	217.64
772.85	218.04
773.17	217.92
773.50	217.83
773.82	217.68
774.15	217.47
774.47	217.17
774.80	216.98
775.12	216.92
775.45	216.85
775.77	216.85
776.09	216.81
776.42	216.67
776.74	216.67
777.07	216.68
777.39	216.55
777.72	216.50
778.04	216.45
778.36	216.40
778.69	216.47
779.01	216.48
779.33	216.21
779.66	215.70
779.98	215.65
780.31	215.64
780.63	215.76
780.95	215.80
781.28	215.70
781.60	215.70
781.92	215.67
782.25	215.61
782.57	215.55
782.89	215.47
783.22	215.44
783.54	215.33
783.86	215.34
784.19	215.39
784.51	215.39
784.83	215.32
785.16	215.25
785.48	215.17
785.80	215.05
786.12	214.98
786.45	215.01
786.77	215.01
787.09	214.94
787.42	214.79
787.74	214.72
788.06	214.75
788.38	214.70
788.71	214.60
789.03	214.57
789.35	214.56
789.67	214.52
789.99	214.52
790.32	214.50
790.64	214.44
790.96	214.57
791.28	214.47
791.61	214.45
791.93	214.47
