SpectraSuite Data File
++++++++++++++++++++++++++++++++++++
Date: Mon Feb 25 17:02:02 EST 2013
User: group
Dark Spectrum Present: No
Reference Spectrum Present: No
Number of Sampled Component Spectra: 1
Spectrometers: USB2E7196
Integration Time (usec): 104000 (USB2E7196)
Spectra Averaged: 20 (USB2E7196)
Boxcar Smoothing: 10 (USB2E7196)
Correct for Electrical Dark: No (USB2E7196)
Strobe/Lamp Enabled: No (USB2E7196)
Correct for Detector Non-linearity: No (USB2E7196)
Correct for Stray Light: No (USB2E7196)
Number of Pixels in Processed Spectrum: 2048
>>>>>Begin Processed Spectral Data<<<<<
339.09	0.00
339.48	199.00
339.86	199.55
340.24	200.65
340.63	201.35
341.01	210.75
341.39	205.60
341.78	206.85
342.16	209.35
342.54	208.45
342.93	198.17
343.31	208.16
343.69	208.65
344.07	209.08
344.46	209.51
344.84	209.97
345.22	209.95
345.60	210.18
345.99	210.36
346.37	210.43
346.75	210.50
347.13	210.51
347.52	210.54
347.90	210.63
348.28	210.58
348.66	210.64
349.05	210.53
349.43	210.51
349.81	210.57
350.19	210.57
350.57	210.60
350.96	210.60
351.34	210.63
351.72	210.72
352.10	210.86
352.48	210.90
352.87	210.91
353.25	210.95
353.63	210.98
354.01	210.97
354.39	211.03
354.77	211.14
355.15	211.34
355.54	211.37
355.92	211.39
356.30	211.42
356.68	211.71
357.06	211.81
357.44	211.78
357.82	211.75
358.20	211.90
358.58	211.96
358.97	212.10
359.35	212.34
359.73	212.44
360.11	212.52
360.49	212.74
360.87	212.80
361.25	212.96
361.63	213.12
362.01	213.25
362.39	213.27
362.77	213.33
363.15	213.37
363.53	213.41
363.91	213.45
364.29	213.53
364.67	213.28
365.05	213.26
365.43	213.44
365.81	213.52
366.19	213.69
366.57	213.85
366.95	213.82
367.33	213.69
367.71	213.75
368.09	213.77
368.47	213.65
368.85	213.55
369.23	213.57
369.61	213.47
369.99	213.58
370.37	213.65
370.75	213.74
371.13	213.59
371.51	213.50
371.89	213.52
372.27	213.50
372.65	213.45
373.03	213.42
373.41	213.33
373.78	213.35
374.16	213.10
374.54	212.95
374.92	212.89
375.30	212.86
375.68	212.70
376.06	212.62
376.44	212.52
376.82	212.55
377.19	212.41
377.57	212.31
377.95	212.17
378.33	212.02
378.71	211.82
379.09	211.85
379.47	211.89
379.84	211.80
380.22	211.72
380.60	211.63
380.98	211.57
381.36	211.48
381.73	211.39
382.11	211.44
382.49	211.43
382.87	211.32
383.25	211.21
383.62	211.56
384.00	211.54
384.38	211.55
384.76	211.55
385.13	211.74
385.51	211.71
385.89	211.57
386.27	211.56
386.64	211.61
387.02	211.48
387.40	211.36
387.78	211.34
388.15	211.30
388.53	211.19
388.91	211.16
389.29	211.10
389.66	211.04
390.04	210.87
390.42	210.86
390.79	210.89
391.17	210.89
391.55	210.49
391.92	210.46
392.30	210.45
392.68	210.37
393.05	210.22
393.43	210.16
393.81	210.21
394.18	210.10
394.56	210.03
394.94	210.16
395.31	210.12
395.69	210.20
396.06	210.26
396.44	210.36
396.82	210.36
397.19	210.59
397.57	210.67
397.95	210.77
398.32	210.70
398.70	210.79
399.07	210.93
399.45	210.95
399.82	210.98
400.20	211.01
400.58	211.05
400.95	210.97
401.33	211.07
401.70	211.36
402.08	211.48
402.45	211.53
402.83	211.68
403.20	211.90
403.58	211.95
403.95	212.06
404.33	212.19
404.71	212.31
405.08	212.56
405.46	212.67
405.83	212.92
406.21	213.11
406.58	213.33
406.96	213.46
407.33	213.63
407.70	213.79
408.08	214.30
408.45	214.60
408.83	215.07
409.20	215.43
409.58	215.52
409.95	216.01
410.33	216.49
410.70	216.78
411.08	217.24
411.45	217.78
411.82	218.21
412.20	218.81
412.57	219.55
412.95	219.81
413.32	220.51
413.69	221.13
414.07	221.89
414.44	222.60
414.82	223.45
415.19	224.48
415.56	225.55
415.94	226.39
416.31	227.65
416.68	228.71
417.06	230.03
417.43	231.45
417.81	232.83
418.18	234.31
418.55	235.91
418.93	237.59
419.30	239.30
419.67	241.23
420.04	243.23
420.42	245.16
420.79	247.75
421.16	250.03
421.54	252.62
421.91	255.14
422.28	257.76
422.66	260.54
423.03	263.50
423.40	266.33
423.77	269.39
424.15	272.46
424.52	275.80
424.89	279.41
425.26	282.75
425.64	286.07
426.01	289.60
426.38	293.45
426.75	297.36
427.13	301.37
427.50	305.52
427.87	309.80
428.24	314.27
428.61	318.40
428.99	323.26
429.36	328.18
429.73	333.28
430.10	338.36
430.47	343.59
430.85	348.79
431.22	354.48
431.59	360.64
431.96	366.32
432.33	372.65
432.70	378.85
433.08	386.06
433.45	392.92
433.82	399.95
434.19	407.60
434.56	415.03
434.93	422.22
435.30	429.54
435.68	437.55
436.05	445.57
436.42	453.44
436.79	460.68
437.16	468.68
437.53	476.89
437.90	485.15
438.27	493.22
438.64	501.63
439.01	509.56
439.38	516.55
439.75	523.67
440.13	531.57
440.50	538.96
440.87	545.38
441.24	551.86
441.61	558.87
441.98	564.34
442.35	570.51
442.72	576.93
443.09	582.93
443.46	586.92
443.83	589.73
444.20	592.30
444.57	595.72
444.94	597.52
445.31	599.60
445.68	601.81
446.05	603.07
446.42	602.90
446.79	602.56
447.16	602.09
447.53	601.70
447.90	599.20
448.27	596.78
448.64	592.88
449.01	590.29
449.37	585.35
449.74	580.47
450.11	574.93
450.48	568.42
450.85	561.90
451.22	556.27
451.59	550.87
451.96	545.72
452.33	538.75
452.70	532.44
453.07	524.76
453.43	516.67
453.80	509.24
454.17	502.14
454.54	495.42
454.91	488.10
455.28	481.13
455.65	474.45
456.02	468.02
456.38	462.51
456.75	455.50
457.12	449.60
457.49	443.75
457.86	437.86
458.23	433.18
458.59	427.84
458.96	422.55
459.33	417.79
459.70	413.00
460.07	409.20
460.43	404.83
460.80	400.73
461.17	397.23
461.54	393.43
461.91	389.76
462.27	385.99
462.64	382.88
463.01	379.35
463.38	376.08
463.74	372.47
464.11	369.43
464.48	366.80
464.85	364.03
465.21	361.94
465.58	359.65
465.95	356.65
466.32	354.40
466.68	352.00
467.05	349.67
467.42	347.27
467.78	344.85
468.15	342.61
468.52	340.93
468.88	338.71
469.25	336.68
469.62	335.04
469.98	333.31
470.35	331.65
470.72	330.06
471.08	328.46
471.45	327.01
471.82	325.65
472.18	324.05
472.55	322.83
472.92	321.42
473.28	320.18
473.65	318.99
474.02	317.78
474.38	316.85
474.75	316.04
475.11	315.16
475.48	314.39
475.85	313.68
476.21	312.84
476.58	312.21
476.94	311.67
477.31	311.17
477.67	310.60
478.04	310.16
478.41	309.84
478.77	309.78
479.14	309.40
479.50	309.13
479.87	309.03
480.23	308.88
480.60	308.64
480.96	308.48
481.33	308.65
481.69	308.68
482.06	308.68
482.42	308.70
482.79	308.87
483.15	309.06
483.52	309.43
483.88	309.73
484.25	310.00
484.61	310.33
484.98	310.61
485.34	311.24
485.71	311.74
486.07	312.32
486.44	312.45
486.80	313.04
487.17	313.67
487.53	314.51
487.90	315.29
488.26	316.28
488.62	317.25
488.99	318.07
489.35	319.07
489.72	320.19
490.08	321.14
490.44	322.18
490.81	323.39
491.17	324.39
491.54	325.63
491.90	326.89
492.26	328.23
492.63	329.72
492.99	331.09
493.36	332.67
493.72	334.16
494.08	335.84
494.45	337.60
494.81	339.29
495.17	340.90
495.54	342.75
495.90	344.42
496.26	346.19
496.63	348.05
496.99	349.76
497.35	351.60
497.72	353.65
498.08	355.60
498.44	357.42
498.80	359.67
499.17	361.65
499.53	363.67
499.89	365.66
500.26	367.56
500.62	369.49
500.98	371.37
501.34	373.27
501.71	375.27
502.07	377.07
502.43	378.94
502.79	380.71
503.16	382.42
503.52	384.23
503.88	385.89
504.24	387.54
504.60	389.34
504.97	390.96
505.33	392.60
505.69	394.36
506.05	395.95
506.41	397.21
506.78	398.57
507.14	399.86
507.50	401.31
507.86	402.57
508.22	403.75
508.59	404.84
508.95	405.94
509.31	406.93
509.67	407.97
510.03	408.91
510.39	409.96
510.75	410.95
511.12	411.66
511.48	412.50
511.84	413.21
512.20	413.82
512.56	414.30
512.92	414.77
513.28	415.08
513.64	415.51
514.00	415.90
514.37	416.17
514.73	416.53
515.09	416.75
515.45	416.95
515.81	417.12
516.17	417.24
516.53	417.37
516.89	417.45
517.25	417.43
517.61	417.37
517.97	417.20
518.33	416.94
518.69	416.90
519.05	416.86
519.41	416.81
519.77	416.93
520.13	416.78
520.49	416.56
520.85	416.46
521.21	416.47
521.57	416.38
521.93	416.23
522.29	416.08
522.65	415.83
523.01	415.72
523.37	415.50
523.73	415.33
524.09	415.25
524.45	415.17
524.81	415.07
525.17	415.12
525.53	415.16
525.89	415.37
526.25	415.37
526.61	415.38
526.97	415.40
527.33	415.56
527.68	416.28
528.04	416.77
528.40	417.04
528.76	417.26
529.12	417.73
529.48	418.47
529.84	418.90
530.20	419.57
530.56	420.31
530.91	421.25
531.27	422.14
531.63	423.00
531.99	423.94
532.35	424.99
532.71	426.06
533.07	427.24
533.42	428.75
533.78	430.05
534.14	431.35
534.50	432.68
534.86	433.98
535.21	435.00
535.57	436.45
535.93	438.02
536.29	439.76
536.65	441.28
537.00	442.60
537.36	444.43
537.72	446.06
538.08	447.74
538.44	449.47
538.79	451.40
539.15	453.35
539.51	455.38
539.87	457.39
540.22	459.55
540.58	461.71
540.94	463.47
541.29	465.62
541.65	467.70
542.01	470.07
542.37	472.34
542.72	474.65
543.08	476.88
543.44	479.44
543.79	481.50
544.15	483.99
544.51	486.78
544.87	489.40
545.22	492.13
545.58	494.79
545.94	497.47
546.29	499.97
546.65	502.49
547.01	504.85
547.36	507.56
547.72	510.04
548.07	512.65
548.43	515.17
548.79	517.95
549.14	520.63
549.50	523.18
549.86	525.85
550.21	528.67
550.57	531.50
550.92	533.86
551.28	536.75
551.64	539.52
551.99	542.35
552.35	544.80
552.70	547.24
553.06	549.85
553.41	552.40
553.77	555.33
554.13	558.04
554.48	561.01
554.84	563.81
555.19	566.56
555.55	569.44
555.90	572.15
556.26	574.60
556.61	577.23
556.97	579.72
557.32	582.21
557.68	584.64
558.03	586.94
558.39	589.45
558.74	591.78
559.10	594.17
559.45	596.44
559.81	599.11
560.16	601.42
560.52	603.96
560.87	606.39
561.23	608.39
561.58	610.95
561.94	613.08
562.29	615.02
562.64	617.22
563.00	619.12
563.35	621.25
563.71	623.50
564.06	625.84
564.42	628.10
564.77	630.21
565.12	632.43
565.48	634.83
565.83	636.98
566.19	639.22
566.54	641.12
566.89	643.00
567.25	645.12
567.60	647.40
567.96	649.39
568.31	651.53
568.66	653.46
569.02	654.80
569.37	656.36
569.72	658.14
570.08	659.58
570.43	661.13
570.78	662.52
571.14	663.59
571.49	664.53
571.84	665.72
572.20	666.79
572.55	667.69
572.90	668.23
573.26	668.97
573.61	669.62
573.96	670.52
574.31	671.07
574.67	671.30
575.02	671.39
575.37	671.45
575.72	671.19
576.08	671.59
576.43	671.76
576.78	672.10
577.13	672.33
577.49	672.69
577.84	672.66
578.19	672.91
578.54	673.53
578.90	674.10
579.25	674.27
579.60	674.23
579.95	674.15
580.30	674.42
580.66	674.73
581.01	674.61
581.36	674.49
581.71	674.47
582.06	674.51
582.42	674.73
582.77	674.59
583.12	674.70
583.47	674.61
583.82	674.69
584.17	674.44
584.53	674.26
584.88	673.92
585.23	673.98
585.58	673.50
585.93	672.90
586.28	672.58
586.63	672.20
586.98	672.03
587.34	671.92
587.69	671.41
588.04	670.88
588.39	670.69
588.74	670.12
589.09	669.73
589.44	669.01
589.79	668.40
590.14	667.92
590.49	667.25
590.84	666.41
591.19	665.92
591.54	665.31
591.89	664.30
592.25	663.67
592.60	662.63
592.95	661.86
593.30	660.89
593.65	659.63
594.00	658.55
594.35	658.31
594.70	657.19
595.05	656.28
595.40	655.21
595.75	654.05
596.10	653.10
596.45	652.20
596.80	651.50
597.15	650.59
597.50	649.49
597.85	648.73
598.19	647.80
598.54	646.80
598.89	645.74
599.24	645.20
599.59	644.06
599.94	643.32
600.29	642.47
600.64	641.58
600.99	640.52
601.34	639.74
601.69	637.96
602.04	636.73
602.39	635.50
602.74	634.55
603.08	633.63
603.43	632.86
603.78	631.58
604.13	630.26
604.48	629.06
604.83	628.23
605.18	627.25
605.53	626.15
605.87	624.90
606.22	623.94
606.57	622.40
606.92	621.15
607.27	619.83
607.62	618.55
607.96	617.54
608.31	616.55
608.66	615.20
609.01	613.91
609.36	612.82
609.70	611.59
610.05	610.02
610.40	608.57
610.75	606.95
611.10	605.85
611.44	604.26
611.79	602.69
612.14	601.01
612.49	598.93
612.83	597.21
613.18	595.37
613.53	593.64
613.88	592.09
614.22	590.56
614.57	588.91
614.92	587.08
615.27	585.26
615.61	583.49
615.96	581.82
616.31	580.16
616.65	578.59
617.00	576.95
617.35	575.31
617.70	573.52
618.04	571.48
618.39	569.38
618.74	567.71
619.08	566.03
619.43	564.49
619.78	563.03
620.12	561.42
620.47	559.84
620.82	557.84
621.16	555.83
621.51	554.10
621.85	552.32
622.20	550.64
622.55	548.60
622.89	546.66
623.24	544.75
623.59	542.88
623.93	540.94
624.28	539.14
624.62	537.65
624.97	536.03
625.32	534.31
625.66	532.63
626.01	530.84
626.35	529.03
626.70	527.07
627.04	525.46
627.39	523.69
627.73	521.95
628.08	520.45
628.43	518.79
628.77	516.92
629.12	514.89
629.46	513.25
629.81	511.65
630.15	510.00
630.50	508.35
630.84	506.59
631.19	504.85
631.53	503.15
631.88	501.05
632.22	499.11
632.57	497.69
632.91	495.88
633.26	494.30
633.60	492.51
633.95	490.97
634.29	489.09
634.64	487.45
634.98	485.69
635.32	484.15
635.67	482.70
636.01	481.23
636.36	479.79
636.70	478.27
637.05	476.67
637.39	475.09
637.73	473.62
638.08	472.21
638.42	470.79
638.77	469.27
639.11	467.89
639.45	466.50
639.80	464.66
640.14	463.06
640.49	461.37
640.83	459.76
641.17	458.06
641.52	456.45
641.86	454.74
642.20	453.26
642.55	451.29
642.89	449.41
643.23	447.62
643.58	446.10
643.92	444.32
644.26	442.63
644.61	441.02
644.95	439.19
645.29	437.40
645.64	435.70
645.98	433.91
646.32	432.25
646.66	430.40
647.01	428.80
647.35	427.23
647.69	425.55
648.04	424.11
648.38	422.49
648.72	420.95
649.06	419.28
649.41	417.54
649.75	416.03
650.09	414.66
650.43	413.08
650.78	411.21
651.12	409.53
651.46	407.95
651.80	406.40
652.14	404.85
652.49	403.38
652.83	401.88
653.17	400.29
653.51	398.69
653.85	397.34
654.20	395.95
654.54	394.43
654.88	392.89
655.22	391.32
655.56	389.67
655.90	388.00
656.25	386.50
656.59	385.00
656.93	383.50
657.27	382.10
657.61	380.47
657.95	379.13
658.29	377.73
658.64	376.46
658.98	374.84
659.32	373.28
659.66	371.81
660.00	370.24
660.34	368.88
660.68	367.39
661.02	365.83
661.36	364.33
661.70	362.86
662.05	361.56
662.39	360.33
662.73	359.16
663.07	358.03
663.41	356.72
663.75	355.39
664.09	354.13
664.43	352.65
664.77	351.50
665.11	350.14
665.45	348.88
665.79	347.56
666.13	346.30
666.47	345.15
666.81	343.94
667.15	342.59
667.49	341.46
667.83	340.34
668.17	339.21
668.51	337.97
668.85	336.95
669.19	336.00
669.53	334.60
669.87	333.39
670.21	332.21
670.55	331.13
670.89	330.25
671.23	329.19
671.57	328.11
671.91	327.01
672.25	326.02
672.58	325.16
672.92	324.18
673.26	323.22
673.60	322.29
673.94	321.20
674.28	320.39
674.62	319.44
674.96	318.43
675.30	317.55
675.64	316.70
675.97	315.75
676.31	314.59
676.65	313.75
676.99	312.99
677.33	311.96
677.67	311.04
678.01	310.05
678.34	309.05
678.68	308.18
679.02	307.22
679.36	306.41
679.70	305.37
680.04	304.42
680.37	303.61
680.71	302.74
681.05	302.06
681.39	301.18
681.73	300.28
682.06	299.51
682.40	298.71
682.74	297.92
683.08	297.20
683.42	296.45
683.75	295.70
684.09	294.74
684.43	294.04
684.77	293.19
685.10	292.34
685.44	291.60
685.78	290.82
686.12	290.18
686.45	289.43
686.79	288.62
687.13	287.97
687.46	287.23
687.80	286.52
688.14	285.69
688.48	285.04
688.81	284.35
689.15	283.73
689.49	282.89
689.82	282.20
690.16	281.36
690.50	280.64
690.83	279.90
691.17	279.19
691.51	278.51
691.84	277.92
692.18	277.24
692.52	276.68
692.85	276.16
693.19	275.60
693.52	274.85
693.86	274.28
694.20	273.51
694.53	272.89
694.87	272.23
695.21	271.55
695.54	270.80
695.88	270.06
696.21	269.31
696.55	268.80
696.88	268.11
697.22	267.47
697.56	266.96
697.89	266.38
698.23	265.84
698.56	265.18
698.90	264.61
699.23	264.13
699.57	263.55
699.90	262.81
700.24	262.10
700.58	261.60
700.91	261.05
701.25	260.86
701.58	260.48
701.92	260.03
702.25	259.59
702.59	259.10
702.92	258.65
703.26	258.11
703.59	257.60
703.93	257.48
704.26	257.09
704.60	256.62
704.93	256.12
705.26	255.65
705.60	255.24
705.93	254.83
706.27	254.44
706.60	254.12
706.94	254.02
707.27	253.56
707.61	253.15
707.94	252.77
708.27	252.04
708.61	251.45
708.94	250.99
709.28	250.60
709.61	250.20
709.94	249.79
710.28	249.47
710.61	249.07
710.95	248.42
711.28	248.25
711.61	247.83
711.95	247.48
712.28	247.15
712.61	246.85
712.95	246.61
713.28	246.35
713.61	245.85
713.95	245.30
714.28	245.01
714.61	244.59
714.95	244.14
715.28	243.84
715.61	243.55
715.95	243.10
716.28	242.73
716.61	242.45
716.95	242.14
717.28	241.82
717.61	241.52
717.94	241.15
718.28	240.68
718.61	240.36
718.94	240.07
719.27	239.68
719.61	239.35
719.94	238.95
720.27	238.41
720.60	238.10
720.94	237.76
721.27	237.50
721.60	237.29
721.93	237.11
722.27	236.89
722.60	236.68
722.93	236.50
723.26	236.25
723.59	235.94
723.93	235.65
724.26	235.43
724.59	235.15
724.92	234.95
725.25	234.78
725.59	234.58
725.92	234.45
726.25	234.31
726.58	234.12
726.91	233.86
727.24	233.75
727.57	233.51
727.91	233.21
728.24	233.07
728.57	232.79
728.90	232.58
729.23	232.29
729.56	232.17
729.89	231.95
730.22	231.75
730.55	231.59
730.89	231.42
731.22	231.21
731.55	231.04
731.88	230.92
732.21	230.64
732.54	230.31
732.87	230.07
733.20	229.91
733.53	229.74
733.86	229.58
734.19	229.38
734.52	229.23
734.85	229.41
735.18	229.20
735.51	229.15
735.84	229.01
736.17	228.98
736.50	228.65
736.83	229.00
737.16	228.82
737.49	228.56
737.82	228.38
738.15	228.20
738.48	228.05
738.81	227.76
739.14	227.65
739.47	227.59
739.80	227.43
740.13	227.22
740.46	226.95
740.79	226.75
741.12	226.59
741.45	226.38
741.78	225.96
742.11	225.88
742.44	225.67
742.77	225.57
743.10	225.36
743.43	225.22
743.75	224.68
744.08	224.98
744.41	224.89
744.74	224.77
745.07	224.62
745.40	224.48
745.73	224.51
746.06	224.33
746.39	224.21
746.71	224.04
747.04	223.89
747.37	223.80
747.70	223.78
748.03	223.72
748.36	223.76
748.68	223.68
749.01	223.47
749.34	223.34
749.67	223.22
750.00	223.09
750.33	223.23
750.65	223.05
750.98	222.48
751.31	222.37
751.64	222.22
751.97	222.35
752.29	222.26
752.62	221.92
752.95	221.70
753.28	221.50
753.60	221.43
753.93	221.42
754.26	221.30
754.59	221.09
754.91	220.86
755.24	220.68
755.57	220.54
755.90	220.39
756.22	220.28
756.55	220.09
756.88	219.97
757.20	219.66
757.53	219.47
757.86	219.36
758.19	219.27
758.51	219.16
758.84	218.79
759.17	218.68
759.49	218.73
759.82	218.88
760.15	218.91
760.47	218.79
760.80	218.60
761.13	218.51
761.45	218.45
761.78	218.42
762.11	218.29
762.43	218.14
762.76	218.06
763.08	217.96
763.41	217.85
763.74	217.72
764.06	217.61
764.39	217.56
764.71	217.56
765.04	217.51
765.37	217.43
765.69	217.39
766.02	217.25
766.34	217.10
766.67	216.92
767.00	216.91
767.32	217.00
767.65	217.16
767.97	217.08
768.30	216.99
768.62	216.95
768.95	216.90
769.27	216.91
769.60	216.97
769.92	216.95
770.25	216.89
770.57	216.78
770.90	216.74
771.22	216.64
771.55	216.55
771.87	216.52
772.20	216.44
772.52	216.65
772.85	217.02
773.17	217.03
773.50	216.90
773.82	216.74
774.15	216.57
774.47	216.28
774.80	216.22
775.12	216.21
775.45	216.13
775.77	216.13
776.09	216.05
776.42	215.95
776.74	215.96
777.07	215.93
777.39	215.88
777.72	215.80
778.04	215.84
778.36	215.73
778.69	215.66
779.01	215.68
779.33	215.34
779.66	214.89
779.98	214.79
780.31	214.77
780.63	214.84
780.95	214.81
781.28	214.79
781.60	214.73
781.92	214.61
782.25	214.58
782.57	214.53
782.89	214.53
783.22	214.46
783.54	214.34
783.86	214.28
784.19	214.26
784.51	214.44
784.83	214.37
785.16	214.32
785.48	214.26
785.80	214.24
786.12	214.26
786.45	214.24
786.77	214.27
787.09	214.30
787.42	214.18
787.74	214.19
788.06	214.19
788.38	214.18
788.71	214.18
789.03	214.15
789.35	214.17
789.67	214.05
789.99	214.03
790.32	214.04
790.64	214.10
790.96	214.39
791.28	214.16
791.61	214.16
791.93	214.16
792.25	214.21
792.57	214.44
792.89	214.40
793.21	214.36
793.54	214.30
793.86	214.21
794.18	214.24
