SpectraSuite Data File
++++++++++++++++++++++++++++++++++++
Date: Mon Feb 25 17:02:35 EST 2013
User: group
Dark Spectrum Present: No
Reference Spectrum Present: No
Number of Sampled Component Spectra: 1
Spectrometers: USB2E7196
Integration Time (usec): 104000 (USB2E7196)
Spectra Averaged: 20 (USB2E7196)
Boxcar Smoothing: 10 (USB2E7196)
Correct for Electrical Dark: No (USB2E7196)
Strobe/Lamp Enabled: No (USB2E7196)
Correct for Detector Non-linearity: No (USB2E7196)
Correct for Stray Light: No (USB2E7196)
Number of Pixels in Processed Spectrum: 2048
>>>>>Begin Processed Spectral Data<<<<<
339.09	0.00
339.48	198.20
339.86	200.45
340.24	199.75
340.63	201.15
341.01	208.75
341.39	205.05
341.78	208.05
342.16	209.30
342.54	207.90
342.93	197.97
343.31	208.01
343.69	208.55
344.07	209.05
344.46	209.61
344.84	210.05
345.22	210.15
345.60	210.40
345.99	210.55
346.37	210.69
346.75	210.83
347.13	210.96
347.52	211.08
347.90	211.22
348.28	211.37
348.66	211.44
349.05	211.39
349.43	211.49
349.81	211.49
350.19	211.49
350.57	211.52
350.96	211.60
351.34	211.69
351.72	211.77
352.10	211.81
352.48	211.92
352.87	212.03
353.25	212.09
353.63	212.21
354.01	212.30
354.39	212.31
354.77	212.43
355.15	212.55
355.54	212.58
355.92	212.52
356.30	212.54
356.68	212.81
357.06	212.94
357.44	212.93
357.82	213.07
358.20	213.19
358.58	213.23
358.97	213.30
359.35	213.37
359.73	213.53
360.11	213.51
360.49	213.51
360.87	213.58
361.25	213.69
361.63	213.84
362.01	213.93
362.39	213.92
362.77	213.87
363.15	213.90
363.53	213.87
363.91	213.92
364.29	213.93
364.67	213.65
365.05	213.55
365.43	213.61
365.81	213.52
366.19	213.69
366.57	213.83
366.95	213.82
367.33	213.72
367.71	213.72
368.09	213.89
368.47	213.80
368.85	213.76
369.23	213.77
369.61	213.60
369.99	213.59
370.37	213.67
370.75	213.85
371.13	213.72
371.51	213.68
371.89	213.67
372.27	213.68
372.65	213.62
373.03	213.64
373.41	213.60
373.78	213.62
374.16	213.41
374.54	213.26
374.92	213.25
375.30	213.17
375.68	213.04
376.06	212.94
376.44	212.97
376.82	212.96
377.19	212.89
377.57	212.82
377.95	212.68
378.33	212.60
378.71	212.33
379.09	212.35
379.47	212.35
379.84	212.24
380.22	212.14
380.60	212.02
380.98	211.92
381.36	211.79
381.73	211.76
382.11	211.74
382.49	211.75
382.87	211.53
383.25	211.53
383.62	211.79
384.00	211.66
384.38	211.60
384.76	211.57
385.13	211.57
385.51	211.52
385.89	211.40
386.27	211.38
386.64	211.39
387.02	211.30
387.40	211.27
387.78	211.22
388.15	211.24
388.53	211.24
388.91	211.15
389.29	211.12
389.66	211.00
390.04	210.89
390.42	210.85
390.79	210.86
391.17	210.85
391.55	210.47
391.92	210.47
392.30	210.45
392.68	210.32
393.05	210.30
393.43	210.31
393.81	210.34
394.18	210.21
394.56	210.25
394.94	210.25
395.31	210.19
395.69	210.38
396.06	210.36
396.44	210.37
396.82	210.42
397.19	210.62
397.57	210.66
397.95	210.77
398.32	210.71
398.70	210.82
399.07	210.87
399.45	210.94
399.82	210.94
400.20	210.91
400.58	210.96
400.95	210.93
401.33	211.03
401.70	211.28
402.08	211.39
402.45	211.39
402.83	211.65
403.20	211.75
403.58	211.77
403.95	211.92
404.33	212.04
404.71	212.20
405.08	212.45
405.46	212.55
405.83	212.70
406.21	212.83
406.58	212.98
406.96	213.16
407.33	213.35
407.70	213.60
408.08	214.09
408.45	214.36
408.83	214.66
409.20	214.91
409.58	215.08
409.95	215.44
410.33	215.79
410.70	215.98
411.08	216.40
411.45	216.81
411.82	217.14
412.20	217.72
412.57	218.37
412.95	218.59
413.32	219.27
413.69	219.89
414.07	220.60
414.44	221.35
414.82	222.14
415.19	223.09
415.56	223.97
415.94	224.74
416.31	225.85
416.68	226.98
417.06	228.23
417.43	229.43
417.81	230.80
418.18	232.25
418.55	233.77
418.93	235.36
419.30	237.01
419.67	238.86
420.04	240.65
420.42	242.49
420.79	244.95
421.16	247.10
421.54	249.58
421.91	251.91
422.28	254.36
422.66	256.97
423.03	259.71
423.40	262.43
423.77	265.33
424.15	268.26
424.52	271.27
424.89	274.62
425.26	277.95
425.64	281.13
426.01	284.49
426.38	288.12
426.75	291.80
427.13	295.46
427.50	299.36
427.87	303.46
428.24	307.64
428.61	311.54
428.99	316.02
429.36	320.61
429.73	325.44
430.10	330.19
430.47	335.04
430.85	339.89
431.22	345.15
431.59	350.86
431.96	356.28
432.33	362.24
432.70	368.07
433.08	374.85
433.45	381.29
433.82	387.73
434.19	394.91
434.56	401.90
434.93	408.77
435.30	415.69
435.68	423.23
436.05	430.79
436.42	438.14
436.79	444.94
437.16	452.37
437.53	460.05
437.90	467.74
438.27	475.50
438.64	483.35
439.01	490.83
439.38	497.40
439.75	503.83
440.13	511.10
440.50	517.95
440.87	523.66
441.24	529.52
441.61	536.21
441.98	541.20
442.35	546.98
442.72	552.86
443.09	558.55
443.46	562.07
443.83	564.44
444.20	566.78
444.57	570.12
444.94	571.86
445.31	573.82
445.68	575.77
446.05	576.79
446.42	576.67
446.79	576.33
447.16	575.95
447.53	575.77
447.90	573.69
448.27	571.45
448.64	568.06
449.01	565.82
449.37	561.20
449.74	556.68
450.11	551.57
450.48	545.55
450.85	539.30
451.22	534.29
451.59	529.34
451.96	524.62
452.33	518.00
452.70	512.20
453.07	505.01
453.43	497.72
453.80	490.64
454.17	484.03
454.54	477.59
454.91	470.75
455.28	464.19
455.65	457.79
456.02	451.86
456.38	446.54
456.75	439.87
457.12	434.39
457.49	429.01
457.86	423.50
458.23	418.98
458.59	413.98
458.96	408.81
459.33	404.39
459.70	399.81
460.07	396.20
460.43	392.03
460.80	388.24
461.17	384.69
461.54	381.19
461.91	377.75
462.27	374.51
462.64	371.54
463.01	368.24
463.38	365.23
463.74	361.76
464.11	358.90
464.48	356.51
464.85	353.79
465.21	351.78
465.58	349.56
465.95	346.94
466.32	344.85
466.68	342.73
467.05	340.54
467.42	338.39
467.78	336.09
468.15	333.96
468.52	332.27
468.88	330.25
469.25	328.34
469.62	326.75
469.98	324.99
470.35	323.44
470.72	321.92
471.08	320.23
471.45	318.85
471.82	317.59
472.18	316.04
472.55	314.90
472.92	313.51
473.28	312.30
473.65	311.15
474.02	309.93
474.38	308.96
474.75	308.14
475.11	307.18
475.48	306.49
475.85	305.80
476.21	305.14
476.58	304.61
476.94	304.21
477.31	303.75
477.67	303.22
478.04	302.75
478.41	302.43
478.77	302.44
479.14	302.13
479.50	301.76
479.87	301.66
480.23	301.64
480.60	301.36
480.96	301.28
481.33	301.37
481.69	301.40
482.06	301.43
482.42	301.52
482.79	301.64
483.15	301.87
483.52	302.25
483.88	302.43
484.25	302.57
484.61	302.80
484.98	302.99
485.34	303.51
485.71	304.05
486.07	304.47
486.44	304.77
486.80	305.21
487.17	305.87
487.53	306.57
487.90	307.35
488.26	308.35
488.62	309.17
488.99	309.88
489.35	310.70
489.72	311.61
490.08	312.51
490.44	313.50
490.81	314.56
491.17	315.46
491.54	316.62
491.90	317.86
492.26	319.05
492.63	320.36
492.99	321.60
493.36	322.90
493.72	324.41
494.08	325.73
494.45	327.35
494.81	329.01
495.17	330.51
495.54	332.07
495.90	333.52
496.26	335.05
496.63	336.77
496.99	338.55
497.35	340.26
497.72	342.04
498.08	343.79
498.44	345.41
498.80	347.28
499.17	349.12
499.53	350.89
499.89	352.70
500.26	354.36
500.62	356.04
500.98	357.84
501.34	359.54
501.71	361.34
502.07	363.08
502.43	364.62
502.79	366.18
503.16	367.66
503.52	369.27
503.88	370.81
504.24	372.34
504.60	373.77
504.97	375.34
505.33	376.72
505.69	378.23
506.05	379.59
506.41	380.83
506.78	381.96
507.14	383.07
507.50	384.27
507.86	385.45
508.22	386.63
508.59	387.54
508.95	388.51
509.31	389.43
509.67	390.19
510.03	391.00
510.39	391.84
510.75	392.65
511.12	393.25
511.48	393.89
511.84	394.44
512.20	395.02
512.56	395.42
512.92	395.94
513.28	396.22
513.64	396.49
514.00	396.80
514.37	397.04
514.73	397.25
515.09	397.45
515.45	397.58
515.81	397.59
516.17	397.64
516.53	397.68
516.89	397.56
517.25	397.43
517.61	397.47
517.97	397.29
518.33	397.08
518.69	397.00
519.05	396.91
519.41	396.74
519.77	396.65
520.13	396.46
520.49	396.14
520.85	395.98
521.21	395.97
521.57	395.76
521.93	395.42
522.29	395.25
522.65	394.98
523.01	394.83
523.37	394.71
523.73	394.75
524.09	394.62
524.45	394.56
524.81	394.68
525.17	394.66
525.53	394.86
525.89	394.96
526.25	395.13
526.61	395.19
526.97	395.42
527.33	395.66
527.68	396.22
528.04	396.70
528.40	397.10
528.76	397.46
529.12	398.00
529.48	398.83
529.84	399.54
530.20	400.30
530.56	401.04
530.91	401.88
531.27	402.70
531.63	403.55
531.99	404.62
532.35	405.58
532.71	406.56
533.07	407.67
533.42	409.25
533.78	410.42
534.14	411.74
534.50	412.92
534.86	414.26
535.21	415.36
535.57	416.93
535.93	418.42
536.29	420.28
536.65	421.99
537.00	423.51
537.36	425.09
537.72	426.79
538.08	428.61
538.44	430.43
538.79	432.23
539.15	434.23
539.51	436.32
539.87	438.32
540.22	440.52
540.58	442.73
540.94	444.67
541.29	446.85
541.65	449.02
542.01	451.55
542.37	453.85
542.72	456.27
543.08	458.58
543.44	461.21
543.79	463.28
544.15	465.81
544.51	468.58
544.87	471.26
545.22	473.89
545.58	476.58
545.94	479.07
546.29	481.72
546.65	484.30
547.01	486.85
547.36	489.68
547.72	492.17
548.07	494.80
548.43	497.40
548.79	499.95
549.14	502.61
549.50	505.19
549.86	507.84
550.21	510.57
550.57	513.25
550.92	515.60
551.28	518.53
551.64	521.02
551.99	523.58
552.35	526.27
552.70	528.84
553.06	531.47
553.41	534.23
553.77	536.96
554.13	539.70
554.48	542.28
554.84	544.96
555.19	547.77
555.55	550.60
555.90	552.98
556.26	555.65
556.61	558.10
556.97	560.39
557.32	562.86
557.68	565.23
558.03	567.68
558.39	570.06
558.74	572.35
559.10	574.81
559.45	577.16
559.81	579.61
560.16	581.95
560.52	584.20
560.87	586.72
561.23	588.85
561.58	591.34
561.94	593.60
562.29	595.60
562.64	597.66
563.00	599.51
563.35	601.71
563.71	603.92
564.06	606.26
564.42	608.63
564.77	610.90
565.12	613.17
565.48	615.47
565.83	617.80
566.19	620.04
566.54	621.94
566.89	623.79
567.25	625.80
567.60	627.89
567.96	630.07
568.31	631.85
568.66	633.69
569.02	635.02
569.37	636.50
569.72	638.11
570.08	639.65
570.43	641.23
570.78	642.60
571.14	643.72
571.49	644.72
571.84	645.95
572.20	646.78
572.55	647.72
572.90	648.35
573.26	649.00
573.61	649.54
573.96	650.31
574.31	651.05
574.67	651.44
575.02	651.67
575.37	651.74
575.72	651.82
576.08	652.22
576.43	652.62
576.78	653.00
577.13	653.28
577.49	653.62
577.84	653.87
578.19	654.32
578.54	654.79
578.90	655.36
579.25	655.25
579.60	655.46
579.95	655.32
580.30	655.50
580.66	655.67
581.01	655.66
581.36	655.66
581.71	655.64
582.06	655.73
582.42	655.71
582.77	655.69
583.12	655.76
583.47	655.85
583.82	655.59
584.17	655.42
584.53	655.49
584.88	655.26
585.23	655.14
585.58	654.82
585.93	654.25
586.28	653.95
586.63	654.03
586.98	653.90
587.34	654.02
587.69	653.55
588.04	653.28
588.39	653.05
588.74	652.62
589.09	652.28
589.44	651.56
589.79	651.35
590.14	651.00
590.49	650.44
590.84	649.74
591.19	649.51
591.54	648.94
591.89	647.91
592.25	647.50
592.60	646.59
592.95	645.67
593.30	645.10
593.65	644.16
594.00	642.94
594.35	642.96
594.70	641.89
595.05	641.17
595.40	640.23
595.75	639.29
596.10	638.57
596.45	637.70
596.80	637.19
597.15	636.28
597.50	635.19
597.85	634.37
598.19	633.40
598.54	632.28
598.89	631.55
599.24	631.11
599.59	629.88
599.94	629.09
600.29	628.29
600.64	627.35
600.99	626.44
601.34	625.81
601.69	623.90
602.04	622.69
602.39	621.62
602.74	620.89
603.08	620.08
603.43	619.38
603.78	618.30
604.13	617.17
604.48	616.18
604.83	615.49
605.18	614.64
605.53	613.59
605.87	612.62
606.22	611.65
606.57	610.46
606.92	609.40
607.27	608.19
607.62	607.09
607.96	606.16
608.31	605.13
608.66	603.97
609.01	602.82
609.36	601.69
609.70	600.59
610.05	599.09
610.40	597.72
610.75	596.05
611.10	594.94
611.44	593.41
611.79	591.87
612.14	590.23
612.49	588.50
612.83	587.06
613.18	585.51
613.53	583.92
613.88	582.07
614.22	580.62
614.57	579.03
614.92	577.48
615.27	575.83
615.61	574.02
615.96	572.35
616.31	570.91
616.65	569.60
617.00	567.82
617.35	566.27
617.70	564.48
618.04	562.68
618.39	560.76
618.74	559.11
619.08	557.36
619.43	555.66
619.78	554.04
620.12	552.38
620.47	550.78
620.82	548.69
621.16	546.97
621.51	545.32
621.85	543.79
622.20	541.97
622.55	540.06
622.89	538.39
623.24	536.59
623.59	534.68
623.93	532.78
624.28	531.16
624.62	529.61
624.97	528.06
625.32	526.45
625.66	524.91
626.01	523.27
626.35	521.72
626.70	520.00
627.04	518.55
627.39	516.80
627.73	515.23
628.08	513.88
628.43	512.20
628.77	510.39
629.12	508.65
629.46	507.15
629.81	505.50
630.15	503.73
630.50	502.12
630.84	500.48
631.19	498.78
631.53	497.13
631.88	495.15
632.22	493.33
632.57	491.86
632.91	490.01
633.26	488.38
633.60	486.60
633.95	485.06
634.29	483.10
634.64	481.55
634.98	479.72
635.32	478.29
635.67	476.80
636.01	475.31
636.36	473.47
636.70	471.92
637.05	470.37
637.39	468.95
637.73	467.48
638.08	466.12
638.42	464.81
638.77	463.43
639.11	461.98
639.45	460.32
639.80	458.51
640.14	456.94
640.49	455.28
640.83	453.65
641.17	452.08
641.52	450.56
641.86	448.85
642.20	447.42
642.55	445.51
642.89	443.76
643.23	442.02
643.58	440.75
643.92	439.02
644.26	437.40
644.61	435.85
644.95	434.20
645.29	432.34
645.64	430.63
645.98	428.89
646.32	427.34
646.66	425.82
647.01	424.30
647.35	422.81
647.69	421.27
648.04	419.87
648.38	418.34
648.72	416.86
649.06	415.35
649.41	413.60
649.75	412.14
650.09	410.74
650.43	409.21
650.78	407.53
651.12	405.96
651.46	404.37
651.80	402.94
652.14	401.49
652.49	400.20
652.83	398.58
653.17	396.94
653.51	395.34
653.85	393.90
654.20	392.49
654.54	390.94
654.88	389.35
655.22	387.93
655.56	386.29
655.90	384.78
656.25	383.32
656.59	381.89
656.93	380.45
657.27	379.20
657.61	377.74
657.95	376.27
658.29	374.88
658.64	373.66
658.98	372.05
659.32	370.50
659.66	369.04
660.00	367.67
660.34	366.30
660.68	364.85
661.02	363.42
661.36	362.03
661.70	360.70
662.05	359.44
662.39	358.13
662.73	356.93
663.07	355.82
663.41	354.51
663.75	353.26
664.09	352.02
664.43	350.55
664.77	349.29
665.11	348.03
665.45	346.88
665.79	345.77
666.13	344.51
666.47	343.31
666.81	342.00
667.15	340.78
667.49	339.68
667.83	338.65
668.17	337.47
668.51	336.34
668.85	335.43
669.19	334.52
669.53	333.32
669.87	332.23
670.21	331.02
670.55	329.92
670.89	329.08
671.23	328.01
671.57	327.04
671.91	326.08
672.25	325.14
672.58	324.21
672.92	323.06
673.26	322.18
673.60	321.23
673.94	320.23
674.28	319.39
674.62	318.47
674.96	317.53
675.30	316.75
675.64	315.78
675.97	314.68
676.31	313.69
676.65	312.80
676.99	312.06
677.33	311.05
677.67	310.34
678.01	309.29
678.34	308.39
678.68	307.56
679.02	306.54
679.36	305.58
679.70	304.56
680.04	303.69
680.37	302.77
680.71	301.88
681.05	301.17
681.39	300.26
681.73	299.37
682.06	298.54
682.40	297.76
682.74	297.04
683.08	296.46
683.42	295.61
683.75	294.79
684.09	293.88
684.43	293.16
684.77	292.26
685.10	291.39
685.44	290.67
685.78	289.83
686.12	289.25
686.45	288.55
686.79	287.86
687.13	287.19
687.46	286.53
687.80	285.90
688.14	285.15
688.48	284.50
688.81	283.80
689.15	283.13
689.49	282.24
689.82	281.52
690.16	280.54
690.50	279.78
690.83	279.09
691.17	278.29
691.51	277.54
691.84	276.88
692.18	276.32
692.52	275.63
692.85	275.07
693.19	274.46
693.52	273.80
693.86	273.11
694.20	272.42
694.53	271.86
694.87	271.17
695.21	270.51
695.54	269.90
695.88	269.23
696.21	268.47
696.55	267.98
696.88	267.38
697.22	266.87
697.56	266.41
697.89	265.80
698.23	265.36
698.56	264.87
698.90	264.37
699.23	263.77
699.57	263.25
699.90	262.70
700.24	262.02
700.58	261.50
700.91	261.02
701.25	260.81
701.58	260.35
701.92	259.97
702.25	259.52
702.59	259.02
702.92	258.61
703.26	258.23
703.59	257.77
703.93	257.56
704.26	257.10
704.60	256.63
704.93	256.16
705.26	255.60
705.60	255.21
705.93	254.65
706.27	254.33
706.60	253.99
706.94	253.71
707.27	253.30
707.61	252.90
707.94	252.50
708.27	251.81
708.61	251.28
708.94	250.76
709.28	250.39
709.61	249.95
709.94	249.63
710.28	249.29
710.61	248.84
710.95	248.14
711.28	248.03
711.61	247.60
711.95	247.40
712.28	247.02
712.61	246.70
712.95	246.55
713.28	246.33
713.61	245.85
713.95	245.36
714.28	245.06
714.61	244.67
714.95	244.33
715.28	243.95
715.61	243.69
715.95	243.39
716.28	243.02
716.61	242.78
716.95	242.30
717.28	241.88
717.61	241.56
717.94	241.27
718.28	240.68
718.61	240.39
718.94	239.89
719.27	239.56
719.61	239.23
719.94	238.82
720.27	238.25
720.60	237.94
720.94	237.67
721.27	237.37
721.60	237.17
721.93	236.82
722.27	236.66
722.60	236.40
722.93	236.13
723.26	235.85
723.59	235.49
723.93	235.39
724.26	235.18
724.59	234.92
724.92	234.77
725.25	234.64
725.59	234.43
725.92	234.33
726.25	234.17
726.58	233.92
726.91	233.72
727.24	233.65
727.57	233.44
727.91	233.13
728.24	233.00
728.57	232.80
728.90	232.65
729.23	232.20
729.56	232.06
729.89	231.74
730.22	231.50
730.55	231.32
730.89	231.14
731.22	230.95
731.55	230.84
731.88	230.59
732.21	230.33
732.54	230.02
732.87	229.77
733.20	229.55
733.53	229.40
733.86	229.24
734.19	229.02
734.52	228.95
734.85	229.08
735.18	228.86
735.51	228.72
735.84	228.58
736.17	228.63
736.50	228.28
736.83	228.55
737.16	228.40
737.49	228.25
737.82	228.06
738.15	227.92
738.48	227.69
738.81	227.50
739.14	227.33
739.47	227.18
739.80	227.05
740.13	226.88
740.46	226.68
740.79	226.45
741.12	226.17
741.45	225.94
741.78	225.53
742.11	225.44
742.44	225.24
742.77	225.17
743.10	224.92
743.43	224.79
743.75	224.27
744.08	224.63
744.41	224.46
744.74	224.29
745.07	224.10
745.40	224.04
745.73	224.06
746.06	223.95
746.39	223.85
746.71	223.71
747.04	223.60
747.37	223.44
747.70	223.38
748.03	223.35
748.36	223.21
748.68	223.09
749.01	222.84
749.34	222.72
749.67	222.60
750.00	222.57
750.33	222.75
750.65	222.72
750.98	222.11
751.31	221.99
751.64	221.85
751.97	221.91
752.29	221.78
752.62	221.45
752.95	221.29
753.28	221.24
753.60	221.13
753.93	221.08
754.26	221.05
754.59	220.84
754.91	220.68
755.24	220.60
755.57	220.52
755.90	220.47
756.22	220.34
756.55	220.13
756.88	219.93
757.20	219.62
757.53	219.45
757.86	219.42
758.19	219.41
758.51	219.30
758.84	219.08
759.17	219.00
759.49	218.98
759.82	219.11
760.15	219.00
760.47	218.91
760.80	218.75
761.13	218.63
761.45	218.59
761.78	218.53
762.11	218.48
762.43	218.35
762.76	218.19
763.08	218.20
763.41	218.21
763.74	218.20
764.06	218.03
764.39	217.94
764.71	217.82
765.04	217.67
765.37	217.53
765.69	217.36
766.02	217.24
766.34	217.22
766.67	216.97
767.00	216.95
767.32	217.05
767.65	217.18
767.97	217.07
768.30	217.01
768.62	216.98
768.95	216.85
769.27	216.85
769.60	216.93
769.92	216.81
770.25	216.67
770.57	216.60
770.90	216.58
771.22	216.53
771.55	216.45
771.87	216.40
772.20	216.41
772.52	216.71
772.85	217.12
773.17	217.02
773.50	216.98
773.82	216.93
774.15	216.71
774.47	216.46
774.80	216.44
775.12	216.34
775.45	216.30
775.77	216.26
776.09	216.25
776.42	216.14
776.74	216.24
777.07	216.23
777.39	216.17
777.72	216.10
778.04	216.11
778.36	216.07
778.69	216.07
779.01	216.01
779.33	215.74
779.66	215.31
779.98	215.25
780.31	215.23
780.63	215.31
780.95	215.35
781.28	215.39
781.60	215.27
781.92	215.29
782.25	215.22
782.57	215.17
782.89	215.07
783.22	215.06
783.54	214.82
783.86	214.73
784.19	214.62
784.51	214.78
784.83	214.63
785.16	214.60
785.48	214.54
785.80	214.60
786.12	214.59
786.45	214.49
786.77	214.48
787.09	214.43
787.42	214.26
787.74	214.20
788.06	214.11
788.38	214.12
788.71	214.03
789.03	214.04
789.35	214.04
789.67	213.94
789.99	213.87
790.32	213.90
790.64	213.94
790.96	214.24
791.28	214.03
791.61	213.96
791.93	213.94
792.25	213.98
792.57	214.15
792.89	214.03
793.21	214.11
793.54	214.09
793.86	214.06
794.18	214.01
