SpectraSuite Data File
++++++++++++++++++++++++++++++++++++
Date: Mon Feb 25 17:16:43 EST 2013
User: group
Dark Spectrum Present: No
Reference Spectrum Present: No
Number of Sampled Component Spectra: 1
Spectrometers: USB2E7196
Integration Time (usec): 104000 (USB2E7196)
Spectra Averaged: 20 (USB2E7196)
Boxcar Smoothing: 10 (USB2E7196)
Correct for Electrical Dark: No (USB2E7196)
Strobe/Lamp Enabled: No (USB2E7196)
Correct for Detector Non-linearity: No (USB2E7196)
Correct for Stray Light: No (USB2E7196)
Number of Pixels in Processed Spectrum: 2048
>>>>>Begin Processed Spectral Data<<<<<
339.09	0.00
339.48	198.50
339.86	199.25
340.24	200.60
340.63	203.65
341.01	210.55
341.39	206.55
341.78	207.55
342.16	208.95
342.54	208.50
342.93	198.25
343.31	208.28
343.69	208.75
344.07	209.25
344.46	209.74
344.84	210.09
345.22	210.02
345.60	210.25
345.99	210.40
346.37	210.50
346.75	210.62
347.13	210.67
347.52	210.77
347.90	210.90
348.28	210.95
348.66	211.04
349.05	210.96
349.43	211.03
349.81	211.09
350.19	211.18
350.57	211.31
350.96	211.44
351.34	211.48
351.72	211.64
352.10	211.81
352.48	211.91
352.87	212.01
353.25	212.16
353.63	212.19
354.01	212.30
354.39	212.40
354.77	212.47
355.15	212.66
355.54	212.78
355.92	212.70
356.30	212.79
356.68	213.07
357.06	213.23
357.44	213.21
357.82	213.34
358.20	213.46
358.58	213.46
358.97	213.55
359.35	213.75
359.73	213.93
360.11	213.94
360.49	213.94
360.87	213.99
361.25	214.05
361.63	214.20
362.01	214.22
362.39	214.24
362.77	214.34
363.15	214.30
363.53	214.23
363.91	214.31
364.29	214.36
364.67	214.05
365.05	214.06
365.43	214.21
365.81	214.28
366.19	214.45
366.57	214.72
366.95	214.62
367.33	214.49
367.71	214.40
368.09	214.48
368.47	214.53
368.85	214.51
369.23	214.65
369.61	214.55
369.99	214.70
370.37	214.81
370.75	214.95
371.13	214.91
371.51	214.83
371.89	214.85
372.27	214.82
372.65	214.86
373.03	214.82
373.41	214.67
373.78	214.62
374.16	214.35
374.54	214.06
374.92	214.07
375.30	214.06
375.68	214.04
376.06	213.95
376.44	213.86
376.82	213.82
377.19	213.74
377.57	213.69
377.95	213.50
378.33	213.38
378.71	213.12
379.09	213.14
379.47	213.18
379.84	213.14
380.22	213.04
380.60	212.89
380.98	212.88
381.36	212.87
381.73	212.74
382.11	212.79
382.49	212.84
382.87	212.66
383.25	212.63
383.62	212.99
384.00	212.93
384.38	212.88
384.76	212.94
385.13	213.02
385.51	212.97
385.89	212.90
386.27	212.84
386.64	212.81
387.02	212.70
387.40	212.66
387.78	212.65
388.15	212.61
388.53	212.61
388.91	212.53
389.29	212.43
389.66	212.49
390.04	212.38
390.42	212.43
390.79	212.50
391.17	212.54
391.55	212.14
391.92	212.17
392.30	212.20
392.68	212.13
393.05	212.03
393.43	212.08
393.81	212.16
394.18	212.09
394.56	212.13
394.94	212.23
395.31	212.18
395.69	212.28
396.06	212.35
396.44	212.34
396.82	212.34
397.19	212.57
397.57	212.54
397.95	212.65
398.32	212.54
398.70	212.58
399.07	212.62
399.45	212.60
399.82	212.53
400.20	212.51
400.58	212.52
400.95	212.46
401.33	212.53
401.70	212.71
402.08	212.77
402.45	212.81
402.83	212.89
403.20	213.00
403.58	212.99
403.95	213.07
404.33	213.25
404.71	213.41
405.08	213.61
405.46	213.73
405.83	213.87
406.21	214.00
406.58	214.20
406.96	214.30
407.33	214.54
407.70	214.76
408.08	215.19
408.45	215.41
408.83	215.76
409.20	215.95
409.58	216.11
409.95	216.51
410.33	216.83
410.70	217.12
411.08	217.50
411.45	217.82
411.82	218.20
412.20	218.63
412.57	219.16
412.95	219.47
413.32	220.03
413.69	220.45
414.07	220.96
414.44	221.51
414.82	222.19
415.19	222.94
415.56	223.72
415.94	224.43
416.31	225.29
416.68	226.20
417.06	227.25
417.43	228.23
417.81	229.29
418.18	230.44
418.55	231.68
418.93	232.97
419.30	234.33
419.67	235.77
420.04	237.18
420.42	238.60
420.79	240.47
421.16	242.19
421.54	244.32
421.91	246.28
422.28	248.19
422.66	250.22
423.03	252.38
423.40	254.58
423.77	256.81
424.15	259.10
424.52	261.39
424.89	263.97
425.26	266.38
425.64	268.75
426.01	271.27
426.38	273.98
426.75	276.79
427.13	279.65
427.50	282.63
427.87	285.77
428.24	288.85
428.61	291.69
428.99	295.10
429.36	298.43
429.73	301.89
430.10	305.46
430.47	309.06
430.85	312.56
431.22	316.21
431.59	320.50
431.96	324.46
432.33	328.77
432.70	332.94
433.08	337.86
433.45	342.45
433.82	347.06
434.19	352.14
434.56	357.12
434.93	361.86
435.30	366.66
435.68	371.93
436.05	377.21
436.42	382.37
436.79	387.08
437.16	392.11
437.53	397.53
437.90	402.85
438.27	407.92
438.64	413.30
439.01	418.50
439.38	422.77
439.75	427.08
440.13	432.05
440.50	436.63
440.87	440.48
441.24	444.36
441.61	448.71
441.98	451.89
442.35	455.55
442.72	459.38
443.09	463.01
443.46	465.18
443.83	466.60
444.20	467.83
444.57	469.44
444.94	470.29
445.31	471.14
445.68	472.11
446.05	472.56
446.42	472.00
446.79	471.29
447.16	470.48
447.53	469.94
447.90	467.91
448.27	465.81
448.64	462.90
449.01	460.88
449.37	457.32
449.74	453.80
450.11	449.82
450.48	445.22
450.85	440.52
451.22	436.39
451.59	432.76
451.96	429.10
452.33	424.38
452.70	420.09
453.07	414.84
453.43	409.41
453.80	404.35
454.17	399.60
454.54	394.91
454.91	389.99
455.28	385.15
455.65	380.62
456.02	376.73
456.38	373.02
456.75	368.51
457.12	364.57
457.49	360.82
457.86	356.85
458.23	353.71
458.59	350.22
458.96	346.86
459.33	343.55
459.70	340.46
460.07	338.05
460.43	335.05
460.80	332.44
461.17	330.12
461.54	327.70
461.91	325.29
462.27	322.99
462.64	321.05
463.01	318.87
463.38	316.88
463.74	314.28
464.11	312.35
464.48	310.58
464.85	308.77
465.21	307.41
465.58	305.92
465.95	304.12
466.32	302.73
466.68	301.30
467.05	299.99
467.42	298.57
467.78	297.08
468.15	295.78
468.52	294.88
468.88	293.50
469.25	292.35
469.62	291.47
469.98	290.50
470.35	289.64
470.72	288.80
471.08	287.65
471.45	286.89
471.82	286.15
472.18	285.35
472.55	284.86
472.92	284.07
473.28	283.60
473.65	283.03
474.02	282.59
474.38	282.31
474.75	281.98
475.11	281.59
475.48	281.40
475.85	281.17
476.21	280.87
476.58	280.83
476.94	280.82
477.31	280.79
477.67	280.80
478.04	280.83
478.41	280.96
478.77	281.63
479.14	281.72
479.50	281.95
479.87	282.31
480.23	282.67
480.60	283.01
480.96	283.38
481.33	284.04
481.69	284.45
482.06	284.93
482.42	285.58
482.79	286.42
483.15	287.16
483.52	288.20
483.88	289.07
484.25	290.00
484.61	291.03
484.98	292.15
485.34	293.45
485.71	294.78
486.07	296.15
486.44	297.21
486.80	298.90
487.17	300.56
487.53	302.40
487.90	304.37
488.26	306.49
488.62	308.79
488.99	310.97
489.35	313.27
489.72	315.82
490.08	318.30
490.44	320.86
490.81	323.78
491.17	326.58
491.54	329.77
491.90	333.07
492.26	336.50
492.63	340.15
492.99	343.84
493.36	347.83
493.72	352.06
494.08	356.48
494.45	361.08
494.81	365.94
495.17	370.81
495.54	376.10
495.90	381.59
496.26	387.19
496.63	393.08
496.99	399.37
497.35	405.78
497.72	412.64
498.08	419.51
498.44	426.62
498.80	434.22
499.17	442.19
499.53	450.23
499.89	458.84
500.26	467.50
500.62	476.46
500.98	485.81
501.34	495.38
501.71	505.41
502.07	515.55
502.43	526.11
502.79	536.83
503.16	547.92
503.52	559.45
503.88	571.26
504.24	583.45
504.60	595.75
504.97	608.50
505.33	621.59
505.69	635.70
506.05	649.76
506.41	664.16
506.78	678.50
507.14	693.41
507.50	708.36
507.86	723.69
508.22	739.53
508.59	755.62
508.95	772.29
509.31	789.10
509.67	806.58
510.03	824.12
510.39	842.33
510.75	860.61
511.12	879.06
511.48	897.87
511.84	917.06
512.20	936.50
512.56	956.56
512.92	976.77
513.28	996.70
513.64	1017.37
514.00	1037.85
514.37	1058.88
514.73	1080.30
515.09	1101.56
515.45	1123.17
515.81	1144.92
516.17	1166.93
516.53	1188.82
516.89	1210.68
517.25	1232.77
517.61	1255.13
517.97	1277.23
518.33	1299.49
518.69	1321.96
519.05	1344.39
519.41	1367.06
519.77	1390.06
520.13	1412.25
520.49	1434.39
520.85	1457.20
521.21	1479.82
521.57	1503.08
521.93	1525.16
522.29	1548.25
522.65	1571.33
523.01	1594.14
523.37	1616.05
523.73	1638.47
524.09	1660.62
524.45	1683.12
524.81	1705.31
525.17	1727.84
525.53	1750.34
525.89	1772.36
526.25	1794.15
526.61	1815.29
526.97	1836.61
527.33	1857.82
527.68	1879.51
528.04	1900.61
528.40	1920.60
528.76	1940.87
529.12	1961.27
529.48	1982.68
529.84	2002.45
530.20	2022.42
530.56	2042.27
530.91	2063.33
531.27	2083.47
531.63	2103.32
531.99	2122.64
532.35	2141.48
532.71	2159.73
533.07	2178.62
533.42	2197.07
533.78	2215.52
534.14	2233.78
534.50	2250.37
534.86	2267.77
535.21	2283.92
535.57	2301.11
535.93	2317.70
536.29	2333.75
536.65	2349.67
537.00	2364.23
537.36	2378.89
537.72	2393.09
538.08	2407.40
538.44	2421.12
538.79	2434.83
539.15	2448.43
539.51	2461.96
539.87	2476.21
540.22	2488.82
540.58	2501.91
540.94	2514.25
541.29	2525.77
541.65	2536.73
542.01	2548.84
542.37	2559.54
542.72	2570.59
543.08	2580.55
543.44	2591.64
543.79	2600.71
544.15	2609.29
544.51	2618.79
544.87	2628.56
545.22	2637.13
545.58	2644.73
545.94	2651.27
546.29	2657.35
546.65	2663.20
547.01	2669.07
547.36	2674.24
547.72	2679.89
548.07	2684.00
548.43	2688.18
548.79	2691.75
549.14	2695.84
549.50	2699.50
549.86	2702.16
550.21	2704.60
550.57	2707.62
550.92	2708.97
551.28	2711.23
551.64	2713.45
551.99	2715.70
552.35	2716.14
552.70	2717.35
553.06	2718.78
553.41	2719.91
553.77	2720.82
554.13	2721.40
554.48	2722.38
554.84	2722.60
555.19	2722.36
555.55	2721.44
555.90	2720.36
556.26	2719.78
556.61	2718.52
556.97	2716.43
557.32	2715.35
557.68	2713.28
558.03	2710.86
558.39	2708.76
558.74	2707.67
559.10	2705.66
559.45	2702.89
559.81	2701.35
560.16	2698.24
560.52	2696.02
560.87	2693.12
561.23	2689.82
561.58	2686.91
561.94	2682.43
562.29	2677.94
562.64	2674.51
563.00	2671.41
563.35	2668.56
563.71	2665.91
564.06	2662.88
564.42	2660.03
564.77	2657.20
565.12	2654.59
565.48	2651.13
565.83	2647.95
566.19	2644.59
566.54	2639.70
566.89	2634.84
567.25	2630.12
567.60	2626.17
567.96	2621.19
568.31	2617.30
568.66	2612.40
569.02	2607.19
569.37	2601.58
569.72	2596.70
570.08	2590.98
570.43	2584.94
570.78	2578.70
571.14	2571.52
571.49	2564.73
571.84	2558.61
572.20	2550.91
572.55	2543.97
572.90	2536.47
573.26	2528.68
573.61	2520.38
573.96	2513.19
574.31	2505.21
574.67	2496.57
575.02	2487.61
575.37	2478.91
575.72	2469.32
576.08	2461.63
576.43	2452.79
576.78	2444.77
577.13	2436.92
577.49	2428.91
577.84	2420.77
578.19	2412.91
578.54	2405.69
578.90	2398.48
579.25	2389.88
579.60	2381.30
579.95	2372.37
580.30	2364.56
580.66	2356.65
581.01	2347.76
581.36	2338.93
581.71	2330.59
582.06	2322.31
582.42	2314.47
582.77	2305.75
583.12	2297.88
583.47	2289.56
583.82	2282.02
584.17	2273.73
584.53	2265.44
584.88	2257.26
585.23	2248.68
585.58	2240.23
585.93	2231.14
586.28	2222.81
586.63	2214.46
586.98	2206.80
587.34	2199.21
587.69	2190.96
588.04	2183.04
588.39	2175.37
588.74	2167.03
589.09	2159.79
589.44	2151.54
589.79	2143.88
590.14	2136.43
590.49	2128.07
590.84	2119.83
591.19	2112.70
591.54	2104.93
591.89	2095.49
592.25	2086.51
592.60	2077.75
592.95	2068.67
593.30	2059.60
593.65	2050.09
594.00	2041.35
594.35	2033.85
594.70	2025.15
595.05	2017.19
595.40	2008.79
595.75	1999.85
596.10	1992.22
596.45	1983.82
596.80	1976.53
597.15	1968.71
597.50	1960.40
597.85	1953.08
598.19	1944.78
598.54	1936.18
598.89	1928.91
599.24	1922.41
599.59	1915.60
599.94	1909.23
600.29	1902.62
600.64	1896.12
600.99	1888.67
601.34	1881.89
601.69	1873.50
602.04	1865.98
602.39	1858.04
602.74	1850.49
603.08	1844.13
603.43	1837.50
603.78	1830.25
604.13	1822.90
604.48	1815.68
604.83	1809.84
605.18	1803.70
605.53	1796.80
605.87	1789.53
606.22	1782.36
606.57	1775.12
606.92	1767.41
607.27	1759.65
607.62	1752.00
607.96	1744.98
608.31	1738.99
608.66	1731.37
609.01	1723.72
609.36	1716.11
609.70	1708.32
610.05	1700.41
610.40	1692.52
610.75	1684.20
611.10	1677.01
611.44	1668.02
611.79	1659.41
612.14	1650.02
612.49	1640.54
612.83	1632.30
613.18	1623.43
613.53	1614.81
613.88	1605.51
614.22	1597.37
614.57	1588.75
614.92	1580.20
615.27	1571.27
615.61	1561.89
615.96	1553.48
616.31	1545.85
616.65	1538.35
617.00	1530.62
617.35	1522.64
617.70	1514.16
618.04	1505.32
618.39	1495.81
618.74	1487.99
619.08	1479.32
619.43	1471.08
619.78	1462.91
620.12	1454.56
620.47	1446.76
620.82	1437.93
621.16	1429.58
621.51	1421.22
621.85	1413.27
622.20	1404.60
622.55	1396.39
622.89	1388.18
623.24	1380.08
623.59	1371.35
623.93	1362.83
624.28	1354.55
624.62	1346.54
624.97	1338.66
625.32	1331.42
625.66	1324.15
626.01	1316.51
626.35	1309.54
626.70	1301.97
627.04	1294.65
627.39	1287.69
627.73	1280.15
628.08	1273.31
628.43	1266.04
628.77	1258.37
629.12	1250.61
629.46	1244.33
629.81	1237.10
630.15	1229.96
630.50	1222.59
630.84	1215.09
631.19	1208.12
631.53	1200.94
631.88	1193.20
632.22	1185.71
632.57	1178.47
632.91	1171.17
633.26	1164.05
633.60	1156.95
633.95	1150.40
634.29	1143.35
634.64	1136.22
634.98	1129.09
635.32	1122.13
635.67	1116.04
636.01	1109.40
636.36	1102.56
636.70	1095.55
637.05	1089.01
637.39	1082.60
637.73	1076.48
638.08	1070.85
638.42	1064.78
638.77	1058.61
639.11	1052.66
639.45	1046.41
639.80	1039.60
640.14	1033.03
640.49	1026.64
640.83	1020.00
641.17	1013.35
641.52	1006.76
641.86	999.85
642.20	993.58
642.55	986.69
642.89	979.66
643.23	973.27
643.58	967.24
643.92	960.61
644.26	954.06
644.61	947.60
644.95	940.94
645.29	934.40
645.64	927.50
645.98	921.08
646.32	915.07
646.66	908.61
647.01	902.67
647.35	896.67
647.69	890.19
648.04	884.28
648.38	878.14
648.72	872.14
649.06	866.34
649.41	860.26
649.75	854.40
650.09	848.50
650.43	842.48
650.78	836.29
651.12	830.15
651.46	824.38
651.80	818.74
652.14	813.04
652.49	807.04
652.83	801.26
653.17	795.05
653.51	788.80
653.85	783.40
654.20	777.57
654.54	771.80
654.88	766.20
655.22	760.34
655.56	754.39
655.90	748.80
656.25	743.16
656.59	737.70
656.93	732.24
657.27	726.96
657.61	721.43
657.95	716.20
658.29	711.29
658.64	706.12
658.98	700.70
659.32	695.17
659.66	690.07
660.00	684.81
660.34	679.75
660.68	674.71
661.02	669.48
661.36	664.76
661.70	659.82
662.05	655.28
662.39	650.78
662.73	646.51
663.07	642.01
663.41	637.60
663.75	632.92
664.09	628.41
664.43	623.77
664.77	619.44
665.11	614.95
665.45	610.66
665.79	606.40
666.13	602.23
666.47	598.05
666.81	593.89
667.15	589.88
667.49	586.20
667.83	582.48
668.17	578.59
668.51	574.86
668.85	571.27
669.19	567.59
669.53	563.78
669.87	559.76
670.21	555.99
670.55	552.19
670.89	548.90
671.23	545.52
671.57	542.10
671.91	538.67
672.25	535.30
672.58	531.69
672.92	528.20
673.26	524.99
673.60	521.89
673.94	518.69
674.28	515.56
674.62	512.48
674.96	509.30
675.30	506.25
675.64	503.06
675.97	499.97
676.31	496.98
676.65	494.06
676.99	491.45
677.33	488.43
677.67	485.59
678.01	482.43
678.34	479.64
678.68	476.76
679.02	473.87
679.36	471.17
679.70	468.55
680.04	465.77
680.37	462.94
680.71	460.17
681.05	457.50
681.39	454.86
681.73	452.12
682.06	449.64
682.40	447.17
682.74	444.54
683.08	442.08
683.42	439.32
683.75	436.83
684.09	434.19
684.43	431.81
684.77	429.23
685.10	426.91
685.44	424.31
685.78	421.93
686.12	419.64
686.45	417.27
686.79	414.86
687.13	412.65
687.46	410.42
687.80	408.27
688.14	405.99
688.48	403.83
688.81	401.49
689.15	399.19
689.49	396.89
689.82	394.71
690.16	392.22
690.50	390.09
690.83	387.84
691.17	385.61
691.51	383.44
691.84	381.48
692.18	379.48
692.52	377.60
692.85	375.85
693.19	374.04
693.52	372.11
693.86	370.10
694.20	368.25
694.53	366.43
694.87	364.47
695.21	362.55
695.54	360.48
695.88	358.60
696.21	356.74
696.55	355.00
696.88	353.27
697.22	351.67
697.56	350.00
697.89	348.32
698.23	346.77
698.56	345.13
698.90	343.63
699.23	341.96
699.57	340.29
699.90	338.52
700.24	336.82
700.58	335.28
700.91	333.89
701.25	332.57
701.58	331.06
701.92	329.63
702.25	328.16
702.59	326.75
702.92	325.40
703.26	324.00
703.59	322.60
703.93	321.56
704.26	320.24
704.60	318.90
704.93	317.49
705.26	315.97
705.60	314.75
705.93	313.28
706.27	312.13
706.60	311.05
706.94	309.96
707.27	308.78
707.61	307.60
707.94	306.34
708.27	304.86
708.61	303.64
708.94	302.45
709.28	301.45
709.61	300.42
709.94	299.39
710.28	298.37
710.61	297.40
710.95	295.96
711.28	295.17
711.61	294.14
711.95	293.33
712.28	292.46
712.61	291.50
712.95	290.78
713.28	289.97
713.61	289.01
713.95	287.96
714.28	287.15
714.61	286.15
714.95	285.31
715.28	284.61
715.61	283.68
715.95	282.85
716.28	281.93
716.61	281.16
716.95	280.35
717.28	279.56
717.61	278.82
717.94	278.11
718.28	277.11
718.61	276.40
718.94	275.58
719.27	274.90
719.61	274.15
719.94	273.31
720.27	272.37
720.60	271.53
720.94	270.92
721.27	270.13
721.60	269.52
721.93	268.83
722.27	268.19
722.60	267.65
722.93	267.00
723.26	266.44
723.59	265.76
723.93	265.10
724.26	264.46
724.59	263.82
724.92	263.21
725.25	262.66
725.59	262.14
725.92	261.67
726.25	261.03
726.58	260.49
726.91	260.01
727.24	259.60
727.57	259.06
727.91	258.40
728.24	257.89
728.57	257.40
728.90	257.02
729.23	256.37
729.56	256.00
729.89	255.55
730.22	255.07
730.55	254.53
730.89	254.05
731.22	253.60
731.55	253.06
731.88	252.65
732.21	252.21
732.54	251.71
732.87	251.20
733.20	250.77
733.53	250.39
733.86	249.89
734.19	249.39
734.52	249.14
734.85	249.06
735.18	248.64
735.51	248.35
735.84	247.98
736.17	247.77
736.50	247.26
736.83	247.23
737.16	246.81
737.49	246.48
737.82	246.10
738.15	245.79
738.48	245.41
738.81	245.08
739.14	244.60
739.47	244.14
739.80	243.80
740.13	243.40
740.46	242.96
740.79	242.57
741.12	242.24
741.45	241.81
741.78	241.21
742.11	240.96
742.44	240.48
742.77	240.12
743.10	239.66
743.43	239.33
743.75	238.68
744.08	238.73
744.41	238.38
744.74	238.08
745.07	237.65
745.40	237.46
745.73	237.22
746.06	236.99
746.39	236.76
746.71	236.39
747.04	236.12
747.37	235.83
747.70	235.66
748.03	235.37
748.36	235.10
748.68	234.82
749.01	234.49
749.34	234.20
749.67	233.83
750.00	233.66
750.33	233.60
750.65	233.37
750.98	232.74
751.31	232.52
751.64	232.29
751.97	232.35
752.29	232.07
752.62	231.71
752.95	231.48
753.28	231.24
753.60	231.07
753.93	231.02
754.26	230.78
754.59	230.37
754.91	230.16
755.24	229.96
755.57	229.76
755.90	229.52
756.22	229.35
756.55	229.10
756.88	228.77
757.20	228.36
757.53	228.03
757.86	227.82
758.19	227.64
758.51	227.52
758.84	227.07
759.17	226.82
759.49	226.65
759.82	226.65
760.15	226.46
760.47	226.19
760.80	225.85
761.13	225.73
761.45	225.61
761.78	225.42
762.11	225.21
762.43	225.03
762.76	224.84
763.08	224.68
763.41	224.59
763.74	224.49
764.06	224.35
764.39	224.30
764.71	224.09
765.04	223.92
765.37	223.79
765.69	223.61
766.02	223.46
766.34	223.29
766.67	222.93
767.00	222.85
767.32	222.99
767.65	223.12
767.97	223.00
768.30	222.90
768.62	222.78
768.95	222.64
769.27	222.48
769.60	222.38
769.92	222.25
770.25	222.04
770.57	221.81
770.90	221.63
771.22	221.45
771.55	221.40
771.87	221.25
772.20	221.03
772.52	221.28
772.85	221.62
773.17	221.57
773.50	221.52
773.82	221.30
774.15	220.95
774.47	220.60
774.80	220.45
775.12	220.31
775.45	220.16
775.77	220.10
776.09	220.04
776.42	220.01
776.74	220.04
777.07	220.02
777.39	220.01
777.72	219.93
778.04	219.85
778.36	219.77
778.69	219.74
779.01	219.68
779.33	219.25
779.66	218.79
779.98	218.62
780.31	218.57
780.63	218.77
780.95	218.80
781.28	218.70
781.60	218.60
781.92	218.59
782.25	218.49
782.57	218.42
782.89	218.38
783.22	218.27
783.54	218.08
783.86	218.03
784.19	217.94
784.51	217.98
784.83	217.87
785.16	217.85
785.48	217.81
785.80	217.80
786.12	217.74
786.45	217.70
