SpectraSuite Data File
++++++++++++++++++++++++++++++++++++
Date: Mon Feb 25 17:02:00 EST 2013
User: group
Dark Spectrum Present: No
Reference Spectrum Present: No
Number of Sampled Component Spectra: 1
Spectrometers: USB2E7196
Integration Time (usec): 104000 (USB2E7196)
Spectra Averaged: 20 (USB2E7196)
Boxcar Smoothing: 10 (USB2E7196)
Correct for Electrical Dark: No (USB2E7196)
Strobe/Lamp Enabled: No (USB2E7196)
Correct for Detector Non-linearity: No (USB2E7196)
Correct for Stray Light: No (USB2E7196)
Number of Pixels in Processed Spectrum: 2048
>>>>>Begin Processed Spectral Data<<<<<
339.09	0.00
339.48	199.05
339.86	200.85
340.24	201.55
340.63	203.40
341.01	210.10
341.39	206.10
341.78	206.45
342.16	208.95
342.54	210.00
342.93	198.43
343.31	208.43
343.69	209.02
344.07	209.46
344.46	209.97
344.84	210.30
345.22	210.31
345.60	210.51
345.99	210.77
346.37	210.89
346.75	210.91
347.13	210.92
347.52	210.96
347.90	211.17
348.28	211.15
348.66	211.24
349.05	211.10
349.43	211.14
349.81	211.29
350.19	211.37
350.57	211.41
350.96	211.50
351.34	211.58
351.72	211.53
352.10	211.55
352.48	211.41
352.87	211.41
353.25	211.48
353.63	211.51
354.01	211.54
354.39	211.60
354.77	211.66
355.15	211.84
355.54	211.76
355.92	211.62
356.30	211.68
356.68	212.00
357.06	212.05
357.44	211.99
357.82	211.99
358.20	212.06
358.58	212.09
358.97	212.14
359.35	212.26
359.73	212.44
360.11	212.49
360.49	212.63
360.87	212.69
361.25	212.76
361.63	212.90
362.01	212.96
362.39	212.91
362.77	212.91
363.15	212.92
363.53	213.04
363.91	213.09
364.29	213.13
364.67	212.76
365.05	212.69
365.43	212.81
365.81	212.82
366.19	212.96
366.57	213.08
366.95	213.16
367.33	213.08
367.71	213.02
368.09	213.10
368.47	213.16
368.85	213.18
369.23	213.20
369.61	213.14
369.99	213.17
370.37	213.21
370.75	213.37
371.13	213.22
371.51	213.18
371.89	213.22
372.27	213.20
372.65	213.21
373.03	213.20
373.41	213.07
373.78	212.99
374.16	212.76
374.54	212.61
374.92	212.47
375.30	212.41
375.68	212.33
376.06	212.30
376.44	212.17
376.82	212.10
377.19	212.03
377.57	211.93
377.95	211.76
378.33	211.73
378.71	211.51
379.09	211.57
379.47	211.56
379.84	211.46
380.22	211.36
380.60	211.19
380.98	211.15
381.36	211.15
381.73	211.09
382.11	211.16
382.49	211.12
382.87	210.99
383.25	210.89
383.62	211.28
384.00	211.21
384.38	211.28
384.76	211.32
385.13	211.44
385.51	211.42
385.89	211.31
386.27	211.30
386.64	211.33
387.02	211.22
387.40	211.09
387.78	211.11
388.15	211.14
388.53	211.11
388.91	211.18
389.29	211.07
389.66	211.12
390.04	211.01
390.42	211.09
390.79	211.12
391.17	211.21
391.55	210.80
391.92	210.81
392.30	210.78
392.68	210.60
393.05	210.58
393.43	210.55
393.81	210.65
394.18	210.55
394.56	210.58
394.94	210.66
395.31	210.61
395.69	210.67
396.06	210.69
396.44	210.82
396.82	210.75
397.19	210.96
397.57	210.93
397.95	210.95
398.32	210.85
398.70	210.93
399.07	210.91
399.45	210.91
399.82	210.87
400.20	210.85
400.58	210.94
400.95	210.84
401.33	210.95
401.70	211.21
402.08	211.27
402.45	211.27
402.83	211.40
403.20	211.53
403.58	211.54
403.95	211.67
404.33	211.82
404.71	211.89
405.08	212.24
405.46	212.41
405.83	212.59
406.21	212.72
406.58	212.92
406.96	213.14
407.33	213.31
407.70	213.55
408.08	214.09
408.45	214.50
408.83	214.80
409.20	215.08
409.58	215.15
409.95	215.56
410.33	215.92
410.70	216.19
411.08	216.62
411.45	217.17
411.82	217.64
412.20	218.22
412.57	219.06
412.95	219.35
413.32	220.01
413.69	220.62
414.07	221.42
414.44	222.17
414.82	223.00
415.19	223.95
415.56	224.92
415.94	225.76
416.31	226.83
416.68	228.01
417.06	229.36
417.43	230.76
417.81	232.26
418.18	233.82
418.55	235.57
418.93	237.29
419.30	238.99
419.67	240.94
420.04	242.81
420.42	244.75
420.79	247.32
421.16	249.68
421.54	252.34
421.91	254.86
422.28	257.56
422.66	260.44
423.03	263.48
423.40	266.44
423.77	269.54
424.15	272.77
424.52	276.02
424.89	279.60
425.26	282.95
425.64	286.25
426.01	289.93
426.38	293.57
426.75	297.58
427.13	301.67
427.50	305.88
427.87	310.35
428.24	314.77
428.61	318.95
428.99	323.69
429.36	328.63
429.73	333.74
430.10	338.69
430.47	343.81
430.85	349.01
431.22	354.68
431.59	360.77
431.96	366.46
432.33	373.05
432.70	379.37
433.08	386.81
433.45	393.90
433.82	400.83
434.19	408.73
434.56	416.25
434.93	423.50
435.30	430.79
435.68	438.81
436.05	446.80
436.42	454.75
436.79	462.16
437.16	470.11
437.53	478.38
437.90	486.74
438.27	494.98
438.64	503.48
439.01	511.33
439.38	518.40
439.75	525.43
440.13	533.25
440.50	540.75
440.87	546.79
441.24	553.00
441.61	560.09
441.98	565.42
442.35	571.67
442.72	577.90
443.09	584.02
443.46	587.88
443.83	590.72
444.20	593.16
444.57	596.45
444.94	598.32
445.31	600.41
445.68	602.70
446.05	603.97
446.42	603.77
446.79	603.53
447.16	603.07
447.53	602.89
447.90	600.30
448.27	597.68
448.64	594.08
449.01	591.67
449.37	586.78
449.74	581.95
450.11	576.35
450.48	570.00
450.85	563.45
451.22	557.98
451.59	552.69
451.96	547.72
452.33	540.85
452.70	534.67
453.07	526.97
453.43	518.83
453.80	511.38
454.17	504.30
454.54	497.46
454.91	490.12
455.28	482.98
455.65	476.38
456.02	470.06
456.38	464.39
456.75	457.28
457.12	451.28
457.49	445.42
457.86	439.41
458.23	434.57
458.59	429.11
458.96	423.64
459.33	418.67
459.70	413.71
460.07	409.85
460.43	405.33
460.80	401.17
461.17	397.63
461.54	393.67
461.91	389.99
462.27	386.27
462.64	383.07
463.01	379.64
463.38	376.30
463.74	372.60
464.11	369.49
464.48	366.82
464.85	363.99
465.21	361.83
465.58	359.62
465.95	356.72
466.32	354.48
466.68	352.12
467.05	349.89
467.42	347.49
467.78	344.96
468.15	342.72
468.52	341.08
468.88	338.74
469.25	336.75
469.62	335.09
469.98	333.30
470.35	331.66
470.72	329.96
471.08	328.28
471.45	326.78
471.82	325.49
472.18	323.90
472.55	322.80
472.92	321.30
473.28	320.04
473.65	318.84
474.02	317.61
474.38	316.64
474.75	315.85
475.11	315.05
475.48	314.39
475.85	313.69
476.21	312.89
476.58	312.35
476.94	311.88
477.31	311.35
477.67	310.83
478.04	310.39
478.41	310.12
478.77	310.08
479.14	309.75
479.50	309.51
479.87	309.51
480.23	309.32
480.60	309.23
480.96	309.01
481.33	309.09
481.69	309.18
482.06	309.23
482.42	309.16
482.79	309.23
483.15	309.47
483.52	309.85
483.88	310.04
484.25	310.21
484.61	310.50
484.98	310.80
485.34	311.40
485.71	311.94
486.07	312.45
486.44	312.67
486.80	313.27
487.17	313.92
487.53	314.64
487.90	315.50
488.26	316.45
488.62	317.52
488.99	318.46
489.35	319.42
489.72	320.43
490.08	321.59
490.44	322.67
490.81	323.77
491.17	324.80
491.54	326.28
491.90	327.72
492.26	329.01
492.63	330.43
492.99	331.77
493.36	333.28
493.72	334.92
494.08	336.51
494.45	338.18
494.81	339.89
495.17	341.54
495.54	343.20
495.90	344.94
496.26	346.73
496.63	348.54
496.99	350.35
497.35	352.21
497.72	354.18
498.08	356.11
498.44	358.13
498.80	360.19
499.17	362.06
499.53	363.95
499.89	366.14
500.26	368.15
500.62	370.12
500.98	372.10
501.34	373.89
501.71	375.98
502.07	377.97
502.43	379.74
502.79	381.54
503.16	383.26
503.52	385.00
503.88	386.61
504.24	388.28
504.60	390.07
504.97	391.80
505.33	393.31
505.69	394.96
506.05	396.51
506.41	397.98
506.78	399.30
507.14	400.68
507.50	401.91
507.86	403.06
508.22	404.39
508.59	405.36
508.95	406.55
509.31	407.70
509.67	408.65
510.03	409.71
510.39	410.72
510.75	411.73
511.12	412.63
511.48	413.40
511.84	414.20
512.20	414.73
512.56	415.39
512.92	415.94
513.28	416.43
513.64	416.83
514.00	417.29
514.37	417.75
514.73	418.19
515.09	418.58
515.45	418.82
515.81	418.94
516.17	419.15
516.53	419.31
516.89	419.21
517.25	419.20
517.61	419.20
517.97	419.03
518.33	418.89
518.69	418.74
519.05	418.75
519.41	418.68
519.77	418.73
520.13	418.40
520.49	418.20
520.85	417.95
521.21	417.88
521.57	417.67
521.93	417.34
522.29	417.13
522.65	416.76
523.01	416.66
523.37	416.41
523.73	416.35
524.09	416.22
524.45	416.15
524.81	416.11
525.17	416.05
525.53	416.27
525.89	416.37
526.25	416.61
526.61	416.50
526.97	416.59
527.33	416.86
527.68	417.57
528.04	418.05
528.40	418.50
528.76	418.76
529.12	419.26
529.48	420.07
529.84	420.53
530.20	421.23
530.56	422.08
530.91	423.01
531.27	423.90
531.63	424.80
531.99	425.72
532.35	426.71
532.71	427.82
533.07	428.83
533.42	430.34
533.78	431.45
534.14	432.94
534.50	434.20
534.86	435.44
535.21	436.49
535.57	437.89
535.93	439.30
536.29	441.07
536.65	442.64
537.00	443.98
537.36	445.65
537.72	447.40
538.08	448.98
538.44	450.73
538.79	452.66
539.15	454.48
539.51	456.47
539.87	458.50
540.22	460.50
540.58	462.83
540.94	464.70
541.29	466.89
541.65	468.94
542.01	471.38
542.37	473.68
542.72	476.00
543.08	478.27
543.44	480.79
543.79	483.02
544.15	485.55
544.51	488.23
544.87	491.04
545.22	493.62
545.58	496.29
545.94	498.83
546.29	501.44
546.65	504.04
547.01	506.65
547.36	509.45
547.72	512.21
548.07	514.75
548.43	517.25
548.79	519.70
549.14	522.36
549.50	524.98
549.86	527.61
550.21	530.41
550.57	533.26
550.92	535.99
551.28	538.75
551.64	541.46
551.99	544.29
552.35	546.77
552.70	549.42
553.06	552.18
553.41	554.85
553.77	557.54
554.13	560.27
554.48	563.04
554.84	565.75
555.19	568.37
555.55	571.28
555.90	574.02
556.26	576.62
556.61	579.22
556.97	581.52
557.32	584.06
557.68	586.45
558.03	588.79
558.39	590.96
558.74	593.42
559.10	595.81
559.45	598.13
559.81	600.61
560.16	602.80
560.52	605.04
560.87	607.45
561.23	609.52
561.58	612.04
561.94	614.24
562.29	616.31
562.64	618.43
563.00	620.33
563.35	622.53
563.71	624.95
564.06	627.14
564.42	629.52
564.77	631.78
565.12	633.83
565.48	636.20
565.83	638.46
566.19	640.69
566.54	642.54
566.89	644.53
567.25	646.60
567.60	648.78
567.96	651.09
568.31	653.10
568.66	655.12
569.02	656.69
569.37	658.18
569.72	659.94
570.08	661.50
570.43	663.00
570.78	664.28
571.14	665.36
571.49	666.44
571.84	667.42
572.20	668.41
572.55	669.51
572.90	670.04
573.26	670.75
573.61	671.15
573.96	671.92
574.31	672.32
574.67	672.61
575.02	672.83
575.37	672.77
575.72	672.81
576.08	673.07
576.43	673.07
576.78	673.29
577.13	673.37
577.49	673.75
577.84	673.73
578.19	674.04
578.54	674.56
578.90	675.07
579.25	675.45
579.60	675.33
579.95	675.25
580.30	675.52
580.66	675.70
581.01	675.78
581.36	675.65
581.71	675.72
582.06	675.88
582.42	675.93
582.77	675.71
583.12	675.65
583.47	675.64
583.82	675.66
584.17	675.56
584.53	675.38
584.88	674.97
585.23	674.90
585.58	674.50
585.93	673.97
586.28	673.61
586.63	673.21
586.98	673.03
587.34	672.90
587.69	672.50
588.04	672.09
588.39	671.75
588.74	671.35
589.09	671.03
589.44	670.30
589.79	669.75
590.14	669.46
590.49	668.94
590.84	668.11
591.19	667.67
591.54	666.97
591.89	665.99
592.25	665.52
592.60	664.54
592.95	663.58
593.30	662.54
593.65	661.36
594.00	660.32
594.35	660.30
594.70	659.12
595.05	658.14
595.40	657.03
595.75	655.90
596.10	654.98
596.45	653.86
596.80	653.16
597.15	652.16
597.50	650.95
597.85	650.03
598.19	649.13
598.54	647.96
598.89	646.93
599.24	646.26
599.59	645.13
599.94	644.35
600.29	643.43
600.64	642.40
600.99	641.47
601.34	640.50
601.69	638.49
602.04	637.50
602.39	636.26
602.74	635.54
603.08	634.65
603.43	633.89
603.78	632.72
604.13	631.52
604.48	630.60
604.83	629.90
605.18	628.93
605.53	627.65
605.87	626.46
606.22	625.36
606.57	623.98
606.92	622.60
607.27	621.22
607.62	619.99
607.96	619.06
608.31	617.87
608.66	616.51
609.01	615.21
609.36	614.02
609.70	612.73
610.05	611.06
610.40	609.61
610.75	607.86
611.10	606.66
611.44	604.99
611.79	603.31
612.14	601.58
612.49	599.82
612.83	598.37
613.18	596.72
613.53	595.08
613.88	593.42
614.22	591.76
614.57	590.12
614.92	588.43
615.27	586.69
615.61	584.95
615.96	583.30
616.31	581.82
616.65	580.10
617.00	578.36
617.35	576.69
617.70	574.85
618.04	573.10
618.39	571.09
618.74	569.41
619.08	567.57
619.43	565.78
619.78	563.97
620.12	562.19
620.47	560.34
620.82	558.38
621.16	556.51
621.51	554.90
621.85	553.03
622.20	551.30
622.55	549.37
622.89	547.32
623.24	545.59
623.59	543.49
623.93	541.63
624.28	540.01
624.62	538.48
624.97	536.86
625.32	535.08
625.66	533.41
626.01	531.59
626.35	529.87
626.70	527.84
627.04	526.32
627.39	524.45
627.73	522.93
628.08	521.43
628.43	519.75
628.77	517.79
629.12	516.06
629.46	514.39
629.81	512.70
630.15	511.14
630.50	509.32
630.84	507.66
631.19	505.86
631.53	503.96
631.88	501.95
632.22	499.94
632.57	498.27
632.91	496.51
633.26	494.76
633.60	493.10
633.95	491.66
634.29	489.82
634.64	488.21
634.98	486.32
635.32	484.82
635.67	483.32
636.01	481.77
636.36	480.13
636.70	478.50
637.05	476.75
637.39	475.20
637.73	473.70
638.08	472.29
638.42	470.91
638.77	469.49
639.11	467.94
639.45	466.52
639.80	464.75
640.14	463.04
640.49	461.39
640.83	459.70
641.17	458.03
641.52	456.25
641.86	454.57
642.20	453.18
642.55	451.07
642.89	449.39
643.23	447.71
643.58	446.30
643.92	444.56
644.26	443.05
644.61	441.41
644.95	439.75
645.29	437.93
645.64	436.19
645.98	434.39
646.32	432.80
646.66	431.11
647.01	429.50
647.35	428.05
647.69	426.50
648.04	425.02
648.38	423.31
648.72	421.73
649.06	420.13
649.41	418.29
649.75	416.80
650.09	415.15
650.43	413.57
650.78	411.77
651.12	410.16
651.46	408.55
651.80	407.06
652.14	405.43
652.49	403.95
652.83	402.31
653.17	400.69
653.51	398.95
653.85	397.47
654.20	396.10
654.54	394.43
654.88	392.80
655.22	391.21
655.56	389.70
655.90	388.25
656.25	386.56
656.59	385.01
656.93	383.71
657.27	382.29
657.61	380.64
657.95	379.18
658.29	377.70
658.64	376.26
658.98	374.63
659.32	373.04
659.66	371.50
660.00	370.01
660.34	368.69
660.68	367.29
661.02	365.77
661.36	364.24
661.70	362.90
662.05	361.72
662.39	360.46
662.73	359.32
663.07	358.12
663.41	356.98
663.75	355.75
664.09	354.30
664.43	352.87
664.77	351.77
665.11	350.49
665.45	349.29
665.79	348.09
666.13	346.81
666.47	345.66
666.81	344.48
667.15	343.35
667.49	342.28
667.83	341.32
668.17	340.20
668.51	339.10
668.85	338.05
669.19	336.94
669.53	335.72
669.87	334.49
670.21	333.33
670.55	332.20
670.89	331.31
671.23	330.34
671.57	329.40
671.91	328.31
672.25	327.33
672.58	326.37
672.92	325.34
673.26	324.51
673.60	323.59
673.94	322.68
674.28	321.72
674.62	320.76
674.96	319.60
675.30	318.67
675.64	317.72
675.97	316.77
676.31	315.78
676.65	314.82
676.99	314.05
677.33	313.10
677.67	312.22
678.01	311.23
678.34	310.33
678.68	309.50
679.02	308.59
679.36	307.68
679.70	306.73
680.04	305.85
680.37	304.98
680.71	304.06
681.05	303.17
681.39	302.31
681.73	301.39
682.06	300.65
682.40	299.81
682.74	298.95
683.08	298.22
683.42	297.30
683.75	296.61
684.09	295.56
684.43	294.67
684.77	293.83
685.10	293.04
685.44	292.15
685.78	291.21
686.12	290.57
686.45	289.84
686.79	289.10
687.13	288.32
687.46	287.49
687.80	286.88
688.14	286.15
688.48	285.45
688.81	284.75
689.15	284.07
689.49	283.34
689.82	282.66
690.16	281.72
690.50	281.04
690.83	280.19
691.17	279.48
691.51	278.73
691.84	278.04
692.18	277.29
692.52	276.71
692.85	276.14
693.19	275.47
693.52	274.70
693.86	273.90
694.20	273.28
694.53	272.73
694.87	271.95
695.21	271.29
695.54	270.68
695.88	269.95
696.21	269.16
696.55	268.62
696.88	268.04
697.22	267.49
697.56	266.98
697.89	266.47
698.23	266.00
698.56	265.39
698.90	264.98
699.23	264.42
699.57	263.87
699.90	263.28
700.24	262.61
700.58	262.07
700.91	261.63
701.25	261.34
701.58	260.85
701.92	260.42
702.25	259.83
702.59	259.21
702.92	258.78
703.26	258.32
703.59	257.72
703.93	257.54
704.26	257.08
704.60	256.53
704.93	255.99
705.26	255.42
705.60	255.06
705.93	254.45
706.27	254.02
706.60	253.64
706.94	253.34
707.27	252.87
707.61	252.56
707.94	252.14
708.27	251.37
708.61	250.82
708.94	250.40
709.28	250.02
709.61	249.62
709.94	249.26
710.28	248.84
710.61	248.50
710.95	247.71
711.28	247.51
711.61	247.15
711.95	246.83
712.28	246.55
712.61	246.24
712.95	246.09
713.28	245.89
713.61	245.41
713.95	244.90
714.28	244.61
714.61	244.25
714.95	243.93
715.28	243.64
715.61	243.30
715.95	242.91
716.28	242.55
716.61	242.25
716.95	241.86
717.28	241.60
717.61	241.36
717.94	241.12
718.28	240.72
718.61	240.44
718.94	240.15
719.27	239.85
719.61	239.50
719.94	239.13
720.27	238.67
720.60	238.50
720.94	238.28
721.27	238.05
721.60	237.77
721.93	237.55
722.27	237.46
722.60	237.28
722.93	237.08
723.26	236.92
723.59	236.65
723.93	236.49
724.26	236.31
724.59	235.96
724.92	235.74
725.25	235.52
725.59	235.34
725.92	235.08
726.25	234.85
726.58	234.62
726.91	234.38
727.24	234.24
727.57	233.94
727.91	233.66
728.24	233.48
728.57	233.23
728.90	233.05
729.23	232.68
729.56	232.64
729.89	232.39
730.22	232.08
730.55	231.83
730.89	231.60
731.22	231.33
731.55	231.19
731.88	231.02
732.21	230.74
732.54	230.48
732.87	230.34
733.20	230.12
733.53	230.03
733.86	229.84
734.19	229.57
734.52	229.45
734.85	229.58
735.18	229.29
735.51	229.20
735.84	228.98
736.17	228.89
736.50	228.53
736.83	228.79
737.16	228.68
737.49	228.57
737.82	228.36
738.15	228.25
738.48	228.10
738.81	227.89
739.14	227.67
739.47	227.47
739.80	227.25
740.13	227.15
740.46	226.95
740.79	226.71
741.12	226.60
741.45	226.46
741.78	226.08
742.11	226.05
742.44	225.83
742.77	225.74
743.10	225.55
743.43	225.40
743.75	224.91
744.08	225.23
744.41	225.05
744.74	224.89
745.07	224.64
745.40	224.52
745.73	224.58
746.06	224.48
746.39	224.42
746.71	224.24
747.04	224.01
747.37	223.82
747.70	223.73
748.03	223.70
748.36	223.61
748.68	223.43
749.01	223.17
749.34	223.06
749.67	222.98
750.00	222.94
750.33	223.09
750.65	222.94
750.98	222.35
751.31	222.32
751.64	222.30
751.97	222.44
752.29	222.30
752.62	221.87
752.95	221.79
753.28	221.57
753.60	221.54
753.93	221.53
754.26	221.48
754.59	221.24
754.91	220.98
755.24	220.82
755.57	220.72
755.90	220.64
756.22	220.44
756.55	220.26
756.88	220.05
757.20	219.71
757.53	219.49
757.86	219.43
758.19	219.34
758.51	219.10
758.84	218.77
759.17	218.65
759.49	218.66
759.82	218.72
760.15	218.71
760.47	218.64
760.80	218.48
761.13	218.44
761.45	218.46
761.78	218.40
762.11	218.27
762.43	218.23
762.76	218.21
763.08	218.28
763.41	218.24
763.74	218.24
764.06	218.12
764.39	218.07
764.71	218.01
765.04	217.85
765.37	217.79
765.69	217.79
766.02	217.75
766.34	217.65
766.67	217.43
767.00	217.48
767.32	217.53
767.65	217.67
767.97	217.53
768.30	217.48
768.62	217.43
768.95	217.39
769.27	217.30
769.60	217.25
769.92	217.13
770.25	216.98
770.57	216.79
770.90	216.77
771.22	216.76
771.55	216.65
771.87	216.65
772.20	216.57
772.52	216.85
772.85	217.22
773.17	217.20
773.50	217.09
773.82	216.95
774.15	216.78
774.47	216.53
774.80	216.54
775.12	216.51
775.45	216.45
775.77	216.42
776.09	216.42
776.42	216.35
776.74	216.40
777.07	216.38
777.39	216.45
777.72	216.34
778.04	216.31
778.36	216.29
778.69	216.24
779.01	216.28
779.33	215.98
779.66	215.55
779.98	215.44
780.31	215.44
780.63	215.58
780.95	215.58
781.28	215.55
781.60	215.47
781.92	215.41
782.25	215.38
782.57	215.34
782.89	215.25
783.22	215.22
783.54	215.08
783.86	215.08
784.19	214.95
784.51	214.97
784.83	214.90
785.16	214.84
785.48	214.85
785.80	214.81
786.12	214.78
786.45	214.70
786.77	214.70
787.09	214.67
787.42	214.46
787.74	214.45
788.06	214.52
788.38	214.50
788.71	214.43
789.03	214.43
789.35	214.45
789.67	214.35
789.99	214.28
790.32	214.28
790.64	214.26
790.96	214.55
791.28	214.53
791.61	214.44
791.93	214.44
792.25	214.41
792.57	214.60
792.89	214.48
793.21	214.44
793.54	214.44
793.86	214.37
794.18	214.32
