SpectraSuite Data File
++++++++++++++++++++++++++++++++++++
Date: Mon Feb 25 17:19:24 EST 2013
User: group
Dark Spectrum Present: No
Reference Spectrum Present: No
Number of Sampled Component Spectra: 1
Spectrometers: USB2E7196
Integration Time (usec): 104000 (USB2E7196)
Spectra Averaged: 20 (USB2E7196)
Boxcar Smoothing: 10 (USB2E7196)
Correct for Electrical Dark: No (USB2E7196)
Strobe/Lamp Enabled: No (USB2E7196)
Correct for Detector Non-linearity: No (USB2E7196)
Correct for Stray Light: No (USB2E7196)
Number of Pixels in Processed Spectrum: 2048
>>>>>Begin Processed Spectral Data<<<<<
339.09	0.00
339.48	197.20
339.86	199.05
340.24	201.45
340.63	202.75
341.01	210.50
341.39	204.65
341.78	208.40
342.16	210.20
342.54	208.30
342.93	198.12
343.31	208.13
343.69	208.76
344.07	209.24
344.46	209.73
344.84	210.19
345.22	210.27
345.60	210.65
345.99	210.82
346.37	210.88
346.75	211.06
347.13	211.20
347.52	211.32
347.90	211.50
348.28	211.64
348.66	211.81
349.05	211.75
349.43	211.92
349.81	212.15
350.19	212.24
350.57	212.37
350.96	212.51
351.34	212.70
351.72	212.87
352.10	213.09
352.48	213.14
352.87	213.22
353.25	213.29
353.63	213.36
354.01	213.44
354.39	213.57
354.77	213.69
355.15	213.82
355.54	213.85
355.92	213.84
356.30	213.95
356.68	214.25
357.06	214.47
357.44	214.47
357.82	214.51
358.20	214.56
358.58	214.61
358.97	214.68
359.35	214.82
359.73	215.00
360.11	215.05
360.49	215.16
360.87	215.18
361.25	215.20
361.63	215.40
362.01	215.53
362.39	215.53
362.77	215.58
363.15	215.66
363.53	215.73
363.91	215.80
364.29	215.78
364.67	215.46
365.05	215.41
365.43	215.50
365.81	215.58
366.19	215.86
366.57	216.11
366.95	216.11
367.33	216.00
367.71	215.90
368.09	215.93
368.47	215.93
368.85	215.93
369.23	216.06
369.61	215.84
369.99	215.92
370.37	215.97
370.75	216.14
371.13	216.02
371.51	215.87
371.89	215.85
372.27	215.84
372.65	215.78
373.03	215.70
373.41	215.66
373.78	215.58
374.16	215.33
374.54	215.11
374.92	215.05
375.30	215.00
375.68	214.84
376.06	214.82
376.44	214.73
376.82	214.67
377.19	214.58
377.57	214.50
377.95	214.25
378.33	214.13
378.71	213.85
379.09	213.80
379.47	213.91
379.84	213.82
380.22	213.79
380.60	213.75
380.98	213.64
381.36	213.55
381.73	213.39
382.11	213.36
382.49	213.33
382.87	213.29
383.25	213.22
383.62	213.59
384.00	213.50
384.38	213.42
384.76	213.43
385.13	213.50
385.51	213.49
385.89	213.50
386.27	213.50
386.64	213.48
387.02	213.45
387.40	213.31
387.78	213.22
388.15	213.15
388.53	213.11
388.91	213.13
389.29	213.03
389.66	213.08
390.04	213.02
390.42	213.06
390.79	213.07
391.17	213.06
391.55	212.69
391.92	212.64
392.30	212.66
392.68	212.59
393.05	212.53
393.43	212.60
393.81	212.57
394.18	212.59
394.56	212.52
394.94	212.56
395.31	212.57
395.69	212.71
396.06	212.80
396.44	212.90
396.82	212.92
397.19	213.20
397.57	213.20
397.95	213.26
398.32	213.16
398.70	213.19
399.07	213.30
399.45	213.33
399.82	213.38
400.20	213.47
400.58	213.55
400.95	213.50
401.33	213.61
401.70	213.94
402.08	214.01
402.45	214.14
402.83	214.24
403.20	214.43
403.58	214.45
403.95	214.62
404.33	214.74
404.71	214.90
405.08	215.15
405.46	215.25
405.83	215.52
406.21	215.73
406.58	215.85
406.96	215.99
407.33	216.25
407.70	216.60
408.08	217.09
408.45	217.41
408.83	217.80
409.20	218.04
409.58	218.13
409.95	218.51
410.33	218.97
410.70	219.37
411.08	219.81
411.45	220.34
411.82	220.76
412.20	221.36
412.57	222.13
412.95	222.50
413.32	223.30
413.69	223.98
414.07	224.69
414.44	225.53
414.82	226.46
415.19	227.44
415.56	228.43
415.94	229.35
416.31	230.52
416.68	231.70
417.06	233.17
417.43	234.62
417.81	236.09
418.18	237.56
418.55	239.24
418.93	240.91
419.30	242.74
419.67	244.61
420.04	246.56
420.42	248.50
420.79	251.00
421.16	253.27
421.54	255.76
421.91	258.41
422.28	261.03
422.66	263.75
423.03	266.54
423.40	269.31
423.77	272.32
424.15	275.33
424.52	278.50
424.89	281.92
425.26	285.22
425.64	288.37
426.01	291.86
426.38	295.48
426.75	299.24
427.13	303.00
427.50	307.02
427.87	311.17
428.24	315.41
428.61	319.20
428.99	323.75
429.36	328.36
429.73	332.97
430.10	337.60
430.47	342.40
430.85	347.36
431.22	352.60
431.59	358.27
431.96	363.52
432.33	369.33
432.70	374.97
433.08	381.54
433.45	387.78
433.82	394.00
434.19	400.85
434.56	407.64
434.93	414.13
435.30	420.56
435.68	427.58
436.05	434.64
436.42	441.75
436.79	448.13
437.16	455.06
437.53	462.42
437.90	469.65
438.27	476.71
438.64	483.84
439.01	490.64
439.38	496.51
439.75	502.48
440.13	509.20
440.50	515.52
440.87	520.68
441.24	526.03
441.61	531.91
441.98	536.26
442.35	541.04
442.72	546.06
443.09	551.24
443.46	554.17
443.83	556.00
444.20	557.64
444.57	560.04
444.94	561.17
445.31	562.21
445.68	563.48
446.05	563.74
446.42	563.06
446.79	562.15
447.16	561.00
447.53	560.20
447.90	557.39
448.27	554.44
448.64	550.50
449.01	547.67
449.37	542.82
449.74	538.10
450.11	532.85
450.48	526.81
450.85	520.35
451.22	515.01
451.59	509.97
451.96	505.10
452.33	498.66
452.70	492.82
453.07	485.81
453.43	478.65
453.80	472.10
454.17	465.55
454.54	459.39
454.91	453.00
455.28	446.59
455.65	440.65
456.02	435.18
456.38	430.09
456.75	423.70
457.12	418.37
457.49	413.18
457.86	407.94
458.23	403.68
458.59	398.94
458.96	394.29
459.33	389.96
459.70	385.73
460.07	382.27
460.43	378.44
460.80	374.92
461.17	371.75
461.54	368.32
461.91	365.32
462.27	362.23
462.64	359.48
463.01	356.48
463.38	353.66
463.74	350.29
464.11	347.76
464.48	345.66
464.85	343.40
465.21	341.68
465.58	339.84
465.95	337.40
466.32	335.46
466.68	333.54
467.05	331.78
467.42	329.91
467.78	328.02
468.15	326.14
468.52	324.90
468.88	323.08
469.25	321.58
469.62	320.39
469.98	319.01
470.35	317.77
470.72	316.63
471.08	315.43
471.45	314.56
471.82	313.63
472.18	312.52
472.55	311.85
472.92	310.86
473.28	310.15
473.65	309.42
474.02	308.76
474.38	308.30
474.75	307.92
475.11	307.42
475.48	307.19
475.85	307.04
476.21	306.75
476.58	306.72
476.94	306.73
477.31	306.62
477.67	306.53
478.04	306.69
478.41	307.01
478.77	307.48
479.14	307.61
479.50	308.10
479.87	308.75
480.23	309.17
480.60	309.55
480.96	309.97
481.33	311.00
481.69	311.81
482.06	312.68
482.42	313.52
482.79	314.59
483.15	315.81
483.52	317.15
483.88	318.49
484.25	319.80
484.61	321.41
484.98	323.00
485.34	324.99
485.71	326.91
486.07	328.99
486.44	330.78
486.80	333.12
487.17	335.50
487.53	338.11
487.90	340.88
488.26	344.12
488.62	347.42
488.99	350.45
489.35	353.87
489.72	357.48
490.08	361.26
490.44	365.16
490.81	369.30
491.17	373.49
491.54	378.08
491.90	382.94
492.26	388.01
492.63	393.29
492.99	398.62
493.36	404.42
493.72	410.46
494.08	416.78
494.45	423.49
494.81	430.46
495.17	437.64
495.54	445.33
495.90	453.11
496.26	461.24
496.63	469.70
496.99	478.54
497.35	487.78
497.72	497.59
498.08	507.55
498.44	517.89
498.80	529.08
499.17	540.38
499.53	552.09
499.89	564.12
500.26	576.72
500.62	589.53
500.98	603.00
501.34	616.89
501.71	631.39
502.07	646.21
502.43	661.34
502.79	676.61
503.16	692.77
503.52	709.35
503.88	726.42
504.24	743.85
504.60	761.80
504.97	780.55
505.33	799.30
505.69	819.43
506.05	839.69
506.41	860.05
506.78	880.70
507.14	902.05
507.50	924.00
507.86	946.40
508.22	969.51
508.59	992.71
508.95	1016.51
509.31	1040.75
509.67	1065.54
510.03	1090.84
510.39	1117.17
510.75	1143.36
511.12	1170.02
511.48	1196.97
511.84	1224.68
512.20	1252.30
512.56	1280.45
512.92	1309.30
513.28	1337.85
513.64	1367.00
514.00	1396.44
514.37	1426.02
514.73	1456.11
515.09	1486.24
515.45	1516.21
515.81	1546.56
516.17	1576.97
516.53	1608.00
516.89	1638.80
517.25	1669.64
517.61	1700.60
517.97	1731.34
518.33	1762.11
518.69	1793.28
519.05	1824.64
519.41	1856.17
519.77	1888.00
520.13	1919.08
520.49	1949.93
520.85	1981.05
521.21	2012.50
521.57	2043.86
521.93	2074.66
522.29	2106.63
522.65	2138.20
523.01	2169.56
523.37	2200.22
523.73	2231.40
524.09	2261.94
524.45	2292.90
524.81	2323.48
525.17	2354.40
525.53	2385.11
525.89	2415.82
526.25	2445.97
526.61	2474.94
526.97	2504.12
527.33	2532.92
527.68	2562.05
528.04	2590.20
528.40	2617.89
528.76	2645.38
529.12	2673.62
529.48	2702.44
529.84	2729.18
530.20	2756.34
530.56	2783.42
530.91	2811.54
531.27	2838.34
531.63	2864.15
531.99	2890.01
532.35	2915.20
532.71	2940.18
533.07	2965.82
533.42	2989.85
533.78	3014.35
534.14	3038.10
534.50	3060.30
534.86	3083.44
535.21	3105.11
535.57	3128.78
535.93	3150.60
536.29	3171.73
536.65	3192.77
537.00	3212.14
537.36	3231.40
537.72	3250.15
538.08	3268.85
538.44	3287.06
538.79	3305.63
539.15	3324.05
539.51	3341.75
539.87	3360.17
540.22	3376.97
540.58	3394.18
540.94	3410.80
541.29	3425.50
541.65	3440.16
542.01	3455.62
542.37	3469.65
542.72	3484.03
543.08	3496.15
543.44	3510.35
543.79	3522.52
544.15	3533.54
544.51	3546.21
544.87	3558.74
545.22	3569.37
545.58	3579.25
545.94	3587.60
546.29	3595.09
546.65	3602.52
547.01	3609.79
547.36	3616.13
547.72	3622.87
548.07	3627.10
548.43	3632.03
548.79	3636.62
549.14	3641.75
549.50	3646.15
549.86	3649.58
550.21	3652.82
550.57	3656.81
550.92	3658.37
551.28	3660.34
551.64	3662.50
551.99	3664.33
552.35	3665.13
552.70	3666.58
553.06	3668.14
553.41	3669.51
553.77	3670.41
554.13	3671.09
554.48	3671.58
554.84	3672.24
555.19	3671.25
555.55	3669.95
555.90	3668.11
556.26	3666.80
556.61	3664.86
556.97	3662.16
557.32	3660.49
557.68	3657.40
558.03	3653.76
558.39	3650.90
558.74	3649.50
559.10	3647.08
559.45	3643.41
559.81	3640.62
560.16	3635.78
560.52	3631.80
560.87	3627.20
561.23	3621.96
561.58	3617.69
561.94	3611.66
562.29	3605.11
562.64	3600.38
563.00	3596.07
563.35	3591.89
563.71	3588.10
564.06	3583.33
564.42	3578.74
564.77	3574.20
565.12	3569.92
565.48	3565.01
565.83	3560.00
566.19	3554.78
566.54	3547.69
566.89	3541.42
567.25	3534.95
567.60	3529.65
567.96	3522.82
568.31	3516.98
568.66	3510.43
569.02	3502.35
569.37	3494.84
569.72	3487.92
570.08	3479.80
570.43	3471.49
570.78	3463.10
571.14	3453.07
571.49	3443.79
571.84	3435.56
572.20	3425.08
572.55	3415.99
572.90	3406.13
573.26	3395.61
573.61	3384.53
573.96	3374.70
574.31	3363.26
574.67	3351.32
575.02	3339.26
575.37	3327.46
575.72	3314.57
576.08	3303.89
576.43	3292.45
576.78	3281.31
577.13	3270.60
577.49	3259.52
577.84	3248.12
578.19	3237.29
578.54	3227.24
578.90	3217.56
579.25	3205.75
579.60	3193.69
579.95	3180.86
580.30	3169.74
580.66	3159.05
581.01	3146.99
581.36	3134.54
581.71	3122.94
582.06	3111.50
582.42	3100.19
582.77	3088.08
583.12	3076.30
583.47	3064.92
583.82	3053.88
584.17	3042.28
584.53	3030.71
584.88	3018.72
585.23	3006.93
585.58	2994.68
585.93	2982.02
586.28	2970.18
586.63	2958.22
586.98	2947.21
587.34	2936.62
587.69	2924.72
588.04	2912.93
588.39	2901.92
588.74	2890.03
589.09	2879.22
589.44	2867.50
589.79	2856.80
590.14	2846.72
590.49	2835.75
590.84	2824.07
591.19	2813.77
591.54	2802.88
591.89	2789.55
592.25	2777.94
592.60	2765.85
592.95	2753.73
593.30	2741.22
593.65	2728.16
594.00	2716.09
594.35	2706.10
594.70	2694.25
595.05	2682.68
595.40	2671.20
595.75	2658.94
596.10	2648.17
596.45	2637.07
596.80	2626.89
597.15	2616.03
597.50	2604.45
597.85	2593.90
598.19	2582.60
598.54	2571.27
598.89	2560.85
599.24	2552.15
599.59	2542.19
599.94	2532.98
600.29	2523.32
600.64	2513.99
600.99	2503.42
601.34	2493.93
601.69	2482.05
602.04	2471.23
602.39	2461.08
602.74	2450.89
603.08	2441.89
603.43	2432.94
603.78	2422.78
604.13	2412.36
604.48	2402.18
604.83	2393.61
605.18	2385.16
605.53	2375.61
605.87	2365.44
606.22	2355.80
606.57	2345.33
606.92	2335.45
607.27	2324.89
607.62	2314.42
607.96	2304.95
608.31	2296.33
608.66	2285.42
609.01	2275.43
609.36	2265.25
609.70	2254.35
610.05	2243.06
610.40	2232.40
610.75	2221.01
611.10	2211.14
611.44	2199.12
611.79	2187.28
612.14	2174.66
612.49	2161.64
612.83	2150.35
613.18	2138.25
613.53	2125.92
613.88	2113.48
614.22	2101.38
614.57	2089.39
614.92	2077.57
615.27	2065.02
615.61	2052.73
615.96	2041.69
616.31	2030.62
616.65	2020.25
617.00	2009.63
617.35	1998.88
617.70	1987.13
618.04	1975.12
618.39	1962.31
618.74	1951.75
619.08	1940.41
619.43	1929.40
619.78	1918.77
620.12	1907.53
620.47	1896.96
620.82	1885.57
621.16	1874.32
621.51	1863.19
621.85	1852.41
622.20	1840.66
622.55	1829.67
622.89	1818.26
623.24	1806.88
623.59	1795.21
623.93	1783.47
624.28	1772.27
624.62	1761.59
624.97	1750.64
625.32	1740.31
625.66	1730.32
626.01	1719.95
626.35	1710.22
626.70	1699.98
627.04	1690.05
627.39	1680.21
627.73	1670.00
628.08	1660.50
628.43	1650.30
628.77	1639.96
629.12	1629.69
629.46	1621.07
629.81	1611.18
630.15	1601.80
630.50	1592.04
630.84	1582.20
631.19	1572.58
631.53	1562.86
631.88	1552.45
632.22	1542.66
632.57	1533.35
632.91	1523.39
633.26	1513.53
633.60	1503.68
633.95	1494.47
634.29	1484.52
634.64	1475.06
634.98	1465.04
635.32	1455.59
635.67	1447.25
636.01	1438.61
636.36	1429.06
636.70	1419.97
637.05	1411.09
637.39	1402.07
637.73	1393.84
638.08	1385.88
638.42	1377.79
638.77	1369.25
639.11	1360.58
639.45	1351.69
639.80	1342.42
640.14	1333.36
640.49	1324.35
640.83	1315.52
641.17	1306.43
641.52	1297.51
641.86	1288.22
642.20	1279.89
642.55	1270.55
642.89	1261.11
643.23	1251.55
643.58	1243.31
643.92	1233.80
644.26	1224.90
644.61	1216.06
644.95	1206.57
645.29	1197.45
645.64	1188.21
645.98	1179.62
646.32	1171.65
646.66	1163.13
647.01	1154.78
647.35	1146.87
647.69	1138.36
648.04	1130.10
648.38	1121.47
648.72	1112.98
649.06	1104.63
649.41	1096.05
649.75	1088.05
650.09	1080.20
650.43	1072.49
650.78	1063.97
651.12	1055.82
651.46	1047.83
651.80	1040.02
652.14	1032.37
652.49	1024.16
652.83	1015.80
653.17	1007.06
653.51	998.60
653.85	990.66
654.20	982.89
654.54	974.73
654.88	966.96
655.22	958.88
655.56	951.14
655.90	943.50
656.25	935.66
656.59	928.12
656.93	920.71
657.27	913.05
657.61	905.24
657.95	897.93
658.29	890.64
658.64	883.62
658.98	876.00
659.32	868.45
659.66	861.46
660.00	854.52
660.34	847.68
660.68	840.63
661.02	833.57
661.36	826.74
661.70	820.10
662.05	813.56
662.39	807.29
662.73	801.10
663.07	794.99
663.41	788.93
663.75	782.61
664.09	776.14
664.43	769.71
664.77	763.81
665.11	757.86
665.45	751.99
665.79	745.90
666.13	740.17
666.47	734.37
666.81	728.69
667.15	722.92
667.49	717.56
667.83	712.22
668.17	706.90
668.51	701.68
668.85	696.47
669.19	691.48
669.53	686.18
669.87	680.80
670.21	675.43
670.55	670.39
670.89	665.90
671.23	661.34
671.57	656.82
671.91	651.93
672.25	647.06
672.58	642.48
672.92	637.87
673.26	633.46
673.60	629.21
673.94	624.82
674.28	620.57
674.62	616.28
674.96	612.05
675.30	607.89
675.64	603.53
675.97	599.32
676.31	595.11
676.65	591.13
676.99	587.39
677.33	583.46
677.67	579.40
678.01	575.12
678.34	571.04
678.68	566.92
679.02	563.02
679.36	559.30
679.70	555.46
680.04	551.62
680.37	547.71
680.71	543.88
681.05	540.27
681.39	536.69
681.73	533.06
682.06	529.68
682.40	526.27
682.74	522.86
683.08	519.37
683.42	515.82
683.75	512.45
684.09	508.97
684.43	505.63
684.77	502.25
685.10	498.88
685.44	495.45
685.78	492.26
686.12	489.22
686.45	486.06
686.79	483.00
687.13	480.02
687.46	477.17
687.80	474.16
688.14	470.90
688.48	467.78
688.81	464.64
689.15	461.45
689.49	458.33
689.82	455.32
690.16	452.10
690.50	449.04
690.83	445.95
691.17	442.82
691.51	439.84
691.84	437.01
692.18	434.48
692.52	431.90
692.85	429.40
693.19	426.76
693.52	424.18
693.86	421.44
694.20	418.76
694.53	416.10
694.87	413.60
695.21	411.12
695.54	408.65
695.88	406.13
696.21	403.68
696.55	401.40
696.88	399.03
697.22	396.83
697.56	394.78
697.89	392.52
698.23	390.39
698.56	388.32
698.90	386.27
699.23	383.89
699.57	381.71
699.90	379.49
700.24	377.28
700.58	375.07
700.91	373.05
701.25	371.24
701.58	369.31
701.92	367.32
702.25	365.39
702.59	363.46
702.92	361.75
703.26	359.85
703.59	358.05
703.93	356.49
704.26	354.80
704.60	352.87
704.93	351.08
705.26	349.22
705.60	347.50
705.93	345.74
706.27	344.31
706.60	342.70
706.94	341.25
707.27	339.64
707.61	338.10
707.94	336.45
708.27	334.64
708.61	332.96
708.94	331.37
709.28	329.92
709.61	328.42
709.94	326.91
710.28	325.55
710.61	324.16
710.95	322.46
711.28	321.19
711.61	319.84
711.95	318.71
712.28	317.43
712.61	316.12
712.95	315.04
713.28	313.69
713.61	312.41
713.95	311.02
714.28	309.87
714.61	308.63
714.95	307.44
715.28	306.29
715.61	305.15
715.95	304.13
716.28	302.93
716.61	301.76
716.95	300.53
717.28	299.35
717.61	298.21
717.94	297.19
718.28	295.98
718.61	294.93
718.94	293.83
719.27	292.77
719.61	291.82
719.94	290.66
720.27	289.56
720.60	288.58
720.94	287.72
721.27	286.79
721.60	285.99
721.93	285.22
722.27	284.50
722.60	283.73
722.93	282.86
723.26	282.10
723.59	281.30
723.93	280.59
724.26	279.90
724.59	279.09
724.92	278.36
725.25	277.70
725.59	276.94
725.92	276.25
726.25	275.67
726.58	274.93
726.91	274.25
727.24	273.74
727.57	273.06
727.91	272.34
728.24	271.69
728.57	270.95
728.90	270.30
729.23	269.59
729.56	269.09
729.89	268.45
730.22	267.78
730.55	267.15
730.89	266.50
731.22	265.87
731.55	265.31
731.88	264.66
732.21	264.04
732.54	263.49
732.87	262.88
733.20	262.33
733.53	261.76
733.86	261.26
734.19	260.54
734.52	260.05
734.85	259.71
735.18	259.23
735.51	258.91
735.84	258.40
736.17	257.94
736.50	257.21
736.83	257.07
737.16	256.57
737.49	256.17
737.82	255.70
738.15	255.20
738.48	254.76
738.81	254.28
739.14	253.75
739.47	253.24
739.80	252.78
740.13	252.33
740.46	251.82
740.79	251.28
741.12	250.89
741.45	250.36
741.78	249.62
742.11	249.15
742.44	248.52
742.77	248.11
743.10	247.58
743.43	247.17
743.75	246.34
744.08	246.33
744.41	245.86
744.74	245.39
745.07	244.94
745.40	244.57
745.73	244.31
746.06	243.96
746.39	243.66
746.71	243.23
747.04	242.80
747.37	242.48
747.70	242.26
748.03	241.86
748.36	241.61
748.68	241.22
749.01	240.79
749.34	240.52
749.67	240.20
750.00	239.98
750.33	239.81
750.65	239.55
750.98	238.82
751.31	238.51
751.64	238.24
751.97	238.11
752.29	237.73
752.62	237.29
752.95	236.87
753.28	236.46
753.60	236.16
753.93	235.96
754.26	235.70
754.59	235.27
754.91	235.00
755.24	234.67
755.57	234.43
755.90	234.16
756.22	233.85
756.55	233.52
756.88	233.14
757.20	232.69
757.53	232.32
757.86	232.01
758.19	231.75
758.51	231.50
758.84	231.09
759.17	230.83
759.49	230.63
759.82	230.65
760.15	230.50
760.47	230.25
760.80	229.91
761.13	229.69
761.45	229.44
761.78	229.21
762.11	229.01
762.43	228.84
762.76	228.62
763.08	228.41
763.41	228.19
763.74	227.98
764.06	227.86
764.39	227.65
764.71	227.42
765.04	227.20
765.37	227.00
765.69	226.78
766.02	226.60
766.34	226.37
766.67	226.04
767.00	225.88
767.32	225.90
767.65	225.93
767.97	225.73
768.30	225.60
768.62	225.41
768.95	225.16
769.27	225.03
769.60	224.98
769.92	224.81
770.25	224.65
770.57	224.44
770.90	224.22
771.22	224.09
771.55	223.98
771.87	223.83
772.20	223.70
772.52	223.97
772.85	224.27
773.17	224.21
773.50	224.08
773.82	223.90
774.15	223.57
774.47	223.26
774.80	223.07
775.12	222.98
775.45	222.89
775.77	222.87
776.09	222.75
776.42	222.57
776.74	222.61
777.07	222.43
777.39	222.35
777.72	222.27
778.04	222.14
778.36	222.03
778.69	221.93
779.01	221.85
779.33	221.43
779.66	220.93
779.98	220.75
780.31	220.61
780.63	220.68
780.95	220.71
781.28	220.59
781.60	220.47
781.92	220.32
782.25	220.22
782.57	220.09
782.89	220.03
783.22	219.92
783.54	219.71
783.86	219.67
784.19	219.60
784.51	219.60
784.83	219.44
785.16	219.38
785.48	219.33
