SpectraSuite Data File
++++++++++++++++++++++++++++++++++++
Date: Mon Feb 25 17:20:39 EST 2013
User: group
Dark Spectrum Present: No
Reference Spectrum Present: No
Number of Sampled Component Spectra: 1
Spectrometers: USB2E7196
Integration Time (usec): 104000 (USB2E7196)
Spectra Averaged: 20 (USB2E7196)
Boxcar Smoothing: 10 (USB2E7196)
Correct for Electrical Dark: No (USB2E7196)
Strobe/Lamp Enabled: No (USB2E7196)
Correct for Detector Non-linearity: No (USB2E7196)
Correct for Stray Light: No (USB2E7196)
Number of Pixels in Processed Spectrum: 2048
>>>>>Begin Processed Spectral Data<<<<<
339.09	0.00
339.48	200.50
339.86	201.30
340.24	202.50
340.63	203.50
341.01	209.80
341.39	206.75
341.78	208.10
342.16	209.35
342.54	209.70
342.93	199.24
343.31	209.27
343.69	209.73
344.07	210.15
344.46	210.62
344.84	211.05
345.22	211.14
345.60	211.41
345.99	211.65
346.37	211.89
346.75	212.04
347.13	212.19
347.52	212.29
347.90	212.45
348.28	212.49
348.66	212.64
349.05	212.48
349.43	212.50
349.81	212.52
350.19	212.62
350.57	212.70
350.96	212.71
351.34	212.88
351.72	212.97
352.10	213.09
352.48	213.11
352.87	213.18
353.25	213.26
353.63	213.30
354.01	213.34
354.39	213.37
354.77	213.42
355.15	213.48
355.54	213.49
355.92	213.40
356.30	213.43
356.68	213.62
357.06	213.73
357.44	213.79
357.82	213.86
358.20	213.92
358.58	213.89
358.97	213.98
359.35	214.05
359.73	214.23
360.11	214.24
360.49	214.28
360.87	214.27
361.25	214.30
361.63	214.50
362.01	214.55
362.39	214.56
362.77	214.62
363.15	214.64
363.53	214.74
363.91	214.78
364.29	214.80
364.67	214.55
365.05	214.60
365.43	214.66
365.81	214.69
366.19	214.86
366.57	215.05
366.95	215.10
367.33	214.98
367.71	214.96
368.09	215.08
368.47	215.07
368.85	215.01
369.23	215.05
369.61	214.86
369.99	215.01
370.37	215.00
370.75	215.16
371.13	215.08
371.51	215.01
371.89	215.02
372.27	215.06
372.65	215.07
373.03	215.02
373.41	214.93
373.78	214.91
374.16	214.72
374.54	214.55
374.92	214.49
375.30	214.55
375.68	214.45
376.06	214.44
376.44	214.47
376.82	214.49
377.19	214.45
377.57	214.46
377.95	214.23
378.33	214.17
378.71	213.91
379.09	213.97
379.47	214.01
379.84	213.95
380.22	213.91
380.60	213.83
380.98	213.79
381.36	213.83
381.73	213.73
382.11	213.76
382.49	213.82
382.87	213.75
383.25	213.71
383.62	214.07
384.00	213.95
384.38	213.85
384.76	213.96
385.13	214.07
385.51	214.06
385.89	213.93
386.27	213.94
386.64	213.93
387.02	213.79
387.40	213.69
387.78	213.65
388.15	213.66
388.53	213.67
388.91	213.65
389.29	213.64
389.66	213.63
390.04	213.54
390.42	213.52
390.79	213.55
391.17	213.57
391.55	213.20
391.92	213.18
392.30	213.28
392.68	213.16
393.05	213.19
393.43	213.15
393.81	213.25
394.18	213.23
394.56	213.31
394.94	213.47
395.31	213.47
395.69	213.62
396.06	213.67
396.44	213.64
396.82	213.62
397.19	213.79
397.57	213.78
397.95	213.86
398.32	213.81
398.70	213.85
399.07	213.87
399.45	213.89
399.82	213.99
400.20	213.97
400.58	214.04
400.95	213.91
401.33	214.06
401.70	214.38
402.08	214.48
402.45	214.58
402.83	214.75
403.20	214.92
403.58	215.01
403.95	215.16
404.33	215.35
404.71	215.56
405.08	215.91
405.46	216.12
405.83	216.39
406.21	216.61
406.58	216.88
406.96	217.10
407.33	217.38
407.70	217.68
408.08	218.26
408.45	218.59
408.83	219.05
409.20	219.40
409.58	219.53
409.95	220.02
410.33	220.45
410.70	220.84
411.08	221.32
411.45	221.88
411.82	222.38
412.20	223.17
412.57	223.97
412.95	224.31
413.32	225.21
413.69	225.90
414.07	226.75
414.44	227.76
414.82	228.77
415.19	229.95
415.56	231.09
415.94	232.12
416.31	233.53
416.68	234.88
417.06	236.44
417.43	238.05
417.81	239.68
418.18	241.40
418.55	243.17
418.93	245.17
419.30	247.28
419.67	249.52
420.04	251.67
420.42	254.03
420.79	256.91
421.16	259.54
421.54	262.44
421.91	265.35
422.28	268.21
422.66	271.33
423.03	274.53
423.40	277.80
423.77	281.21
424.15	284.73
424.52	288.33
424.89	292.26
425.26	296.05
425.64	299.82
426.01	303.80
426.38	308.08
426.75	312.41
427.13	316.73
427.50	321.34
427.87	326.21
428.24	330.98
428.61	335.44
428.99	340.60
429.36	346.04
429.73	351.42
430.10	356.86
430.47	362.39
430.85	368.04
431.22	374.02
431.59	380.57
431.96	386.65
432.33	393.44
432.70	400.05
433.08	407.58
433.45	414.60
433.82	421.70
434.19	429.52
434.56	437.17
434.93	444.63
435.30	452.13
435.68	460.21
436.05	468.31
436.42	476.33
436.79	483.62
437.16	491.61
437.53	500.05
437.90	508.26
438.27	516.35
438.64	524.86
439.01	532.74
439.38	539.77
439.75	546.59
440.13	554.07
440.50	561.18
440.87	567.16
441.24	573.27
441.61	580.27
441.98	585.50
442.35	591.26
442.72	597.14
443.09	602.83
443.46	606.35
443.83	608.50
444.20	610.48
444.57	613.19
444.94	614.42
445.31	615.91
445.68	617.51
446.05	618.09
446.42	617.06
446.79	615.89
447.16	614.54
447.53	613.69
447.90	610.56
448.27	607.41
448.64	602.91
449.01	599.74
449.37	593.97
449.74	588.42
450.11	582.28
450.48	575.25
450.85	567.94
451.22	561.64
451.59	555.90
451.96	550.50
452.33	543.21
452.70	536.53
453.07	528.27
453.43	519.83
453.80	512.11
454.17	504.69
454.54	497.59
454.91	490.04
455.28	482.49
455.65	475.68
456.02	469.13
456.38	463.26
456.75	456.08
457.12	450.02
457.49	444.00
457.86	438.04
458.23	432.99
458.59	427.56
458.96	422.20
459.33	417.23
459.70	412.22
460.07	408.32
460.43	403.90
460.80	399.81
461.17	396.22
461.54	392.43
461.91	388.83
462.27	385.21
462.64	382.08
463.01	378.73
463.38	375.57
463.74	371.92
464.11	369.18
464.48	366.65
464.85	364.08
465.21	362.13
465.58	359.94
465.95	357.30
466.32	355.19
466.68	352.96
467.05	350.89
467.42	348.78
467.78	346.53
468.15	344.35
468.52	342.85
468.88	340.79
469.25	338.88
469.62	337.46
469.98	335.97
470.35	334.55
470.72	333.28
471.08	331.74
471.45	330.65
471.82	329.45
472.18	328.24
472.55	327.25
472.92	326.13
473.28	325.21
473.65	324.47
474.02	323.64
474.38	323.05
474.75	322.73
475.11	322.21
475.48	321.91
475.85	321.76
476.21	321.47
476.58	321.43
476.94	321.56
477.31	321.61
477.67	321.76
478.04	321.95
478.41	322.30
478.77	322.95
479.14	323.27
479.50	323.88
479.87	324.59
480.23	325.29
480.60	325.89
480.96	326.61
481.33	327.69
481.69	328.70
482.06	329.80
482.42	330.71
482.79	331.85
483.15	333.25
483.52	334.84
483.88	336.44
484.25	338.06
484.61	339.73
484.98	341.64
485.34	343.75
485.71	346.13
486.07	348.43
486.44	350.79
486.80	353.43
487.17	356.14
487.53	359.11
487.90	362.32
488.26	365.89
488.62	369.56
488.99	373.11
489.35	376.88
489.72	380.98
490.08	385.49
490.44	390.10
490.81	394.93
491.17	399.89
491.54	405.15
491.90	410.59
492.26	416.51
492.63	422.62
492.99	428.94
493.36	435.48
493.72	442.58
494.08	449.75
494.45	457.58
494.81	465.77
495.17	474.04
495.54	483.00
495.90	492.15
496.26	501.82
496.63	511.78
496.99	522.20
497.35	533.05
497.72	544.29
498.08	555.79
498.44	567.84
498.80	580.65
499.17	594.04
499.53	607.68
499.89	621.91
500.26	636.39
500.62	651.24
500.98	666.88
501.34	682.87
501.71	699.74
502.07	716.70
502.43	734.39
502.79	752.45
503.16	771.20
503.52	790.64
503.88	810.41
504.24	830.76
504.60	851.76
504.97	873.26
505.33	895.07
505.69	918.57
506.05	942.17
506.41	966.02
506.78	989.95
507.14	1014.86
507.50	1040.34
507.86	1066.17
508.22	1092.80
508.59	1119.73
508.95	1147.43
509.31	1175.25
509.67	1204.14
510.03	1233.23
510.39	1263.44
510.75	1293.80
511.12	1324.40
511.48	1355.28
511.84	1386.91
512.20	1418.47
512.56	1451.16
512.92	1484.35
513.28	1517.10
513.64	1550.27
514.00	1583.43
514.37	1617.51
514.73	1651.99
515.09	1686.47
515.45	1721.10
515.81	1755.91
516.17	1790.67
516.53	1825.57
516.89	1861.09
517.25	1896.15
517.61	1931.46
517.97	1966.59
518.33	2001.48
518.69	2036.96
519.05	2072.70
519.41	2108.58
519.77	2145.18
520.13	2180.42
520.49	2215.53
520.85	2251.12
521.21	2286.93
521.57	2323.50
521.93	2358.50
522.29	2394.41
522.65	2429.98
523.01	2465.52
523.37	2500.21
523.73	2535.42
524.09	2570.45
524.45	2605.56
524.81	2640.30
525.17	2675.56
525.53	2710.31
525.89	2745.19
526.25	2779.17
526.61	2812.12
526.97	2845.05
527.33	2877.66
527.68	2911.06
528.04	2943.26
528.40	2974.06
528.76	3005.18
529.12	3036.43
529.48	3068.82
529.84	3099.46
530.20	3130.15
530.56	3160.79
530.91	3192.22
531.27	3222.71
531.63	3252.53
531.99	3281.65
532.35	3309.97
532.71	3337.57
533.07	3365.95
533.42	3392.62
533.78	3419.72
534.14	3446.32
534.50	3471.09
534.86	3496.84
535.21	3520.55
535.57	3546.31
535.93	3570.96
536.29	3594.56
536.65	3617.95
537.00	3639.39
537.36	3660.76
537.72	3681.15
538.08	3701.69
538.44	3722.12
538.79	3742.52
539.15	3762.67
539.51	3782.10
539.87	3802.33
540.22	3821.37
540.58	3840.78
540.94	3859.76
541.29	3876.68
541.65	3892.97
542.01	3909.89
542.37	3925.29
542.72	3941.66
543.08	3955.30
543.44	3970.33
543.79	3984.01
544.15	3995.91
544.51	4008.49
544.87	4020.02
545.22	4031.12
545.58	4040.90
545.94	4049.03
546.29	4056.17
546.65	4062.50
547.01	4068.17
547.36	4072.84
547.72	4077.12
548.07	4079.05
548.43	4081.49
548.79	4084.40
549.14	4087.79
549.50	4090.51
549.86	4092.17
550.21	4093.00
550.57	4094.19
550.92	4094.29
551.28	4094.78
551.64	4094.99
551.99	4094.99
552.35	4094.99
552.70	4094.99
553.06	4094.99
553.41	4094.99
553.77	4094.99
554.13	4095.00
554.48	4095.00
554.84	4095.00
555.19	4095.00
555.55	4095.00
555.90	4095.00
556.26	4094.87
556.61	4094.35
556.97	4093.57
557.32	4093.24
557.68	4092.08
558.03	4090.86
558.39	4089.71
558.74	4089.21
559.10	4088.97
559.45	4088.19
559.81	4087.67
560.16	4085.32
560.52	4083.46
560.87	4080.87
561.23	4077.36
561.58	4074.37
561.94	4070.36
562.29	4066.10
562.64	4062.46
563.00	4058.76
563.35	4054.54
563.71	4050.74
564.06	4045.86
564.42	4041.10
564.77	4036.36
565.12	4031.72
565.48	4026.60
565.83	4020.96
566.19	4015.35
566.54	4007.65
566.89	4000.53
567.25	3993.58
567.60	3987.80
567.96	3980.57
568.31	3973.53
568.66	3966.05
569.02	3957.63
569.37	3948.92
569.72	3941.32
570.08	3932.02
570.43	3922.41
570.78	3912.50
571.14	3901.38
571.49	3890.73
571.84	3881.08
572.20	3869.46
572.55	3858.93
572.90	3847.29
573.26	3835.21
573.61	3822.43
573.96	3810.76
574.31	3797.88
574.67	3784.51
575.02	3770.27
575.37	3757.08
575.72	3743.26
576.08	3731.02
576.43	3717.70
576.78	3705.37
577.13	3693.13
577.49	3680.67
577.84	3667.80
578.19	3656.05
578.54	3644.77
578.90	3633.64
579.25	3620.23
579.60	3606.65
579.95	3591.99
580.30	3579.85
580.66	3567.82
581.01	3554.49
581.36	3540.71
581.71	3527.56
582.06	3514.39
582.42	3501.38
582.77	3487.20
583.12	3473.71
583.47	3460.73
583.82	3448.65
584.17	3435.16
584.53	3421.52
584.88	3407.87
585.23	3394.52
585.58	3380.37
585.93	3366.10
586.28	3352.75
586.63	3339.45
586.98	3326.75
587.34	3315.17
587.69	3301.62
588.04	3288.55
588.39	3276.21
588.74	3262.75
589.09	3250.57
589.44	3237.30
589.79	3225.25
590.14	3213.54
590.49	3201.40
590.84	3188.08
591.19	3176.04
591.54	3163.79
591.89	3148.97
592.25	3135.76
592.60	3122.07
592.95	3108.42
593.30	3093.58
593.65	3078.86
594.00	3064.80
594.35	3053.08
594.70	3038.96
595.05	3026.15
595.40	3012.58
595.75	2998.13
596.10	2986.15
596.45	2973.39
596.80	2961.83
597.15	2949.59
597.50	2936.87
597.85	2924.11
598.19	2911.49
598.54	2898.51
598.89	2886.41
599.24	2876.68
599.59	2865.48
599.94	2855.30
600.29	2843.92
600.64	2833.24
600.99	2820.98
601.34	2810.10
601.69	2797.00
602.04	2784.89
602.39	2772.70
602.74	2761.16
603.08	2751.25
603.43	2740.69
603.78	2728.97
604.13	2717.37
604.48	2706.10
604.83	2696.13
605.18	2686.47
605.53	2675.57
605.87	2663.80
606.22	2653.06
606.57	2641.03
606.92	2629.70
607.27	2617.40
607.62	2605.58
607.96	2594.97
608.31	2585.08
608.66	2572.98
609.01	2561.08
609.36	2549.55
609.70	2537.08
610.05	2524.70
610.40	2512.22
610.75	2499.25
611.10	2487.85
611.44	2473.99
611.79	2460.14
612.14	2445.63
612.49	2430.88
612.83	2417.63
613.18	2403.63
613.53	2389.78
613.88	2375.47
614.22	2362.20
614.57	2348.69
614.92	2335.43
615.27	2321.42
615.61	2307.47
615.96	2295.16
616.31	2283.20
616.65	2271.66
617.00	2259.78
617.35	2247.33
617.70	2233.87
618.04	2220.30
618.39	2206.01
618.74	2193.64
619.08	2180.83
619.43	2168.44
619.78	2156.71
620.12	2144.31
620.47	2132.40
620.82	2119.49
621.16	2106.85
621.51	2093.67
621.85	2081.55
622.20	2069.01
622.55	2056.24
622.89	2043.67
623.24	2030.67
623.59	2017.25
623.93	2003.77
624.28	1991.40
624.62	1979.34
624.97	1967.70
625.32	1956.21
625.66	1945.15
626.01	1933.33
626.35	1922.34
626.70	1910.50
627.04	1898.98
627.39	1887.89
627.73	1877.01
628.08	1866.30
628.43	1854.75
628.77	1843.26
629.12	1831.36
629.46	1821.07
629.81	1810.29
630.15	1799.23
630.50	1788.06
630.84	1776.75
631.19	1765.77
631.53	1754.85
631.88	1743.13
632.22	1731.51
632.57	1720.59
632.91	1708.91
633.26	1698.24
633.60	1687.20
633.95	1676.80
634.29	1665.77
634.64	1654.84
634.98	1643.38
635.32	1632.55
635.67	1622.70
636.01	1612.69
636.36	1601.88
636.70	1591.23
637.05	1580.85
637.39	1571.10
637.73	1561.71
638.08	1552.82
638.42	1543.77
638.77	1533.69
639.11	1524.15
639.45	1514.37
639.80	1504.08
640.14	1494.08
640.49	1483.90
640.83	1473.50
641.17	1463.45
641.52	1453.10
641.86	1442.55
642.20	1432.73
642.55	1422.10
642.89	1411.79
643.23	1401.32
643.58	1392.19
643.92	1381.57
644.26	1371.58
644.61	1361.40
644.95	1350.96
645.29	1340.75
645.64	1330.19
645.98	1320.13
646.32	1310.47
646.66	1300.74
647.01	1291.38
647.35	1282.08
647.69	1272.00
648.04	1262.75
648.38	1252.94
648.72	1243.52
649.06	1234.14
649.41	1224.55
649.75	1215.44
650.09	1206.24
650.43	1197.21
650.78	1187.40
651.12	1178.04
651.46	1168.83
651.80	1159.72
652.14	1150.63
652.49	1140.89
652.83	1131.57
653.17	1121.87
653.51	1112.49
653.85	1103.45
654.20	1094.22
654.54	1084.89
654.88	1076.30
655.22	1066.98
655.56	1057.91
655.90	1049.11
656.25	1040.19
656.59	1031.57
656.93	1023.02
657.27	1014.67
657.61	1005.70
657.95	997.44
658.29	989.44
658.64	981.40
658.98	972.90
659.32	964.36
659.66	956.53
660.00	948.25
660.34	940.19
660.68	931.93
661.02	923.72
661.36	915.94
661.70	908.49
662.05	900.98
662.39	893.82
662.73	886.82
663.07	879.79
663.41	872.76
663.75	865.61
664.09	858.22
664.43	850.73
664.77	844.02
665.11	836.82
665.45	829.75
665.79	822.87
666.13	816.24
666.47	809.75
666.81	803.19
667.15	796.68
667.49	790.82
667.83	784.87
668.17	778.96
668.51	773.01
668.85	767.14
669.19	761.41
669.53	755.41
669.87	749.19
670.21	742.96
670.55	736.92
670.89	731.40
671.23	726.07
671.57	720.75
671.91	715.00
672.25	709.57
672.58	704.25
672.92	698.73
673.26	693.54
673.60	688.39
673.94	683.21
674.28	678.30
674.62	673.30
674.96	668.23
675.30	663.19
675.64	658.19
675.97	653.13
676.31	648.35
676.65	643.67
676.99	639.43
677.33	635.01
677.67	630.46
678.01	625.68
678.34	621.11
678.68	616.60
679.02	612.22
679.36	608.00
679.70	603.73
680.04	599.44
680.37	594.87
680.71	590.36
681.05	586.36
681.39	582.15
681.73	577.90
682.06	573.98
682.40	570.03
682.74	566.02
683.08	562.04
683.42	558.00
683.75	553.98
684.09	549.69
684.43	545.65
684.77	541.69
685.10	537.85
685.44	533.74
685.78	529.98
686.12	526.49
686.45	522.81
686.79	519.23
687.13	515.82
687.46	512.58
687.80	509.33
688.14	505.55
688.48	502.18
688.81	498.57
689.15	495.08
689.49	491.61
689.82	488.17
690.16	484.58
690.50	480.90
690.83	477.64
691.17	474.30
691.51	471.00
691.84	467.89
692.18	464.77
692.52	461.96
692.85	459.00
693.19	455.99
693.52	453.07
693.86	449.91
694.20	446.86
694.53	443.84
694.87	440.63
695.21	437.72
695.54	434.68
695.88	431.77
696.21	428.88
696.55	426.15
696.88	423.46
697.22	420.82
697.56	418.45
697.89	415.75
698.23	413.20
698.56	410.73
698.90	408.36
699.23	405.78
699.57	403.23
699.90	400.73
700.24	398.14
700.58	395.64
700.91	393.33
701.25	391.24
701.58	389.00
701.92	386.89
702.25	384.70
702.59	382.52
702.92	380.59
703.26	378.43
703.59	376.43
703.93	374.61
704.26	372.65
704.60	370.55
704.93	368.59
705.26	366.67
705.60	364.78
705.93	362.75
706.27	360.99
706.60	359.26
706.94	357.69
707.27	355.79
707.61	353.95
707.94	352.12
708.27	350.06
708.61	348.21
708.94	346.55
709.28	344.91
709.61	343.28
709.94	341.59
710.28	340.09
710.61	338.57
710.95	336.74
711.28	335.38
711.61	333.84
711.95	332.40
712.28	330.94
712.61	329.43
712.95	328.24
713.28	326.94
713.61	325.50
713.95	323.95
714.28	322.71
714.61	321.33
714.95	320.02
715.28	318.64
715.61	317.35
715.95	315.99
716.28	314.61
716.61	313.35
716.95	312.13
717.28	310.87
717.61	309.50
717.94	308.37
718.28	306.95
718.61	305.77
718.94	304.59
719.27	303.48
719.61	302.37
719.94	301.14
720.27	299.90
720.60	298.77
720.94	297.65
721.27	296.58
721.60	295.61
721.93	294.64
722.27	293.87
722.60	292.99
722.93	292.10
723.26	291.23
723.59	290.24
723.93	289.40
724.26	288.51
724.59	287.63
724.92	286.77
725.25	286.03
725.59	285.21
725.92	284.33
726.25	283.45
726.58	282.73
726.91	281.94
727.24	281.20
727.57	280.43
727.91	279.64
728.24	278.89
728.57	278.18
728.90	277.45
729.23	276.54
729.56	275.94
729.89	275.17
730.22	274.44
730.55	273.74
730.89	272.93
731.22	272.19
731.55	271.58
731.88	270.89
732.21	270.13
732.54	269.39
732.87	268.73
733.20	268.11
733.53	267.45
733.86	266.86
734.19	266.20
734.52	265.58
734.85	265.31
735.18	264.67
735.51	264.10
735.84	263.51
736.17	263.11
736.50	262.31
736.83	262.18
737.16	261.61
737.49	261.07
737.82	260.46
738.15	259.95
738.48	259.35
738.81	258.77
739.14	258.17
739.47	257.66
739.80	257.16
740.13	256.63
740.46	256.01
740.79	255.32
741.12	254.73
741.45	254.19
741.78	253.45
742.11	253.16
742.44	252.55
742.77	252.14
743.10	251.52
743.43	251.07
743.75	250.30
744.08	250.30
744.41	249.79
744.74	249.34
745.07	248.83
745.40	248.49
745.73	248.17
746.06	247.76
746.39	247.45
746.71	246.94
747.04	246.48
747.37	246.14
747.70	245.90
748.03	245.54
748.36	245.16
748.68	244.79
749.01	244.14
749.34	243.84
749.67	243.42
750.00	243.09
750.33	242.95
750.65	242.58
750.98	241.72
751.31	241.43
751.64	241.12
751.97	241.00
752.29	240.52
752.62	240.07
752.95	239.72
753.28	239.25
753.60	239.00
753.93	238.85
754.26	238.52
754.59	238.09
754.91	237.75
755.24	237.47
755.57	237.05
755.90	236.74
756.22	236.45
756.55	236.09
756.88	235.74
757.20	235.14
757.53	234.73
757.86	234.48
758.19	234.20
758.51	233.94
758.84	233.53
759.17	233.25
759.49	233.05
759.82	232.95
760.15	232.73
760.47	232.41
760.80	232.02
761.13	231.86
761.45	231.61
761.78	231.38
762.11	231.09
762.43	230.93
762.76	230.67
763.08	230.41
763.41	230.29
763.74	230.07
764.06	229.96
764.39	229.76
764.71	229.52
765.04	229.28
765.37	228.98
765.69	228.70
766.02	228.53
766.34	228.37
766.67	228.05
767.00	227.88
767.32	227.86
767.65	227.86
767.97	227.59
768.30	227.38
768.62	227.20
768.95	227.03
769.27	226.90
769.60	226.89
769.92	226.70
770.25	226.40
770.57	226.20
770.90	226.02
771.22	225.74
771.55	225.63
771.87	225.42
772.20	225.34
772.52	225.56
772.85	225.87
773.17	225.68
773.50	225.61
773.82	225.45
774.15	225.20
774.47	224.86
774.80	224.68
775.12	224.59
775.45	224.41
775.77	224.35
776.09	224.15
776.42	224.01
776.74	223.96
777.07	223.90
777.39	223.80
777.72	223.69
778.04	223.69
778.36	223.59
778.69	223.58
779.01	223.49
779.33	223.06
779.66	222.55
779.98	222.41
780.31	222.25
780.63	222.25
780.95	222.25
781.28	222.14
781.60	222.05
781.92	221.90
782.25	221.90
782.57	221.72
782.89	221.66
783.22	221.60
783.54	221.49
783.86	221.37
784.19	221.28
784.51	221.36
784.83	221.22
785.16	221.10
