SpectraSuite Data File
++++++++++++++++++++++++++++++++++++
Date: Mon Feb 25 17:18:31 EST 2013
User: group
Dark Spectrum Present: No
Reference Spectrum Present: No
Number of Sampled Component Spectra: 1
Spectrometers: USB2E7196
Integration Time (usec): 104000 (USB2E7196)
Spectra Averaged: 20 (USB2E7196)
Boxcar Smoothing: 10 (USB2E7196)
Correct for Electrical Dark: No (USB2E7196)
Strobe/Lamp Enabled: No (USB2E7196)
Correct for Detector Non-linearity: No (USB2E7196)
Correct for Stray Light: No (USB2E7196)
Number of Pixels in Processed Spectrum: 2048
>>>>>Begin Processed Spectral Data<<<<<
339.09	0.00
339.48	198.75
339.86	199.55
340.24	201.25
340.63	204.05
341.01	210.25
341.39	204.55
341.78	207.55
342.16	210.00
342.54	208.90
342.93	198.95
343.31	208.96
343.69	209.55
344.07	210.12
344.46	210.58
344.84	210.97
345.22	211.06
345.60	211.45
345.99	211.65
346.37	211.80
346.75	211.98
347.13	212.04
347.52	212.11
347.90	212.33
348.28	212.41
348.66	212.49
349.05	212.49
349.43	212.50
349.81	212.57
350.19	212.62
350.57	212.72
350.96	212.75
351.34	212.91
351.72	213.05
352.10	213.15
352.48	213.21
352.87	213.25
353.25	213.30
353.63	213.26
354.01	213.34
354.39	213.44
354.77	213.45
355.15	213.53
355.54	213.50
355.92	213.35
356.30	213.43
356.68	213.69
357.06	213.66
357.44	213.67
357.82	213.67
358.20	213.68
358.58	213.69
358.97	213.65
359.35	213.66
359.73	213.69
360.11	213.65
360.49	213.73
360.87	213.76
361.25	213.80
361.63	213.98
362.01	214.05
362.39	213.93
362.77	213.96
363.15	213.96
363.53	213.97
363.91	214.03
364.29	213.98
364.67	213.71
365.05	213.68
365.43	213.65
365.81	213.71
366.19	213.87
366.57	213.99
366.95	214.00
367.33	213.95
367.71	213.98
368.09	214.08
368.47	214.02
368.85	213.98
369.23	214.00
369.61	213.82
369.99	213.84
370.37	213.93
370.75	214.09
371.13	214.00
371.51	213.96
371.89	213.95
372.27	213.98
372.65	213.90
373.03	213.95
373.41	213.93
373.78	213.92
374.16	213.64
374.54	213.49
374.92	213.44
375.30	213.38
375.68	213.20
376.06	213.11
376.44	213.05
376.82	213.04
377.19	213.01
377.57	212.98
377.95	212.81
378.33	212.69
378.71	212.49
379.09	212.55
379.47	212.57
379.84	212.47
380.22	212.38
380.60	212.39
380.98	212.28
381.36	212.23
381.73	212.08
382.11	212.18
382.49	212.17
382.87	212.04
383.25	212.01
383.62	212.46
384.00	212.35
384.38	212.36
384.76	212.42
385.13	212.54
385.51	212.51
385.89	212.49
386.27	212.45
386.64	212.35
387.02	212.27
387.40	212.25
387.78	212.31
388.15	212.33
388.53	212.26
388.91	212.29
389.29	212.30
389.66	212.38
390.04	212.31
390.42	212.37
390.79	212.52
391.17	212.52
391.55	212.03
391.92	212.11
392.30	212.20
392.68	212.12
393.05	212.11
393.43	212.20
393.81	212.25
394.18	212.28
394.56	212.41
394.94	212.53
395.31	212.49
395.69	212.59
396.06	212.69
396.44	212.71
396.82	212.80
397.19	213.04
397.57	213.04
397.95	213.16
398.32	213.11
398.70	213.15
399.07	213.29
399.45	213.42
399.82	213.37
400.20	213.30
400.58	213.36
400.95	213.23
401.33	213.30
401.70	213.62
402.08	213.64
402.45	213.70
402.83	213.86
403.20	213.98
403.58	214.02
403.95	214.14
404.33	214.27
404.71	214.35
405.08	214.58
405.46	214.70
405.83	214.87
406.21	215.04
406.58	215.23
406.96	215.43
407.33	215.64
407.70	215.95
408.08	216.50
408.45	216.82
408.83	217.12
409.20	217.42
409.58	217.50
409.95	217.93
410.33	218.26
410.70	218.49
411.08	218.99
411.45	219.44
411.82	219.80
412.20	220.46
412.57	221.17
412.95	221.45
413.32	222.10
413.69	222.68
414.07	223.33
414.44	224.01
414.82	224.70
415.19	225.62
415.56	226.48
415.94	227.26
416.31	228.35
416.68	229.50
417.06	230.66
417.43	231.90
417.81	233.29
418.18	234.76
418.55	236.28
418.93	237.80
419.30	239.43
419.67	241.14
420.04	242.80
420.42	244.58
420.79	246.98
421.16	249.09
421.54	251.50
421.91	253.78
422.28	256.19
422.66	258.75
423.03	261.36
423.40	263.92
423.77	266.61
424.15	269.29
424.52	272.22
424.89	275.41
425.26	278.33
425.64	281.15
426.01	284.16
426.38	287.44
426.75	290.84
427.13	294.22
427.50	297.96
427.87	301.82
428.24	305.59
428.61	309.03
428.99	313.13
429.36	317.35
429.73	321.74
430.10	325.95
430.47	330.34
430.85	334.72
431.22	339.41
431.59	344.65
431.96	349.37
432.33	354.58
432.70	359.58
433.08	365.60
433.45	371.29
433.82	376.91
434.19	383.12
434.56	389.22
434.93	395.11
435.30	400.92
435.68	407.30
436.05	413.61
436.42	419.90
436.79	425.67
437.16	431.91
437.53	438.44
437.90	444.98
438.27	451.36
438.64	457.95
439.01	464.21
439.38	469.46
439.75	474.77
440.13	480.76
440.50	486.54
440.87	491.21
441.24	496.15
441.61	501.47
441.98	505.37
442.35	509.80
442.72	514.33
443.09	518.80
443.46	521.44
443.83	523.17
444.20	524.70
444.57	526.80
444.94	527.62
445.31	528.62
445.68	529.83
446.05	530.20
446.42	529.30
446.79	528.44
447.16	527.41
447.53	526.85
447.90	524.38
448.27	521.71
448.64	518.25
449.01	515.47
449.37	511.06
449.74	506.81
450.11	502.04
450.48	496.54
450.85	490.66
451.22	485.83
451.59	481.28
451.96	476.90
452.33	471.01
452.70	465.68
453.07	459.27
453.43	452.51
453.80	446.30
454.17	440.57
454.54	434.97
454.91	429.03
455.28	423.10
455.65	417.61
456.02	412.73
456.38	408.09
456.75	402.50
457.12	397.76
457.49	393.08
457.86	388.26
458.23	384.36
458.59	380.20
458.96	375.89
459.33	372.07
459.70	368.15
460.07	365.23
460.43	361.86
460.80	358.64
461.17	355.89
461.54	352.89
461.91	350.10
462.27	347.20
462.64	344.85
463.01	342.25
463.38	339.85
463.74	336.77
464.11	334.52
464.48	332.58
464.85	330.39
465.21	328.76
465.58	327.13
465.95	325.05
466.32	323.37
466.68	321.65
467.05	319.99
467.42	318.42
467.78	316.64
468.15	314.98
468.52	313.84
468.88	312.22
469.25	310.81
469.62	309.71
469.98	308.53
470.35	307.53
470.72	306.46
471.08	305.22
471.45	304.41
471.82	303.55
472.18	302.54
472.55	301.95
472.92	301.11
473.28	300.24
473.65	299.56
474.02	298.92
474.38	298.55
474.75	298.15
475.11	297.74
475.48	297.54
475.85	297.40
476.21	297.18
476.58	297.16
476.94	297.28
477.31	297.30
477.67	297.31
478.04	297.32
478.41	297.65
478.77	298.19
479.14	298.40
479.50	298.80
479.87	299.33
480.23	299.79
480.60	300.34
480.96	300.97
481.33	301.83
481.69	302.65
482.06	303.35
482.42	304.08
482.79	304.95
483.15	305.92
483.52	307.08
483.88	308.34
484.25	309.52
484.61	310.83
484.98	312.18
485.34	313.98
485.71	315.80
486.07	317.47
486.44	319.07
486.80	321.13
487.17	323.22
487.53	325.57
487.90	328.06
488.26	330.63
488.62	333.43
488.99	336.23
489.35	339.15
489.72	342.32
490.08	345.81
490.44	349.24
490.81	353.01
491.17	356.81
491.54	360.86
491.90	365.21
492.26	369.71
492.63	374.29
492.99	379.14
493.36	384.09
493.72	389.68
494.08	395.36
494.45	401.34
494.81	407.53
495.17	413.83
495.54	420.54
495.90	427.51
496.26	434.76
496.63	442.21
496.99	450.09
497.35	458.32
497.72	466.88
498.08	475.66
498.44	484.88
498.80	494.62
499.17	504.78
499.53	515.06
499.89	525.83
500.26	536.99
500.62	548.33
500.98	560.54
501.34	572.62
501.71	585.31
502.07	598.41
502.43	611.93
502.79	625.75
503.16	640.15
503.52	655.04
503.88	670.15
504.24	685.92
504.60	701.92
504.97	718.57
505.33	735.33
505.69	753.31
506.05	771.45
506.41	789.80
506.78	808.21
507.14	827.18
507.50	846.81
507.86	866.63
508.22	887.17
508.59	907.78
508.95	929.14
509.31	950.81
509.67	972.83
510.03	995.36
510.39	1018.80
510.75	1042.28
511.12	1066.07
511.48	1090.35
511.84	1114.95
512.20	1139.75
512.56	1165.04
512.92	1190.68
513.28	1216.35
513.64	1242.26
514.00	1268.35
514.37	1294.94
514.73	1322.00
515.09	1348.85
515.45	1376.14
515.81	1403.30
516.17	1430.84
516.53	1458.44
516.89	1486.59
517.25	1514.39
517.61	1542.41
517.97	1569.80
518.33	1597.61
518.69	1625.70
519.05	1653.95
519.41	1682.47
519.77	1711.32
520.13	1739.36
520.49	1767.18
520.85	1795.77
521.21	1824.27
521.57	1852.99
521.93	1880.83
522.29	1910.12
522.65	1938.92
523.01	1967.30
523.37	1994.83
523.73	2022.93
524.09	2050.81
524.45	2078.41
524.81	2106.29
525.17	2134.21
525.53	2162.10
525.89	2189.75
526.25	2217.00
526.61	2243.36
526.97	2269.61
527.33	2295.84
527.68	2322.11
528.04	2348.08
528.40	2372.63
528.76	2397.71
529.12	2422.88
529.48	2449.00
529.84	2473.38
530.20	2497.75
530.56	2522.57
530.91	2548.42
531.27	2572.86
531.63	2597.27
531.99	2621.42
532.35	2644.39
532.71	2667.08
533.07	2690.41
533.42	2712.36
533.78	2734.46
534.14	2756.17
534.50	2776.66
534.86	2797.81
535.21	2817.70
535.57	2838.78
535.93	2859.07
536.29	2878.43
536.65	2897.76
537.00	2915.66
537.36	2932.79
537.72	2950.00
538.08	2966.93
538.44	2983.46
538.79	3000.50
539.15	3016.77
539.51	3032.66
539.87	3049.66
540.22	3065.09
540.58	3081.14
540.94	3096.62
541.29	3110.42
541.65	3124.06
542.01	3137.97
542.37	3150.64
542.72	3164.29
543.08	3175.95
543.44	3189.00
543.79	3200.19
544.15	3210.84
544.51	3222.28
544.87	3234.00
545.22	3244.25
545.58	3253.28
545.94	3261.13
546.29	3267.81
546.65	3274.35
547.01	3280.94
547.36	3286.90
547.72	3293.36
548.07	3297.70
548.43	3302.23
548.79	3306.84
549.14	3311.32
549.50	3315.60
549.86	3318.97
550.21	3321.86
550.57	3325.85
550.92	3327.25
551.28	3329.32
551.64	3331.70
551.99	3333.90
552.35	3334.71
552.70	3336.00
553.06	3337.20
553.41	3338.65
553.77	3339.71
554.13	3340.57
554.48	3340.91
554.84	3341.23
555.19	3340.24
555.55	3338.89
555.90	3337.39
556.26	3335.77
556.61	3334.02
556.97	3331.35
557.32	3329.52
557.68	3326.51
558.03	3323.47
558.39	3320.95
558.74	3319.17
559.10	3316.62
559.45	3313.09
559.81	3310.42
560.16	3306.46
560.52	3303.22
560.87	3299.11
561.23	3294.53
561.58	3290.93
561.94	3285.82
562.29	3279.93
562.64	3275.50
563.00	3271.06
563.35	3267.08
563.71	3263.87
564.06	3260.09
564.42	3256.55
564.77	3252.92
565.12	3249.25
565.48	3244.46
565.83	3239.93
566.19	3235.67
566.54	3229.29
566.89	3223.36
567.25	3217.67
567.60	3212.64
567.96	3206.50
568.31	3201.26
568.66	3195.48
569.02	3188.17
569.37	3181.20
569.72	3174.83
570.08	3167.97
570.43	3160.89
570.78	3153.11
571.14	3144.15
571.49	3135.44
571.84	3127.70
572.20	3118.07
572.55	3109.95
572.90	3100.38
573.26	3090.30
573.61	3080.05
573.96	3070.95
574.31	3060.95
574.67	3049.98
575.02	3038.64
575.37	3028.28
575.72	3016.54
576.08	3006.65
576.43	2995.95
576.78	2986.07
577.13	2976.45
577.49	2966.05
577.84	2955.52
578.19	2945.94
578.54	2936.91
578.90	2928.04
579.25	2917.10
579.60	2906.25
579.95	2894.31
580.30	2884.52
580.66	2875.19
581.01	2864.24
581.36	2853.23
581.71	2842.54
582.06	2832.44
582.42	2822.39
582.77	2810.99
583.12	2800.64
583.47	2790.37
583.82	2780.68
584.17	2770.15
584.53	2759.82
584.88	2749.41
585.23	2738.77
585.58	2727.90
585.93	2716.78
586.28	2706.02
586.63	2695.63
586.98	2685.80
587.34	2676.39
587.69	2665.66
588.04	2655.28
588.39	2645.56
588.74	2634.82
589.09	2625.11
589.44	2614.63
589.79	2605.26
590.14	2596.15
590.49	2586.24
590.84	2576.06
591.19	2566.65
591.54	2556.61
591.89	2544.75
592.25	2534.12
592.60	2523.60
592.95	2512.38
593.30	2500.71
593.65	2489.15
594.00	2478.39
594.35	2469.13
594.70	2458.51
595.05	2448.58
595.40	2438.10
595.75	2426.94
596.10	2417.28
596.45	2407.23
596.80	2397.99
597.15	2388.26
597.50	2377.73
597.85	2368.26
598.19	2357.74
598.54	2347.67
598.89	2338.13
599.24	2330.19
599.59	2321.14
599.94	2312.90
600.29	2304.25
600.64	2295.69
600.99	2286.08
601.34	2277.23
601.69	2266.49
602.04	2256.70
602.39	2247.27
602.74	2238.18
603.08	2230.43
603.43	2222.41
603.78	2213.25
604.13	2203.56
604.48	2194.08
604.83	2186.58
605.18	2178.78
605.53	2170.16
605.87	2160.81
606.22	2152.59
606.57	2143.09
606.92	2134.10
607.27	2124.17
607.62	2114.83
607.96	2106.35
608.31	2098.62
608.66	2089.15
609.01	2079.87
609.36	2070.65
609.70	2060.57
610.05	2050.56
610.40	2040.66
610.75	2030.03
611.10	2021.02
611.44	2010.57
611.79	2000.17
612.14	1988.61
612.49	1976.65
612.83	1966.13
613.18	1954.97
613.53	1943.74
613.88	1932.58
614.22	1922.04
614.57	1911.33
614.92	1900.82
615.27	1889.57
615.61	1878.30
615.96	1868.09
616.31	1858.54
616.65	1849.09
617.00	1839.51
617.35	1829.50
617.70	1818.83
618.04	1808.18
618.39	1796.73
618.74	1786.98
619.08	1776.53
619.43	1766.63
619.78	1757.18
620.12	1747.40
620.47	1738.11
620.82	1727.44
621.16	1717.13
621.51	1706.69
621.85	1697.15
622.20	1686.85
622.55	1676.85
622.89	1666.56
623.24	1656.22
623.59	1645.36
623.93	1634.90
624.28	1625.03
624.62	1615.38
624.97	1605.37
625.32	1596.11
625.66	1587.01
626.01	1577.53
626.35	1568.29
626.70	1559.07
627.04	1550.03
627.39	1540.67
627.73	1531.37
628.08	1522.91
628.43	1513.71
628.77	1504.21
629.12	1494.37
629.46	1486.20
629.81	1477.29
630.15	1468.58
630.50	1459.68
630.84	1450.78
631.19	1442.25
631.53	1433.36
631.88	1423.80
632.22	1414.56
632.57	1405.78
632.91	1396.56
633.26	1387.66
633.60	1379.08
633.95	1370.79
634.29	1361.64
634.64	1353.26
634.98	1344.36
635.32	1335.85
635.67	1328.19
636.01	1320.27
636.36	1312.07
636.70	1303.45
637.05	1295.35
637.39	1287.36
637.73	1279.89
638.08	1272.74
638.42	1265.06
638.77	1257.36
639.11	1249.63
639.45	1242.11
639.80	1233.86
640.14	1225.80
640.49	1217.72
640.83	1209.54
641.17	1201.20
641.52	1193.16
641.86	1184.77
642.20	1177.07
642.55	1168.83
642.89	1160.28
643.23	1152.03
643.58	1144.59
643.92	1136.12
644.26	1128.36
644.61	1120.36
644.95	1112.14
645.29	1103.70
645.64	1095.42
645.98	1087.45
646.32	1080.11
646.66	1072.14
647.01	1064.82
647.35	1057.48
647.69	1049.69
648.04	1042.44
648.38	1034.60
648.72	1027.11
649.06	1019.70
649.41	1012.04
649.75	1004.52
650.09	997.43
650.43	990.22
650.78	982.28
651.12	974.91
651.46	967.29
651.80	960.22
652.14	952.86
652.49	945.84
652.83	938.62
653.17	930.73
653.51	923.12
653.85	916.25
654.20	908.88
654.54	901.58
654.88	894.65
655.22	887.38
655.56	880.29
655.90	873.09
656.25	865.93
656.59	859.12
656.93	852.59
657.27	845.83
657.61	838.71
657.95	832.46
658.29	826.13
658.64	819.85
658.98	813.14
659.32	806.46
659.66	800.05
660.00	793.56
660.34	787.34
660.68	780.94
661.02	774.31
661.36	768.34
661.70	762.54
662.05	756.72
662.39	751.10
662.73	745.65
663.07	740.34
663.41	734.81
663.75	729.07
664.09	723.20
664.43	717.27
664.77	712.00
665.11	706.37
665.45	701.00
665.79	695.66
666.13	690.35
666.47	685.28
666.81	679.97
667.15	674.74
667.49	670.15
667.83	665.53
668.17	660.97
668.51	656.35
668.85	651.55
669.19	646.89
669.53	642.18
669.87	637.37
670.21	632.57
670.55	628.04
670.89	623.85
671.23	619.77
671.57	615.72
671.91	611.32
672.25	606.90
672.58	602.66
672.92	598.39
673.26	594.33
673.60	590.22
673.94	586.25
674.28	582.34
674.62	578.41
674.96	574.52
675.30	570.68
675.64	566.78
675.97	563.00
676.31	559.31
676.65	555.45
676.99	552.12
677.33	548.42
677.67	544.80
678.01	540.96
678.34	537.36
678.68	533.84
679.02	530.32
679.36	527.05
679.70	523.62
680.04	520.24
680.37	516.76
680.71	513.38
681.05	510.26
681.39	507.01
681.73	503.75
682.06	500.46
682.40	497.39
682.74	494.22
683.08	491.09
683.42	487.79
683.75	484.81
684.09	481.69
684.43	478.78
684.77	475.64
685.10	472.60
685.44	469.35
685.78	466.31
686.12	463.54
686.45	460.59
686.79	457.74
687.13	455.08
687.46	452.33
687.80	449.70
688.14	446.68
688.48	443.95
688.81	441.18
689.15	438.55
689.49	435.65
689.82	432.89
690.16	429.96
690.50	427.17
690.83	424.43
691.17	421.55
691.51	418.85
691.84	416.43
692.18	414.02
692.52	411.81
692.85	409.69
693.19	407.33
693.52	404.94
693.86	402.53
694.20	400.04
694.53	397.78
694.87	395.48
695.21	393.14
695.54	390.77
695.88	388.35
696.21	386.06
696.55	384.00
696.88	381.92
697.22	379.88
697.56	377.99
697.89	375.94
698.23	373.99
698.56	372.14
698.90	370.29
699.23	368.26
699.57	366.14
699.90	364.00
700.24	362.06
700.58	360.17
700.91	358.39
701.25	356.80
701.58	355.03
701.92	353.19
702.25	351.54
702.59	349.86
702.92	348.24
703.26	346.57
703.59	344.89
703.93	343.51
704.26	341.88
704.60	340.42
704.93	338.94
705.26	337.35
705.60	335.77
705.93	334.12
706.27	332.75
706.60	331.49
706.94	330.17
707.27	328.67
707.61	327.24
707.94	325.80
708.27	324.09
708.61	322.60
708.94	321.24
709.28	319.90
709.61	318.67
709.94	317.45
710.28	316.25
710.61	315.05
710.95	313.36
711.28	312.37
711.61	310.92
711.95	309.75
712.28	308.64
712.61	307.47
712.95	306.50
713.28	305.47
713.61	304.23
713.95	303.12
714.28	302.05
714.61	301.01
714.95	299.89
715.28	298.86
715.61	297.86
715.95	296.81
716.28	295.75
716.61	294.77
716.95	293.70
717.28	292.75
717.61	291.78
717.94	290.95
718.28	289.87
718.61	288.97
718.94	287.89
719.27	286.98
719.61	286.07
719.94	285.13
720.27	284.16
720.60	283.29
720.94	282.31
721.27	281.62
721.60	280.83
721.93	280.02
722.27	279.41
722.60	278.64
722.93	277.88
723.26	277.18
723.59	276.37
723.93	275.73
724.26	274.92
724.59	274.11
724.92	273.37
725.25	272.72
725.59	272.11
725.92	271.56
726.25	270.88
726.58	270.17
726.91	269.50
727.24	268.90
727.57	268.21
727.91	267.65
728.24	266.94
728.57	266.26
728.90	265.72
729.23	264.96
729.56	264.48
729.89	263.89
730.22	263.24
730.55	262.57
730.89	261.94
731.22	261.36
731.55	260.83
731.88	260.28
732.21	259.73
732.54	259.04
732.87	258.45
733.20	257.91
733.53	257.49
733.86	257.04
734.19	256.46
734.52	256.06
734.85	255.81
735.18	255.31
735.51	254.88
735.84	254.44
736.17	254.15
736.50	253.44
736.83	253.41
737.16	252.99
737.49	252.59
737.82	252.06
738.15	251.62
738.48	251.19
738.81	250.74
739.14	250.17
739.47	249.89
739.80	249.40
740.13	248.98
740.46	248.46
740.79	247.88
741.12	247.45
741.45	246.96
741.78	246.26
742.11	245.92
742.44	245.50
742.77	245.12
743.10	244.67
743.43	244.38
743.75	243.59
744.08	243.61
744.41	243.17
744.74	242.92
745.07	242.57
745.40	242.24
745.73	242.08
746.06	241.80
746.39	241.33
746.71	241.07
747.04	240.70
747.37	240.37
747.70	240.14
748.03	239.85
748.36	239.57
748.68	239.33
749.01	238.92
749.34	238.53
749.67	238.24
750.00	237.94
750.33	237.86
750.65	237.55
750.98	236.82
751.31	236.64
751.64	236.33
751.97	236.25
752.29	235.97
752.62	235.45
752.95	235.17
753.28	234.95
753.60	234.61
753.93	234.47
754.26	234.22
754.59	233.88
754.91	233.63
755.24	233.33
755.57	233.01
755.90	232.80
756.22	232.65
756.55	232.38
756.88	232.10
757.20	231.62
757.53	231.21
757.86	231.00
758.19	230.71
758.51	230.47
758.84	230.01
759.17	229.72
759.49	229.56
759.82	229.46
760.15	229.32
760.47	229.14
760.80	228.80
761.13	228.68
761.45	228.41
761.78	228.13
762.11	227.96
762.43	227.82
762.76	227.59
763.08	227.41
763.41	227.25
763.74	227.05
764.06	226.83
764.39	226.80
764.71	226.62
765.04	226.40
765.37	226.27
765.69	226.20
766.02	226.14
766.34	225.98
766.67	225.69
767.00	225.57
767.32	225.57
767.65	225.62
767.97	225.43
768.30	225.39
768.62	225.28
768.95	225.15
769.27	224.98
769.60	224.90
769.92	224.70
770.25	224.42
770.57	224.24
770.90	224.08
771.22	223.88
771.55	223.78
771.87	223.67
772.20	223.47
772.52	223.54
772.85	223.71
773.17	223.57
773.50	223.49
773.82	223.29
774.15	222.98
774.47	222.68
774.80	222.52
775.12	222.31
775.45	222.22
775.77	222.07
776.09	222.02
776.42	221.96
776.74	221.93
777.07	221.81
777.39	221.76
777.72	221.77
778.04	221.74
778.36	221.62
778.69	221.59
779.01	221.53
779.33	221.13
779.66	220.70
779.98	220.56
780.31	220.42
780.63	220.47
780.95	220.46
781.28	220.34
781.60	220.21
781.92	220.15
782.25	220.03
782.57	220.04
782.89	219.92
783.22	219.79
783.54	219.65
783.86	219.69
784.19	219.47
784.51	219.46
784.83	219.29
785.16	219.24
785.48	219.15
785.80	219.04
