SpectraSuite Data File
++++++++++++++++++++++++++++++++++++
Date: Mon Feb 25 17:05:00 EST 2013
User: group
Dark Spectrum Present: No
Reference Spectrum Present: No
Number of Sampled Component Spectra: 1
Spectrometers: USB2E7196
Integration Time (usec): 104000 (USB2E7196)
Spectra Averaged: 20 (USB2E7196)
Boxcar Smoothing: 10 (USB2E7196)
Correct for Electrical Dark: No (USB2E7196)
Strobe/Lamp Enabled: No (USB2E7196)
Correct for Detector Non-linearity: No (USB2E7196)
Correct for Stray Light: No (USB2E7196)
Number of Pixels in Processed Spectrum: 2048
>>>>>Begin Processed Spectral Data<<<<<
339.09	0.00
339.48	197.85
339.86	200.05
340.24	201.05
340.63	202.35
341.01	209.65
341.39	205.40
341.78	207.10
342.16	209.45
342.54	208.40
342.93	198.07
343.31	208.11
343.69	208.63
344.07	209.12
344.46	209.58
344.84	209.98
345.22	209.96
345.60	210.17
345.99	210.32
346.37	210.39
346.75	210.48
347.13	210.52
347.52	210.51
347.90	210.63
348.28	210.61
348.66	210.60
349.05	210.50
349.43	210.48
349.81	210.52
350.19	210.49
350.57	210.49
350.96	210.54
351.34	210.52
351.72	210.64
352.10	210.64
352.48	210.63
352.87	210.57
353.25	210.60
353.63	210.67
354.01	210.67
354.39	210.73
354.77	210.75
355.15	210.84
355.54	210.89
355.92	210.82
356.30	210.92
356.68	211.18
357.06	211.31
357.44	211.30
357.82	211.30
358.20	211.41
358.58	211.44
358.97	211.47
359.35	211.63
359.73	211.70
360.11	211.76
360.49	211.83
360.87	212.00
361.25	212.09
361.63	212.25
362.01	212.37
362.39	212.42
362.77	212.56
363.15	212.68
363.53	212.74
363.91	212.91
364.29	212.98
364.67	212.77
365.05	212.72
365.43	212.88
365.81	212.94
366.19	213.06
366.57	213.27
366.95	213.30
367.33	213.25
367.71	213.29
368.09	213.36
368.47	213.40
368.85	213.33
369.23	213.43
369.61	213.26
369.99	213.35
370.37	213.32
370.75	213.47
371.13	213.43
371.51	213.40
371.89	213.39
372.27	213.35
372.65	213.31
373.03	213.26
373.41	213.17
373.78	213.15
374.16	212.97
374.54	212.69
374.92	212.72
375.30	212.64
375.68	212.52
376.06	212.53
376.44	212.37
376.82	212.32
377.19	212.28
377.57	212.25
377.95	212.10
378.33	212.05
378.71	211.80
379.09	211.74
379.47	211.61
379.84	211.52
380.22	211.45
380.60	211.36
380.98	211.32
381.36	211.29
381.73	211.18
382.11	211.20
382.49	211.28
382.87	211.14
383.25	211.06
383.62	211.45
384.00	211.33
384.38	211.36
384.76	211.47
385.13	211.56
385.51	211.47
385.89	211.35
386.27	211.30
386.64	211.30
387.02	211.25
387.40	211.16
387.78	211.20
388.15	211.15
388.53	211.10
388.91	211.11
389.29	211.06
389.66	211.07
390.04	211.03
390.42	210.98
390.79	211.00
391.17	211.06
391.55	210.67
391.92	210.61
392.30	210.62
392.68	210.46
393.05	210.43
393.43	210.46
393.81	210.51
394.18	210.43
394.56	210.40
394.94	210.42
395.31	210.50
395.69	210.48
396.06	210.50
396.44	210.53
396.82	210.40
397.19	210.58
397.57	210.55
397.95	210.61
398.32	210.51
398.70	210.57
399.07	210.58
399.45	210.52
399.82	210.56
400.20	210.57
400.58	210.61
400.95	210.45
401.33	210.55
401.70	210.81
402.08	210.89
402.45	210.88
402.83	211.00
403.20	210.97
403.58	211.05
403.95	211.17
404.33	211.35
404.71	211.54
405.08	211.74
405.46	211.84
405.83	211.92
406.21	212.08
406.58	212.19
406.96	212.30
407.33	212.44
407.70	212.64
408.08	213.10
408.45	213.29
408.83	213.54
409.20	213.80
409.58	213.85
409.95	214.10
410.33	214.42
410.70	214.68
411.08	215.05
411.45	215.35
411.82	215.59
412.20	216.00
412.57	216.56
412.95	216.74
413.32	217.23
413.69	217.65
414.07	218.17
414.44	218.74
414.82	219.33
415.19	220.12
415.56	220.75
415.94	221.26
416.31	222.12
416.68	222.95
417.06	223.82
417.43	224.81
417.81	225.88
418.18	226.96
418.55	228.10
418.93	229.38
419.30	230.68
419.67	232.07
420.04	233.40
420.42	234.75
420.79	236.61
421.16	238.27
421.54	240.20
421.91	242.01
422.28	243.81
422.66	245.83
423.03	247.97
423.40	250.06
423.77	252.27
424.15	254.43
424.52	256.71
424.89	259.22
425.26	261.55
425.64	263.83
426.01	266.35
426.38	268.96
426.75	271.74
427.13	274.56
427.50	277.50
427.87	280.64
428.24	283.78
428.61	286.59
428.99	289.99
429.36	293.43
429.73	296.87
430.10	300.37
430.47	304.00
430.85	307.53
431.22	311.46
431.59	315.83
431.96	319.85
432.33	324.30
432.70	328.58
433.08	333.69
433.45	338.59
433.82	343.33
434.19	348.63
434.56	353.85
434.93	358.85
435.30	363.87
435.68	369.44
436.05	374.88
436.42	380.46
436.79	385.48
437.16	390.95
437.53	396.77
437.90	402.58
438.27	408.24
438.64	414.07
439.01	419.65
439.38	424.41
439.75	429.23
440.13	434.67
440.50	439.85
440.87	444.05
441.24	448.43
441.61	453.34
441.98	457.10
442.35	461.30
442.72	465.67
443.09	469.86
443.46	472.45
443.83	474.37
444.20	475.95
444.57	478.17
444.94	479.39
445.31	480.75
445.68	482.28
446.05	483.07
446.42	482.85
446.79	482.52
447.16	482.03
447.53	481.92
447.90	480.26
448.27	478.30
448.64	475.66
449.01	473.88
449.37	470.47
449.74	467.08
450.11	463.24
450.48	458.69
450.85	454.06
451.22	450.06
451.59	446.30
451.96	442.67
452.33	437.92
452.70	433.41
453.07	428.00
453.43	422.30
453.80	417.10
454.17	412.18
454.54	407.38
454.91	402.32
455.28	397.19
455.65	392.40
456.02	388.35
456.38	384.43
456.75	379.48
457.12	375.26
457.49	371.11
457.86	366.86
458.23	363.55
458.59	359.83
458.96	356.09
459.33	352.72
459.70	349.51
460.07	346.80
460.43	343.89
460.80	341.04
461.17	338.52
461.54	335.79
461.91	333.26
462.27	330.65
462.64	328.44
463.01	326.07
463.38	323.93
463.74	321.06
464.11	319.05
464.48	317.28
464.85	315.33
465.21	313.94
465.58	312.37
465.95	310.33
466.32	308.77
466.68	307.24
467.05	305.54
467.42	303.81
467.78	302.08
468.15	300.52
468.52	299.40
468.88	297.85
469.25	296.40
469.62	295.31
469.98	294.09
470.35	292.90
470.72	291.84
471.08	290.43
471.45	289.55
471.82	288.54
472.18	287.27
472.55	286.54
472.92	285.48
473.28	284.59
473.65	283.74
474.02	282.84
474.38	282.10
474.75	281.65
475.11	281.06
475.48	280.63
475.85	280.16
476.21	279.61
476.58	279.25
476.94	279.05
477.31	278.58
477.67	278.22
478.04	277.96
478.41	277.80
478.77	277.94
479.14	277.69
479.50	277.50
479.87	277.58
480.23	277.40
480.60	277.21
480.96	277.04
481.33	277.12
481.69	277.13
482.06	277.19
482.42	277.14
482.79	277.19
483.15	277.18
483.52	277.27
483.88	277.32
484.25	277.42
484.61	277.56
484.98	277.66
485.34	277.99
485.71	278.42
486.07	278.68
486.44	278.76
486.80	279.11
487.17	279.55
487.53	280.01
487.90	280.50
488.26	281.31
488.62	282.01
488.99	282.49
489.35	283.22
489.72	283.84
490.08	284.56
490.44	285.19
490.81	286.02
491.17	286.76
491.54	287.74
491.90	288.56
492.26	289.41
492.63	290.38
492.99	291.29
493.36	292.21
493.72	293.21
494.08	294.33
494.45	295.48
494.81	296.64
495.17	297.73
495.54	298.97
495.90	300.04
496.26	301.15
496.63	302.44
496.99	303.66
497.35	304.93
497.72	306.21
498.08	307.50
498.44	308.80
498.80	310.14
499.17	311.36
499.53	312.71
499.89	314.13
500.26	315.49
500.62	316.78
500.98	318.18
501.34	319.57
501.71	320.91
502.07	322.08
502.43	323.31
502.79	324.48
503.16	325.67
503.52	326.88
503.88	328.23
504.24	329.45
504.60	330.59
504.97	331.87
505.33	333.09
505.69	334.52
506.05	335.65
506.41	336.84
506.78	338.02
507.14	338.98
507.50	340.01
507.86	341.17
508.22	342.33
508.59	343.21
508.95	344.11
509.31	345.16
509.67	346.28
510.03	347.25
510.39	348.23
510.75	349.19
511.12	350.01
511.48	350.80
511.84	351.62
512.20	352.49
512.56	353.24
512.92	354.03
513.28	354.71
513.64	355.53
514.00	356.34
514.37	356.96
514.73	357.84
515.09	358.58
515.45	359.12
515.81	359.69
516.17	360.27
516.53	360.89
516.89	361.29
517.25	361.78
517.61	362.37
517.97	362.99
518.33	363.71
518.69	364.52
519.05	365.17
519.41	365.89
519.77	366.71
520.13	367.35
520.49	367.99
520.85	368.75
521.21	369.47
521.57	370.07
521.93	370.73
522.29	371.55
522.65	372.19
523.01	373.13
523.37	374.01
523.73	375.02
524.09	376.05
524.45	377.00
524.81	378.11
525.17	379.25
525.53	380.32
525.89	381.40
526.25	382.49
526.61	383.52
526.97	384.72
527.33	385.99
527.68	387.64
528.04	389.02
528.40	390.23
528.76	391.66
529.12	393.20
529.48	395.00
529.84	396.49
530.20	398.20
530.56	399.81
530.91	401.63
531.27	403.43
531.63	405.28
531.99	407.17
532.35	409.04
532.71	410.85
533.07	412.91
533.42	415.22
533.78	417.24
534.14	419.51
534.50	421.52
534.86	423.75
535.21	425.53
535.57	427.75
535.93	430.07
536.29	432.53
536.65	434.91
537.00	437.05
537.36	439.44
537.72	441.77
538.08	444.29
538.44	446.64
538.79	449.15
539.15	451.57
539.51	454.19
539.87	456.78
540.22	459.39
540.58	462.00
540.94	464.27
541.29	466.79
541.65	469.29
542.01	472.16
542.37	474.69
542.72	477.52
543.08	480.20
543.44	482.93
543.79	485.45
544.15	488.15
544.51	491.10
544.87	494.05
545.22	496.89
545.58	499.48
545.94	502.29
546.29	504.91
546.65	507.65
547.01	510.17
547.36	512.95
547.72	515.78
548.07	518.48
548.43	521.19
548.79	523.96
549.14	526.64
549.50	529.21
549.86	531.68
550.21	534.24
550.57	536.94
550.92	539.52
551.28	542.25
551.64	544.70
551.99	547.14
552.35	549.42
552.70	551.80
553.06	554.39
553.41	556.76
553.77	559.31
554.13	561.77
554.48	564.41
554.84	566.88
555.19	569.22
555.55	571.83
555.90	574.11
556.26	576.38
556.61	578.57
556.97	580.70
557.32	582.90
557.68	584.89
558.03	586.95
558.39	589.02
558.74	591.04
559.10	593.25
559.45	595.37
559.81	597.55
560.16	599.46
560.52	601.60
560.87	603.66
561.23	605.47
561.58	607.62
561.94	609.43
562.29	611.05
562.64	612.82
563.00	614.35
563.35	616.16
563.71	617.93
564.06	619.75
564.42	621.54
564.77	623.41
565.12	625.48
565.48	627.36
565.83	629.05
566.19	630.72
566.54	632.16
566.89	633.60
567.25	635.28
567.60	637.01
567.96	638.38
568.31	640.03
568.66	641.57
569.02	642.57
569.37	643.60
569.72	644.71
570.08	645.76
570.43	646.66
570.78	647.55
571.14	648.26
571.49	648.89
571.84	649.69
572.20	650.24
572.55	650.83
572.90	651.09
573.26	651.41
573.61	651.66
573.96	652.06
574.31	652.37
574.67	652.35
575.02	652.25
575.37	652.23
575.72	651.72
576.08	651.55
576.43	651.46
576.78	651.51
577.13	651.61
577.49	651.56
577.84	651.58
578.19	651.60
578.54	651.93
578.90	652.17
579.25	652.10
579.60	651.93
579.95	651.56
580.30	651.58
580.66	651.57
581.01	651.33
581.36	650.96
581.71	650.64
582.06	650.58
582.42	650.54
582.77	650.17
583.12	650.14
583.47	650.09
583.82	649.96
584.17	649.82
584.53	649.70
584.88	649.57
585.23	649.46
585.58	649.32
585.93	648.79
586.28	648.61
586.63	648.21
586.98	648.06
587.34	647.97
587.69	647.46
588.04	647.06
588.39	646.83
588.74	646.37
589.09	646.15
589.44	645.33
589.79	644.75
590.14	644.63
590.49	644.18
590.84	643.48
591.19	643.14
591.54	642.43
591.89	641.49
592.25	640.86
592.60	639.91
592.95	638.98
593.30	638.12
593.65	636.96
594.00	636.13
594.35	636.21
594.70	635.26
595.05	634.55
595.40	633.63
595.75	632.45
596.10	631.74
596.45	630.81
596.80	630.11
597.15	629.48
597.50	628.18
597.85	627.34
598.19	626.43
598.54	625.30
598.89	624.48
599.24	623.92
599.59	623.05
599.94	622.32
600.29	621.45
600.64	620.72
600.99	620.01
601.34	619.21
601.69	617.14
602.04	616.19
602.39	615.19
602.74	614.42
603.08	613.88
603.43	613.39
603.78	612.45
604.13	611.49
604.48	610.51
604.83	610.10
605.18	609.24
605.53	608.47
605.87	607.50
606.22	606.49
606.57	605.49
606.92	604.36
607.27	603.24
607.62	602.24
607.96	601.31
608.31	600.43
608.66	599.29
609.01	598.30
609.36	597.02
609.70	595.79
610.05	594.41
610.40	593.21
610.75	591.61
611.10	590.47
611.44	589.12
611.79	587.68
612.14	586.04
612.49	584.40
612.83	582.83
613.18	581.44
613.53	580.05
613.88	578.27
614.22	576.79
614.57	575.40
614.92	573.88
615.27	572.30
615.61	570.47
615.96	569.00
616.31	567.58
616.65	566.25
617.00	564.66
617.35	563.17
617.70	561.39
618.04	559.69
618.39	557.90
618.74	556.45
619.08	554.85
619.43	553.07
619.78	551.64
620.12	550.03
620.47	548.43
620.82	546.59
621.16	544.83
621.51	543.31
621.85	541.47
622.20	539.73
622.55	537.95
622.89	536.26
623.24	534.56
623.59	532.69
623.93	531.08
624.28	529.63
624.62	528.46
624.97	526.99
625.32	525.41
625.66	523.85
626.01	522.05
626.35	520.46
626.70	518.91
627.04	517.36
627.39	515.78
627.73	514.19
628.08	512.85
628.43	511.49
628.77	509.68
629.12	508.20
629.46	506.76
629.81	505.06
630.15	503.56
630.50	501.89
630.84	500.25
631.19	498.51
631.53	496.93
631.88	494.83
632.22	492.91
632.57	491.45
632.91	489.84
633.26	488.36
633.60	486.71
633.95	485.23
634.29	483.46
634.64	481.98
634.98	480.26
635.32	478.67
635.67	477.06
636.01	475.62
636.36	474.01
636.70	472.43
637.05	470.92
637.39	469.47
637.73	468.00
638.08	466.83
638.42	465.31
638.77	463.75
639.11	462.25
639.45	460.80
639.80	459.02
640.14	457.29
640.49	455.74
640.83	454.16
641.17	452.66
641.52	451.10
641.86	449.44
642.20	447.98
642.55	446.29
642.89	444.57
643.23	442.79
643.58	441.36
643.92	439.56
644.26	438.04
644.61	436.31
644.95	434.67
645.29	432.91
645.64	431.40
645.98	429.79
646.32	428.33
646.66	426.66
647.01	425.19
647.35	423.85
647.69	422.26
648.04	420.79
648.38	419.18
648.72	417.65
649.06	416.04
649.41	414.47
649.75	412.92
650.09	411.54
650.43	410.16
650.78	408.39
651.12	406.84
651.46	405.33
651.80	403.90
652.14	402.34
652.49	400.96
652.83	399.37
653.17	397.67
653.51	395.96
653.85	394.57
654.20	392.90
654.54	391.19
654.88	389.60
655.22	388.14
655.56	386.52
655.90	384.88
656.25	383.33
656.59	381.65
656.93	380.17
657.27	378.74
657.61	377.11
657.95	375.74
658.29	374.42
658.64	373.03
658.98	371.43
659.32	369.94
659.66	368.33
660.00	366.87
660.34	365.52
660.68	364.15
661.02	362.66
661.36	361.36
661.70	360.04
662.05	358.72
662.39	357.44
662.73	356.41
663.07	355.45
663.41	354.21
663.75	353.08
664.09	351.77
664.43	350.37
664.77	349.32
665.11	348.10
665.45	346.77
665.79	345.49
666.13	344.38
666.47	343.16
666.81	341.95
667.15	340.85
667.49	339.84
667.83	338.79
668.17	337.61
668.51	336.48
668.85	335.45
669.19	334.47
669.53	333.30
669.87	332.01
670.21	330.81
670.55	329.77
670.89	328.85
671.23	327.87
671.57	326.94
671.91	325.81
672.25	324.68
672.58	323.82
672.92	322.77
673.26	321.77
673.60	320.89
673.94	320.02
674.28	318.91
674.62	318.02
674.96	317.09
675.30	316.23
675.64	315.41
675.97	314.56
676.31	313.60
676.65	312.63
676.99	311.84
677.33	310.81
677.67	309.94
678.01	308.89
678.34	307.98
678.68	307.12
679.02	306.20
679.36	305.36
679.70	304.45
680.04	303.60
680.37	302.73
680.71	301.83
681.05	301.01
681.39	300.32
681.73	299.35
682.06	298.51
682.40	297.82
682.74	296.98
683.08	296.18
683.42	295.31
683.75	294.53
684.09	293.64
684.43	292.93
684.77	292.08
685.10	291.29
685.44	290.59
685.78	289.79
686.12	289.09
686.45	288.33
686.79	287.47
687.13	286.84
687.46	286.04
687.80	285.41
688.14	284.62
688.48	283.84
688.81	283.08
689.15	282.35
689.49	281.50
689.82	280.75
690.16	279.89
690.50	279.15
690.83	278.37
691.17	277.59
691.51	276.86
691.84	276.20
692.18	275.53
692.52	274.87
692.85	274.32
693.19	273.68
693.52	273.05
693.86	272.40
694.20	271.74
694.53	271.23
694.87	270.52
695.21	269.87
695.54	269.26
695.88	268.64
696.21	267.96
696.55	267.38
696.88	266.78
697.22	266.23
697.56	265.75
697.89	265.09
698.23	264.57
698.56	263.94
698.90	263.38
699.23	262.78
699.57	262.14
699.90	261.49
700.24	260.95
700.58	260.46
700.91	259.90
701.25	259.54
701.58	259.06
701.92	258.64
702.25	258.14
702.59	257.64
702.92	257.09
703.26	256.61
703.59	256.24
703.93	256.11
704.26	255.74
704.60	255.36
704.93	255.01
705.26	254.44
705.60	254.03
705.93	253.50
706.27	253.18
706.60	252.89
706.94	252.60
707.27	252.04
707.61	251.61
707.94	251.27
708.27	250.71
708.61	250.19
708.94	249.72
709.28	249.30
709.61	248.87
709.94	248.56
710.28	248.16
710.61	247.72
710.95	246.97
711.28	246.78
711.61	246.26
711.95	245.97
712.28	245.66
712.61	245.34
712.95	245.27
713.28	245.00
713.61	244.52
713.95	244.03
714.28	243.78
714.61	243.35
714.95	243.02
715.28	242.55
715.61	242.20
715.95	241.95
716.28	241.67
716.61	241.40
716.95	241.06
717.28	240.78
717.61	240.50
717.94	240.27
718.28	239.72
718.61	239.45
718.94	239.05
719.27	238.74
719.61	238.46
719.94	238.07
720.27	237.64
720.60	237.36
720.94	237.12
721.27	236.85
721.60	236.69
721.93	236.43
722.27	236.31
722.60	236.15
722.93	235.80
723.26	235.56
723.59	235.25
723.93	235.07
724.26	234.81
724.59	234.55
724.92	234.36
725.25	234.20
725.59	234.00
725.92	233.94
726.25	233.76
726.58	233.55
726.91	233.27
727.24	233.20
727.57	232.97
727.91	232.68
728.24	232.51
728.57	232.28
728.90	232.16
729.23	231.91
729.56	231.82
729.89	231.69
730.22	231.52
730.55	231.35
730.89	231.13
731.22	230.99
731.55	230.82
731.88	230.61
732.21	230.38
732.54	230.13
732.87	229.86
733.20	229.69
733.53	229.52
733.86	229.40
734.19	229.09
734.52	228.95
734.85	229.10
735.18	228.96
735.51	228.88
735.84	228.75
736.17	228.73
736.50	228.42
736.83	228.73
737.16	228.53
737.49	228.46
737.82	228.32
738.15	228.20
738.48	227.98
738.81	227.85
739.14	227.61
739.47	227.51
739.80	227.30
740.13	227.19
740.46	227.03
740.79	226.87
741.12	226.78
741.45	226.57
741.78	226.18
742.11	226.07
742.44	225.87
742.77	225.74
743.10	225.45
743.43	225.32
743.75	224.69
744.08	225.01
744.41	224.83
744.74	224.68
745.07	224.51
745.40	224.39
745.73	224.34
746.06	224.34
746.39	224.19
746.71	224.09
747.04	223.90
747.37	223.65
747.70	223.55
748.03	223.41
748.36	223.41
748.68	223.30
749.01	223.08
749.34	222.99
749.67	222.84
750.00	222.81
750.33	222.93
750.65	222.91
750.98	222.36
751.31	222.22
751.64	222.12
751.97	222.17
752.29	222.06
752.62	221.82
752.95	221.68
753.28	221.51
753.60	221.46
753.93	221.46
754.26	221.46
754.59	221.16
754.91	221.04
755.24	220.83
755.57	220.75
755.90	220.70
756.22	220.59
756.55	220.38
756.88	220.25
757.20	219.92
757.53	219.75
757.86	219.66
758.19	219.57
758.51	219.42
758.84	219.13
759.17	219.10
759.49	218.98
759.82	219.04
760.15	219.06
760.47	218.91
760.80	218.74
761.13	218.72
761.45	218.73
761.78	218.65
762.11	218.62
762.43	218.49
762.76	218.34
763.08	218.26
763.41	218.29
763.74	218.25
764.06	218.17
764.39	218.04
764.71	217.85
765.04	217.74
765.37	217.62
765.69	217.56
766.02	217.47
766.34	217.45
766.67	217.18
767.00	217.08
767.32	217.22
767.65	217.35
767.97	217.19
768.30	217.18
768.62	217.11
768.95	217.07
769.27	216.99
769.60	217.08
769.92	217.01
770.25	216.88
770.57	216.64
770.90	216.51
771.22	216.45
771.55	216.55
771.87	216.56
772.20	216.57
772.52	216.83
772.85	217.19
773.17	217.08
773.50	217.07
773.82	217.06
774.15	216.80
774.47	216.51
774.80	216.40
775.12	216.29
775.45	216.19
775.77	216.08
776.09	216.10
776.42	216.03
776.74	216.06
777.07	215.97
777.39	216.00
777.72	216.00
778.04	216.01
778.36	215.88
778.69	215.86
779.01	215.83
779.33	215.47
779.66	215.00
779.98	215.03
780.31	215.02
780.63	215.10
780.95	215.13
781.28	215.15
781.60	215.11
781.92	215.05
782.25	215.07
782.57	215.13
782.89	214.98
783.22	214.85
783.54	214.71
783.86	214.70
784.19	214.62
784.51	214.72
784.83	214.57
785.16	214.57
785.48	214.46
785.80	214.39
786.12	214.36
786.45	214.33
786.77	214.24
787.09	214.20
787.42	214.03
787.74	214.01
788.06	214.01
788.38	214.00
788.71	213.98
789.03	213.90
789.35	213.88
789.67	213.81
789.99	213.78
790.32	213.70
790.64	213.78
790.96	214.10
791.28	213.93
791.61	213.95
791.93	213.95
792.25	213.93
792.57	214.16
792.89	214.12
793.21	214.19
793.54	214.16
793.86	214.05
794.18	214.06
