SpectraSuite Data File
++++++++++++++++++++++++++++++++++++
Date: Mon Feb 25 17:11:26 EST 2013
User: group
Dark Spectrum Present: No
Reference Spectrum Present: No
Number of Sampled Component Spectra: 1
Spectrometers: USB2E7196
Integration Time (usec): 104000 (USB2E7196)
Spectra Averaged: 20 (USB2E7196)
Boxcar Smoothing: 10 (USB2E7196)
Correct for Electrical Dark: No (USB2E7196)
Strobe/Lamp Enabled: No (USB2E7196)
Correct for Detector Non-linearity: No (USB2E7196)
Correct for Stray Light: No (USB2E7196)
Number of Pixels in Processed Spectrum: 2048
>>>>>Begin Processed Spectral Data<<<<<
339.09	0.00
339.48	198.95
339.86	199.95
340.24	201.80
340.63	202.15
341.01	209.05
341.39	206.25
341.78	208.00
342.16	208.00
342.54	208.15
342.93	198.30
343.31	208.35
343.69	208.90
344.07	209.38
344.46	209.86
344.84	210.28
345.22	210.34
345.60	210.56
345.99	210.73
346.37	210.90
346.75	211.02
347.13	211.15
347.52	211.13
347.90	211.25
348.28	211.28
348.66	211.39
349.05	211.39
349.43	211.34
349.81	211.35
350.19	211.37
350.57	211.38
350.96	211.39
351.34	211.38
351.72	211.40
352.10	211.47
352.48	211.45
352.87	211.47
353.25	211.53
353.63	211.58
354.01	211.60
354.39	211.66
354.77	211.74
355.15	211.87
355.54	211.86
355.92	211.78
356.30	211.89
356.68	212.10
357.06	212.21
357.44	212.26
357.82	212.34
358.20	212.42
358.58	212.48
358.97	212.51
359.35	212.68
359.73	212.81
360.11	212.85
360.49	213.04
360.87	213.11
361.25	213.17
361.63	213.27
362.01	213.35
362.39	213.36
362.77	213.39
363.15	213.37
363.53	213.42
363.91	213.48
364.29	213.45
364.67	213.15
365.05	213.12
365.43	213.15
365.81	213.14
366.19	213.37
366.57	213.48
366.95	213.49
367.33	213.44
367.71	213.38
368.09	213.49
368.47	213.39
368.85	213.37
369.23	213.49
369.61	213.42
369.99	213.47
370.37	213.46
370.75	213.58
371.13	213.48
371.51	213.45
371.89	213.44
372.27	213.40
372.65	213.41
373.03	213.37
373.41	213.40
373.78	213.35
374.16	213.10
374.54	212.96
374.92	212.85
375.30	212.76
375.68	212.68
376.06	212.53
376.44	212.41
376.82	212.44
377.19	212.31
377.57	212.24
377.95	212.01
378.33	211.95
378.71	211.77
379.09	211.82
379.47	211.79
379.84	211.72
380.22	211.65
380.60	211.55
380.98	211.46
381.36	211.32
381.73	211.30
382.11	211.33
382.49	211.33
382.87	211.27
383.25	211.24
383.62	211.61
384.00	211.53
384.38	211.48
384.76	211.46
385.13	211.54
385.51	211.53
385.89	211.53
386.27	211.50
386.64	211.52
387.02	211.47
387.40	211.40
387.78	211.41
388.15	211.38
388.53	211.33
388.91	211.30
389.29	211.28
389.66	211.28
390.04	211.25
390.42	211.25
390.79	211.30
391.17	211.27
391.55	210.82
391.92	210.81
392.30	210.85
392.68	210.69
393.05	210.73
393.43	210.71
393.81	210.71
394.18	210.63
394.56	210.60
394.94	210.68
395.31	210.67
395.69	210.73
396.06	210.81
396.44	210.83
396.82	210.77
397.19	210.97
397.57	210.93
397.95	210.97
398.32	210.89
398.70	210.89
399.07	210.96
399.45	211.05
399.82	211.09
400.20	211.11
400.58	211.15
400.95	210.98
401.33	211.02
401.70	211.29
402.08	211.37
402.45	211.40
402.83	211.45
403.20	211.50
403.58	211.48
403.95	211.58
404.33	211.74
404.71	211.87
405.08	212.14
405.46	212.22
405.83	212.30
406.21	212.41
406.58	212.50
406.96	212.58
407.33	212.66
407.70	212.79
408.08	213.16
408.45	213.36
408.83	213.54
409.20	213.65
409.58	213.62
409.95	213.85
410.33	213.99
410.70	214.13
411.08	214.40
411.45	214.72
411.82	214.95
412.20	215.27
412.57	215.72
412.95	215.69
413.32	216.07
413.69	216.42
414.07	216.83
414.44	217.28
414.82	217.73
415.19	218.25
415.56	218.81
415.94	219.19
416.31	219.88
416.68	220.52
417.06	221.28
417.43	222.00
417.81	222.79
418.18	223.66
418.55	224.43
418.93	225.35
419.30	226.15
419.67	227.07
420.04	228.00
420.42	229.06
420.79	230.46
421.16	231.66
421.54	233.12
421.91	234.35
422.28	235.67
422.66	237.09
423.03	238.71
423.40	240.14
423.77	241.66
424.15	243.19
424.52	244.82
424.89	246.63
425.26	248.40
425.64	250.00
426.01	251.80
426.38	253.76
426.75	255.74
427.13	257.76
427.50	259.87
427.87	262.09
428.24	264.19
428.61	266.06
428.99	268.51
429.36	270.72
429.73	273.21
430.10	275.74
430.47	278.23
430.85	280.64
431.22	283.41
431.59	286.55
431.96	289.32
432.33	292.34
432.70	295.33
433.08	298.72
433.45	302.04
433.82	305.32
434.19	308.93
434.56	312.56
434.93	316.01
435.30	319.42
435.68	323.10
436.05	326.90
436.42	330.68
436.79	334.02
437.16	337.71
437.53	341.53
437.90	345.29
438.27	349.02
438.64	352.88
439.01	356.45
439.38	359.31
439.75	362.35
440.13	365.87
440.50	369.10
440.87	371.90
441.24	374.79
441.61	377.79
441.98	380.08
442.35	382.60
442.72	385.23
443.09	387.90
443.46	389.57
443.83	390.57
444.20	391.44
444.57	392.62
444.94	393.28
445.31	394.03
445.68	395.04
446.05	395.36
446.42	394.99
446.79	394.52
447.16	394.11
447.53	393.96
447.90	392.60
448.27	391.26
448.64	389.26
449.01	387.82
449.37	385.50
449.74	383.10
450.11	380.51
450.48	377.38
450.85	374.02
451.22	371.16
451.59	368.55
451.96	366.08
452.33	362.85
452.70	359.77
453.07	356.05
453.43	351.96
453.80	348.40
454.17	345.02
454.54	341.89
454.91	338.39
455.28	334.95
455.65	331.75
456.02	329.04
456.38	326.28
456.75	322.91
457.12	320.08
457.49	317.34
457.86	314.41
458.23	312.24
458.59	309.77
458.96	307.31
459.33	305.00
459.70	302.69
460.07	300.90
460.43	298.79
460.80	296.89
461.17	295.31
461.54	293.55
461.91	291.87
462.27	290.10
462.64	288.62
463.01	287.02
463.38	285.55
463.74	283.49
464.11	282.16
464.48	281.07
464.85	279.67
465.21	278.76
465.58	277.63
465.95	276.22
466.32	275.12
466.68	273.99
467.05	272.92
467.42	271.85
467.78	270.73
468.15	269.74
468.52	269.08
468.88	267.97
469.25	267.10
469.62	266.45
469.98	265.67
470.35	265.03
470.72	264.25
471.08	263.51
471.45	263.04
471.82	262.51
472.18	261.74
472.55	261.33
472.92	260.68
473.28	260.27
473.65	259.83
474.02	259.45
474.38	259.10
474.75	258.84
475.11	258.56
475.48	258.27
475.85	258.09
476.21	257.70
476.58	257.52
476.94	257.35
477.31	257.14
477.67	257.07
478.04	256.93
478.41	256.90
478.77	257.25
479.14	257.07
479.50	257.07
479.87	257.20
480.23	257.25
480.60	257.23
480.96	257.18
481.33	257.45
481.69	257.57
482.06	257.82
482.42	258.09
482.79	258.39
483.15	258.65
483.52	259.06
483.88	259.44
484.25	259.75
484.61	260.19
484.98	260.59
485.34	261.15
485.71	261.75
486.07	262.35
486.44	262.48
486.80	263.18
487.17	263.84
487.53	264.61
487.90	265.39
488.26	266.38
488.62	267.54
488.99	268.38
489.35	269.41
489.72	270.38
490.08	271.43
490.44	272.50
490.81	273.78
491.17	274.86
491.54	276.26
491.90	277.74
492.26	279.21
492.63	280.84
492.99	282.41
493.36	284.12
493.72	285.95
494.08	287.79
494.45	289.75
494.81	291.80
495.17	293.78
495.54	295.97
495.90	298.18
496.26	300.45
496.63	302.99
496.99	305.56
497.35	308.16
497.72	310.94
498.08	313.83
498.44	316.71
498.80	319.92
499.17	322.96
499.53	326.23
499.89	329.66
500.26	333.04
500.62	336.56
500.98	340.31
501.34	344.06
501.71	348.23
502.07	352.31
502.43	356.41
502.79	360.72
503.16	365.08
503.52	369.48
503.88	373.98
504.24	378.52
504.60	383.35
504.97	388.44
505.33	393.45
505.69	398.84
506.05	404.28
506.41	409.64
506.78	415.26
507.14	420.88
507.50	426.55
507.86	432.52
508.22	438.53
508.59	444.56
508.95	450.76
509.31	457.02
509.67	463.48
510.03	470.00
510.39	476.77
510.75	483.65
511.12	490.70
511.48	497.73
511.84	505.04
512.20	512.28
512.56	519.65
512.92	527.18
513.28	534.61
513.64	542.10
514.00	549.90
514.37	557.65
514.73	565.59
515.09	573.68
515.45	581.59
515.81	589.62
516.17	597.79
516.53	605.97
516.89	614.28
517.25	622.65
517.61	631.11
517.97	639.50
518.33	647.96
518.69	656.44
519.05	665.16
519.41	674.04
519.77	683.03
520.13	691.62
520.49	700.13
520.85	708.80
521.21	717.81
521.57	726.85
521.93	735.53
522.29	744.73
522.65	753.78
523.01	762.95
523.37	771.90
523.73	780.96
524.09	790.08
524.45	799.04
524.81	808.01
525.17	817.41
525.53	826.60
525.89	835.62
526.25	844.54
526.61	853.27
526.97	862.05
527.33	870.62
527.68	880.06
528.04	889.00
528.40	897.78
528.76	906.51
529.12	915.25
529.48	924.52
529.84	932.94
530.20	941.30
530.56	949.94
530.91	958.96
531.27	967.75
531.63	976.23
531.99	984.73
532.35	993.15
532.71	1001.14
533.07	1009.55
533.42	1018.12
533.78	1026.43
534.14	1034.48
534.50	1041.98
534.86	1050.07
535.21	1057.28
535.57	1065.32
535.93	1072.81
536.29	1080.43
536.65	1087.69
537.00	1094.54
537.36	1101.67
537.72	1108.85
538.08	1115.85
538.44	1122.48
538.79	1129.19
539.15	1136.09
539.51	1142.85
539.87	1149.55
540.22	1155.94
540.58	1162.11
540.94	1168.06
541.29	1174.16
541.65	1180.00
542.01	1186.25
542.37	1191.85
542.72	1197.73
543.08	1202.89
543.44	1208.60
543.79	1213.43
544.15	1218.46
544.51	1223.84
544.87	1228.97
545.22	1233.57
545.58	1237.95
545.94	1242.32
546.29	1246.16
546.65	1249.96
547.01	1253.67
547.36	1257.35
547.72	1260.99
548.07	1264.26
548.43	1267.18
548.79	1269.92
549.14	1272.84
549.50	1275.60
549.86	1278.13
550.21	1280.26
550.57	1282.99
550.92	1284.74
551.28	1286.90
551.64	1288.80
551.99	1290.63
552.35	1292.02
552.70	1293.68
553.06	1295.25
553.41	1296.72
553.77	1298.27
554.13	1299.51
554.48	1301.03
554.84	1302.15
555.19	1302.83
555.55	1303.62
555.90	1304.21
556.26	1304.80
556.61	1305.52
556.97	1305.53
557.32	1305.84
557.68	1305.96
558.03	1305.61
558.39	1305.72
558.74	1305.85
559.10	1306.18
559.45	1305.97
559.81	1306.39
560.16	1306.30
560.52	1306.32
560.87	1306.04
561.23	1305.55
561.58	1305.71
561.94	1304.98
562.29	1304.06
562.64	1303.81
563.00	1303.42
563.35	1303.30
563.71	1303.19
564.06	1302.76
564.42	1302.58
564.77	1302.11
565.12	1301.95
565.48	1301.68
565.83	1301.31
566.19	1300.87
566.54	1299.57
566.89	1298.58
567.25	1297.47
567.60	1296.66
567.96	1295.65
568.31	1294.37
568.66	1293.09
569.02	1291.04
569.37	1289.03
569.72	1287.82
570.08	1286.09
570.43	1284.33
570.78	1282.27
571.14	1279.96
571.49	1277.57
571.84	1275.60
572.20	1273.25
572.55	1271.00
572.90	1268.07
573.26	1265.30
573.61	1262.57
573.96	1259.97
574.31	1257.08
574.67	1253.82
575.02	1250.36
575.37	1246.93
575.72	1243.55
576.08	1240.66
576.43	1237.35
576.78	1234.70
577.13	1231.53
577.49	1228.54
577.84	1225.39
578.19	1222.71
578.54	1220.14
578.90	1217.63
579.25	1214.38
579.60	1211.07
579.95	1207.38
580.30	1204.63
580.66	1201.95
581.01	1198.58
581.36	1195.43
581.71	1192.12
582.06	1189.31
582.42	1186.26
582.77	1183.18
583.12	1180.44
583.47	1177.35
583.82	1174.70
584.17	1171.54
584.53	1168.64
584.88	1165.43
585.23	1162.26
585.58	1158.88
585.93	1155.47
586.28	1152.39
586.63	1149.19
586.98	1146.15
587.34	1143.47
587.69	1140.19
588.04	1137.17
588.39	1134.39
588.74	1131.12
589.09	1128.49
589.44	1125.17
589.79	1122.17
590.14	1119.09
590.49	1115.67
590.84	1112.44
591.19	1109.46
591.54	1106.20
591.89	1102.36
592.25	1099.17
592.60	1095.55
592.95	1092.13
593.30	1088.22
593.65	1084.25
594.00	1080.61
594.35	1078.36
594.70	1075.04
595.05	1071.77
595.40	1068.07
595.75	1064.33
596.10	1061.16
596.45	1057.76
596.80	1054.92
597.15	1051.98
597.50	1048.45
597.85	1045.57
598.19	1042.43
598.54	1039.14
598.89	1036.12
599.24	1033.68
599.59	1030.47
599.94	1027.94
600.29	1024.93
600.64	1022.25
600.99	1019.26
601.34	1016.74
601.69	1012.70
602.04	1009.27
602.39	1006.12
602.74	1003.12
603.08	1000.60
603.43	998.11
603.78	995.09
604.13	991.67
604.48	988.50
604.83	986.12
605.18	983.29
605.53	980.14
605.87	976.86
606.22	974.02
606.57	970.82
606.92	967.81
607.27	964.62
607.62	961.47
607.96	958.72
608.31	955.84
608.66	952.43
609.01	949.17
609.36	945.93
609.70	942.61
610.05	939.20
610.40	935.69
610.75	931.95
611.10	928.74
611.44	924.91
611.79	921.23
612.14	917.28
612.49	913.01
612.83	909.48
613.18	905.62
613.53	901.77
613.88	897.60
614.22	893.90
614.57	889.80
614.92	885.97
615.27	881.96
615.61	878.06
615.96	874.40
616.31	870.87
616.65	867.60
617.00	864.18
617.35	860.37
617.70	856.47
618.04	852.41
618.39	848.35
618.74	844.62
619.08	840.68
619.43	836.91
619.78	833.28
620.12	829.47
620.47	826.18
620.82	822.14
621.16	818.30
621.51	814.61
621.85	811.10
622.20	807.33
622.55	803.33
622.89	799.47
623.24	795.59
623.59	791.66
623.93	787.88
624.28	784.08
624.62	780.81
624.97	777.34
625.32	773.85
625.66	770.29
626.01	766.98
626.35	763.68
626.70	760.26
627.04	757.21
627.39	753.72
627.73	750.15
628.08	746.88
628.43	743.33
628.77	739.53
629.12	735.88
629.46	732.60
629.81	729.37
630.15	725.95
630.50	722.52
630.84	718.98
631.19	715.41
631.53	712.08
631.88	708.12
632.22	704.31
632.57	701.20
632.91	697.66
633.26	694.26
633.60	690.74
633.95	687.38
634.29	683.76
634.64	680.56
634.98	677.09
635.32	673.78
635.67	671.07
636.01	668.25
636.36	664.99
636.70	661.90
637.05	658.74
637.39	655.67
637.73	652.79
638.08	650.06
638.42	647.31
638.77	644.23
639.11	641.39
639.45	638.51
639.80	635.02
640.14	631.91
640.49	628.69
640.83	625.90
641.17	622.94
641.52	619.90
641.86	616.70
642.20	613.83
642.55	610.65
642.89	607.37
643.23	604.03
643.58	601.28
643.92	598.05
644.26	595.01
644.61	592.12
644.95	588.91
645.29	585.66
645.64	582.52
645.98	579.46
646.32	576.54
646.66	573.41
647.01	570.52
647.35	567.75
647.69	564.77
648.04	561.69
648.38	558.60
648.72	555.60
649.06	552.64
649.41	549.48
649.75	546.70
650.09	543.77
650.43	540.95
650.78	537.87
651.12	535.01
651.46	532.11
651.80	529.13
652.14	526.39
652.49	523.56
652.83	520.47
653.17	517.47
653.51	514.63
653.85	512.04
654.20	509.38
654.54	506.50
654.88	503.63
655.22	500.85
655.56	498.06
655.90	495.27
656.25	492.48
656.59	489.72
656.93	486.93
657.27	484.49
657.61	481.60
657.95	479.09
658.29	476.40
658.64	473.98
658.98	471.39
659.32	468.59
659.66	466.17
660.00	463.67
660.34	461.12
660.68	458.49
661.02	455.77
661.36	453.33
661.70	450.97
662.05	448.80
662.39	446.49
662.73	444.18
663.07	442.12
663.41	439.93
663.75	437.72
664.09	435.54
664.43	432.91
664.77	430.78
665.11	428.42
665.45	426.28
665.79	424.06
666.13	421.93
666.47	419.79
666.81	417.55
667.15	415.42
667.49	413.49
667.83	411.66
668.17	409.74
668.51	407.76
668.85	405.86
669.19	404.07
669.53	402.08
669.87	400.08
670.21	398.06
670.55	396.02
670.89	394.43
671.23	392.69
671.57	391.04
671.91	389.30
672.25	387.66
672.58	386.03
672.92	384.19
673.26	382.54
673.60	381.03
673.94	379.42
674.28	377.93
674.62	376.42
674.96	374.69
675.30	373.19
675.64	371.56
675.97	369.83
676.31	368.23
676.65	366.77
676.99	365.54
677.33	364.00
677.67	362.72
678.01	361.07
678.34	359.56
678.68	358.18
679.02	356.68
679.36	355.10
679.70	353.55
680.04	352.13
680.37	350.66
680.71	349.18
681.05	347.85
681.39	346.42
681.73	345.02
682.06	343.77
682.40	342.47
682.74	341.22
683.08	340.09
683.42	338.61
683.75	337.32
684.09	335.84
684.43	334.55
684.77	333.15
685.10	331.93
685.44	330.49
685.78	329.12
686.12	327.97
686.45	326.78
686.79	325.60
687.13	324.45
687.46	323.23
687.80	322.13
688.14	320.85
688.48	319.71
688.81	318.59
689.15	317.35
689.49	316.04
689.82	314.86
690.16	313.44
690.50	312.33
690.83	311.17
691.17	309.99
691.51	308.83
691.84	307.81
692.18	306.67
692.52	305.73
692.85	304.80
693.19	303.86
693.52	302.86
693.86	301.74
694.20	300.76
694.53	299.78
694.87	298.76
695.21	297.84
695.54	296.82
695.88	295.73
696.21	294.67
696.55	293.82
696.88	292.81
697.22	291.97
697.56	291.12
697.89	290.18
698.23	289.39
698.56	288.50
698.90	287.70
699.23	286.81
699.57	285.93
699.90	284.97
700.24	284.00
700.58	283.17
700.91	282.39
701.25	281.87
701.58	281.21
701.92	280.44
702.25	279.65
702.59	278.85
702.92	278.15
703.26	277.51
703.59	276.78
703.93	276.39
704.26	275.70
704.60	274.95
704.93	274.25
705.26	273.50
705.60	272.92
705.93	272.08
706.27	271.49
706.60	270.93
706.94	270.44
707.27	269.75
707.61	269.07
707.94	268.40
708.27	267.42
708.61	266.56
708.94	265.93
709.28	265.23
709.61	264.63
709.94	263.99
710.28	263.43
710.61	262.79
710.95	261.93
711.28	261.58
711.61	261.09
711.95	260.56
712.28	260.00
712.61	259.49
712.95	259.14
713.28	258.77
713.61	258.18
713.95	257.54
714.28	257.04
714.61	256.49
714.95	255.98
715.28	255.47
715.61	255.10
715.95	254.54
716.28	254.11
716.61	253.64
716.95	253.15
717.28	252.63
717.61	252.21
717.94	251.73
718.28	251.12
718.61	250.58
718.94	250.10
719.27	249.69
719.61	249.28
719.94	248.77
720.27	248.16
720.60	247.74
720.94	247.37
721.27	247.05
721.60	246.74
721.93	246.42
722.27	246.19
722.60	245.81
722.93	245.50
723.26	245.12
723.59	244.75
723.93	244.39
724.26	244.06
724.59	243.66
724.92	243.29
725.25	242.98
725.59	242.66
725.92	242.32
726.25	242.01
726.58	241.66
726.91	241.29
727.24	241.00
727.57	240.77
727.91	240.39
728.24	240.11
728.57	239.84
728.90	239.56
729.23	239.14
729.56	239.04
729.89	238.71
730.22	238.45
730.55	238.14
730.89	237.88
731.22	237.60
731.55	237.43
731.88	237.30
732.21	236.94
732.54	236.69
732.87	236.44
733.20	236.14
733.53	235.80
733.86	235.58
734.19	235.26
734.52	235.03
734.85	235.07
735.18	234.80
735.51	234.59
735.84	234.34
736.17	234.15
736.50	233.72
736.83	233.94
737.16	233.71
737.49	233.57
737.82	233.39
738.15	233.17
738.48	232.92
738.81	232.62
739.14	232.39
739.47	232.14
739.80	231.96
740.13	231.84
740.46	231.64
740.79	231.39
741.12	231.19
741.45	230.88
741.78	230.46
742.11	230.32
742.44	230.02
742.77	229.90
743.10	229.70
743.43	229.49
743.75	228.88
744.08	229.12
744.41	228.89
744.74	228.62
745.07	228.38
745.40	228.22
745.73	228.22
746.06	228.11
746.39	227.95
746.71	227.75
747.04	227.51
747.37	227.32
747.70	227.22
748.03	227.07
748.36	226.99
748.68	226.87
749.01	226.61
749.34	226.54
749.67	226.25
750.00	226.15
750.33	226.30
750.65	226.19
750.98	225.56
751.31	225.43
751.64	225.31
751.97	225.35
752.29	225.15
752.62	224.82
752.95	224.63
753.28	224.46
753.60	224.25
753.93	224.23
754.26	224.08
754.59	223.83
754.91	223.68
755.24	223.51
755.57	223.33
755.90	223.16
756.22	222.97
756.55	222.89
756.88	222.66
757.20	222.26
757.53	222.05
757.86	221.95
758.19	221.82
758.51	221.76
758.84	221.49
759.17	221.36
759.49	221.33
759.82	221.34
760.15	221.24
760.47	221.17
760.80	220.97
761.13	220.91
761.45	220.82
761.78	220.71
762.11	220.61
762.43	220.48
762.76	220.43
763.08	220.35
763.41	220.31
763.74	220.27
764.06	220.17
764.39	220.06
764.71	219.99
765.04	219.82
765.37	219.61
765.69	219.47
766.02	219.37
766.34	219.20
766.67	219.04
767.00	219.09
767.32	219.15
767.65	219.30
767.97	219.16
768.30	219.11
768.62	219.00
768.95	218.94
769.27	218.89
769.60	218.92
769.92	218.75
770.25	218.58
770.57	218.41
770.90	218.36
771.22	218.22
771.55	218.15
771.87	218.13
772.20	218.10
772.52	218.34
772.85	218.65
773.17	218.63
773.50	218.55
773.82	218.43
774.15	218.20
774.47	217.84
774.80	217.77
775.12	217.67
775.45	217.59
775.77	217.39
776.09	217.31
776.42	217.17
776.74	217.25
777.07	217.16
777.39	217.08
777.72	216.98
778.04	217.03
778.36	216.91
778.69	216.81
779.01	216.77
779.33	216.42
779.66	215.98
779.98	215.80
780.31	215.74
780.63	215.76
780.95	215.77
781.28	215.74
781.60	215.66
781.92	215.63
782.25	215.57
782.57	215.61
782.89	215.55
783.22	215.47
783.54	215.30
783.86	215.27
784.19	215.23
784.51	215.28
784.83	215.15
785.16	215.12
785.48	215.13
785.80	215.07
786.12	215.09
786.45	215.09
786.77	215.12
787.09	215.08
787.42	214.89
787.74	214.92
788.06	214.87
788.38	214.85
788.71	214.80
789.03	214.75
789.35	214.72
789.67	214.64
789.99	214.63
