SpectraSuite Data File
++++++++++++++++++++++++++++++++++++
Date: Mon Feb 25 17:12:23 EST 2013
User: group
Dark Spectrum Present: No
Reference Spectrum Present: No
Number of Sampled Component Spectra: 1
Spectrometers: USB2E7196
Integration Time (usec): 104000 (USB2E7196)
Spectra Averaged: 20 (USB2E7196)
Boxcar Smoothing: 10 (USB2E7196)
Correct for Electrical Dark: No (USB2E7196)
Strobe/Lamp Enabled: No (USB2E7196)
Correct for Detector Non-linearity: No (USB2E7196)
Correct for Stray Light: No (USB2E7196)
Number of Pixels in Processed Spectrum: 2048
>>>>>Begin Processed Spectral Data<<<<<
339.09	0.00
339.48	198.45
339.86	199.15
340.24	202.55
340.63	202.40
341.01	209.80
341.39	205.60
341.78	207.00
342.16	209.70
342.54	207.45
342.93	198.40
343.31	208.44
343.69	209.06
344.07	209.57
344.46	209.96
344.84	210.40
345.22	210.38
345.60	210.63
345.99	210.84
346.37	210.89
346.75	211.00
347.13	211.00
347.52	211.05
347.90	211.15
348.28	211.15
348.66	211.21
349.05	211.10
349.43	211.12
349.81	211.20
350.19	211.21
350.57	211.27
350.96	211.41
351.34	211.52
351.72	211.51
352.10	211.58
352.48	211.62
352.87	211.61
353.25	211.77
353.63	211.85
354.01	211.86
354.39	211.90
354.77	212.03
355.15	212.16
355.54	212.17
355.92	212.16
356.30	212.20
356.68	212.48
357.06	212.58
357.44	212.62
357.82	212.60
358.20	212.68
358.58	212.72
358.97	212.69
359.35	212.73
359.73	212.86
360.11	212.97
360.49	213.06
360.87	213.11
361.25	213.18
361.63	213.43
362.01	213.46
362.39	213.52
362.77	213.56
363.15	213.57
363.53	213.62
363.91	213.66
364.29	213.75
364.67	213.46
365.05	213.50
365.43	213.55
365.81	213.67
366.19	213.81
366.57	214.00
366.95	213.95
367.33	213.92
367.71	213.90
368.09	213.94
368.47	213.88
368.85	213.94
369.23	213.95
369.61	213.70
369.99	213.83
370.37	213.92
370.75	214.01
371.13	213.84
371.51	213.88
371.89	213.82
372.27	213.82
372.65	213.79
373.03	213.78
373.41	213.67
373.78	213.58
374.16	213.37
374.54	213.17
374.92	213.21
375.30	213.13
375.68	213.08
376.06	213.01
376.44	212.94
376.82	212.85
377.19	212.81
377.57	212.76
377.95	212.61
378.33	212.53
378.71	212.30
379.09	212.35
379.47	212.27
379.84	212.26
380.22	212.06
380.60	211.93
380.98	211.85
381.36	211.84
381.73	211.71
382.11	211.72
382.49	211.74
382.87	211.58
383.25	211.51
383.62	211.77
384.00	211.70
384.38	211.68
384.76	211.69
385.13	211.82
385.51	211.80
385.89	211.66
386.27	211.63
386.64	211.61
387.02	211.49
387.40	211.42
387.78	211.36
388.15	211.43
388.53	211.40
388.91	211.36
389.29	211.30
389.66	211.42
390.04	211.39
390.42	211.36
390.79	211.45
391.17	211.50
391.55	211.16
391.92	211.14
392.30	211.11
392.68	211.05
393.05	210.89
393.43	210.85
393.81	210.82
394.18	210.74
394.56	210.75
394.94	210.82
395.31	210.74
395.69	210.84
396.06	210.86
396.44	210.99
396.82	210.98
397.19	211.18
397.57	211.11
397.95	211.19
398.32	211.09
398.70	211.11
399.07	211.08
399.45	211.11
399.82	211.11
400.20	211.18
400.58	211.19
400.95	211.09
401.33	211.13
401.70	211.48
402.08	211.57
402.45	211.63
402.83	211.79
403.20	211.91
403.58	211.92
403.95	211.99
404.33	211.98
404.71	212.09
405.08	212.24
405.46	212.33
405.83	212.35
406.21	212.43
406.58	212.52
406.96	212.62
407.33	212.73
407.70	212.90
408.08	213.25
408.45	213.45
408.83	213.73
409.20	213.95
409.58	213.96
409.95	214.19
410.33	214.48
410.70	214.63
411.08	214.90
411.45	215.12
411.82	215.35
412.20	215.66
412.57	216.17
412.95	216.29
413.32	216.65
413.69	217.01
414.07	217.37
414.44	217.82
414.82	218.32
415.19	218.85
415.56	219.36
415.94	219.72
416.31	220.35
416.68	220.95
417.06	221.65
417.43	222.45
417.81	223.23
418.18	223.98
418.55	224.86
418.93	225.85
419.30	226.90
419.67	228.00
420.04	229.09
420.42	230.06
420.79	231.52
421.16	232.80
421.54	234.26
421.91	235.75
422.28	237.18
422.66	238.66
423.03	240.35
423.40	241.90
423.77	243.56
424.15	245.16
424.52	246.92
424.89	248.80
425.26	250.45
425.64	252.07
426.01	253.94
426.38	255.85
426.75	257.81
427.13	259.89
427.50	262.03
427.87	264.29
428.24	266.54
428.61	268.52
428.99	270.96
429.36	273.45
429.73	275.85
430.10	278.35
430.47	280.91
430.85	283.40
431.22	286.20
431.59	289.34
431.96	292.21
432.33	295.36
432.70	298.43
433.08	302.04
433.45	305.46
433.82	308.80
434.19	312.53
434.56	316.19
434.93	319.58
435.30	323.02
435.68	326.86
436.05	330.71
436.42	334.46
436.79	337.83
437.16	341.48
437.53	345.37
437.90	349.23
438.27	352.96
438.64	356.76
439.01	360.44
439.38	363.52
439.75	366.68
440.13	370.16
440.50	373.50
440.87	376.16
441.24	379.02
441.61	382.16
441.98	384.46
442.35	387.01
442.72	389.73
443.09	392.45
443.46	393.92
443.83	394.89
444.20	395.83
444.57	397.09
444.94	397.72
445.31	398.47
445.68	399.49
446.05	399.87
446.42	399.55
446.79	399.10
447.16	398.59
447.53	398.28
447.90	396.78
448.27	395.21
448.64	393.22
449.01	391.75
449.37	389.25
449.74	386.71
450.11	384.08
450.48	380.78
450.85	377.36
451.22	374.57
451.59	371.89
451.96	369.27
452.33	365.83
452.70	362.67
453.07	358.85
453.43	354.65
453.80	351.03
454.17	347.57
454.54	344.13
454.91	340.55
455.28	336.96
455.65	333.82
456.02	331.20
456.38	328.47
456.75	325.00
457.12	322.13
457.49	319.37
457.86	316.39
458.23	314.20
458.59	311.64
458.96	309.10
459.33	306.80
459.70	304.59
460.07	302.84
460.43	300.74
460.80	298.86
461.17	297.25
461.54	295.40
461.91	293.68
462.27	292.03
462.64	290.52
463.01	288.99
463.38	287.46
463.74	285.34
464.11	283.94
464.48	282.84
464.85	281.50
465.21	280.62
465.58	279.59
465.95	278.17
466.32	277.15
466.68	275.98
467.05	274.94
467.42	273.86
467.78	272.75
468.15	271.75
468.52	271.00
468.88	269.88
469.25	268.87
469.62	268.19
469.98	267.45
470.35	266.74
470.72	266.02
471.08	265.26
471.45	264.80
471.82	264.29
472.18	263.62
472.55	263.17
472.92	262.52
473.28	262.03
473.65	261.58
474.02	261.19
474.38	260.97
474.75	260.63
475.11	260.29
475.48	260.11
475.85	259.89
476.21	259.70
476.58	259.61
476.94	259.62
477.31	259.45
477.67	259.26
478.04	259.24
478.41	259.22
478.77	259.52
479.14	259.34
479.50	259.32
479.87	259.37
480.23	259.57
480.60	259.66
480.96	259.78
481.33	260.10
481.69	260.24
482.06	260.36
482.42	260.71
482.79	261.05
483.15	261.42
483.52	261.91
483.88	262.22
484.25	262.63
484.61	263.11
484.98	263.61
485.34	264.39
485.71	264.99
486.07	265.75
486.44	266.10
486.80	266.89
487.17	267.80
487.53	268.82
487.90	269.73
488.26	270.85
488.62	272.00
488.99	273.08
489.35	274.35
489.72	275.63
490.08	276.90
490.44	278.22
490.81	279.63
491.17	280.97
491.54	282.66
491.90	284.41
492.26	286.13
492.63	287.99
492.99	289.85
493.36	291.86
493.72	293.96
494.08	296.24
494.45	298.60
494.81	301.01
495.17	303.42
495.54	306.12
495.90	308.79
496.26	311.62
496.63	314.63
496.99	317.61
497.35	320.79
497.72	324.15
498.08	327.56
498.44	331.14
498.80	335.05
499.17	338.82
499.53	342.67
499.89	346.95
500.26	351.22
500.62	355.55
500.98	360.22
501.34	364.89
501.71	369.90
502.07	375.14
502.43	380.20
502.79	385.52
503.16	390.84
503.52	396.45
503.88	402.15
504.24	408.08
504.60	414.13
504.97	420.54
505.33	426.78
505.69	433.72
506.05	440.35
506.41	447.06
506.78	454.10
507.14	461.28
507.50	468.53
507.86	475.93
508.22	483.59
508.59	491.25
508.95	499.15
509.31	507.09
509.67	515.27
510.03	523.60
510.39	532.19
510.75	540.87
511.12	549.73
511.48	558.81
511.84	567.93
512.20	577.29
512.56	586.68
512.92	596.36
513.28	605.86
513.64	615.79
514.00	625.89
514.37	635.92
514.73	646.26
515.09	656.55
515.45	667.00
515.81	677.44
516.17	688.00
516.53	698.59
516.89	709.16
517.25	719.61
517.61	730.43
517.97	741.20
518.33	752.04
518.69	762.82
519.05	773.64
519.41	784.71
519.77	795.90
520.13	807.03
520.49	817.80
520.85	828.80
521.21	839.97
521.57	851.36
521.93	862.35
522.29	873.79
522.65	885.19
523.01	896.42
523.37	907.48
523.73	918.75
524.09	929.97
524.45	941.48
524.81	953.10
525.17	964.72
525.53	976.17
525.89	987.72
526.25	999.17
526.61	1010.15
526.97	1021.12
527.33	1032.10
527.68	1043.19
528.04	1054.42
528.40	1065.07
528.76	1075.95
529.12	1086.83
529.48	1098.25
529.84	1108.91
530.20	1119.64
530.56	1130.51
530.91	1141.93
531.27	1152.90
531.63	1163.73
531.99	1174.23
532.35	1184.36
532.71	1194.28
533.07	1204.58
533.42	1214.78
533.78	1224.79
534.14	1234.93
534.50	1244.22
534.86	1254.03
535.21	1262.89
535.57	1272.45
535.93	1281.70
536.29	1290.95
536.65	1299.92
537.00	1308.26
537.36	1316.38
537.72	1324.46
538.08	1332.54
538.44	1340.42
538.79	1348.15
539.15	1356.23
539.51	1364.20
539.87	1372.12
540.22	1379.68
540.58	1387.27
540.94	1394.53
541.29	1401.58
541.65	1408.02
542.01	1415.08
542.37	1421.34
542.72	1428.09
543.08	1434.06
543.44	1441.04
543.79	1446.42
544.15	1451.81
544.51	1457.68
544.87	1463.94
545.22	1469.38
545.58	1474.25
545.94	1478.48
546.29	1482.77
546.65	1486.60
547.01	1490.19
547.36	1494.32
547.72	1498.33
548.07	1501.50
548.43	1504.68
548.79	1507.37
549.14	1510.53
549.50	1513.43
549.86	1515.70
550.21	1518.13
550.57	1520.85
550.92	1522.14
551.28	1524.45
551.64	1526.18
551.99	1528.20
552.35	1529.27
552.70	1530.54
553.06	1532.31
553.41	1533.95
553.77	1535.31
554.13	1536.30
554.48	1537.58
554.84	1538.61
555.19	1539.15
555.55	1539.82
555.90	1539.69
556.26	1539.99
556.61	1540.04
556.97	1539.80
557.32	1540.21
557.68	1539.79
558.03	1539.20
558.39	1539.05
558.74	1539.29
559.10	1539.42
559.45	1538.82
559.81	1538.68
560.16	1537.98
560.52	1537.35
560.87	1536.33
561.23	1535.36
561.58	1534.93
561.94	1533.70
562.29	1531.75
562.64	1530.66
563.00	1529.43
563.35	1528.90
563.71	1528.49
564.06	1527.77
564.42	1527.09
564.77	1526.20
565.12	1525.45
565.48	1524.53
565.83	1523.29
566.19	1522.12
566.54	1520.20
566.89	1518.19
567.25	1516.51
567.60	1515.16
567.96	1513.04
568.31	1511.63
568.66	1509.72
569.02	1507.16
569.37	1504.67
569.72	1502.80
570.08	1500.31
570.43	1497.83
570.78	1494.91
571.14	1491.37
571.49	1488.32
571.84	1485.81
572.20	1482.30
572.55	1479.55
572.90	1476.00
573.26	1472.43
573.61	1468.27
573.96	1464.93
574.31	1460.98
574.67	1456.82
575.02	1452.51
575.37	1448.50
575.72	1444.21
576.08	1440.47
576.43	1436.56
576.78	1432.72
577.13	1428.86
577.49	1425.07
577.84	1421.03
578.19	1417.43
578.54	1414.21
578.90	1410.59
579.25	1406.07
579.60	1402.07
579.95	1397.39
580.30	1393.78
580.66	1390.28
581.01	1386.27
581.36	1381.86
581.71	1377.91
582.06	1373.92
582.42	1370.23
582.77	1365.88
583.12	1361.82
583.47	1358.07
583.82	1354.15
584.17	1350.19
584.53	1346.31
584.88	1342.15
585.23	1338.06
585.58	1333.92
585.93	1329.58
586.28	1325.60
586.63	1321.69
586.98	1317.75
587.34	1314.19
587.69	1309.93
588.04	1305.75
588.39	1301.73
588.74	1297.49
589.09	1293.80
589.44	1289.69
589.79	1285.75
590.14	1282.31
590.49	1278.08
590.84	1273.50
591.19	1269.94
591.54	1266.14
591.89	1261.30
592.25	1257.21
592.60	1252.92
592.95	1248.38
593.30	1243.69
593.65	1238.90
594.00	1234.51
594.35	1231.27
594.70	1226.97
595.05	1222.84
595.40	1218.54
595.75	1213.93
596.10	1210.13
596.45	1205.96
596.80	1202.25
597.15	1198.30
597.50	1194.17
597.85	1190.38
598.19	1186.33
598.54	1182.19
598.89	1178.15
599.24	1175.03
599.59	1171.20
599.94	1167.96
600.29	1164.38
600.64	1161.00
600.99	1157.21
601.34	1153.73
601.69	1148.85
602.04	1144.87
602.39	1140.94
602.74	1137.46
603.08	1134.30
603.43	1131.32
603.78	1127.89
604.13	1124.07
604.48	1120.53
604.83	1117.57
605.18	1114.55
605.53	1111.02
605.87	1107.10
606.22	1103.72
606.57	1099.97
606.92	1096.27
607.27	1092.35
607.62	1088.43
607.96	1084.88
608.31	1081.57
608.66	1077.44
609.01	1073.70
609.36	1069.54
609.70	1065.44
610.05	1061.12
610.40	1056.98
610.75	1052.30
611.10	1048.45
611.44	1043.92
611.79	1039.16
612.14	1033.80
612.49	1028.79
612.83	1024.40
613.18	1019.69
613.53	1014.84
613.88	1009.75
614.22	1005.18
614.57	1000.23
614.92	995.83
615.27	991.05
615.61	986.22
615.96	981.78
616.31	977.34
616.65	973.48
617.00	969.30
617.35	964.92
617.70	960.15
618.04	955.26
618.39	950.10
618.74	945.85
619.08	941.24
619.43	937.10
619.78	932.51
620.12	927.95
620.47	923.82
620.82	919.20
621.16	914.54
621.51	910.25
621.85	905.91
622.20	901.18
622.55	896.58
622.89	892.01
623.24	887.42
623.59	882.71
623.93	878.04
624.28	873.48
624.62	869.36
624.97	865.22
625.32	861.26
625.66	857.19
626.01	852.77
626.35	848.72
626.70	844.34
627.04	840.51
627.39	836.43
627.73	832.24
628.08	828.41
628.43	824.44
628.77	819.94
629.12	815.71
629.46	811.93
629.81	807.99
630.15	804.02
630.50	800.02
630.84	796.14
631.19	792.14
631.53	788.17
631.88	783.68
632.22	779.40
632.57	775.45
632.91	771.29
633.26	767.37
633.60	763.47
633.95	759.77
634.29	755.78
634.64	752.05
634.98	747.98
635.32	744.23
635.67	740.59
636.01	737.00
636.36	733.27
636.70	729.51
637.05	725.73
637.39	722.23
637.73	718.76
638.08	715.52
638.42	712.04
638.77	708.60
639.11	705.01
639.45	701.52
639.80	697.78
640.14	694.06
640.49	690.60
640.83	686.90
641.17	683.24
641.52	679.56
641.86	675.68
642.20	672.25
642.55	668.35
642.89	664.65
643.23	660.94
643.58	657.50
643.92	653.61
644.26	650.01
644.61	646.32
644.95	642.67
645.29	638.84
645.64	635.29
645.98	631.55
646.32	628.29
646.66	624.72
647.01	621.19
647.35	617.99
647.69	614.30
648.04	610.96
648.38	607.54
648.72	604.06
649.06	600.68
649.41	597.20
649.75	593.92
650.09	590.59
650.43	587.21
650.78	583.56
651.12	580.40
651.46	577.20
651.80	573.99
652.14	570.68
652.49	567.49
652.83	563.96
653.17	560.54
653.51	557.15
653.85	554.00
654.20	550.91
654.54	547.58
654.88	544.33
655.22	541.11
655.56	537.76
655.90	534.64
656.25	531.45
656.59	528.18
656.93	524.90
657.27	521.83
657.61	518.65
657.95	515.78
658.29	512.70
658.64	509.77
658.98	506.68
659.32	503.41
659.66	500.39
660.00	497.41
660.34	494.47
660.68	491.46
661.02	488.55
661.36	485.58
661.70	482.85
662.05	480.20
662.39	477.72
662.73	475.14
663.07	472.57
663.41	470.16
663.75	467.60
664.09	465.02
664.43	462.38
664.77	459.90
665.11	457.36
665.45	454.85
665.79	452.21
666.13	449.73
666.47	447.53
666.81	445.11
667.15	442.79
667.49	440.68
667.83	438.62
668.17	436.40
668.51	434.22
668.85	431.96
669.19	429.97
669.53	427.59
669.87	425.40
670.21	423.20
670.55	421.00
670.89	419.14
671.23	417.19
671.57	415.28
671.91	413.26
672.25	411.15
672.58	409.25
672.92	407.26
673.26	405.36
673.60	403.50
673.94	401.57
674.28	399.75
674.62	397.95
674.96	396.04
675.30	394.23
675.64	392.37
675.97	390.62
676.31	388.70
676.65	387.10
676.99	385.57
677.33	383.71
677.67	381.85
678.01	380.09
678.34	378.37
678.68	376.53
679.02	374.86
679.36	373.27
679.70	371.64
680.04	370.16
680.37	368.42
680.71	366.76
681.05	365.25
681.39	363.60
681.73	361.89
682.06	360.32
682.40	358.82
682.74	357.36
683.08	355.87
683.42	354.24
683.75	352.60
684.09	350.84
684.43	349.43
684.77	347.93
685.10	346.44
685.44	344.90
685.78	343.52
686.12	342.15
686.45	340.78
686.79	339.31
687.13	337.89
687.46	336.72
687.80	335.43
688.14	333.98
688.48	332.65
688.81	331.26
689.15	329.93
689.49	328.45
689.82	327.11
690.16	325.61
690.50	324.28
690.83	322.98
691.17	321.69
691.51	320.28
691.84	319.16
692.18	317.98
692.52	316.80
692.85	315.65
693.19	314.50
693.52	313.44
693.86	312.28
694.20	311.18
694.53	309.95
694.87	308.76
695.21	307.59
695.54	306.54
695.88	305.44
696.21	304.31
696.55	303.33
696.88	302.26
697.22	301.27
697.56	300.38
697.89	299.28
698.23	298.33
698.56	297.44
698.90	296.51
699.23	295.34
699.57	294.33
699.90	293.32
700.24	292.32
700.58	291.23
700.91	290.31
701.25	289.54
701.58	288.65
701.92	287.72
702.25	286.89
702.59	285.90
702.92	285.02
703.26	284.16
703.59	283.38
703.93	282.87
704.26	282.05
704.60	281.21
704.93	280.50
705.26	279.68
705.60	278.87
705.93	277.96
706.27	277.31
706.60	276.70
706.94	276.20
707.27	275.41
707.61	274.68
707.94	273.98
708.27	272.88
708.61	272.18
708.94	271.45
709.28	270.79
709.61	270.20
709.94	269.58
710.28	269.01
710.61	268.36
710.95	267.38
711.28	266.83
711.61	266.20
711.95	265.63
712.28	264.95
712.61	264.37
712.95	263.94
713.28	263.50
713.61	262.85
713.95	262.02
714.28	261.46
714.61	260.84
714.95	260.27
715.28	259.79
715.61	259.20
715.95	258.70
716.28	258.08
716.61	257.53
716.95	256.92
717.28	256.32
717.61	255.85
717.94	255.29
718.28	254.62
718.61	254.10
718.94	253.62
719.27	253.27
719.61	252.87
719.94	252.32
720.27	251.64
720.60	251.13
720.94	250.71
721.27	250.31
721.60	249.99
721.93	249.54
722.27	249.30
722.60	248.81
722.93	248.50
723.26	248.07
723.59	247.67
723.93	247.33
724.26	246.96
724.59	246.47
724.92	246.20
725.25	245.96
725.59	245.55
725.92	245.19
726.25	244.81
726.58	244.41
726.91	244.03
727.24	243.77
727.57	243.45
727.91	243.09
728.24	242.80
728.57	242.50
728.90	242.26
729.23	241.80
729.56	241.74
729.89	241.29
730.22	241.05
730.55	240.70
730.89	240.41
731.22	240.14
731.55	239.84
731.88	239.57
732.21	239.27
732.54	239.01
732.87	238.67
733.20	238.36
733.53	238.07
733.86	237.86
734.19	237.55
734.52	237.37
734.85	237.48
735.18	237.10
735.51	236.89
735.84	236.58
736.17	236.49
736.50	236.04
736.83	236.27
737.16	236.02
737.49	235.81
737.82	235.60
738.15	235.33
738.48	235.07
738.81	234.74
739.14	234.42
739.47	234.11
739.80	233.89
740.13	233.65
740.46	233.42
740.79	233.14
741.12	232.85
741.45	232.57
741.78	232.07
742.11	231.98
742.44	231.65
742.77	231.54
743.10	231.28
743.43	231.10
743.75	230.46
744.08	230.68
744.41	230.44
744.74	230.16
745.07	230.02
745.40	229.92
745.73	229.93
746.06	229.76
746.39	229.64
746.71	229.36
747.04	229.14
747.37	228.94
747.70	228.79
748.03	228.70
748.36	228.54
748.68	228.35
749.01	228.00
749.34	227.90
749.67	227.71
750.00	227.50
750.33	227.56
750.65	227.40
750.98	226.79
751.31	226.62
751.64	226.49
751.97	226.42
752.29	226.19
752.62	225.75
752.95	225.53
753.28	225.35
753.60	225.24
753.93	225.14
754.26	224.95
754.59	224.68
754.91	224.43
755.24	224.23
755.57	224.05
755.90	223.92
756.22	223.70
756.55	223.48
756.88	223.31
757.20	222.91
757.53	222.66
757.86	222.52
758.19	222.45
758.51	222.33
758.84	221.98
759.17	221.81
759.49	221.77
759.82	221.77
760.15	221.70
760.47	221.53
760.80	221.33
761.13	221.26
761.45	221.20
761.78	221.03
762.11	220.96
762.43	220.87
762.76	220.78
763.08	220.70
763.41	220.61
763.74	220.52
764.06	220.44
764.39	220.43
764.71	220.29
765.04	220.11
765.37	219.93
765.69	219.90
766.02	219.83
766.34	219.75
766.67	219.61
767.00	219.57
767.32	219.75
767.65	219.84
767.97	219.76
768.30	219.72
768.62	219.76
768.95	219.59
769.27	219.43
769.60	219.45
769.92	219.32
770.25	219.18
770.57	219.00
770.90	218.90
771.22	218.71
771.55	218.63
771.87	218.59
772.20	218.55
772.52	218.71
772.85	219.06
773.17	218.96
773.50	218.90
773.82	218.69
774.15	218.42
774.47	218.17
774.80	218.05
775.12	217.92
775.45	217.82
775.77	217.86
776.09	217.86
776.42	217.78
776.74	217.87
777.07	217.76
777.39	217.71
777.72	217.66
778.04	217.68
778.36	217.65
778.69	217.55
779.01	217.57
779.33	217.23
779.66	216.73
779.98	216.63
780.31	216.53
780.63	216.73
780.95	216.65
781.28	216.58
781.60	216.48
781.92	216.45
782.25	216.38
782.57	216.23
782.89	216.16
783.22	216.05
783.54	215.87
783.86	215.87
784.19	215.80
784.51	215.85
784.83	215.80
785.16	215.72
785.48	215.78
785.80	215.68
786.12	215.70
786.45	215.64
786.77	215.62
787.09	215.58
787.42	215.34
787.74	215.42
788.06	215.45
788.38	215.41
788.71	215.27
789.03	215.27
