SpectraSuite Data File
++++++++++++++++++++++++++++++++++++
Date: Mon Feb 25 17:05:45 EST 2013
User: group
Dark Spectrum Present: No
Reference Spectrum Present: No
Number of Sampled Component Spectra: 1
Spectrometers: USB2E7196
Integration Time (usec): 104000 (USB2E7196)
Spectra Averaged: 20 (USB2E7196)
Boxcar Smoothing: 10 (USB2E7196)
Correct for Electrical Dark: No (USB2E7196)
Strobe/Lamp Enabled: No (USB2E7196)
Correct for Detector Non-linearity: No (USB2E7196)
Correct for Stray Light: No (USB2E7196)
Number of Pixels in Processed Spectrum: 2048
>>>>>Begin Processed Spectral Data<<<<<
339.09	0.00
339.48	198.80
339.86	199.80
340.24	200.90
340.63	202.65
341.01	208.30
341.39	206.40
341.78	208.50
342.16	209.30
342.54	208.00
342.93	198.16
343.31	208.19
343.69	208.74
344.07	209.26
344.46	209.77
344.84	210.16
345.22	210.27
345.60	210.49
345.99	210.63
346.37	210.71
346.75	210.84
347.13	210.87
347.52	210.93
347.90	211.15
348.28	211.15
348.66	211.22
349.05	211.02
349.43	211.05
349.81	211.13
350.19	211.15
350.57	211.22
350.96	211.29
351.34	211.33
351.72	211.34
352.10	211.39
352.48	211.34
352.87	211.37
353.25	211.39
353.63	211.39
354.01	211.38
354.39	211.47
354.77	211.48
355.15	211.63
355.54	211.61
355.92	211.47
356.30	211.52
356.68	211.77
357.06	211.91
357.44	211.95
357.82	211.89
358.20	211.98
358.58	211.99
358.97	212.05
359.35	212.15
359.73	212.24
360.11	212.24
360.49	212.31
360.87	212.25
361.25	212.39
361.63	212.56
362.01	212.63
362.39	212.64
362.77	212.70
363.15	212.68
363.53	212.71
363.91	212.76
364.29	212.83
364.67	212.55
365.05	212.47
365.43	212.48
365.81	212.54
366.19	212.68
366.57	212.79
366.95	212.80
367.33	212.73
367.71	212.72
368.09	212.77
368.47	212.78
368.85	212.88
369.23	212.91
369.61	212.80
369.99	212.84
370.37	212.81
370.75	212.95
371.13	212.85
371.51	212.83
371.89	212.79
372.27	212.76
372.65	212.72
373.03	212.77
373.41	212.67
373.78	212.58
374.16	212.35
374.54	212.18
374.92	212.09
375.30	212.02
375.68	211.96
376.06	211.97
376.44	211.91
376.82	211.87
377.19	211.74
377.57	211.66
377.95	211.55
378.33	211.39
378.71	211.15
379.09	211.14
379.47	211.16
379.84	211.13
380.22	211.10
380.60	211.04
380.98	210.93
381.36	210.92
381.73	210.89
382.11	210.92
382.49	210.91
382.87	210.83
383.25	210.80
383.62	211.18
384.00	211.05
384.38	211.03
384.76	211.05
385.13	211.16
385.51	211.14
385.89	211.07
386.27	211.11
386.64	211.07
387.02	210.95
387.40	210.87
387.78	210.80
388.15	210.73
388.53	210.67
388.91	210.71
389.29	210.68
389.66	210.69
390.04	210.62
390.42	210.65
390.79	210.70
391.17	210.74
391.55	210.28
391.92	210.29
392.30	210.30
392.68	210.18
393.05	210.14
393.43	210.12
393.81	210.14
394.18	210.09
394.56	210.19
394.94	210.35
395.31	210.31
395.69	210.46
396.06	210.54
396.44	210.54
396.82	210.50
397.19	210.71
397.57	210.71
397.95	210.73
398.32	210.65
398.70	210.62
399.07	210.66
399.45	210.69
399.82	210.70
400.20	210.63
400.58	210.72
400.95	210.63
401.33	210.70
401.70	210.97
402.08	211.05
402.45	211.11
402.83	211.27
403.20	211.32
403.58	211.27
403.95	211.38
404.33	211.53
404.71	211.57
405.08	211.79
405.46	211.91
405.83	212.09
406.21	212.22
406.58	212.35
406.96	212.45
407.33	212.56
407.70	212.72
408.08	213.12
408.45	213.30
408.83	213.48
409.20	213.66
409.58	213.67
409.95	213.92
410.33	214.15
410.70	214.23
411.08	214.55
411.45	214.91
411.82	215.17
412.20	215.65
412.57	216.21
412.95	216.27
413.32	216.67
413.69	217.00
414.07	217.46
414.44	218.02
414.82	218.55
415.19	219.27
415.56	219.91
415.94	220.47
416.31	221.30
416.68	222.13
417.06	223.00
417.43	223.91
417.81	224.88
418.18	225.87
418.55	226.95
418.93	228.13
419.30	229.28
419.67	230.45
420.04	231.61
420.42	232.89
420.79	234.75
421.16	236.37
421.54	238.15
421.91	239.90
422.28	241.57
422.66	243.48
423.03	245.39
423.40	247.24
423.77	249.30
424.15	251.28
424.52	253.45
424.89	255.77
425.26	258.00
425.64	260.18
426.01	262.54
426.38	265.01
426.75	267.63
427.13	270.25
427.50	273.04
427.87	275.91
428.24	278.74
428.61	281.25
428.99	284.33
429.36	287.54
429.73	290.67
430.10	293.92
430.47	297.30
430.85	300.64
431.22	304.26
431.59	308.26
431.96	311.98
432.33	316.05
432.70	320.07
433.08	324.66
433.45	329.00
433.82	333.42
434.19	338.42
434.56	343.21
434.93	347.88
435.30	352.53
435.68	357.63
436.05	362.80
436.42	367.76
436.79	372.43
437.16	377.58
437.53	383.04
437.90	388.30
438.27	393.44
438.64	398.80
439.01	403.82
439.38	408.20
439.75	412.60
440.13	417.51
440.50	422.22
440.87	426.11
441.24	430.16
441.61	434.69
441.98	438.05
442.35	441.87
442.72	445.73
443.09	449.59
443.46	452.00
443.83	453.62
444.20	455.29
444.57	457.25
444.94	458.25
445.31	459.28
445.68	460.75
446.05	461.36
446.42	461.12
446.79	460.89
447.16	460.39
447.53	460.22
447.90	458.59
448.27	456.95
448.64	454.64
449.01	452.97
449.37	449.77
449.74	446.52
450.11	442.99
450.48	438.88
450.85	434.51
451.22	430.81
451.59	427.44
451.96	424.07
452.33	419.66
452.70	415.61
453.07	410.81
453.43	405.50
453.80	400.74
454.17	396.16
454.54	391.82
454.91	387.25
455.28	382.64
455.65	378.37
456.02	374.55
456.38	370.84
456.75	366.26
457.12	362.40
457.49	358.75
457.86	354.84
458.23	351.75
458.59	348.37
458.96	345.03
459.33	341.93
459.70	338.88
460.07	336.44
460.43	333.58
460.80	330.96
461.17	328.80
461.54	326.29
461.91	324.02
462.27	321.71
462.64	319.53
463.01	317.28
463.38	315.36
463.74	312.69
464.11	310.70
464.48	309.17
464.85	307.33
465.21	305.97
465.58	304.51
465.95	302.72
466.32	301.30
466.68	299.68
467.05	298.12
467.42	296.66
467.78	295.07
468.15	293.62
468.52	292.46
468.88	290.83
469.25	289.60
469.62	288.60
469.98	287.35
470.35	286.39
470.72	285.41
471.08	284.04
471.45	283.18
471.82	282.45
472.18	281.30
472.55	280.52
472.92	279.56
473.28	278.82
473.65	278.08
474.02	277.30
474.38	276.74
474.75	276.33
475.11	275.68
475.48	275.15
475.85	274.70
476.21	274.22
476.58	274.00
476.94	273.72
477.31	273.38
477.67	273.07
478.04	272.82
478.41	272.60
478.77	272.81
479.14	272.51
479.50	272.20
479.87	272.22
480.23	272.16
480.60	271.98
480.96	271.83
481.33	271.90
481.69	271.80
482.06	271.82
482.42	271.80
482.79	271.87
483.15	272.01
483.52	272.26
483.88	272.41
484.25	272.50
484.61	272.55
484.98	272.64
485.34	273.02
485.71	273.30
486.07	273.63
486.44	273.61
486.80	273.98
487.17	274.40
487.53	274.87
487.90	275.43
488.26	276.21
488.62	276.80
488.99	277.24
489.35	277.91
489.72	278.59
490.08	279.13
490.44	279.77
490.81	280.60
491.17	281.21
491.54	282.06
491.90	282.91
492.26	283.85
492.63	284.68
492.99	285.54
493.36	286.47
493.72	287.47
494.08	288.59
494.45	289.74
494.81	290.91
495.17	291.90
495.54	293.01
495.90	294.07
496.26	295.22
496.63	296.43
496.99	297.59
497.35	298.75
497.72	300.10
498.08	301.42
498.44	302.63
498.80	304.18
499.17	305.48
499.53	306.79
499.89	308.22
500.26	309.65
500.62	310.95
500.98	312.41
501.34	313.72
501.71	315.05
502.07	316.40
502.43	317.67
502.79	318.93
503.16	320.20
503.52	321.45
503.88	322.71
504.24	324.09
504.60	325.53
504.97	327.01
505.33	328.35
505.69	329.97
506.05	331.42
506.41	332.70
506.78	333.93
507.14	335.12
507.50	336.42
507.86	337.80
508.22	339.11
508.59	340.30
508.95	341.64
509.31	343.05
509.67	344.31
510.03	345.64
510.39	347.05
510.75	348.38
511.12	349.60
511.48	350.85
511.84	352.04
512.20	353.29
512.56	354.47
512.92	355.64
513.28	356.69
513.64	357.71
514.00	358.79
514.37	359.93
514.73	361.22
515.09	362.32
515.45	363.37
515.81	364.49
516.17	365.54
516.53	366.55
516.89	367.53
517.25	368.60
517.61	369.85
517.97	370.88
518.33	371.99
518.69	373.21
519.05	374.47
519.41	375.66
519.77	376.96
520.13	378.09
520.49	379.25
520.85	380.40
521.21	381.84
521.57	383.13
521.93	384.52
522.29	385.84
522.65	387.09
523.01	388.46
523.37	389.80
523.73	391.34
524.09	392.91
524.45	394.49
524.81	396.02
525.17	397.52
525.53	399.27
525.89	400.90
526.25	402.65
526.61	404.37
526.97	406.10
527.33	407.89
527.68	410.13
528.04	412.04
528.40	413.81
528.76	415.74
529.12	417.78
529.48	419.81
529.84	421.79
530.20	424.09
530.56	426.39
530.91	428.76
531.27	431.02
531.63	433.33
531.99	435.55
532.35	437.96
532.71	440.29
533.07	442.74
533.42	445.58
533.78	448.04
534.14	450.48
534.50	452.87
534.86	455.31
535.21	457.51
535.57	460.26
535.93	462.88
536.29	465.63
536.65	468.21
537.00	470.79
537.36	473.51
537.72	476.11
538.08	478.72
538.44	481.37
538.79	484.11
539.15	486.83
539.51	489.54
539.87	492.43
540.22	495.19
540.58	498.02
540.94	500.65
541.29	503.50
541.65	506.21
542.01	509.10
542.37	511.98
542.72	514.79
543.08	517.55
543.44	520.54
543.79	523.10
544.15	526.02
544.51	529.13
544.87	532.22
545.22	535.23
545.58	538.14
545.94	540.91
546.29	543.66
546.65	546.42
547.01	549.21
547.36	551.81
547.72	554.64
548.07	557.34
548.43	559.76
548.79	562.31
549.14	564.99
549.50	567.63
549.86	570.25
550.21	572.95
550.57	575.58
550.92	577.97
551.28	580.59
551.64	582.89
551.99	585.41
552.35	587.55
552.70	589.82
553.06	592.05
553.41	594.38
553.77	596.97
554.13	599.23
554.48	601.56
554.84	603.95
555.19	606.18
555.55	608.53
555.90	610.62
556.26	612.70
556.61	614.79
556.97	616.71
557.32	618.71
557.68	620.52
558.03	622.46
558.39	624.30
558.74	626.29
559.10	628.18
559.45	630.05
559.81	632.18
560.16	633.85
560.52	636.06
560.87	637.89
561.23	639.32
561.58	641.35
561.94	643.08
562.29	644.59
562.64	646.19
563.00	647.63
563.35	649.42
563.71	651.15
564.06	652.84
564.42	654.59
564.77	656.19
565.12	657.94
565.48	659.81
565.83	661.66
566.19	662.98
566.54	664.45
566.89	665.47
567.25	666.75
567.60	668.23
567.96	669.39
568.31	670.70
568.66	671.93
569.02	672.66
569.37	673.43
569.72	674.39
570.08	675.24
570.43	676.04
570.78	676.69
571.14	677.31
571.49	677.66
571.84	678.35
572.20	678.63
572.55	678.97
572.90	678.86
573.26	678.84
573.61	678.97
573.96	679.06
574.31	679.12
574.67	679.09
575.02	678.93
575.37	678.63
575.72	678.27
576.08	678.17
576.43	678.09
576.78	678.04
577.13	677.97
577.49	677.75
577.84	677.55
578.19	677.54
578.54	677.34
578.90	677.50
579.25	677.03
579.60	676.84
579.95	676.41
580.30	676.15
580.66	675.97
581.01	675.65
581.36	675.21
581.71	674.83
582.06	674.53
582.42	674.22
582.77	673.74
583.12	673.37
583.47	673.08
583.82	672.69
584.17	672.39
584.53	672.10
584.88	671.85
585.23	671.45
585.58	670.73
585.93	670.21
586.28	669.69
586.63	669.42
586.98	668.92
587.34	668.49
587.69	667.92
588.04	667.41
588.39	666.92
588.74	666.31
589.09	666.06
589.44	665.28
589.79	664.67
590.14	664.20
590.49	663.53
590.84	662.81
591.19	662.45
591.54	661.67
591.89	660.54
592.25	659.77
592.60	658.90
592.95	657.98
593.30	656.91
593.65	655.65
594.00	654.44
594.35	654.42
594.70	653.38
595.05	652.50
595.40	651.41
595.75	650.23
596.10	649.38
596.45	648.28
596.80	647.36
597.15	646.40
597.50	645.25
597.85	644.24
598.19	643.12
598.54	641.82
598.89	640.77
599.24	640.05
599.59	639.03
599.94	638.14
600.29	637.29
600.64	636.44
600.99	635.55
601.34	634.79
601.69	632.82
602.04	631.78
602.39	630.66
602.74	629.76
603.08	629.14
603.43	628.50
603.78	627.49
604.13	626.42
604.48	625.44
604.83	624.88
605.18	624.34
605.53	623.52
605.87	622.42
606.22	621.45
606.57	620.46
606.92	619.31
607.27	618.12
607.62	617.03
607.96	616.06
608.31	615.10
608.66	613.83
609.01	612.62
609.36	611.46
609.70	610.16
610.05	608.73
610.40	607.42
610.75	605.80
611.10	604.74
611.44	603.23
611.79	601.73
612.14	600.05
612.49	598.04
612.83	596.52
613.18	595.00
613.53	593.47
613.88	591.55
614.22	589.85
614.57	588.06
614.92	586.35
615.27	584.57
615.61	582.80
615.96	581.21
616.31	579.63
616.65	578.21
617.00	576.61
617.35	575.10
617.70	573.35
618.04	571.58
618.39	569.52
618.74	567.93
619.08	566.10
619.43	564.26
619.78	562.66
620.12	560.75
620.47	559.03
620.82	557.28
621.16	555.51
621.51	553.88
621.85	552.22
622.20	550.55
622.55	548.83
622.89	547.17
623.24	545.44
623.59	543.63
623.93	541.85
624.28	540.12
624.62	538.74
624.97	536.94
625.32	535.21
625.66	533.61
626.01	531.86
626.35	530.41
626.70	528.67
627.04	527.15
627.39	525.57
627.73	523.90
628.08	522.23
628.43	520.57
628.77	518.83
629.12	517.11
629.46	515.50
629.81	513.79
630.15	512.00
630.50	510.19
630.84	508.38
631.19	506.49
631.53	504.95
631.88	502.70
632.22	500.94
632.57	499.36
632.91	497.59
633.26	495.91
633.60	494.01
633.95	492.41
634.29	490.55
634.64	488.84
634.98	486.97
635.32	485.40
635.67	483.84
636.01	482.32
636.36	480.65
636.70	479.18
637.05	477.61
637.39	476.06
637.73	474.62
638.08	473.43
638.42	471.94
638.77	470.28
639.11	468.86
639.45	467.21
639.80	465.49
640.14	463.85
640.49	462.24
640.83	460.57
641.17	458.96
641.52	457.34
641.86	455.64
642.20	454.16
642.55	452.18
642.89	450.42
643.23	448.65
643.58	447.27
643.92	445.44
644.26	443.76
644.61	442.20
644.95	440.50
645.29	438.72
645.64	437.14
645.98	435.39
646.32	433.88
646.66	432.24
647.01	430.63
647.35	429.08
647.69	427.31
648.04	425.82
648.38	424.16
648.72	422.61
649.06	420.93
649.41	419.26
649.75	417.76
650.09	416.32
650.43	414.81
650.78	413.11
651.12	411.45
651.46	409.79
651.80	408.20
652.14	406.58
652.49	404.97
652.83	403.21
653.17	401.63
653.51	399.90
653.85	398.45
654.20	396.95
654.54	395.43
654.88	393.89
655.22	392.38
655.56	390.79
655.90	389.25
656.25	387.82
656.59	386.23
656.93	384.73
657.27	383.26
657.61	381.47
657.95	379.97
658.29	378.47
658.64	377.13
658.98	375.57
659.32	374.07
659.66	372.51
660.00	371.20
660.34	369.70
660.68	368.14
661.02	366.60
661.36	365.18
661.70	363.68
662.05	362.42
662.39	361.09
662.73	359.90
663.07	358.70
663.41	357.48
663.75	356.22
664.09	354.93
664.43	353.53
664.77	352.40
665.11	351.02
665.45	349.80
665.79	348.55
666.13	347.25
666.47	346.02
666.81	344.88
667.15	343.60
667.49	342.60
667.83	341.63
668.17	340.47
668.51	339.29
668.85	338.22
669.19	337.27
669.53	335.94
669.87	334.56
670.21	333.29
670.55	332.03
670.89	331.20
671.23	330.28
671.57	329.39
671.91	328.35
672.25	327.41
672.58	326.45
672.92	325.36
673.26	324.43
673.60	323.47
673.94	322.35
674.28	321.33
674.62	320.30
674.96	319.25
675.30	318.31
675.64	317.48
675.97	316.53
676.31	315.43
676.65	314.60
676.99	314.08
677.33	313.15
677.67	312.28
678.01	311.10
678.34	310.10
678.68	309.08
679.02	308.11
679.36	307.13
679.70	306.19
680.04	305.33
680.37	304.47
680.71	303.58
681.05	302.87
681.39	302.09
681.73	301.18
682.06	300.44
682.40	299.63
682.74	298.78
683.08	297.97
683.42	297.14
683.75	296.45
684.09	295.43
684.43	294.59
684.77	293.66
685.10	293.01
685.44	292.17
685.78	291.37
686.12	290.64
686.45	289.93
686.79	289.08
687.13	288.47
687.46	287.66
687.80	287.01
688.14	286.19
688.48	285.44
688.81	284.72
689.15	284.00
689.49	283.16
689.82	282.47
690.16	281.62
690.50	280.86
690.83	280.01
691.17	279.22
691.51	278.55
691.84	278.00
692.18	277.31
692.52	276.69
692.85	276.04
693.19	275.49
693.52	274.79
693.86	274.05
694.20	273.32
694.53	272.65
694.87	271.85
695.21	271.24
695.54	270.51
695.88	269.78
696.21	269.09
696.55	268.63
696.88	267.93
697.22	267.34
697.56	266.80
697.89	266.19
698.23	265.69
698.56	265.05
698.90	264.50
699.23	263.83
699.57	263.23
699.90	262.64
700.24	262.00
700.58	261.56
700.91	261.19
701.25	260.88
701.58	260.46
701.92	260.09
702.25	259.51
702.59	259.05
702.92	258.58
703.26	258.08
703.59	257.48
703.93	257.35
704.26	256.98
704.60	256.55
704.93	256.07
705.26	255.54
705.60	255.14
705.93	254.59
706.27	254.30
706.60	254.02
706.94	253.81
707.27	253.28
707.61	252.87
707.94	252.34
708.27	251.63
708.61	251.12
708.94	250.65
709.28	250.25
709.61	249.88
709.94	249.58
710.28	249.14
710.61	248.86
710.95	248.09
711.28	247.98
711.61	247.50
711.95	247.19
712.28	246.81
712.61	246.42
712.95	246.31
713.28	245.98
713.61	245.48
713.95	244.93
714.28	244.66
714.61	244.18
714.95	243.82
715.28	243.42
715.61	243.01
715.95	242.64
716.28	242.32
716.61	242.00
716.95	241.56
717.28	241.31
717.61	240.91
717.94	240.61
718.28	239.96
718.61	239.69
718.94	239.31
719.27	239.08
719.61	238.86
719.94	238.40
720.27	238.04
720.60	237.76
720.94	237.47
721.27	237.25
721.60	237.10
721.93	236.88
722.27	236.78
722.60	236.55
722.93	236.32
723.26	236.15
723.59	235.83
723.93	235.64
724.26	235.36
724.59	235.10
724.92	234.85
725.25	234.65
725.59	234.42
725.92	234.28
726.25	234.01
726.58	233.72
726.91	233.51
727.24	233.27
727.57	233.03
727.91	232.76
728.24	232.52
728.57	232.20
728.90	232.00
729.23	231.72
729.56	231.77
729.89	231.56
730.22	231.25
730.55	231.07
730.89	230.93
731.22	230.69
731.55	230.49
731.88	230.34
732.21	230.18
732.54	229.95
732.87	229.75
733.20	229.52
733.53	229.36
733.86	229.23
734.19	229.04
734.52	228.93
734.85	229.02
735.18	228.77
735.51	228.72
735.84	228.56
736.17	228.49
736.50	228.07
736.83	228.34
737.16	228.16
737.49	228.03
737.82	227.81
738.15	227.68
738.48	227.54
738.81	227.39
739.14	227.18
739.47	227.06
739.80	226.86
740.13	226.76
740.46	226.54
740.79	226.34
741.12	226.21
741.45	225.98
741.78	225.62
742.11	225.65
742.44	225.44
742.77	225.35
743.10	225.09
743.43	224.94
743.75	224.37
744.08	224.76
744.41	224.62
744.74	224.46
745.07	224.27
745.40	224.21
745.73	224.19
746.06	224.08
746.39	224.03
746.71	223.99
747.04	223.78
747.37	223.69
747.70	223.65
748.03	223.50
748.36	223.39
748.68	223.25
749.01	223.00
749.34	222.90
749.67	222.81
750.00	222.75
750.33	222.86
750.65	222.81
750.98	222.21
751.31	222.11
751.64	222.03
751.97	222.11
752.29	221.92
752.62	221.63
752.95	221.46
753.28	221.28
753.60	221.11
753.93	221.15
754.26	220.98
754.59	220.72
754.91	220.55
755.24	220.55
755.57	220.47
755.90	220.35
756.22	220.26
756.55	220.04
756.88	219.88
757.20	219.62
757.53	219.41
757.86	219.34
758.19	219.27
758.51	219.25
758.84	219.02
759.17	218.93
759.49	218.95
759.82	219.05
760.15	218.99
760.47	218.85
760.80	218.70
761.13	218.69
761.45	218.62
761.78	218.51
762.11	218.37
762.43	218.23
762.76	218.12
763.08	218.02
763.41	218.05
763.74	218.00
764.06	217.90
764.39	217.88
764.71	217.77
765.04	217.67
765.37	217.55
765.69	217.40
766.02	217.31
766.34	217.12
766.67	216.93
767.00	216.86
767.32	217.06
767.65	217.23
767.97	217.19
768.30	217.16
768.62	217.17
768.95	217.05
769.27	217.03
769.60	217.05
769.92	216.93
770.25	216.80
770.57	216.62
770.90	216.63
771.22	216.56
771.55	216.56
771.87	216.44
772.20	216.35
772.52	216.61
772.85	217.00
773.17	217.02
773.50	216.95
773.82	216.90
774.15	216.64
774.47	216.33
774.80	216.29
775.12	216.17
775.45	216.12
775.77	216.14
776.09	216.12
776.42	216.10
776.74	216.13
777.07	216.05
777.39	216.09
777.72	215.92
778.04	215.85
778.36	215.75
778.69	215.82
779.01	215.78
779.33	215.47
779.66	215.04
779.98	214.89
780.31	214.87
780.63	215.00
780.95	215.01
781.28	214.93
781.60	214.82
781.92	214.82
782.25	214.83
782.57	214.73
782.89	214.65
783.22	214.53
783.54	214.46
783.86	214.46
784.19	214.36
784.51	214.51
784.83	214.48
785.16	214.43
785.48	214.33
785.80	214.33
786.12	214.32
786.45	214.25
786.77	214.25
787.09	214.23
787.42	214.02
787.74	213.91
788.06	213.97
788.38	213.98
788.71	213.95
789.03	213.88
789.35	213.89
789.67	213.84
789.99	213.91
790.32	213.82
790.64	213.90
790.96	214.17
791.28	214.00
791.61	213.96
791.93	213.93
792.25	213.95
792.57	214.12
792.89	214.04
793.21	214.07
793.54	214.08
793.86	213.94
794.18	213.89
