SpectraSuite Data File
++++++++++++++++++++++++++++++++++++
Date: Mon Feb 25 17:19:28 EST 2013
User: group
Dark Spectrum Present: No
Reference Spectrum Present: No
Number of Sampled Component Spectra: 1
Spectrometers: USB2E7196
Integration Time (usec): 104000 (USB2E7196)
Spectra Averaged: 20 (USB2E7196)
Boxcar Smoothing: 10 (USB2E7196)
Correct for Electrical Dark: No (USB2E7196)
Strobe/Lamp Enabled: No (USB2E7196)
Correct for Detector Non-linearity: No (USB2E7196)
Correct for Stray Light: No (USB2E7196)
Number of Pixels in Processed Spectrum: 2048
>>>>>Begin Processed Spectral Data<<<<<
339.09	0.00
339.48	198.80
339.86	199.90
340.24	202.00
340.63	202.70
341.01	209.75
341.39	206.05
341.78	206.80
342.16	209.55
342.54	209.00
342.93	198.43
343.31	208.41
343.69	208.99
344.07	209.47
344.46	209.89
344.84	210.34
345.22	210.40
345.60	210.66
345.99	210.82
346.37	210.93
346.75	211.00
347.13	211.12
347.52	211.13
347.90	211.27
348.28	211.32
348.66	211.45
349.05	211.36
349.43	211.33
349.81	211.36
350.19	211.37
350.57	211.40
350.96	211.59
351.34	211.68
351.72	211.76
352.10	211.91
352.48	211.95
352.87	211.97
353.25	212.05
353.63	212.09
354.01	212.18
354.39	212.28
354.77	212.40
355.15	212.57
355.54	212.62
355.92	212.56
356.30	212.70
356.68	212.96
357.06	213.15
357.44	213.23
357.82	213.34
358.20	213.44
358.58	213.49
358.97	213.46
359.35	213.62
359.73	213.63
360.11	213.61
360.49	213.73
360.87	213.79
361.25	213.88
361.63	214.13
362.01	214.26
362.39	214.31
362.77	214.40
363.15	214.48
363.53	214.57
363.91	214.61
364.29	214.63
364.67	214.35
365.05	214.37
365.43	214.46
365.81	214.48
366.19	214.60
366.57	214.80
366.95	214.95
367.33	214.90
367.71	215.03
368.09	215.20
368.47	215.20
368.85	215.21
369.23	215.19
369.61	215.04
369.99	215.08
370.37	215.09
370.75	215.27
371.13	215.06
371.51	215.08
371.89	215.16
372.27	215.11
372.65	215.10
373.03	215.07
373.41	215.04
373.78	215.02
374.16	214.89
374.54	214.81
374.92	214.60
375.30	214.60
375.68	214.49
376.06	214.45
376.44	214.39
376.82	214.38
377.19	214.41
377.57	214.35
377.95	214.25
378.33	214.15
378.71	213.90
379.09	214.04
379.47	214.03
379.84	213.88
380.22	213.74
380.60	213.61
380.98	213.55
381.36	213.48
381.73	213.43
382.11	213.40
382.49	213.39
382.87	213.44
383.25	213.37
383.62	213.82
384.00	213.68
384.38	213.67
384.76	213.72
385.13	213.82
385.51	213.74
385.89	213.70
386.27	213.70
386.64	213.70
387.02	213.55
387.40	213.47
387.78	213.51
388.15	213.65
388.53	213.61
388.91	213.63
389.29	213.62
389.66	213.63
390.04	213.61
390.42	213.64
390.79	213.55
391.17	213.56
391.55	213.14
391.92	213.07
392.30	213.07
392.68	213.01
393.05	212.98
393.43	213.00
393.81	213.01
394.18	213.08
394.56	213.00
394.94	213.09
395.31	213.05
395.69	213.16
396.06	213.18
396.44	213.25
396.82	213.20
397.19	213.38
397.57	213.40
397.95	213.48
398.32	213.43
398.70	213.50
399.07	213.65
399.45	213.58
399.82	213.71
400.20	213.72
400.58	213.76
400.95	213.64
401.33	213.80
401.70	214.08
402.08	214.05
402.45	214.16
402.83	214.35
403.20	214.42
403.58	214.43
403.95	214.53
404.33	214.73
404.71	214.90
405.08	215.19
405.46	215.32
405.83	215.51
406.21	215.60
406.58	215.81
406.96	215.93
407.33	216.30
407.70	216.60
408.08	217.23
408.45	217.53
408.83	217.91
409.20	218.15
409.58	218.33
409.95	218.77
410.33	219.20
410.70	219.44
411.08	219.94
411.45	220.51
411.82	220.96
412.20	221.54
412.57	222.30
412.95	222.63
413.32	223.37
413.69	224.05
414.07	224.88
414.44	225.74
414.82	226.60
415.19	227.52
415.56	228.47
415.94	229.35
416.31	230.52
416.68	231.73
417.06	233.15
417.43	234.53
417.81	236.01
418.18	237.59
418.55	239.30
418.93	241.15
419.30	243.01
419.67	244.93
420.04	246.89
420.42	248.86
420.79	251.43
421.16	253.71
421.54	256.30
421.91	258.89
422.28	261.45
422.66	264.24
423.03	267.10
423.40	269.92
423.77	272.90
424.15	275.95
424.52	279.08
424.89	282.59
425.26	285.88
425.64	289.13
426.01	292.62
426.38	296.29
426.75	300.02
427.13	303.80
427.50	307.90
427.87	311.99
428.24	316.15
428.61	320.02
428.99	324.63
429.36	329.25
429.73	333.89
430.10	338.66
430.47	343.43
430.85	348.28
431.22	353.62
431.59	359.41
431.96	364.76
432.33	370.77
432.70	376.44
433.08	383.09
433.45	389.42
433.82	395.73
434.19	402.75
434.56	409.57
434.93	416.10
435.30	422.58
435.68	429.90
436.05	436.99
436.42	444.02
436.79	450.36
437.16	457.40
437.53	464.70
437.90	471.99
438.27	479.20
438.64	486.64
439.01	493.48
439.38	499.34
439.75	505.27
440.13	512.00
440.50	518.37
440.87	523.52
441.24	528.69
441.61	534.61
441.98	538.84
442.35	543.76
442.72	548.88
443.09	553.70
443.46	556.63
443.83	558.59
444.20	560.28
444.57	562.76
444.94	563.80
445.31	564.95
445.68	566.16
446.05	566.54
446.42	565.73
446.79	564.87
447.16	563.95
447.53	563.26
447.90	560.24
448.27	557.34
448.64	553.38
449.01	550.58
449.37	545.54
449.74	540.75
450.11	535.33
450.48	529.12
450.85	522.85
451.22	517.47
451.59	512.34
451.96	507.51
452.33	500.88
452.70	494.94
453.07	487.93
453.43	480.59
453.80	473.79
454.17	467.18
454.54	460.88
454.91	454.13
455.28	447.56
455.65	441.63
456.02	435.98
456.38	431.02
456.75	424.72
457.12	419.46
457.49	414.35
457.86	409.10
458.23	404.85
458.59	400.20
458.96	395.40
459.33	391.06
459.70	386.72
460.07	383.43
460.43	379.63
460.80	376.01
461.17	372.92
461.54	369.61
461.91	366.55
462.27	363.30
462.64	360.55
463.01	357.59
463.38	354.89
463.74	351.64
464.11	349.10
464.48	346.96
464.85	344.58
465.21	342.75
465.58	340.86
465.95	338.44
466.32	336.47
466.68	334.64
467.05	332.79
467.42	330.99
467.78	328.98
468.15	327.12
468.52	325.91
468.88	324.12
469.25	322.56
469.62	321.30
469.98	320.03
470.35	318.90
470.72	317.70
471.08	316.32
471.45	315.36
471.82	314.35
472.18	313.28
472.55	312.61
472.92	311.65
473.28	310.90
473.65	310.12
474.02	309.52
474.38	309.00
474.75	308.68
475.11	308.18
475.48	308.00
475.85	307.81
476.21	307.51
476.58	307.43
476.94	307.40
477.31	307.41
477.67	307.39
478.04	307.48
478.41	307.78
478.77	308.47
479.14	308.74
479.50	309.15
479.87	309.70
480.23	310.20
480.60	310.75
480.96	311.35
481.33	312.37
481.69	313.21
482.06	314.06
482.42	314.95
482.79	316.03
483.15	317.17
483.52	318.48
483.88	319.89
484.25	321.26
484.61	322.75
484.98	324.28
485.34	326.32
485.71	328.27
486.07	330.31
486.44	332.09
486.80	334.43
487.17	336.75
487.53	339.40
487.90	342.10
488.26	345.14
488.62	348.36
488.99	351.45
489.35	354.68
489.72	358.26
490.08	362.12
490.44	366.00
490.81	370.22
491.17	374.54
491.54	379.15
491.90	383.88
492.26	389.14
492.63	394.37
492.99	399.66
493.36	405.59
493.72	411.66
494.08	418.04
494.45	424.60
494.81	431.82
495.17	438.99
495.54	446.76
495.90	454.62
496.26	462.67
496.63	471.35
496.99	480.50
497.35	489.76
497.72	499.46
498.08	509.54
498.44	520.01
498.80	531.18
499.17	542.61
499.53	554.54
499.89	566.57
500.26	579.17
500.62	592.17
500.98	605.66
501.34	619.67
501.71	634.17
502.07	649.12
502.43	664.10
502.79	679.81
503.16	696.10
503.52	712.81
503.88	730.27
504.24	747.85
504.60	765.86
504.97	784.86
505.33	803.85
505.69	823.96
506.05	844.21
506.41	864.92
506.78	885.78
507.14	907.27
507.50	929.48
507.86	952.08
508.22	975.35
508.59	998.50
508.95	1022.53
509.31	1046.79
509.67	1071.84
510.03	1097.72
510.39	1124.00
510.75	1150.47
511.12	1177.33
511.48	1204.29
511.84	1232.00
512.20	1259.83
512.56	1288.07
512.92	1316.98
513.28	1345.72
513.64	1374.88
514.00	1404.22
514.37	1433.81
514.73	1464.24
515.09	1494.45
515.45	1524.94
515.81	1555.68
516.17	1586.73
516.53	1617.71
516.89	1648.89
517.25	1679.89
517.61	1710.78
517.97	1741.60
518.33	1772.44
518.69	1803.45
519.05	1835.15
519.41	1866.78
519.77	1898.85
520.13	1930.39
520.49	1961.36
520.85	1993.17
521.21	2025.16
521.57	2056.99
521.93	2088.05
522.29	2119.93
522.65	2151.58
523.01	2182.84
523.37	2212.94
523.73	2243.82
524.09	2274.59
524.45	2305.80
524.81	2336.57
525.17	2367.79
525.53	2398.95
525.89	2429.90
526.25	2460.36
526.61	2489.37
526.97	2518.40
527.33	2547.46
527.68	2576.85
528.04	2605.59
528.40	2633.17
528.76	2660.74
529.12	2689.18
529.48	2718.62
529.84	2745.72
530.20	2773.21
530.56	2800.53
530.91	2829.25
531.27	2856.63
531.63	2883.40
531.99	2909.58
532.35	2935.24
532.71	2960.04
533.07	2985.31
533.42	3009.54
533.78	3034.22
534.14	3058.47
534.50	3081.33
534.86	3104.90
535.21	3126.34
535.57	3149.55
535.93	3171.66
536.29	3193.20
536.65	3213.97
537.00	3233.49
537.36	3253.06
537.72	3271.46
538.08	3290.11
538.44	3307.86
538.79	3326.57
539.15	3344.55
539.51	3362.11
539.87	3380.47
540.22	3397.65
540.58	3415.13
540.94	3432.13
541.29	3447.04
541.65	3461.77
542.01	3477.23
542.37	3490.91
542.72	3505.60
543.08	3518.40
543.44	3532.88
543.79	3545.25
544.15	3556.68
544.51	3568.95
544.87	3581.23
545.22	3592.44
545.58	3602.71
545.94	3611.93
546.29	3619.43
546.65	3626.76
547.01	3634.08
547.36	3640.41
547.72	3647.27
548.07	3652.00
548.43	3656.31
548.79	3660.81
549.14	3665.47
549.50	3669.57
549.86	3673.12
550.21	3676.10
550.57	3680.05
550.92	3680.90
551.28	3682.61
551.64	3684.74
551.99	3686.72
552.35	3687.70
552.70	3689.21
553.06	3690.30
553.41	3690.78
553.77	3691.60
554.13	3692.40
554.48	3693.03
554.84	3693.39
555.19	3692.39
555.55	3691.14
555.90	3689.41
556.26	3688.16
556.61	3686.38
556.97	3683.67
557.32	3681.50
557.68	3678.33
558.03	3674.81
558.39	3671.98
558.74	3670.36
559.10	3668.08
559.45	3664.33
559.81	3661.39
560.16	3656.73
560.52	3653.43
560.87	3649.50
561.23	3643.91
561.58	3639.62
561.94	3633.67
562.29	3627.31
562.64	3622.51
563.00	3617.84
563.35	3613.72
563.71	3609.73
564.06	3605.14
564.42	3601.16
564.77	3596.99
565.12	3592.66
565.48	3587.51
565.83	3582.70
566.19	3577.62
566.54	3570.45
566.89	3564.10
567.25	3557.37
567.60	3551.68
567.96	3544.43
568.31	3538.26
568.66	3531.95
569.02	3524.39
569.37	3516.56
569.72	3509.72
570.08	3501.84
570.43	3493.19
570.78	3484.54
571.14	3475.10
571.49	3466.22
571.84	3457.83
572.20	3447.64
572.55	3438.91
572.90	3428.56
573.26	3418.02
573.61	3406.58
573.96	3396.41
574.31	3385.25
574.67	3373.33
575.02	3361.28
575.37	3350.14
575.72	3337.40
576.08	3326.73
576.43	3314.52
576.78	3303.78
577.13	3292.83
577.49	3281.05
577.84	3269.77
578.19	3259.19
578.54	3249.31
578.90	3238.73
579.25	3226.74
579.60	3214.29
579.95	3200.90
580.30	3190.11
580.66	3179.48
581.01	3167.71
581.36	3155.38
581.71	3143.44
582.06	3131.71
582.42	3120.26
582.77	3107.39
583.12	3095.80
583.47	3084.10
583.82	3073.41
584.17	3061.19
584.53	3049.52
584.88	3037.79
585.23	3025.97
585.58	3013.44
585.93	3000.49
586.28	2988.46
586.63	2976.12
586.98	2965.15
587.34	2955.05
587.69	2943.24
588.04	2931.37
588.39	2920.10
588.74	2908.32
589.09	2897.12
589.44	2885.61
589.79	2874.78
590.14	2864.47
590.49	2853.26
590.84	2841.65
591.19	2831.03
591.54	2820.21
591.89	2806.77
592.25	2794.90
592.60	2782.57
592.95	2770.27
593.30	2757.12
593.65	2744.22
594.00	2732.31
594.35	2721.75
594.70	2709.70
595.05	2698.51
595.40	2686.86
595.75	2674.28
596.10	2663.34
596.45	2652.55
596.80	2642.37
597.15	2631.77
597.50	2620.25
597.85	2609.43
598.19	2598.21
598.54	2586.78
598.89	2576.08
599.24	2567.54
599.59	2557.36
599.94	2548.52
600.29	2538.82
600.64	2529.29
600.99	2518.60
601.34	2509.01
601.69	2497.42
602.04	2486.60
602.39	2475.55
602.74	2465.12
603.08	2456.45
603.43	2447.21
603.78	2437.31
604.13	2427.18
604.48	2416.78
604.83	2408.54
605.18	2399.84
605.53	2389.99
605.87	2379.51
606.22	2369.80
606.57	2359.03
606.92	2348.82
607.27	2337.74
607.62	2327.67
607.96	2318.35
608.31	2309.65
608.66	2298.87
609.01	2288.50
609.36	2278.02
609.70	2266.91
610.05	2255.89
610.40	2244.45
610.75	2232.91
611.10	2222.18
611.44	2209.38
611.79	2197.36
612.14	2184.04
612.49	2171.38
612.83	2159.80
613.18	2147.84
613.53	2135.85
613.88	2123.54
614.22	2112.16
614.57	2100.20
614.92	2088.22
615.27	2075.86
615.61	2063.69
615.96	2052.28
616.31	2041.41
616.65	2030.77
617.00	2020.27
617.35	2009.27
617.70	1997.79
618.04	1985.86
618.39	1973.10
618.74	1962.61
619.08	1951.21
619.43	1940.20
619.78	1929.32
620.12	1918.50
620.47	1907.70
620.82	1895.67
621.16	1883.97
621.51	1872.58
621.85	1861.94
622.20	1850.45
622.55	1839.42
622.89	1828.13
623.24	1816.76
623.59	1804.84
623.93	1793.51
624.28	1782.38
624.62	1771.70
624.97	1761.24
625.32	1751.05
625.66	1741.02
626.01	1730.58
626.35	1720.65
626.70	1710.48
627.04	1700.82
627.39	1690.85
627.73	1680.68
628.08	1671.46
628.43	1661.26
628.77	1650.83
629.12	1640.08
629.46	1630.80
629.81	1620.81
630.15	1610.94
630.50	1601.21
630.84	1591.56
631.19	1581.76
631.53	1572.05
631.88	1561.46
632.22	1551.01
632.57	1541.35
632.91	1531.53
633.26	1521.82
633.60	1512.07
633.95	1502.58
634.29	1492.25
634.64	1482.45
634.98	1472.54
635.32	1463.25
635.67	1454.79
636.01	1446.16
636.36	1437.02
636.70	1427.69
637.05	1418.80
637.39	1409.97
637.73	1401.39
638.08	1393.44
638.42	1385.04
638.77	1376.20
639.11	1367.70
639.45	1359.25
639.80	1350.03
640.14	1340.74
640.49	1331.82
640.83	1322.86
641.17	1313.94
641.52	1305.18
641.86	1295.95
642.20	1287.34
642.55	1277.59
642.89	1268.45
643.23	1258.85
643.58	1250.51
643.92	1241.40
644.26	1232.48
644.61	1223.74
644.95	1214.63
645.29	1205.24
645.64	1196.13
645.98	1187.41
646.32	1179.13
646.66	1170.08
647.01	1161.85
647.35	1153.86
647.69	1144.96
648.04	1136.60
648.38	1128.06
648.72	1119.37
649.06	1111.13
649.41	1102.60
649.75	1094.59
650.09	1086.36
650.43	1078.47
650.78	1069.69
651.12	1061.22
651.46	1053.00
651.80	1044.87
652.14	1037.05
652.49	1029.19
652.83	1020.84
653.17	1012.25
653.51	1003.79
653.85	996.17
654.20	988.16
654.54	979.91
654.88	972.25
655.22	964.36
655.56	956.60
655.90	949.05
656.25	941.21
656.59	933.56
656.93	925.97
657.27	918.49
657.61	910.49
657.95	903.27
658.29	896.25
658.64	889.14
658.98	881.60
659.32	873.85
659.66	866.41
660.00	859.32
660.34	852.47
660.68	845.25
661.02	838.03
661.36	831.28
661.70	824.72
662.05	818.18
662.39	811.89
662.73	805.55
663.07	799.13
663.41	792.89
663.75	786.64
664.09	780.37
664.43	773.79
664.77	767.94
665.11	761.82
665.45	755.78
665.79	749.67
666.13	743.75
666.47	738.03
666.81	732.28
667.15	726.36
667.49	720.96
667.83	715.71
668.17	710.47
668.51	704.98
668.85	699.73
669.19	694.66
669.53	689.20
669.87	683.64
670.21	678.50
670.55	673.30
670.89	668.79
671.23	664.15
671.57	659.53
671.91	654.77
672.25	649.98
672.58	645.22
672.92	640.57
673.26	636.20
673.60	631.72
673.94	627.32
674.28	623.10
674.62	618.73
674.96	614.44
675.30	610.24
675.64	605.91
675.97	601.73
676.31	597.51
676.65	593.51
676.99	590.04
677.33	585.84
677.67	581.85
678.01	577.52
678.34	573.45
678.68	569.57
679.02	565.40
679.36	561.71
679.70	557.96
680.04	554.18
680.37	550.28
680.71	546.54
681.05	543.00
681.39	539.37
681.73	535.74
682.06	532.32
682.40	528.81
682.74	525.40
683.08	521.86
683.42	518.13
683.75	514.60
684.09	510.82
684.43	507.55
684.77	504.09
685.10	500.64
685.44	497.18
685.78	493.89
686.12	490.86
686.45	487.56
686.79	484.34
687.13	481.22
687.46	478.14
687.80	475.15
688.14	471.96
688.48	468.90
688.81	465.67
689.15	462.54
689.49	459.41
689.82	456.38
690.16	453.17
690.50	450.24
690.83	447.30
691.17	444.24
691.51	441.25
691.84	438.49
692.18	435.89
692.52	433.23
692.85	430.72
693.19	428.25
693.52	425.52
693.86	422.79
694.20	420.16
694.53	417.61
694.87	414.98
695.21	412.26
695.54	409.67
695.88	407.19
696.21	404.63
696.55	402.32
696.88	399.88
697.22	397.63
697.56	395.50
697.89	393.11
698.23	390.94
698.56	388.77
698.90	386.61
699.23	384.19
699.57	382.03
699.90	379.74
700.24	377.48
700.58	375.41
700.91	373.42
701.25	371.65
701.58	369.65
701.92	367.62
702.25	365.79
702.59	363.91
702.92	362.09
703.26	360.19
703.59	358.42
703.93	356.93
704.26	355.19
704.60	353.32
704.93	351.66
705.26	349.86
705.60	348.27
705.93	346.63
706.27	345.15
706.60	343.65
706.94	342.18
707.27	340.44
707.61	338.90
707.94	337.31
708.27	335.46
708.61	333.90
708.94	332.44
709.28	330.96
709.61	329.47
709.94	328.01
710.28	326.66
710.61	325.28
710.95	323.62
711.28	322.37
711.61	321.04
711.95	319.73
712.28	318.45
712.61	317.11
712.95	315.89
713.28	314.76
713.61	313.39
713.95	312.00
714.28	310.96
714.61	309.75
714.95	308.68
715.28	307.51
715.61	306.31
715.95	305.10
716.28	303.84
716.61	302.67
716.95	301.52
717.28	300.39
717.61	299.26
717.94	298.22
718.28	296.95
718.61	295.89
718.94	294.86
719.27	293.85
719.61	292.76
719.94	291.82
720.27	290.59
720.60	289.62
720.94	288.74
721.27	287.88
721.60	287.08
721.93	286.19
722.27	285.49
722.60	284.58
722.93	283.75
723.26	282.99
723.59	282.21
723.93	281.43
724.26	280.64
724.59	279.73
724.92	278.93
725.25	278.29
725.59	277.55
725.92	276.89
726.25	276.21
726.58	275.56
726.91	274.79
727.24	274.16
727.57	273.48
727.91	272.71
728.24	271.96
728.57	271.10
728.90	270.40
729.23	269.53
729.56	269.11
729.89	268.55
730.22	267.91
730.55	267.25
730.89	266.63
731.22	265.96
731.55	265.40
731.88	264.83
732.21	264.16
732.54	263.61
732.87	262.90
733.20	262.20
733.53	261.59
733.86	261.00
734.19	260.38
734.52	259.90
734.85	259.68
735.18	259.10
735.51	258.77
735.84	258.19
736.17	257.77
736.50	257.05
736.83	256.89
737.16	256.38
737.49	255.86
737.82	255.31
738.15	254.85
738.48	254.26
738.81	253.71
739.14	253.22
739.47	252.61
739.80	252.15
740.13	251.79
740.46	251.27
740.79	250.70
741.12	250.22
741.45	249.63
741.78	249.03
742.11	248.70
742.44	248.11
742.77	247.75
743.10	247.27
743.43	246.87
743.75	246.12
744.08	246.14
744.41	245.71
744.74	245.28
745.07	244.88
745.40	244.68
745.73	244.47
746.06	244.08
746.39	243.78
746.71	243.37
747.04	242.96
747.37	242.63
747.70	242.40
748.03	242.11
748.36	241.88
748.68	241.42
749.01	240.92
749.34	240.63
749.67	240.31
750.00	240.06
750.33	239.99
750.65	239.66
750.98	238.95
751.31	238.62
751.64	238.35
751.97	238.25
752.29	237.85
752.62	237.36
752.95	237.03
753.28	236.68
753.60	236.38
753.93	236.17
754.26	235.88
754.59	235.50
754.91	235.12
755.24	234.84
755.57	234.57
755.90	234.34
756.22	234.05
756.55	233.65
756.88	233.30
757.20	232.71
757.53	232.37
757.86	232.05
758.19	231.83
758.51	231.65
758.84	231.23
759.17	230.92
759.49	230.72
759.82	230.63
760.15	230.45
760.47	230.18
760.80	229.86
761.13	229.66
761.45	229.34
761.78	229.23
762.11	229.02
762.43	228.78
762.76	228.57
763.08	228.36
763.41	228.29
763.74	228.12
764.06	228.01
764.39	227.79
764.71	227.65
765.04	227.49
765.37	227.20
765.69	226.96
766.02	226.85
766.34	226.62
766.67	226.35
767.00	226.23
767.32	226.34
767.65	226.38
767.97	226.19
768.30	226.13
768.62	225.93
768.95	225.72
769.27	225.55
769.60	225.43
769.92	225.26
770.25	225.09
770.57	224.87
770.90	224.69
771.22	224.59
771.55	224.40
771.87	224.22
772.20	224.14
772.52	224.25
772.85	224.45
773.17	224.35
773.50	224.23
773.82	224.06
774.15	223.72
774.47	223.41
774.80	223.22
775.12	223.10
775.45	222.93
775.77	222.88
776.09	222.85
776.42	222.72
776.74	222.70
777.07	222.49
777.39	222.46
777.72	222.33
778.04	222.21
778.36	222.08
778.69	222.07
779.01	221.99
779.33	221.66
779.66	221.27
779.98	221.14
780.31	220.97
780.63	220.95
780.95	220.94
781.28	220.84
781.60	220.78
781.92	220.64
782.25	220.64
782.57	220.53
782.89	220.32
783.22	220.23
783.54	220.10
783.86	220.04
784.19	219.94
784.51	220.03
784.83	219.93
785.16	219.83
785.48	219.70
