SpectraSuite Data File
++++++++++++++++++++++++++++++++++++
Date: Mon Feb 25 17:03:19 EST 2013
User: group
Dark Spectrum Present: No
Reference Spectrum Present: No
Number of Sampled Component Spectra: 1
Spectrometers: USB2E7196
Integration Time (usec): 104000 (USB2E7196)
Spectra Averaged: 20 (USB2E7196)
Boxcar Smoothing: 10 (USB2E7196)
Correct for Electrical Dark: No (USB2E7196)
Strobe/Lamp Enabled: No (USB2E7196)
Correct for Detector Non-linearity: No (USB2E7196)
Correct for Stray Light: No (USB2E7196)
Number of Pixels in Processed Spectrum: 2048
>>>>>Begin Processed Spectral Data<<<<<
339.09	0.00
339.48	198.65
339.86	200.95
340.24	202.50
340.63	202.55
341.01	210.30
341.39	206.40
341.78	207.75
342.16	209.35
342.54	209.70
342.93	198.53
343.31	208.52
343.69	209.06
344.07	209.56
344.46	210.00
344.84	210.41
345.22	210.38
345.60	210.58
345.99	210.76
346.37	210.81
346.75	210.77
347.13	210.84
347.52	210.85
347.90	210.97
348.28	210.96
348.66	211.10
349.05	211.03
349.43	211.03
349.81	211.08
350.19	211.08
350.57	211.14
350.96	211.17
351.34	211.25
351.72	211.40
352.10	211.45
352.48	211.40
352.87	211.40
353.25	211.51
353.63	211.56
354.01	211.62
354.39	211.72
354.77	211.85
355.15	211.93
355.54	211.94
355.92	211.83
356.30	211.99
356.68	212.28
357.06	212.31
357.44	212.35
357.82	212.35
358.20	212.44
358.58	212.46
358.97	212.50
359.35	212.56
359.73	212.60
360.11	212.58
360.49	212.68
360.87	212.73
361.25	212.79
361.63	212.94
362.01	212.90
362.39	212.91
362.77	212.95
363.15	212.97
363.53	212.95
363.91	213.07
364.29	213.09
364.67	212.73
365.05	212.78
365.43	212.81
365.81	212.95
366.19	213.08
366.57	213.22
366.95	213.18
367.33	213.14
367.71	213.11
368.09	213.24
368.47	213.22
368.85	213.22
369.23	213.27
369.61	213.15
369.99	213.24
370.37	213.25
370.75	213.43
371.13	213.35
371.51	213.31
371.89	213.27
372.27	213.19
372.65	213.17
373.03	213.15
373.41	213.11
373.78	213.00
374.16	212.81
374.54	212.62
374.92	212.64
375.30	212.63
375.68	212.50
376.06	212.35
376.44	212.31
376.82	212.24
377.19	212.15
377.57	212.05
377.95	211.93
378.33	211.80
378.71	211.55
379.09	211.53
379.47	211.55
379.84	211.50
380.22	211.43
380.60	211.38
380.98	211.33
381.36	211.25
381.73	211.17
382.11	211.15
382.49	211.19
382.87	211.14
383.25	211.10
383.62	211.46
384.00	211.39
384.38	211.37
384.76	211.40
385.13	211.48
385.51	211.47
385.89	211.45
386.27	211.45
386.64	211.46
387.02	211.44
387.40	211.44
387.78	211.36
388.15	211.30
388.53	211.27
388.91	211.22
389.29	211.18
389.66	211.18
390.04	211.14
390.42	211.23
390.79	211.15
391.17	211.12
391.55	210.66
391.92	210.71
392.30	210.75
392.68	210.66
393.05	210.64
393.43	210.64
393.81	210.58
394.18	210.59
394.56	210.62
394.94	210.64
395.31	210.59
395.69	210.75
396.06	210.87
396.44	210.81
396.82	210.78
397.19	211.00
397.57	211.02
397.95	211.06
398.32	210.86
398.70	210.92
399.07	211.03
399.45	211.13
399.82	211.13
400.20	211.11
400.58	211.15
400.95	211.04
401.33	211.13
401.70	211.41
402.08	211.44
402.45	211.44
402.83	211.53
403.20	211.56
403.58	211.55
403.95	211.69
404.33	211.84
404.71	211.96
405.08	212.20
405.46	212.26
405.83	212.43
406.21	212.60
406.58	212.74
406.96	212.86
407.33	213.03
407.70	213.25
408.08	213.71
408.45	214.05
408.83	214.34
409.20	214.60
409.58	214.67
409.95	215.04
410.33	215.38
410.70	215.64
411.08	216.11
411.45	216.53
411.82	216.89
412.20	217.42
412.57	218.12
412.95	218.35
413.32	218.94
413.69	219.52
414.07	220.17
414.44	220.84
414.82	221.58
415.19	222.39
415.56	223.21
415.94	223.95
416.31	224.95
416.68	225.91
417.06	227.11
417.43	228.30
417.81	229.49
418.18	230.77
418.55	232.14
418.93	233.56
419.30	235.06
419.67	236.71
420.04	238.38
420.42	239.97
420.79	242.25
421.16	244.30
421.54	246.58
421.91	248.74
422.28	251.04
422.66	253.45
423.03	256.04
423.40	258.48
423.77	261.14
424.15	263.77
424.52	266.62
424.89	269.70
425.26	272.68
425.64	275.60
426.01	278.69
426.38	281.97
426.75	285.43
427.13	288.84
427.50	292.36
427.87	296.03
428.24	299.91
428.61	303.31
428.99	307.35
429.36	311.55
429.73	315.90
430.10	320.26
430.47	324.63
430.85	329.11
431.22	334.06
431.59	339.34
431.96	344.26
432.33	349.81
432.70	355.05
433.08	361.14
433.45	367.00
433.82	372.88
434.19	379.50
434.56	385.89
434.93	392.18
435.30	398.41
435.68	405.35
436.05	412.18
436.42	419.05
436.79	425.34
437.16	432.06
437.53	439.11
437.90	446.24
438.27	453.26
438.64	460.30
439.01	467.04
439.38	472.84
439.75	478.83
440.13	485.45
440.50	491.78
440.87	497.07
441.24	502.52
441.61	508.62
441.98	513.10
442.35	518.30
442.72	523.68
443.09	528.92
443.46	532.39
443.83	534.64
444.20	536.71
444.57	539.52
444.94	541.12
445.31	542.83
445.68	544.47
446.05	545.44
446.42	545.41
446.79	545.15
447.16	544.80
447.53	544.74
447.90	542.62
448.27	540.56
448.64	537.51
449.01	535.33
449.37	531.15
449.74	527.10
450.11	522.37
450.48	516.76
450.85	510.98
451.22	506.05
451.59	501.54
451.96	497.23
452.33	491.27
452.70	485.92
453.07	479.37
453.43	472.66
453.80	466.21
454.17	460.18
454.54	454.28
454.91	448.07
455.28	441.86
455.65	436.31
456.02	430.85
456.38	425.95
456.75	419.82
457.12	414.78
457.49	409.72
457.86	404.64
458.23	400.48
458.59	396.02
458.96	391.34
459.33	387.28
459.70	383.11
460.07	379.87
460.43	376.07
460.80	372.61
461.17	369.46
461.54	366.22
461.91	363.00
462.27	359.81
462.64	357.01
463.01	354.06
463.38	351.09
463.74	347.80
464.11	345.22
464.48	343.09
464.85	340.60
465.21	338.72
465.58	336.76
465.95	334.44
466.32	332.42
466.68	330.39
467.05	328.39
467.42	326.39
467.78	324.24
468.15	322.28
468.52	320.76
468.88	318.75
469.25	317.06
469.62	315.65
469.98	314.17
470.35	312.85
470.72	311.36
471.08	309.91
471.45	308.78
471.82	307.54
472.18	306.16
472.55	305.11
472.92	303.94
473.28	302.77
473.65	301.63
474.02	300.62
474.38	299.85
474.75	299.07
475.11	298.23
475.48	297.72
475.85	297.09
476.21	296.54
476.58	296.09
476.94	295.62
477.31	295.14
477.67	294.73
478.04	294.34
478.41	294.12
478.77	294.10
479.14	293.68
479.50	293.60
479.87	293.52
480.23	293.41
480.60	293.28
480.96	293.21
481.33	293.44
481.69	293.40
482.06	293.45
482.42	293.50
482.79	293.61
483.15	293.67
483.52	294.02
483.88	294.12
484.25	294.31
484.61	294.61
484.98	294.74
485.34	295.08
485.71	295.53
486.07	295.97
486.44	296.10
486.80	296.69
487.17	297.10
487.53	297.72
487.90	298.41
488.26	299.22
488.62	300.01
488.99	300.62
489.35	301.53
489.72	302.20
490.08	303.00
490.44	303.77
490.81	304.71
491.17	305.54
491.54	306.63
491.90	307.74
492.26	308.77
492.63	309.92
492.99	311.00
493.36	312.09
493.72	313.21
494.08	314.51
494.45	315.88
494.81	317.34
495.17	318.71
495.54	320.15
495.90	321.42
496.26	322.89
496.63	324.39
496.99	325.82
497.35	327.45
497.72	329.00
498.08	330.62
498.44	332.15
498.80	333.79
499.17	335.33
499.53	336.82
499.89	338.40
500.26	340.04
500.62	341.50
500.98	343.18
501.34	344.70
501.71	346.33
502.07	347.70
502.43	349.01
502.79	350.26
503.16	351.53
503.52	352.98
503.88	354.07
504.24	355.28
504.60	356.66
504.97	357.88
505.33	358.92
505.69	360.19
506.05	361.40
506.41	362.41
506.78	363.43
507.14	364.41
507.50	365.48
507.86	366.38
508.22	367.43
508.59	368.11
508.95	369.00
509.31	369.78
509.67	370.56
510.03	371.19
510.39	371.90
510.75	372.47
511.12	372.99
511.48	373.55
511.84	374.06
512.20	374.41
512.56	374.91
512.92	375.47
513.28	375.76
513.64	375.93
514.00	376.28
514.37	376.48
514.73	376.73
515.09	376.84
515.45	376.96
515.81	377.01
516.17	377.12
516.53	377.04
516.89	376.80
517.25	376.76
517.61	376.85
517.97	376.77
518.33	376.66
518.69	376.59
519.05	376.67
519.41	376.71
519.77	376.79
520.13	376.60
520.49	376.42
520.85	376.31
521.21	376.42
521.57	376.24
521.93	376.02
522.29	375.99
522.65	376.03
523.01	376.10
523.37	376.02
523.73	376.14
524.09	376.29
524.45	376.50
524.81	376.56
525.17	376.80
525.53	377.05
525.89	377.48
526.25	377.86
526.61	377.94
526.97	378.25
527.33	378.59
527.68	379.39
528.04	379.95
528.40	380.44
528.76	380.92
529.12	381.76
529.48	382.73
529.84	383.48
530.20	384.23
530.56	385.07
530.91	386.14
531.27	387.14
531.63	388.30
531.99	389.45
532.35	390.70
532.71	391.83
533.07	393.13
533.42	394.82
533.78	396.15
534.14	397.78
534.50	399.15
534.86	400.69
535.21	401.95
535.57	403.72
535.93	405.40
536.29	407.31
536.65	408.99
537.00	410.69
537.36	412.46
537.72	414.23
538.08	416.25
538.44	418.13
538.79	420.03
539.15	421.89
539.51	423.93
539.87	426.09
540.22	428.33
540.58	430.64
540.94	432.53
541.29	434.85
541.65	436.96
542.01	439.44
542.37	441.86
542.72	444.35
543.08	446.62
543.44	449.24
543.79	451.42
544.15	454.00
544.51	456.82
544.87	459.56
545.22	462.45
545.58	465.00
545.94	467.62
546.29	470.25
546.65	473.07
547.01	475.65
547.36	478.35
547.72	481.02
548.07	483.72
548.43	486.24
548.79	488.77
549.14	491.51
549.50	494.14
549.86	496.62
550.21	499.25
550.57	502.00
550.92	504.48
551.28	507.38
551.64	510.05
551.99	512.46
552.35	515.12
552.70	517.47
553.06	520.13
553.41	522.79
553.77	525.55
554.13	528.00
554.48	530.81
554.84	533.40
555.19	535.93
555.55	538.67
555.90	541.29
556.26	543.76
556.61	546.41
556.97	548.73
557.32	551.25
557.68	553.61
558.03	555.89
558.39	558.35
558.74	560.64
559.10	562.96
559.45	565.44
559.81	567.69
560.16	569.85
560.52	572.10
560.87	574.46
561.23	576.50
561.58	579.14
561.94	581.25
562.29	583.27
562.64	585.40
563.00	587.41
563.35	589.64
563.71	591.94
564.06	594.01
564.42	596.34
564.77	598.38
565.12	600.45
565.48	602.86
565.83	604.81
566.19	606.85
566.54	608.54
566.89	610.35
567.25	612.33
567.60	614.65
567.96	616.78
568.31	618.85
568.66	620.71
569.02	621.97
569.37	623.40
569.72	625.06
570.08	626.43
570.43	627.63
570.78	628.77
571.14	629.84
571.49	630.78
571.84	631.80
572.20	632.88
572.55	633.90
572.90	634.58
573.26	635.36
573.61	635.93
573.96	636.63
574.31	637.20
574.67	637.46
575.02	637.50
575.37	637.50
575.72	637.30
576.08	637.47
576.43	637.61
576.78	637.93
577.13	638.07
577.49	638.50
577.84	638.66
578.19	638.90
578.54	639.29
578.90	639.81
579.25	640.01
579.60	640.05
579.95	639.91
580.30	639.93
580.66	640.22
581.01	640.38
581.36	640.44
581.71	640.56
582.06	640.82
582.42	640.92
582.77	640.77
583.12	640.92
583.47	641.03
583.82	641.07
584.17	641.03
584.53	641.23
584.88	640.91
585.23	641.02
585.58	640.88
585.93	640.52
586.28	640.11
586.63	639.90
586.98	639.74
587.34	639.85
587.69	639.52
588.04	639.09
588.39	638.85
588.74	638.52
589.09	638.21
589.44	637.63
589.79	637.41
590.14	637.27
590.49	636.79
590.84	636.23
591.19	635.98
591.54	635.56
591.89	634.71
592.25	634.32
592.60	633.44
592.95	632.74
593.30	631.89
593.65	631.09
594.00	629.99
594.35	630.17
594.70	629.11
595.05	628.31
595.40	627.40
595.75	626.35
596.10	625.59
596.45	624.80
596.80	624.11
597.15	623.19
597.50	622.09
597.85	621.35
598.19	620.39
598.54	619.44
598.89	618.41
599.24	617.75
599.59	616.85
599.94	616.10
600.29	615.25
600.64	614.38
600.99	613.45
601.34	612.90
601.69	611.01
602.04	610.02
602.39	609.14
602.74	608.39
603.08	607.55
603.43	606.98
603.78	605.95
604.13	604.97
604.48	604.05
604.83	603.50
605.18	602.66
605.53	601.94
605.87	600.99
606.22	600.28
606.57	599.22
606.92	598.12
607.27	597.10
607.62	596.07
607.96	595.40
608.31	594.70
608.66	593.58
609.01	592.54
609.36	591.45
609.70	590.32
610.05	589.08
610.40	588.05
610.75	586.61
611.10	585.61
611.44	584.12
611.79	582.73
612.14	581.16
612.49	579.46
612.83	578.05
613.18	576.52
613.53	574.94
613.88	573.29
614.22	571.82
614.57	570.15
614.92	568.81
615.27	567.20
615.61	565.56
615.96	564.21
616.31	562.70
616.65	561.49
617.00	559.96
617.35	558.52
617.70	556.82
618.04	555.14
618.39	553.04
618.74	551.57
619.08	550.03
619.43	548.40
619.78	546.97
620.12	545.24
620.47	543.71
620.82	541.83
621.16	540.10
621.51	538.49
621.85	537.05
622.20	535.23
622.55	533.53
622.89	531.78
623.24	529.91
623.59	528.13
623.93	526.32
624.28	524.64
624.62	523.29
624.97	521.80
625.32	520.08
625.66	518.70
626.01	517.11
626.35	515.60
626.70	513.88
627.04	512.27
627.39	510.72
627.73	509.25
628.08	507.99
628.43	506.41
628.77	504.76
629.12	502.94
629.46	501.48
629.81	499.91
630.15	498.28
630.50	496.58
630.84	495.08
631.19	493.41
631.53	491.87
631.88	489.86
632.22	488.05
632.57	486.60
632.91	484.90
633.26	483.37
633.60	481.57
633.95	480.14
634.29	478.46
634.64	477.02
634.98	475.23
635.32	473.53
635.67	472.26
636.01	470.80
636.36	469.28
636.70	467.74
637.05	466.07
637.39	464.56
637.73	463.20
638.08	461.84
638.42	460.57
638.77	459.13
639.11	457.68
639.45	456.22
639.80	454.49
640.14	453.00
640.49	451.38
640.83	449.83
641.17	448.32
641.52	446.84
641.86	445.20
642.20	443.74
642.55	441.95
642.89	440.17
643.23	438.62
643.58	437.41
643.92	435.75
644.26	434.22
644.61	432.84
644.95	431.16
645.29	429.33
645.64	427.62
645.98	425.88
646.32	424.48
646.66	422.89
647.01	421.41
647.35	419.87
647.69	418.38
648.04	416.98
648.38	415.42
648.72	413.98
649.06	412.35
649.41	410.85
649.75	409.48
650.09	408.11
650.43	406.52
650.78	404.79
651.12	403.23
651.46	401.68
651.80	400.20
652.14	398.80
652.49	397.46
652.83	395.97
653.17	394.52
653.51	392.80
653.85	391.38
654.20	390.01
654.54	388.56
654.88	387.01
655.22	385.61
655.56	384.10
655.90	382.41
656.25	381.00
656.59	379.50
656.93	378.18
657.27	376.77
657.61	375.27
657.95	373.90
658.29	372.50
658.64	371.27
658.98	369.72
659.32	368.23
659.66	366.82
660.00	365.41
660.34	364.05
660.68	362.71
661.02	361.32
661.36	359.94
661.70	358.52
662.05	357.22
662.39	355.91
662.73	354.75
663.07	353.70
663.41	352.38
663.75	350.96
664.09	349.64
664.43	348.32
664.77	347.10
665.11	345.76
665.45	344.61
665.79	343.39
666.13	342.27
666.47	341.15
666.81	339.95
667.15	338.84
667.49	337.75
667.83	336.74
668.17	335.64
668.51	334.53
668.85	333.57
669.19	332.61
669.53	331.32
669.87	330.14
670.21	329.00
670.55	327.96
670.89	327.15
671.23	326.24
671.57	325.28
671.91	324.25
672.25	323.36
672.58	322.43
672.92	321.39
673.26	320.40
673.60	319.57
673.94	318.61
674.28	317.66
674.62	316.76
674.96	315.78
675.30	314.90
675.64	314.03
675.97	313.17
676.31	312.22
676.65	311.43
676.99	310.63
677.33	309.72
677.67	308.89
678.01	307.87
678.34	307.00
678.68	306.17
679.02	305.32
679.36	304.39
679.70	303.45
680.04	302.67
680.37	301.82
680.71	300.86
681.05	300.09
681.39	299.18
681.73	298.30
682.06	297.54
682.40	296.69
682.74	295.92
683.08	295.18
683.42	294.34
683.75	293.66
684.09	292.80
684.43	292.06
684.77	291.26
685.10	290.49
685.44	289.59
685.78	288.74
686.12	288.07
686.45	287.39
686.79	286.70
687.13	286.01
687.46	285.30
687.80	284.67
688.14	284.01
688.48	283.40
688.81	282.78
689.15	282.11
689.49	281.40
689.82	280.82
690.16	279.97
690.50	279.27
690.83	278.56
691.17	277.93
691.51	277.15
691.84	276.52
692.18	275.90
692.52	275.26
692.85	274.67
693.19	274.13
693.52	273.57
693.86	272.85
694.20	272.14
694.53	271.58
694.87	270.93
695.21	270.19
695.54	269.51
695.88	268.80
696.21	268.06
696.55	267.45
696.88	266.73
697.22	266.18
697.56	265.71
697.89	265.08
698.23	264.48
698.56	263.99
698.90	263.48
699.23	262.90
699.57	262.32
699.90	261.78
700.24	261.06
700.58	260.55
700.91	260.18
701.25	259.84
701.58	259.35
701.92	258.98
702.25	258.49
702.59	258.00
702.92	257.58
703.26	257.13
703.59	256.67
703.93	256.47
704.26	255.97
704.60	255.46
704.93	255.00
705.26	254.56
705.60	254.25
705.93	253.64
706.27	253.29
706.60	253.07
706.94	252.78
707.27	252.36
707.61	251.85
707.94	251.35
708.27	250.75
708.61	250.22
708.94	249.74
709.28	249.45
709.61	249.06
709.94	248.71
710.28	248.26
710.61	247.98
710.95	247.28
711.28	247.10
711.61	246.76
711.95	246.52
712.28	246.15
712.61	245.70
712.95	245.59
713.28	245.40
713.61	244.94
713.95	244.48
714.28	244.23
714.61	243.87
714.95	243.59
715.28	243.25
715.61	242.97
715.95	242.58
716.28	242.18
716.61	241.87
716.95	241.43
717.28	241.20
717.61	240.89
717.94	240.67
718.28	240.21
718.61	239.83
718.94	239.42
719.27	239.19
719.61	238.95
719.94	238.64
720.27	238.19
720.60	237.88
720.94	237.56
721.27	237.27
721.60	237.06
721.93	236.73
722.27	236.58
722.60	236.37
722.93	236.06
723.26	235.84
723.59	235.57
723.93	235.41
724.26	235.20
724.59	234.85
724.92	234.57
725.25	234.42
725.59	234.26
725.92	234.13
726.25	233.84
726.58	233.60
726.91	233.35
727.24	233.13
727.57	232.87
727.91	232.62
728.24	232.39
728.57	232.15
728.90	232.02
729.23	231.72
729.56	231.61
729.89	231.49
730.22	231.27
730.55	231.10
730.89	230.86
731.22	230.60
731.55	230.48
731.88	230.33
732.21	230.10
732.54	229.83
732.87	229.55
733.20	229.42
733.53	229.24
733.86	229.09
734.19	228.91
734.52	228.83
734.85	228.84
735.18	228.70
735.51	228.62
735.84	228.45
736.17	228.28
736.50	228.00
736.83	228.20
737.16	228.00
737.49	227.86
737.82	227.75
738.15	227.70
738.48	227.51
738.81	227.31
739.14	227.11
739.47	226.96
739.80	226.81
740.13	226.57
740.46	226.35
740.79	226.08
741.12	225.97
741.45	225.78
741.78	225.46
742.11	225.46
742.44	225.24
742.77	225.17
743.10	225.02
743.43	224.88
743.75	224.40
744.08	224.75
744.41	224.54
744.74	224.30
745.07	224.05
745.40	224.02
745.73	224.06
746.06	223.99
746.39	223.91
746.71	223.82
747.04	223.76
747.37	223.68
747.70	223.74
748.03	223.58
748.36	223.47
748.68	223.38
749.01	223.05
749.34	222.95
749.67	222.78
750.00	222.75
750.33	222.85
750.65	222.78
750.98	222.25
751.31	222.22
751.64	222.20
751.97	222.38
752.29	222.19
752.62	221.89
752.95	221.66
753.28	221.49
753.60	221.32
753.93	221.31
754.26	221.24
754.59	220.97
754.91	220.86
755.24	220.88
755.57	220.81
755.90	220.76
756.22	220.65
756.55	220.49
756.88	220.32
757.20	219.95
757.53	219.80
757.86	219.59
758.19	219.47
758.51	219.35
758.84	219.04
759.17	218.97
759.49	218.91
759.82	219.02
760.15	219.00
760.47	218.99
760.80	218.77
761.13	218.67
761.45	218.61
761.78	218.48
762.11	218.37
762.43	218.20
762.76	218.17
763.08	218.10
763.41	218.07
763.74	218.02
764.06	217.91
764.39	217.77
764.71	217.80
765.04	217.71
765.37	217.62
765.69	217.52
766.02	217.46
766.34	217.37
766.67	217.20
767.00	217.21
767.32	217.30
767.65	217.50
767.97	217.50
768.30	217.40
768.62	217.40
768.95	217.25
769.27	217.21
769.60	217.18
769.92	217.09
770.25	216.98
770.57	216.82
770.90	216.85
771.22	216.77
771.55	216.73
771.87	216.76
772.20	216.68
772.52	216.92
772.85	217.27
773.17	217.28
773.50	217.23
773.82	217.07
774.15	216.85
774.47	216.54
774.80	216.40
775.12	216.37
775.45	216.33
775.77	216.40
776.09	216.47
776.42	216.40
776.74	216.46
777.07	216.41
777.39	216.40
777.72	216.35
778.04	216.41
778.36	216.34
778.69	216.23
779.01	216.20
779.33	215.83
779.66	215.40
779.98	215.31
780.31	215.31
780.63	215.39
780.95	215.46
781.28	215.42
781.60	215.41
781.92	215.37
782.25	215.34
782.57	215.31
782.89	215.19
783.22	215.17
783.54	215.06
783.86	215.10
784.19	215.08
784.51	215.14
784.83	215.08
785.16	215.05
785.48	215.05
785.80	215.03
786.12	215.03
786.45	215.02
786.77	215.05
787.09	215.00
787.42	214.83
787.74	214.74
788.06	214.76
788.38	214.71
788.71	214.62
789.03	214.54
789.35	214.53
789.67	214.39
789.99	214.34
790.32	214.27
790.64	214.30
790.96	214.63
791.28	214.47
791.61	214.38
791.93	214.34
792.25	214.23
792.57	214.51
792.89	214.50
793.21	214.46
793.54	214.38
793.86	214.30
794.18	214.43
