SpectraSuite Data File
++++++++++++++++++++++++++++++++++++
Date: Mon Feb 25 17:15:46 EST 2013
User: group
Dark Spectrum Present: No
Reference Spectrum Present: No
Number of Sampled Component Spectra: 1
Spectrometers: USB2E7196
Integration Time (usec): 104000 (USB2E7196)
Spectra Averaged: 20 (USB2E7196)
Boxcar Smoothing: 10 (USB2E7196)
Correct for Electrical Dark: No (USB2E7196)
Strobe/Lamp Enabled: No (USB2E7196)
Correct for Detector Non-linearity: No (USB2E7196)
Correct for Stray Light: No (USB2E7196)
Number of Pixels in Processed Spectrum: 2048
>>>>>Begin Processed Spectral Data<<<<<
339.09	0.00
339.48	198.35
339.86	199.15
340.24	200.90
340.63	202.70
341.01	209.75
341.39	204.45
341.78	207.60
342.16	209.95
342.54	208.80
342.93	198.29
343.31	208.31
343.69	208.84
344.07	209.36
344.46	209.90
344.84	210.31
345.22	210.38
345.60	210.76
345.99	210.97
346.37	211.11
346.75	211.17
347.13	211.22
347.52	211.23
347.90	211.40
348.28	211.54
348.66	211.72
349.05	211.62
349.43	211.72
349.81	211.83
350.19	211.95
350.57	211.97
350.96	212.00
351.34	212.15
351.72	212.30
352.10	212.42
352.48	212.42
352.87	212.48
353.25	212.55
353.63	212.64
354.01	212.68
354.39	212.76
354.77	212.95
355.15	213.20
355.54	213.23
355.92	213.20
356.30	213.25
356.68	213.56
357.06	213.66
357.44	213.68
357.82	213.77
358.20	213.86
358.58	213.92
358.97	214.04
359.35	214.19
359.73	214.32
360.11	214.32
360.49	214.44
360.87	214.50
361.25	214.63
361.63	214.78
362.01	214.84
362.39	214.78
362.77	214.81
363.15	214.77
363.53	214.82
363.91	214.76
364.29	214.76
364.67	214.49
365.05	214.52
365.43	214.53
365.81	214.55
366.19	214.69
366.57	214.85
366.95	214.85
367.33	214.70
367.71	214.67
368.09	214.79
368.47	214.78
368.85	214.82
369.23	214.82
369.61	214.62
369.99	214.72
370.37	214.74
370.75	214.95
371.13	214.79
371.51	214.70
371.89	214.70
372.27	214.69
372.65	214.57
373.03	214.55
373.41	214.54
373.78	214.48
374.16	214.25
374.54	214.13
374.92	214.07
375.30	214.03
375.68	213.91
376.06	213.83
376.44	213.70
376.82	213.66
377.19	213.62
377.57	213.54
377.95	213.39
378.33	213.25
378.71	212.88
379.09	212.93
379.47	213.01
379.84	212.96
380.22	212.83
380.60	212.82
380.98	212.74
381.36	212.72
381.73	212.63
382.11	212.64
382.49	212.58
382.87	212.44
383.25	212.41
383.62	212.72
384.00	212.61
384.38	212.58
384.76	212.59
385.13	212.68
385.51	212.61
385.89	212.53
386.27	212.57
386.64	212.65
387.02	212.59
387.40	212.45
387.78	212.42
388.15	212.43
388.53	212.34
388.91	212.28
389.29	212.16
389.66	212.16
390.04	212.10
390.42	212.11
390.79	212.08
391.17	212.05
391.55	211.61
391.92	211.61
392.30	211.65
392.68	211.48
393.05	211.40
393.43	211.44
393.81	211.41
394.18	211.37
394.56	211.34
394.94	211.40
395.31	211.34
395.69	211.44
396.06	211.43
396.44	211.42
396.82	211.42
397.19	211.62
397.57	211.70
397.95	211.71
398.32	211.57
398.70	211.64
399.07	211.75
399.45	211.81
399.82	211.83
400.20	211.85
400.58	211.90
400.95	211.82
401.33	211.90
401.70	212.19
402.08	212.23
402.45	212.28
402.83	212.39
403.20	212.54
403.58	212.52
403.95	212.72
404.33	212.88
404.71	212.99
405.08	213.23
405.46	213.31
405.83	213.48
406.21	213.63
406.58	213.75
406.96	213.87
407.33	214.07
407.70	214.31
408.08	214.75
408.45	214.99
408.83	215.30
409.20	215.49
409.58	215.47
409.95	215.82
410.33	216.10
410.70	216.25
411.08	216.51
411.45	216.93
411.82	217.15
412.20	217.59
412.57	218.16
412.95	218.27
413.32	218.68
413.69	219.11
414.07	219.63
414.44	220.20
414.82	220.79
415.19	221.39
415.56	222.02
415.94	222.56
416.31	223.38
416.68	224.10
417.06	225.08
417.43	226.08
417.81	227.14
418.18	228.16
418.55	229.27
418.93	230.49
419.30	231.65
419.67	232.97
420.04	234.28
420.42	235.52
420.79	237.38
421.16	239.10
421.54	240.91
421.91	242.60
422.28	244.37
422.66	246.22
423.03	248.24
423.40	250.22
423.77	252.24
424.15	254.18
424.52	256.32
424.89	258.61
425.26	260.79
425.64	262.88
426.01	265.20
426.38	267.70
426.75	270.22
427.13	272.81
427.50	275.60
427.87	278.37
428.24	281.24
428.61	283.76
428.99	286.67
429.36	289.77
429.73	293.00
430.10	296.23
430.47	299.51
430.85	302.75
431.22	306.32
431.59	310.24
431.96	313.88
432.33	317.83
432.70	321.60
433.08	326.06
433.45	330.23
433.82	334.46
434.19	339.08
434.56	343.75
434.93	348.10
435.30	352.36
435.68	357.16
436.05	361.90
436.42	366.58
436.79	370.99
437.16	375.66
437.53	380.38
437.90	385.25
438.27	390.06
438.64	394.81
439.01	399.34
439.38	403.21
439.75	407.10
440.13	411.52
440.50	415.69
440.87	419.21
441.24	422.89
441.61	426.88
441.98	429.83
442.35	433.03
442.72	436.32
443.09	439.64
443.46	441.57
443.83	442.83
444.20	443.92
444.57	445.41
444.94	446.09
445.31	446.94
445.68	447.80
446.05	447.96
446.42	447.46
446.79	446.77
447.16	445.97
447.53	445.54
447.90	443.64
448.27	441.68
448.64	439.07
449.01	437.01
449.37	433.71
449.74	430.50
450.11	427.19
450.48	423.11
450.85	418.72
451.22	415.06
451.59	411.65
451.96	408.38
452.33	404.09
452.70	400.04
453.07	395.33
453.43	390.35
453.80	385.85
454.17	381.57
454.54	377.42
454.91	373.13
455.28	368.76
455.65	364.76
456.02	361.26
456.38	357.73
456.75	353.63
457.12	349.90
457.49	346.32
457.86	342.55
458.23	339.71
458.59	336.67
458.96	333.55
459.33	330.64
459.70	327.72
460.07	325.45
460.43	322.88
460.80	320.55
461.17	318.45
461.54	316.18
461.91	314.08
462.27	311.92
462.64	310.03
463.01	308.05
463.38	306.27
463.74	303.93
464.11	302.20
464.48	300.69
464.85	299.19
465.21	298.16
465.58	296.93
465.95	295.36
466.32	294.04
466.68	292.78
467.05	291.53
467.42	290.33
467.78	288.93
468.15	287.85
468.52	286.96
468.88	285.68
469.25	284.64
469.62	283.89
469.98	283.03
470.35	282.20
470.72	281.45
471.08	280.45
471.45	279.81
471.82	279.22
472.18	278.43
472.55	277.91
472.92	277.04
473.28	276.38
473.65	275.78
474.02	275.34
474.38	274.98
474.75	274.71
475.11	274.41
475.48	274.22
475.85	273.94
476.21	273.70
476.58	273.60
476.94	273.55
477.31	273.43
477.67	273.34
478.04	273.39
478.41	273.38
478.77	273.79
479.14	273.87
479.50	274.05
479.87	274.32
480.23	274.56
480.60	274.97
480.96	275.30
481.33	276.02
481.69	276.50
482.06	276.99
482.42	277.50
482.79	278.08
483.15	278.75
483.52	279.57
483.88	280.30
484.25	281.15
484.61	281.94
484.98	282.78
485.34	283.95
485.71	285.05
486.07	286.34
486.44	287.38
486.80	288.72
487.17	290.12
487.53	291.77
487.90	293.57
488.26	295.48
488.62	297.48
488.99	299.28
489.35	301.20
489.72	303.35
490.08	305.65
490.44	308.05
490.81	310.51
491.17	312.94
491.54	315.81
491.90	318.62
492.26	321.64
492.63	324.86
492.99	328.05
493.36	331.44
493.72	335.10
494.08	338.83
494.45	342.87
494.81	347.10
495.17	351.32
495.54	355.78
495.90	360.35
496.26	365.07
496.63	370.11
496.99	375.50
497.35	381.04
497.72	386.84
498.08	392.78
498.44	399.10
498.80	405.90
499.17	412.68
499.53	419.75
499.89	427.05
500.26	434.49
500.62	442.25
500.98	450.43
501.34	458.70
501.71	467.48
502.07	476.26
502.43	485.36
502.79	494.55
503.16	504.37
503.52	514.28
503.88	524.49
504.24	534.94
504.60	545.71
504.97	556.82
505.33	568.03
505.69	579.98
506.05	592.05
506.41	604.28
506.78	616.45
507.14	629.24
507.50	642.19
507.86	655.71
508.22	669.52
508.59	683.44
508.95	697.88
509.31	712.33
509.67	727.11
510.03	742.23
510.39	758.27
510.75	774.05
511.12	789.90
511.48	806.28
511.84	822.89
512.20	839.58
512.56	856.77
512.92	874.27
513.28	891.73
513.64	909.15
514.00	926.92
514.37	945.21
514.73	963.54
515.09	982.25
515.45	1000.52
515.81	1018.97
516.17	1037.65
516.53	1056.58
516.89	1075.89
517.25	1095.06
517.61	1114.50
517.97	1133.31
518.33	1152.59
518.69	1171.94
519.05	1191.61
519.41	1211.52
519.77	1231.66
520.13	1251.34
520.49	1270.78
520.85	1290.62
521.21	1310.95
521.57	1331.01
521.93	1350.65
522.29	1370.73
522.65	1390.92
523.01	1410.82
523.37	1430.36
523.73	1450.32
524.09	1469.73
524.45	1489.11
524.81	1508.74
525.17	1528.35
525.53	1548.10
525.89	1567.64
526.25	1587.60
526.61	1606.15
526.97	1624.69
527.33	1643.41
527.68	1662.37
528.04	1680.89
528.40	1698.40
528.76	1716.35
529.12	1734.55
529.48	1753.19
529.84	1771.00
530.20	1788.65
530.56	1806.63
530.91	1825.24
531.27	1842.89
531.63	1860.28
531.99	1877.17
532.35	1893.92
532.71	1910.33
533.07	1927.32
533.42	1943.33
533.78	1959.18
534.14	1975.05
534.50	1989.87
534.86	2005.22
535.21	2019.65
535.57	2034.97
535.93	2049.93
536.29	2063.79
536.65	2077.70
537.00	2090.82
537.36	2103.76
537.72	2116.26
538.08	2128.86
538.44	2141.21
538.79	2153.52
539.15	2165.72
539.51	2178.13
539.87	2190.66
540.22	2202.28
540.58	2213.78
540.94	2225.10
541.29	2235.50
541.65	2245.65
542.01	2256.24
542.37	2265.93
542.72	2275.76
543.08	2284.40
543.44	2294.25
543.79	2302.78
544.15	2310.97
544.51	2319.46
544.87	2327.97
545.22	2335.66
545.58	2342.49
545.94	2348.46
546.29	2353.95
546.65	2359.27
547.01	2364.35
547.36	2369.00
547.72	2373.75
548.07	2377.46
548.43	2381.17
548.79	2384.30
549.14	2387.87
549.50	2391.23
549.86	2393.71
550.21	2396.15
550.57	2399.12
550.92	2400.21
551.28	2402.23
551.64	2404.01
551.99	2405.88
552.35	2406.58
552.70	2407.72
553.06	2408.98
553.41	2409.85
553.77	2411.04
554.13	2411.90
554.48	2412.76
554.84	2413.51
555.19	2413.53
555.55	2413.40
555.90	2412.62
556.26	2412.23
556.61	2411.47
556.97	2409.92
557.32	2409.18
557.68	2407.09
558.03	2405.20
558.39	2403.73
558.74	2402.90
559.10	2401.45
559.45	2399.58
559.81	2398.45
560.16	2396.30
560.52	2394.51
560.87	2392.40
561.23	2389.23
561.58	2387.07
561.94	2383.76
562.29	2380.11
562.64	2377.19
563.00	2374.04
563.35	2371.53
563.71	2369.76
564.06	2366.82
564.42	2364.60
564.77	2361.99
565.12	2360.06
565.48	2357.26
565.83	2354.43
566.19	2351.26
566.54	2347.14
566.89	2342.84
567.25	2339.05
567.60	2335.43
567.96	2331.48
568.31	2327.68
568.66	2323.80
569.02	2319.06
569.37	2314.07
569.72	2309.51
570.08	2304.55
570.43	2299.48
570.78	2294.00
571.14	2287.69
571.49	2282.14
571.84	2276.96
572.20	2270.45
572.55	2264.67
572.90	2258.36
573.26	2251.68
573.61	2244.74
573.96	2238.59
574.31	2231.56
574.67	2224.03
575.02	2216.05
575.37	2208.40
575.72	2200.30
576.08	2193.70
576.43	2185.87
576.78	2179.26
577.13	2172.31
577.49	2165.30
577.84	2157.85
578.19	2151.29
578.54	2144.99
578.90	2138.93
579.25	2131.53
579.60	2124.20
579.95	2116.27
580.30	2109.33
580.66	2102.85
581.01	2095.57
581.36	2087.70
581.71	2080.50
582.06	2073.66
582.42	2067.20
582.77	2059.75
583.12	2052.80
583.47	2045.55
583.82	2039.31
584.17	2031.88
584.53	2024.94
584.88	2017.56
585.23	2010.52
585.58	2003.08
585.93	1995.41
586.28	1988.19
586.63	1980.52
586.98	1973.49
587.34	1967.08
587.69	1960.08
588.04	1952.67
588.39	1945.70
588.74	1938.47
589.09	1931.79
589.44	1924.36
589.79	1917.65
590.14	1911.22
590.49	1904.26
590.84	1897.24
591.19	1890.67
591.54	1883.75
591.89	1875.60
592.25	1868.32
592.60	1860.94
592.95	1853.28
593.30	1845.08
593.65	1836.61
594.00	1829.53
594.35	1823.47
594.70	1816.01
595.05	1808.71
595.40	1801.57
595.75	1794.08
596.10	1787.56
596.45	1780.63
596.80	1773.92
597.15	1766.99
597.50	1759.57
597.85	1752.86
598.19	1745.60
598.54	1738.36
598.89	1731.90
599.24	1726.47
599.59	1720.49
599.94	1715.03
600.29	1709.09
600.64	1703.17
600.99	1696.78
601.34	1690.67
601.69	1683.10
602.04	1676.42
602.39	1669.66
602.74	1663.44
603.08	1657.53
603.43	1651.83
603.78	1645.80
604.13	1639.59
604.48	1633.45
604.83	1628.25
605.18	1622.95
605.53	1616.57
605.87	1610.07
606.22	1604.04
606.57	1597.31
606.92	1590.71
607.27	1583.51
607.62	1576.77
607.96	1570.68
608.31	1564.93
608.66	1558.25
609.01	1551.47
609.36	1544.79
609.70	1537.81
610.05	1530.60
610.40	1523.75
610.75	1516.15
611.10	1509.55
611.44	1501.79
611.79	1493.96
612.14	1485.83
612.49	1477.45
612.83	1470.49
613.18	1462.48
613.53	1454.75
613.88	1446.75
614.22	1439.40
614.57	1431.83
614.92	1424.32
615.27	1416.72
615.61	1408.85
615.96	1401.49
616.31	1394.52
616.65	1387.78
617.00	1380.98
617.35	1373.95
617.70	1366.43
618.04	1358.67
618.39	1350.22
618.74	1343.28
619.08	1336.00
619.43	1328.88
619.78	1321.91
620.12	1314.65
620.47	1307.94
620.82	1300.29
621.16	1292.77
621.51	1285.20
621.85	1278.06
622.20	1270.56
622.55	1263.11
622.89	1255.81
623.24	1248.50
623.59	1240.89
623.93	1233.37
624.28	1226.37
624.62	1219.30
624.97	1212.40
625.32	1205.90
625.66	1199.62
626.01	1192.64
626.35	1185.95
626.70	1179.07
627.04	1172.75
627.39	1166.25
627.73	1159.65
628.08	1153.33
628.43	1146.76
628.77	1140.25
629.12	1133.65
629.46	1128.08
629.81	1121.85
630.15	1115.64
630.50	1108.97
630.84	1102.60
631.19	1096.16
631.53	1089.53
631.88	1082.63
632.22	1075.78
632.57	1069.64
632.91	1063.06
633.26	1056.80
633.60	1050.64
633.95	1044.74
634.29	1038.14
634.64	1031.94
634.98	1025.58
635.32	1019.60
635.67	1014.16
636.01	1008.35
636.36	1002.27
636.70	996.03
637.05	990.09
637.39	984.26
637.73	979.07
638.08	973.97
638.42	968.73
638.77	963.30
639.11	957.94
639.45	952.56
639.80	946.40
640.14	940.51
640.49	934.85
640.83	929.08
641.17	923.25
641.52	917.60
641.86	911.79
642.20	906.37
642.55	900.26
642.89	894.24
643.23	888.24
643.58	882.98
643.92	876.96
644.26	871.34
644.61	865.74
644.95	859.95
645.29	854.05
645.64	848.16
645.98	842.40
646.32	837.04
646.66	831.29
647.01	826.10
647.35	821.00
647.69	815.30
648.04	810.10
648.38	804.71
648.72	799.33
649.06	793.98
649.41	788.64
649.75	783.66
650.09	778.68
650.43	773.62
650.78	767.97
651.12	762.79
651.46	757.50
651.80	752.35
652.14	747.19
652.49	742.17
652.83	736.96
653.17	731.55
653.51	726.20
653.85	721.55
654.20	716.46
654.54	711.22
654.88	706.42
655.22	701.29
655.56	696.13
655.90	691.00
656.25	685.91
656.59	680.98
656.93	676.06
657.27	671.31
657.61	666.34
657.95	661.83
658.29	657.32
658.64	652.96
658.98	648.22
659.32	643.48
659.66	638.84
660.00	634.34
660.34	629.84
660.68	625.37
661.02	620.55
661.36	616.37
661.70	612.25
662.05	608.29
662.39	604.35
662.73	600.40
663.07	596.81
663.41	592.99
663.75	589.01
664.09	584.95
664.43	580.72
664.77	576.86
665.11	572.98
665.45	569.11
665.79	565.25
666.13	561.61
666.47	557.87
666.81	554.31
667.15	550.64
667.49	547.42
667.83	544.18
668.17	540.82
668.51	537.43
668.85	534.00
669.19	530.67
669.53	527.18
669.87	523.87
670.21	520.42
670.55	517.13
670.89	514.13
671.23	511.23
671.57	508.29
671.91	505.24
672.25	502.28
672.58	499.37
672.92	496.34
673.26	493.52
673.60	490.75
673.94	487.95
674.28	485.14
674.62	482.31
674.96	479.44
675.30	476.80
675.64	473.92
675.97	471.22
676.31	468.39
676.65	465.68
676.99	463.26
677.33	460.54
677.67	457.94
678.01	455.17
678.34	452.48
678.68	449.97
679.02	447.31
679.36	444.73
679.70	441.98
680.04	439.50
680.37	436.94
680.71	434.37
681.05	431.94
681.39	429.54
681.73	427.10
682.06	424.75
682.40	422.62
682.74	420.45
683.08	418.19
683.42	415.84
683.75	413.73
684.09	411.36
684.43	409.29
684.77	407.10
685.10	404.93
685.44	402.64
685.78	400.47
686.12	398.63
686.45	396.58
686.79	394.65
687.13	392.71
687.46	390.73
687.80	388.88
688.14	386.73
688.48	384.69
688.81	382.66
689.15	380.85
689.49	378.70
689.82	376.76
690.16	374.61
690.50	372.70
690.83	370.76
691.17	368.65
691.51	366.63
691.84	364.81
692.18	362.98
692.52	361.40
692.85	359.71
693.19	358.00
693.52	356.18
693.86	354.45
694.20	352.72
694.53	350.98
694.87	349.21
695.21	347.52
695.54	345.85
695.88	344.22
696.21	342.45
696.55	340.87
696.88	339.28
697.22	337.72
697.56	336.41
697.89	334.76
698.23	333.44
698.56	331.93
698.90	330.49
699.23	329.09
699.57	327.64
699.90	326.17
700.24	324.66
700.58	323.32
700.91	322.03
701.25	320.93
701.58	319.64
701.92	318.33
702.25	317.04
702.59	315.74
702.92	314.55
703.26	313.31
703.59	312.12
703.93	311.19
704.26	310.18
704.60	308.94
704.93	307.80
705.26	306.61
705.60	305.59
705.93	304.44
706.27	303.43
706.60	302.45
706.94	301.56
707.27	300.27
707.61	299.16
707.94	298.00
708.27	296.63
708.61	295.55
708.94	294.64
709.28	293.69
709.61	292.71
709.94	291.66
710.28	290.72
710.61	289.84
710.95	288.54
711.28	287.80
711.61	286.73
711.95	285.92
712.28	285.05
712.61	284.15
712.95	283.53
713.28	282.76
713.61	281.87
713.95	280.94
714.28	280.27
714.61	279.52
714.95	278.78
715.28	278.02
715.61	277.25
715.95	276.40
716.28	275.67
716.61	274.98
716.95	274.23
717.28	273.51
717.61	272.85
717.94	272.21
718.28	271.29
718.61	270.65
718.94	269.89
719.27	269.15
719.61	268.51
719.94	267.69
720.27	266.81
720.60	266.11
720.94	265.40
721.27	264.83
721.60	264.28
721.93	263.68
722.27	263.26
722.60	262.69
722.93	262.06
723.26	261.49
723.59	260.86
723.93	260.33
724.26	259.83
724.59	259.13
724.92	258.56
725.25	258.11
725.59	257.61
725.92	257.25
726.25	256.82
726.58	256.33
726.91	255.84
727.24	255.41
727.57	254.92
727.91	254.45
728.24	253.98
728.57	253.42
728.90	253.02
729.23	252.47
729.56	252.24
729.89	251.80
730.22	251.30
730.55	250.87
730.89	250.53
731.22	250.07
731.55	249.71
731.88	249.32
732.21	248.84
732.54	248.36
732.87	247.92
733.20	247.55
733.53	247.22
733.86	246.87
734.19	246.49
734.52	246.21
734.85	246.05
735.18	245.67
735.51	245.43
735.84	245.08
736.17	244.79
736.50	244.23
736.83	244.34
737.16	244.01
737.49	243.70
737.82	243.32
738.15	242.96
738.48	242.59
738.81	242.30
739.14	241.85
739.47	241.61
739.80	241.30
740.13	240.90
740.46	240.55
740.79	240.14
741.12	239.86
741.45	239.41
741.78	238.94
742.11	238.67
742.44	238.31
742.77	238.04
743.10	237.72
743.43	237.40
743.75	236.77
744.08	236.97
744.41	236.65
744.74	236.32
745.07	236.00
745.40	235.78
745.73	235.56
746.06	235.36
746.39	235.03
746.71	234.74
747.04	234.43
747.37	234.14
747.70	233.89
748.03	233.56
748.36	233.42
748.68	233.18
749.01	232.94
749.34	232.69
749.67	232.42
750.00	232.16
750.33	232.20
750.65	231.97
750.98	231.24
751.31	230.96
751.64	230.80
751.97	230.80
752.29	230.58
752.62	230.25
752.95	229.99
753.28	229.85
753.60	229.64
753.93	229.58
754.26	229.40
754.59	229.16
754.91	228.99
755.24	228.75
755.57	228.52
755.90	228.23
756.22	227.96
756.55	227.70
756.88	227.49
757.20	227.11
757.53	226.81
757.86	226.59
758.19	226.50
758.51	226.24
758.84	225.81
759.17	225.57
759.49	225.38
759.82	225.41
760.15	225.20
760.47	225.00
760.80	224.73
761.13	224.59
761.45	224.38
761.78	224.15
762.11	223.99
762.43	223.83
762.76	223.68
763.08	223.66
763.41	223.56
763.74	223.42
764.06	223.18
764.39	223.09
764.71	223.03
765.04	222.86
765.37	222.75
765.69	222.60
766.02	222.43
766.34	222.35
766.67	222.14
767.00	222.09
767.32	222.15
767.65	222.22
767.97	222.05
768.30	221.97
768.62	221.90
768.95	221.71
769.27	221.57
769.60	221.52
769.92	221.28
770.25	221.15
770.57	220.94
770.90	220.90
771.22	220.68
771.55	220.57
771.87	220.56
772.20	220.44
772.52	220.74
772.85	221.13
773.17	221.07
773.50	220.87
773.82	220.83
774.15	220.59
774.47	220.30
774.80	220.12
775.12	220.10
775.45	220.00
775.77	220.00
776.09	219.99
776.42	219.95
776.74	220.00
777.07	219.83
777.39	219.84
777.72	219.63
778.04	219.64
778.36	219.55
778.69	219.45
779.01	219.46
779.33	219.06
779.66	218.53
779.98	218.38
780.31	218.35
780.63	218.29
780.95	218.28
781.28	218.17
781.60	218.12
781.92	218.00
782.25	217.96
782.57	217.79
782.89	217.69
783.22	217.51
783.54	217.37
783.86	217.35
784.19	217.31
784.51	217.41
784.83	217.38
785.16	217.35
785.48	217.25
785.80	217.14
786.12	217.12
786.45	217.13
786.77	217.12
