SpectraSuite Data File
++++++++++++++++++++++++++++++++++++
Date: Mon Feb 25 17:04:07 EST 2013
User: group
Dark Spectrum Present: No
Reference Spectrum Present: No
Number of Sampled Component Spectra: 1
Spectrometers: USB2E7196
Integration Time (usec): 104000 (USB2E7196)
Spectra Averaged: 20 (USB2E7196)
Boxcar Smoothing: 10 (USB2E7196)
Correct for Electrical Dark: No (USB2E7196)
Strobe/Lamp Enabled: No (USB2E7196)
Correct for Detector Non-linearity: No (USB2E7196)
Correct for Stray Light: No (USB2E7196)
Number of Pixels in Processed Spectrum: 2048
>>>>>Begin Processed Spectral Data<<<<<
339.09	0.00
339.48	197.15
339.86	200.05
340.24	202.20
340.63	203.25
341.01	209.60
341.39	204.65
341.78	207.50
342.16	209.30
342.54	208.50
342.93	197.98
343.31	207.99
343.69	208.57
344.07	209.07
344.46	209.47
344.84	209.89
345.22	209.92
345.60	210.21
345.99	210.36
346.37	210.40
346.75	210.48
347.13	210.46
347.52	210.56
347.90	210.80
348.28	210.83
348.66	210.86
349.05	210.73
349.43	210.78
349.81	210.72
350.19	210.71
350.57	210.77
350.96	210.86
351.34	210.91
351.72	210.96
352.10	211.01
352.48	211.12
352.87	211.09
353.25	211.10
353.63	211.18
354.01	211.30
354.39	211.40
354.77	211.44
355.15	211.62
355.54	211.57
355.92	211.50
356.30	211.56
356.68	211.86
357.06	211.99
357.44	212.04
357.82	212.14
358.20	212.23
358.58	212.30
358.97	212.31
359.35	212.46
359.73	212.65
360.11	212.71
360.49	212.71
360.87	212.77
361.25	212.86
361.63	213.02
362.01	213.05
362.39	213.05
362.77	213.14
363.15	213.14
363.53	213.24
363.91	213.28
364.29	213.35
364.67	213.09
365.05	213.15
365.43	213.24
365.81	213.34
366.19	213.55
366.57	213.68
366.95	213.76
367.33	213.74
367.71	213.65
368.09	213.75
368.47	213.70
368.85	213.72
369.23	213.82
369.61	213.65
369.99	213.72
370.37	213.75
370.75	213.98
371.13	213.94
371.51	213.85
371.89	213.83
372.27	213.78
372.65	213.84
373.03	213.82
373.41	213.63
373.78	213.60
374.16	213.38
374.54	213.27
374.92	213.14
375.30	213.01
375.68	212.93
376.06	212.85
376.44	212.84
376.82	212.78
377.19	212.71
377.57	212.66
377.95	212.48
378.33	212.45
378.71	212.13
379.09	212.08
379.47	212.08
379.84	211.99
380.22	211.90
380.60	211.73
380.98	211.62
381.36	211.57
381.73	211.45
382.11	211.42
382.49	211.33
382.87	211.26
383.25	211.20
383.62	211.62
384.00	211.48
384.38	211.39
384.76	211.50
385.13	211.58
385.51	211.49
385.89	211.38
386.27	211.30
386.64	211.32
387.02	211.26
387.40	211.19
387.78	211.21
388.15	211.23
388.53	211.18
388.91	211.13
389.29	211.14
389.66	211.14
390.04	211.10
390.42	211.19
390.79	211.20
391.17	211.26
391.55	210.79
391.92	210.72
392.30	210.70
392.68	210.51
393.05	210.47
393.43	210.54
393.81	210.57
394.18	210.54
394.56	210.56
394.94	210.57
395.31	210.53
395.69	210.59
396.06	210.58
396.44	210.63
396.82	210.62
397.19	210.83
397.57	210.80
397.95	210.88
398.32	210.77
398.70	210.77
399.07	210.80
399.45	210.81
399.82	210.85
400.20	210.92
400.58	210.89
400.95	210.72
401.33	210.79
401.70	211.05
402.08	211.15
402.45	211.17
402.83	211.30
403.20	211.35
403.58	211.35
403.95	211.45
404.33	211.49
404.71	211.56
405.08	211.77
405.46	211.89
405.83	211.92
406.21	212.05
406.58	212.22
406.96	212.32
407.33	212.50
407.70	212.77
408.08	213.19
408.45	213.46
408.83	213.78
409.20	213.99
409.58	214.01
409.95	214.29
410.33	214.55
410.70	214.75
411.08	215.19
411.45	215.58
411.82	215.97
412.20	216.49
412.57	217.16
412.95	217.26
413.32	217.74
413.69	218.30
414.07	218.81
414.44	219.45
414.82	220.15
415.19	220.97
415.56	221.70
415.94	222.31
416.31	223.34
416.68	224.21
417.06	225.22
417.43	226.33
417.81	227.42
418.18	228.57
418.55	229.85
418.93	231.13
419.30	232.45
419.67	233.91
420.04	235.45
420.42	236.93
420.79	239.01
421.16	240.88
421.54	242.99
421.91	244.98
422.28	247.00
422.66	249.17
423.03	251.45
423.40	253.72
423.77	256.09
424.15	258.39
424.52	260.91
424.89	263.73
425.26	266.41
425.64	268.90
426.01	271.79
426.38	274.75
426.75	277.86
427.13	281.02
427.50	284.18
427.87	287.53
428.24	290.93
428.61	294.01
428.99	297.70
429.36	301.42
429.73	305.30
430.10	309.20
430.47	313.18
430.85	317.11
431.22	321.39
431.59	326.22
431.96	330.61
432.33	335.61
432.70	340.28
433.08	345.79
433.45	351.15
433.82	356.39
434.19	362.34
434.56	368.13
434.93	373.71
435.30	379.40
435.68	385.56
436.05	391.66
436.42	397.80
436.79	403.50
437.16	409.60
437.53	415.93
437.90	422.30
438.27	428.52
438.64	434.94
439.01	440.93
439.38	446.22
439.75	451.60
440.13	457.53
440.50	463.29
440.87	467.97
441.24	472.85
441.61	478.27
441.98	482.33
442.35	486.94
442.72	491.55
443.09	496.25
443.46	499.16
443.83	501.28
444.20	503.24
444.57	505.65
444.94	507.01
445.31	508.53
445.68	510.12
446.05	511.05
446.42	510.90
446.79	510.66
447.16	510.20
447.53	510.02
447.90	508.06
448.27	506.10
448.64	503.40
449.01	501.40
449.37	497.60
449.74	493.91
450.11	489.58
450.48	484.74
450.85	479.60
451.22	475.29
451.59	471.31
451.96	467.33
452.33	461.96
452.70	457.00
453.07	451.10
453.43	444.98
453.80	439.20
454.17	433.80
454.54	428.62
454.91	423.03
455.28	417.62
455.65	412.58
456.02	407.87
456.38	403.41
456.75	397.97
457.12	393.47
457.49	388.99
457.86	384.55
458.23	380.99
458.59	376.86
458.96	372.68
459.33	368.88
459.70	365.20
460.07	362.28
460.43	359.01
460.80	356.03
461.17	353.22
461.54	350.36
461.91	347.39
462.27	344.62
462.64	342.22
463.01	339.45
463.38	336.98
463.74	333.93
464.11	331.56
464.48	329.69
464.85	327.38
465.21	325.80
465.58	324.00
465.95	321.66
466.32	319.90
466.68	318.15
467.05	316.35
467.42	314.50
467.78	312.69
468.15	310.91
468.52	309.61
468.88	307.88
469.25	306.29
469.62	305.12
469.98	303.65
470.35	302.40
470.72	301.26
471.08	299.79
471.45	298.71
471.82	297.83
472.18	296.54
472.55	295.77
472.92	294.54
473.28	293.53
473.65	292.58
474.02	291.64
474.38	290.94
474.75	290.24
475.11	289.53
475.48	288.92
475.85	288.38
476.21	287.71
476.58	287.24
476.94	286.76
477.31	286.34
477.67	285.95
478.04	285.54
478.41	285.22
478.77	285.37
479.14	285.09
479.50	284.76
479.87	284.69
480.23	284.60
480.60	284.42
480.96	284.26
481.33	284.38
481.69	284.40
482.06	284.30
482.42	284.30
482.79	284.29
483.15	284.36
483.52	284.55
483.88	284.66
484.25	284.75
484.61	285.00
484.98	285.19
485.34	285.65
485.71	286.08
486.07	286.42
486.44	286.51
486.80	286.90
487.17	287.32
487.53	287.88
487.90	288.41
488.26	289.20
488.62	289.97
488.99	290.48
489.35	291.17
489.72	291.98
490.08	292.83
490.44	293.64
490.81	294.52
491.17	295.29
491.54	296.22
491.90	297.25
492.26	298.18
492.63	299.30
492.99	300.13
493.36	301.18
493.72	302.40
494.08	303.43
494.45	304.65
494.81	305.88
495.17	307.01
495.54	308.26
495.90	309.37
496.26	310.60
496.63	311.89
496.99	313.16
497.35	314.49
497.72	315.78
498.08	317.21
498.44	318.46
498.80	320.01
499.17	321.42
499.53	322.73
499.89	324.23
500.26	325.42
500.62	326.78
500.98	328.17
501.34	329.40
501.71	330.88
502.07	332.20
502.43	333.52
502.79	334.75
503.16	335.95
503.52	337.25
503.88	338.47
504.24	339.76
504.60	341.00
504.97	342.22
505.33	343.30
505.69	344.47
506.05	345.71
506.41	346.75
506.78	347.71
507.14	348.66
507.50	349.55
507.86	350.65
508.22	351.72
508.59	352.48
508.95	353.38
509.31	354.27
509.67	355.00
510.03	355.70
510.39	356.44
510.75	357.19
511.12	357.74
511.48	358.35
511.84	358.88
512.20	359.38
512.56	359.80
512.92	360.32
513.28	360.78
513.64	361.04
514.00	361.36
514.37	361.77
514.73	362.18
515.09	362.59
515.45	362.77
515.81	362.93
516.17	363.15
516.53	363.31
516.89	363.20
517.25	363.42
517.61	363.72
517.97	363.79
518.33	363.86
518.69	364.08
519.05	364.30
519.41	364.48
519.77	364.92
520.13	365.10
520.49	365.34
520.85	365.48
521.21	365.93
521.57	366.20
521.93	366.31
522.29	366.60
522.65	366.76
523.01	367.15
523.37	367.43
523.73	367.96
524.09	368.40
524.45	369.02
524.81	369.54
525.17	370.06
525.53	370.77
525.89	371.53
526.25	372.25
526.61	372.87
526.97	373.64
527.33	374.32
527.68	375.49
528.04	376.31
528.40	377.12
528.76	377.94
529.12	379.10
529.48	380.33
529.84	381.47
530.20	382.71
530.56	383.88
530.91	385.30
531.27	386.55
531.63	387.95
531.99	389.38
532.35	390.72
532.71	392.09
533.07	393.64
533.42	395.52
533.78	397.08
534.14	398.79
534.50	400.37
534.86	402.18
535.21	403.68
535.57	405.56
535.93	407.36
536.29	409.48
536.65	411.31
537.00	413.27
537.36	415.25
537.72	417.32
538.08	419.53
538.44	421.54
538.79	423.71
539.15	425.96
539.51	428.14
539.87	430.58
540.22	433.05
540.58	435.51
540.94	437.60
541.29	440.05
541.65	442.40
542.01	445.07
542.37	447.47
542.72	449.99
543.08	452.67
543.44	455.55
543.79	457.90
544.15	460.58
544.51	463.47
544.87	466.34
545.22	469.12
545.58	471.80
545.94	474.49
546.29	477.27
546.65	479.91
547.01	482.64
547.36	485.40
547.72	488.14
548.07	490.81
548.43	493.50
548.79	496.23
549.14	498.86
549.50	501.58
549.86	504.13
550.21	506.84
550.57	509.48
550.92	511.98
551.28	514.62
551.64	517.16
551.99	519.68
552.35	522.11
552.70	524.48
553.06	527.13
553.41	529.63
553.77	532.24
554.13	534.82
554.48	537.56
554.84	540.11
555.19	542.56
555.55	545.18
555.90	547.46
556.26	549.70
556.61	552.23
556.97	554.31
557.32	556.63
557.68	558.79
558.03	561.06
558.39	563.33
558.74	565.63
559.10	568.15
559.45	570.32
559.81	572.57
560.16	574.83
560.52	576.98
560.87	579.30
561.23	581.18
561.58	583.50
561.94	585.35
562.29	587.21
562.64	589.20
563.00	591.06
563.35	593.21
563.71	595.42
564.06	597.40
564.42	599.59
564.77	601.63
565.12	603.76
565.48	605.94
565.83	607.76
566.19	609.62
566.54	611.05
566.89	612.57
567.25	614.44
567.60	616.33
567.96	618.23
568.31	619.97
568.66	621.59
569.02	622.72
569.37	623.98
569.72	625.57
570.08	626.84
570.43	627.97
570.78	629.11
571.14	629.94
571.49	630.81
571.84	631.73
572.20	632.50
572.55	633.30
572.90	633.59
573.26	634.15
573.61	634.63
573.96	635.31
574.31	635.92
574.67	636.17
575.02	636.03
575.37	636.05
575.72	635.96
576.08	636.21
576.43	636.29
576.78	636.60
577.13	636.65
577.49	636.80
577.84	636.90
578.19	636.99
578.54	637.36
578.90	637.85
579.25	637.92
579.60	637.87
579.95	637.68
580.30	637.89
580.66	638.18
581.01	638.21
581.36	638.00
581.71	637.91
582.06	638.00
582.42	638.40
582.77	638.20
583.12	638.19
583.47	638.18
583.82	638.19
584.17	638.12
584.53	638.09
584.88	637.98
585.23	637.92
585.58	637.56
585.93	637.25
586.28	636.79
586.63	636.59
586.98	636.60
587.34	636.58
587.69	636.18
588.04	635.76
588.39	635.58
588.74	635.20
589.09	634.89
589.44	634.21
589.79	633.55
590.14	633.08
590.49	632.61
590.84	632.09
591.19	631.80
591.54	631.23
591.89	630.27
592.25	629.89
592.60	629.00
592.95	628.34
593.30	627.41
593.65	626.53
594.00	625.60
594.35	625.50
594.70	624.40
595.05	623.70
595.40	622.84
595.75	621.79
596.10	621.07
596.45	620.29
596.80	619.74
597.15	619.16
597.50	618.33
597.85	617.64
598.19	616.79
598.54	615.90
598.89	615.23
599.24	614.81
599.59	613.67
599.94	613.11
600.29	612.45
600.64	611.75
600.99	610.99
601.34	610.24
601.69	608.61
602.04	607.87
602.39	606.76
602.74	606.04
603.08	605.46
603.43	605.00
603.78	604.06
604.13	603.04
604.48	602.06
604.83	601.61
605.18	600.84
605.53	599.98
605.87	598.93
606.22	597.95
606.57	596.93
606.92	596.00
607.27	595.02
607.62	594.00
607.96	593.19
608.31	592.29
608.66	591.24
609.01	590.13
609.36	589.12
609.70	588.20
610.05	586.87
610.40	585.72
610.75	584.22
611.10	583.26
611.44	581.80
611.79	580.42
612.14	578.91
612.49	577.24
612.83	575.81
613.18	574.45
613.53	572.98
613.88	571.33
614.22	570.00
614.57	568.47
614.92	566.92
615.27	565.39
615.61	563.88
615.96	562.50
616.31	561.26
616.65	559.91
617.00	558.35
617.35	556.94
617.70	555.30
618.04	553.63
618.39	551.83
618.74	550.34
619.08	548.73
619.43	547.07
619.78	545.64
620.12	544.14
620.47	542.54
620.82	540.71
621.16	539.05
621.51	537.42
621.85	535.84
622.20	534.19
622.55	532.40
622.89	530.64
623.24	528.84
623.59	526.87
623.93	525.12
624.28	523.63
624.62	522.32
624.97	520.88
625.32	519.22
625.66	517.60
626.01	516.21
626.35	514.66
626.70	513.06
627.04	511.65
627.39	510.11
627.73	508.66
628.08	507.40
628.43	505.72
628.77	504.01
629.12	502.34
629.46	500.90
629.81	499.38
630.15	497.75
630.50	496.08
630.84	494.61
631.19	493.00
631.53	491.34
631.88	489.25
632.22	487.39
632.57	486.12
632.91	484.42
633.26	482.80
633.60	481.35
633.95	479.71
634.29	477.82
634.64	476.22
634.98	474.40
635.32	472.77
635.67	471.58
636.01	470.16
636.36	468.59
636.70	467.19
637.05	465.73
637.39	464.30
637.73	463.09
638.08	461.71
638.42	460.40
638.77	459.05
639.11	457.76
639.45	456.27
639.80	454.53
640.14	453.08
640.49	451.64
640.83	450.03
641.17	448.53
641.52	447.13
641.86	445.47
642.20	444.13
642.55	442.42
642.89	440.65
643.23	439.00
643.58	437.75
643.92	436.00
644.26	434.38
644.61	432.91
644.95	431.28
645.29	429.62
645.64	427.98
645.98	426.37
646.32	424.85
646.66	423.26
647.01	421.69
647.35	420.36
647.69	418.69
648.04	417.20
648.38	415.62
648.72	414.12
649.06	412.60
649.41	411.03
649.75	409.47
650.09	407.98
650.43	406.43
650.78	404.69
651.12	403.16
651.46	401.66
651.80	400.21
652.14	398.77
652.49	397.38
652.83	395.82
653.17	394.22
653.51	392.57
653.85	391.22
654.20	389.87
654.54	388.22
654.88	386.68
655.22	385.26
655.56	383.77
655.90	382.23
656.25	380.73
656.59	379.29
656.93	377.92
657.27	376.67
657.61	375.19
657.95	373.81
658.29	372.40
658.64	371.13
658.98	369.63
659.32	367.99
659.66	366.53
660.00	365.10
660.34	363.58
660.68	362.20
661.02	360.73
661.36	359.35
661.70	358.10
662.05	356.85
662.39	355.58
662.73	354.49
663.07	353.41
663.41	352.19
663.75	350.81
664.09	349.49
664.43	348.07
664.77	346.85
665.11	345.53
665.45	344.26
665.79	343.05
666.13	341.82
666.47	340.68
666.81	339.44
667.15	338.19
667.49	337.26
667.83	336.24
668.17	335.05
668.51	333.91
668.85	332.85
669.19	331.81
669.53	330.51
669.87	329.24
670.21	328.05
670.55	327.03
670.89	326.27
671.23	325.38
671.57	324.45
671.91	323.48
672.25	322.52
672.58	321.76
672.92	320.65
673.26	319.74
673.60	318.94
673.94	318.00
674.28	317.21
674.62	316.34
674.96	315.39
675.30	314.57
675.64	313.64
675.97	312.68
676.31	311.76
676.65	310.98
676.99	310.32
677.33	309.33
677.67	308.42
678.01	307.38
678.34	306.60
678.68	305.86
679.02	305.02
679.36	304.22
679.70	303.23
680.04	302.42
680.37	301.52
680.71	300.59
681.05	299.87
681.39	299.00
681.73	298.13
682.06	297.32
682.40	296.59
682.74	295.87
683.08	295.22
683.42	294.40
683.75	293.63
684.09	292.73
684.43	292.03
684.77	291.23
685.10	290.40
685.44	289.49
685.78	288.56
686.12	287.78
686.45	287.03
686.79	286.37
687.13	285.75
687.46	285.01
687.80	284.41
688.14	283.65
688.48	283.04
688.81	282.31
689.15	281.66
689.49	280.88
689.82	280.22
690.16	279.31
690.50	278.60
690.83	277.89
691.17	277.15
691.51	276.49
691.84	275.92
692.18	275.32
692.52	274.72
692.85	274.24
693.19	273.75
693.52	273.13
693.86	272.40
694.20	271.71
694.53	271.08
694.87	270.35
695.21	269.76
695.54	269.08
695.88	268.33
696.21	267.60
696.55	267.04
696.88	266.39
697.22	265.83
697.56	265.38
697.89	264.71
698.23	264.21
698.56	263.62
698.90	263.10
699.23	262.53
699.57	261.97
699.90	261.28
700.24	260.61
700.58	260.13
700.91	259.66
701.25	259.35
701.58	258.94
701.92	258.57
702.25	258.01
702.59	257.48
702.92	257.10
703.26	256.70
703.59	256.25
703.93	256.08
704.26	255.63
704.60	255.16
704.93	254.72
705.26	254.25
705.60	253.89
705.93	253.31
706.27	252.98
706.60	252.62
706.94	252.38
707.27	251.93
707.61	251.49
707.94	251.07
708.27	250.42
708.61	249.91
708.94	249.48
709.28	249.08
709.61	248.66
709.94	248.28
710.28	247.92
710.61	247.56
710.95	246.85
711.28	246.72
711.61	246.34
711.95	246.11
712.28	245.65
712.61	245.28
712.95	245.15
713.28	244.89
713.61	244.40
713.95	243.99
714.28	243.71
714.61	243.40
714.95	243.08
715.28	242.73
715.61	242.41
715.95	241.98
716.28	241.60
716.61	241.38
716.95	241.02
717.28	240.77
717.61	240.47
717.94	240.25
718.28	239.65
718.61	239.29
718.94	238.90
719.27	238.73
719.61	238.45
719.94	238.04
720.27	237.55
720.60	237.30
720.94	236.98
721.27	236.69
721.60	236.42
721.93	236.08
722.27	235.93
722.60	235.78
722.93	235.55
723.26	235.38
723.59	235.08
723.93	234.86
724.26	234.61
724.59	234.35
724.92	234.07
725.25	234.01
725.59	233.89
725.92	233.78
726.25	233.49
726.58	233.37
726.91	233.16
727.24	233.02
727.57	232.80
727.91	232.57
728.24	232.40
728.57	232.13
728.90	232.04
729.23	231.72
729.56	231.69
729.89	231.51
730.22	231.33
730.55	231.17
730.89	230.98
731.22	230.72
731.55	230.54
731.88	230.41
732.21	230.13
732.54	229.86
732.87	229.64
733.20	229.45
733.53	229.13
733.86	229.03
734.19	228.80
734.52	228.72
734.85	228.83
735.18	228.62
735.51	228.59
735.84	228.39
736.17	228.36
736.50	227.97
736.83	228.25
737.16	228.12
737.49	227.93
737.82	227.79
738.15	227.72
738.48	227.49
738.81	227.29
739.14	227.09
739.47	226.90
739.80	226.72
740.13	226.60
740.46	226.38
740.79	226.07
741.12	225.94
741.45	225.76
741.78	225.34
742.11	225.33
742.44	225.10
742.77	225.01
743.10	224.79
743.43	224.61
743.75	224.06
744.08	224.39
744.41	224.20
744.74	224.12
745.07	223.89
745.40	223.88
745.73	223.95
746.06	223.85
746.39	223.77
746.71	223.60
747.04	223.44
747.37	223.36
747.70	223.37
748.03	223.29
748.36	223.25
748.68	223.18
749.01	222.97
749.34	222.83
749.67	222.72
750.00	222.64
750.33	222.82
750.65	222.74
750.98	222.12
751.31	222.14
751.64	221.94
751.97	222.04
752.29	221.81
752.62	221.47
752.95	221.40
753.28	221.29
753.60	221.18
753.93	221.18
754.26	221.13
754.59	220.86
754.91	220.67
755.24	220.48
755.57	220.43
755.90	220.30
756.22	220.22
756.55	220.11
756.88	219.96
757.20	219.67
757.53	219.45
757.86	219.33
758.19	219.25
758.51	219.21
758.84	218.95
759.17	218.90
759.49	218.83
759.82	218.86
760.15	218.78
760.47	218.70
760.80	218.53
761.13	218.46
761.45	218.39
761.78	218.36
762.11	218.32
762.43	218.14
762.76	218.05
763.08	217.95
763.41	217.84
763.74	217.80
764.06	217.70
764.39	217.72
764.71	217.69
765.04	217.56
765.37	217.45
765.69	217.32
766.02	217.28
766.34	217.19
766.67	217.02
767.00	217.04
767.32	217.17
767.65	217.41
767.97	217.34
768.30	217.34
768.62	217.31
768.95	217.17
769.27	217.10
769.60	217.06
769.92	216.93
770.25	216.86
770.57	216.75
770.90	216.68
771.22	216.52
771.55	216.41
771.87	216.31
772.20	216.21
772.52	216.54
772.85	216.85
773.17	216.85
773.50	216.75
773.82	216.61
774.15	216.40
774.47	216.03
774.80	215.99
775.12	215.93
775.45	215.80
775.77	215.86
776.09	215.92
776.42	215.95
776.74	216.10
777.07	215.98
777.39	215.95
777.72	215.92
778.04	216.01
778.36	216.05
778.69	216.08
779.01	216.10
779.33	215.75
779.66	215.28
779.98	215.18
780.31	215.20
780.63	215.32
780.95	215.36
781.28	215.37
781.60	215.25
781.92	215.20
782.25	215.23
782.57	215.16
782.89	215.08
783.22	214.98
783.54	214.83
783.86	214.86
784.19	214.88
784.51	214.87
784.83	214.70
785.16	214.69
785.48	214.67
785.80	214.63
786.12	214.63
786.45	214.69
786.77	214.65
787.09	214.58
787.42	214.44
787.74	214.39
788.06	214.33
788.38	214.33
788.71	214.40
789.03	214.32
789.35	214.33
789.67	214.27
789.99	214.22
790.32	214.21
790.64	214.20
790.96	214.44
791.28	214.41
791.61	214.35
791.93	214.31
792.25	214.26
792.57	214.54
792.89	214.41
793.21	214.36
793.54	214.36
793.86	214.35
794.18	214.34
