SpectraSuite Data File
++++++++++++++++++++++++++++++++++++
Date: Mon Feb 25 17:13:30 EST 2013
User: group
Dark Spectrum Present: No
Reference Spectrum Present: No
Number of Sampled Component Spectra: 1
Spectrometers: USB2E7196
Integration Time (usec): 104000 (USB2E7196)
Spectra Averaged: 20 (USB2E7196)
Boxcar Smoothing: 10 (USB2E7196)
Correct for Electrical Dark: No (USB2E7196)
Strobe/Lamp Enabled: No (USB2E7196)
Correct for Detector Non-linearity: No (USB2E7196)
Correct for Stray Light: No (USB2E7196)
Number of Pixels in Processed Spectrum: 2048
>>>>>Begin Processed Spectral Data<<<<<
339.09	0.00
339.48	197.45
339.86	199.50
340.24	200.15
340.63	202.00
341.01	209.60
341.39	205.75
341.78	208.05
342.16	209.25
342.54	207.55
342.93	198.18
343.31	208.10
343.69	208.70
344.07	209.18
344.46	209.73
344.84	210.16
345.22	210.21
345.60	210.44
345.99	210.59
346.37	210.71
346.75	210.86
347.13	210.95
347.52	210.95
347.90	211.10
348.28	211.10
348.66	211.19
349.05	211.07
349.43	211.14
349.81	211.27
350.19	211.31
350.57	211.34
350.96	211.43
351.34	211.59
351.72	211.65
352.10	211.79
352.48	211.75
352.87	211.74
353.25	211.78
353.63	211.86
354.01	211.93
354.39	211.97
354.77	212.04
355.15	212.23
355.54	212.27
355.92	212.22
356.30	212.32
356.68	212.65
357.06	212.81
357.44	212.84
357.82	212.92
358.20	212.92
358.58	213.00
358.97	213.02
359.35	213.14
359.73	213.34
360.11	213.39
360.49	213.45
360.87	213.59
361.25	213.72
361.63	213.95
362.01	213.99
362.39	214.08
362.77	214.18
363.15	214.12
363.53	214.23
363.91	214.30
364.29	214.32
364.67	214.00
365.05	213.97
365.43	214.02
365.81	214.11
366.19	214.26
366.57	214.40
366.95	214.47
367.33	214.39
367.71	214.27
368.09	214.32
368.47	214.36
368.85	214.35
369.23	214.35
369.61	214.10
369.99	214.15
370.37	214.13
370.75	214.30
371.13	214.27
371.51	214.17
371.89	214.20
372.27	214.18
372.65	214.17
373.03	214.17
373.41	214.05
373.78	213.96
374.16	213.80
374.54	213.61
374.92	213.56
375.30	213.55
375.68	213.51
376.06	213.48
376.44	213.38
376.82	213.34
377.19	213.34
377.57	213.33
377.95	213.21
378.33	213.16
378.71	212.87
379.09	212.87
379.47	212.85
379.84	212.74
380.22	212.56
380.60	212.50
380.98	212.43
381.36	212.40
381.73	212.29
382.11	212.32
382.49	212.33
382.87	212.26
383.25	212.20
383.62	212.50
384.00	212.39
384.38	212.40
384.76	212.49
385.13	212.52
385.51	212.46
385.89	212.37
386.27	212.35
386.64	212.37
387.02	212.29
387.40	212.25
387.78	212.20
388.15	212.24
388.53	212.12
388.91	212.05
389.29	211.99
389.66	212.07
390.04	212.05
390.42	212.06
390.79	211.95
391.17	211.95
391.55	211.60
391.92	211.60
392.30	211.65
392.68	211.56
393.05	211.58
393.43	211.71
393.81	211.74
394.18	211.60
394.56	211.57
394.94	211.68
395.31	211.65
395.69	211.75
396.06	211.84
396.44	211.97
396.82	211.92
397.19	212.17
397.57	212.10
397.95	212.10
398.32	211.97
398.70	212.03
399.07	212.07
399.45	212.10
399.82	212.09
400.20	212.05
400.58	212.09
400.95	211.96
401.33	211.94
401.70	212.26
402.08	212.37
402.45	212.44
402.83	212.53
403.20	212.64
403.58	212.66
403.95	212.75
404.33	212.88
404.71	213.01
405.08	213.23
405.46	213.24
405.83	213.41
406.21	213.48
406.58	213.62
406.96	213.76
407.33	213.92
407.70	214.11
408.08	214.54
408.45	214.60
408.83	214.80
409.20	215.06
409.58	215.05
409.95	215.28
410.33	215.46
410.70	215.54
411.08	215.85
411.45	216.12
411.82	216.34
412.20	216.61
412.57	217.13
412.95	217.15
413.32	217.66
413.69	217.98
414.07	218.46
414.44	218.93
414.82	219.41
415.19	219.90
415.56	220.44
415.94	220.81
416.31	221.62
416.68	222.28
417.06	222.94
417.43	223.75
417.81	224.61
418.18	225.53
418.55	226.42
418.93	227.32
419.30	228.29
419.67	229.44
420.04	230.49
420.42	231.56
420.79	233.16
421.16	234.45
421.54	235.99
421.91	237.43
422.28	238.90
422.66	240.48
423.03	242.24
423.40	243.80
423.77	245.50
424.15	247.12
424.52	248.94
424.89	250.99
425.26	252.76
425.64	254.51
426.01	256.46
426.38	258.64
426.75	260.80
427.13	263.05
427.50	265.24
427.87	267.62
428.24	269.94
428.61	272.00
428.99	274.57
429.36	277.16
429.73	279.86
430.10	282.54
430.47	285.26
430.85	287.97
431.22	290.91
431.59	294.27
431.96	297.31
432.33	300.63
432.70	303.80
433.08	307.51
433.45	311.04
433.82	314.46
434.19	318.23
434.56	322.08
434.93	325.65
435.30	329.27
435.68	333.29
436.05	337.26
436.42	341.20
436.79	344.86
437.16	348.60
437.53	352.69
437.90	356.74
438.27	360.70
438.64	364.73
439.01	368.57
439.38	371.76
439.75	375.07
440.13	378.76
440.50	382.12
440.87	385.05
441.24	388.08
441.61	391.43
441.98	393.86
442.35	396.58
442.72	399.43
443.09	402.33
443.46	403.97
443.83	405.08
444.20	405.94
444.57	407.15
444.94	407.98
445.31	408.60
445.68	409.55
446.05	409.80
446.42	409.35
446.79	408.95
447.16	408.25
447.53	407.68
447.90	406.17
448.27	404.65
448.64	402.56
449.01	401.00
449.37	398.32
449.74	395.66
450.11	392.76
450.48	389.32
450.85	385.65
451.22	382.64
451.59	379.83
451.96	377.12
452.33	373.53
452.70	370.11
453.07	366.14
453.43	361.79
453.80	357.98
454.17	354.36
454.54	350.74
454.91	347.16
455.28	343.59
455.65	340.14
456.02	337.27
456.38	334.30
456.75	330.75
457.12	327.73
457.49	324.83
457.86	321.71
458.23	319.41
458.59	316.79
458.96	314.13
459.33	311.68
459.70	309.29
460.07	307.40
460.43	305.24
460.80	303.25
461.17	301.54
461.54	299.63
461.91	297.78
462.27	296.00
462.64	294.39
463.01	292.71
463.38	291.20
463.74	289.02
464.11	287.51
464.48	286.26
464.85	284.80
465.21	283.85
465.58	282.84
465.95	281.46
466.32	280.33
466.68	279.16
467.05	278.01
467.42	276.96
467.78	275.70
468.15	274.54
468.52	273.72
468.88	272.59
469.25	271.64
469.62	271.03
469.98	270.25
470.35	269.53
470.72	268.87
471.08	268.00
471.45	267.45
471.82	267.06
472.18	266.37
472.55	265.96
472.92	265.37
473.28	264.86
473.65	264.29
474.02	263.84
474.38	263.54
474.75	263.30
475.11	262.91
475.48	262.82
475.85	262.70
476.21	262.50
476.58	262.45
476.94	262.36
477.31	262.19
477.67	262.03
478.04	262.05
478.41	262.03
478.77	262.47
479.14	262.50
479.50	262.50
479.87	262.71
480.23	262.83
480.60	262.92
480.96	263.09
481.33	263.51
481.69	263.81
482.06	264.11
482.42	264.52
482.79	264.91
483.15	265.29
483.52	265.79
483.88	266.25
484.25	266.68
484.61	267.28
484.98	267.95
485.34	268.95
485.71	269.70
486.07	270.56
486.44	271.12
486.80	272.07
487.17	273.03
487.53	274.14
487.90	275.39
488.26	276.79
488.62	278.07
488.99	279.28
489.35	280.76
489.72	282.17
490.08	283.64
490.44	285.35
490.81	287.15
491.17	288.91
491.54	290.97
491.90	293.06
492.26	295.20
492.63	297.38
492.99	299.47
493.36	301.96
493.72	304.54
494.08	307.20
494.45	310.12
494.81	313.17
495.17	316.20
495.54	319.39
495.90	322.54
496.26	325.96
496.63	329.62
496.99	333.18
497.35	337.20
497.72	341.28
498.08	345.47
498.44	349.89
498.80	354.57
499.17	359.22
499.53	364.14
499.89	369.25
500.26	374.45
500.62	379.82
500.98	385.50
501.34	391.19
501.71	397.20
502.07	403.29
502.43	409.47
502.79	415.85
503.16	422.52
503.52	429.43
503.88	436.48
504.24	443.65
504.60	451.28
504.97	458.94
505.33	466.69
505.69	474.91
506.05	483.08
506.41	491.59
506.78	500.27
507.14	509.00
507.50	517.99
507.86	527.25
508.22	536.66
508.59	546.00
508.95	555.89
509.31	565.86
509.67	576.05
510.03	586.53
510.39	597.22
510.75	608.12
511.12	619.21
511.48	630.29
511.84	641.58
512.20	653.01
512.56	664.68
512.92	676.52
513.28	688.38
513.64	700.57
514.00	712.65
514.37	724.95
514.73	737.55
515.09	750.23
515.45	763.13
515.81	776.07
516.17	789.20
516.53	802.36
516.89	815.43
517.25	828.65
517.61	841.98
517.97	855.40
518.33	868.65
518.69	882.09
519.05	895.90
519.41	909.76
519.77	923.74
520.13	937.45
520.49	951.33
520.85	965.22
521.21	979.24
521.57	993.33
521.93	1006.88
522.29	1020.99
522.65	1035.01
523.01	1048.97
523.37	1062.80
523.73	1077.01
524.09	1090.89
524.45	1104.82
524.81	1118.55
525.17	1132.80
525.53	1146.70
525.89	1160.68
526.25	1174.52
526.61	1187.97
526.97	1201.59
527.33	1215.02
527.68	1228.81
528.04	1241.89
528.40	1254.65
528.76	1267.38
529.12	1280.44
529.48	1294.34
529.84	1307.26
530.20	1320.02
530.56	1333.04
530.91	1346.42
531.27	1359.20
531.63	1371.62
531.99	1384.35
532.35	1396.96
532.71	1408.89
533.07	1421.29
533.42	1433.45
533.78	1445.49
534.14	1457.22
534.50	1467.88
534.86	1479.16
535.21	1489.63
535.57	1501.39
535.93	1512.36
536.29	1523.24
536.65	1533.87
537.00	1543.65
537.36	1553.33
537.72	1563.03
538.08	1572.47
538.44	1581.71
538.79	1590.90
539.15	1600.21
539.51	1609.03
539.87	1618.17
540.22	1626.86
540.58	1635.58
540.94	1643.82
541.29	1651.54
541.65	1659.02
542.01	1667.28
542.37	1674.78
542.72	1682.65
543.08	1689.18
543.44	1697.02
543.79	1703.43
544.15	1709.79
544.51	1716.39
544.87	1723.14
545.22	1729.09
545.58	1734.25
545.94	1739.26
546.29	1743.73
546.65	1748.35
547.01	1752.78
547.36	1756.71
547.72	1760.58
548.07	1763.98
548.43	1767.19
548.79	1770.14
549.14	1773.47
549.50	1776.58
549.86	1779.20
550.21	1781.42
550.57	1784.35
550.92	1785.71
551.28	1787.66
551.64	1789.50
551.99	1791.36
552.35	1792.44
552.70	1793.91
553.06	1795.60
553.41	1796.66
553.77	1797.99
554.13	1798.96
554.48	1799.95
554.84	1800.86
555.19	1801.44
555.55	1801.61
555.90	1801.55
556.26	1801.43
556.61	1801.15
556.97	1800.30
557.32	1799.77
557.68	1798.85
558.03	1797.63
558.39	1797.01
558.74	1796.92
559.10	1796.15
559.45	1795.01
559.81	1794.62
560.16	1793.42
560.52	1792.32
560.87	1791.24
561.23	1789.47
561.58	1788.24
561.94	1786.39
562.29	1784.05
562.64	1782.46
563.00	1781.01
563.35	1779.75
563.71	1779.07
564.06	1777.65
564.42	1776.43
564.77	1774.91
565.12	1773.79
565.48	1772.40
565.83	1770.80
566.19	1769.07
566.54	1766.55
566.89	1764.10
567.25	1761.78
567.60	1759.75
567.96	1757.22
568.31	1755.00
568.66	1752.48
569.02	1749.45
569.37	1746.21
569.72	1743.65
570.08	1740.22
570.43	1736.65
570.78	1732.91
571.14	1728.50
571.49	1724.56
571.84	1720.89
572.20	1716.60
572.55	1712.60
572.90	1707.97
573.26	1703.41
573.61	1698.40
573.96	1694.00
574.31	1689.09
574.67	1683.81
575.02	1678.38
575.37	1673.20
575.72	1667.52
576.08	1662.80
576.43	1657.46
576.78	1652.75
577.13	1647.96
577.49	1643.19
577.84	1637.99
578.19	1633.47
578.54	1629.35
578.90	1625.09
579.25	1620.10
579.60	1615.20
579.95	1609.72
580.30	1605.08
580.66	1600.53
581.01	1595.40
581.36	1590.28
581.71	1585.34
582.06	1580.49
582.42	1575.86
582.77	1570.75
583.12	1565.78
583.47	1560.84
583.82	1556.41
584.17	1551.41
584.53	1546.79
584.88	1541.88
585.23	1537.04
585.58	1531.96
585.93	1526.67
586.28	1521.68
586.63	1516.53
586.98	1511.61
587.34	1507.23
587.69	1502.01
588.04	1496.93
588.39	1492.24
588.74	1487.01
589.09	1482.57
589.44	1477.47
589.79	1472.63
590.14	1467.92
590.49	1463.12
590.84	1458.22
591.19	1453.53
591.54	1448.67
591.89	1442.60
592.25	1437.88
592.60	1432.84
592.95	1427.40
593.30	1421.70
593.65	1415.80
594.00	1410.54
594.35	1406.67
594.70	1401.35
595.05	1396.53
595.40	1391.42
595.75	1385.72
596.10	1380.99
596.45	1375.96
596.80	1371.45
597.15	1366.70
597.50	1361.52
597.85	1357.07
598.19	1351.98
598.54	1347.10
598.89	1342.62
599.24	1338.76
599.59	1333.85
599.94	1329.78
600.29	1325.40
600.64	1320.82
600.99	1316.21
601.34	1312.09
601.69	1306.18
602.04	1301.24
602.39	1296.56
602.74	1292.00
603.08	1288.31
603.43	1284.56
603.78	1280.05
604.13	1275.32
604.48	1270.87
604.83	1267.25
605.18	1263.14
605.53	1258.71
605.87	1253.94
606.22	1249.51
606.57	1244.86
606.92	1240.26
607.27	1235.15
607.62	1230.56
607.96	1226.54
608.31	1222.47
608.66	1217.48
609.01	1212.75
609.36	1208.12
609.70	1202.97
610.05	1197.70
610.40	1192.60
610.75	1187.12
611.10	1182.38
611.44	1176.81
611.79	1171.11
612.14	1165.36
612.49	1159.12
612.83	1153.95
613.18	1148.43
613.53	1142.63
613.88	1136.58
614.22	1131.15
614.57	1125.74
614.92	1120.10
615.27	1114.27
615.61	1108.59
615.96	1103.44
616.31	1098.54
616.65	1093.70
617.00	1088.61
617.35	1083.47
617.70	1077.98
618.04	1072.26
618.39	1066.15
618.74	1061.10
619.08	1055.74
619.43	1050.24
619.78	1045.36
620.12	1040.07
620.47	1034.99
620.82	1029.36
621.16	1024.04
621.51	1018.42
621.85	1013.04
622.20	1007.71
622.55	1002.39
622.89	997.18
623.24	991.76
623.59	986.01
623.93	980.33
624.28	975.00
624.62	970.00
624.97	964.85
625.32	959.91
625.66	955.20
626.01	950.11
626.35	945.35
626.70	940.42
627.04	935.89
627.39	930.94
627.73	925.98
628.08	921.70
628.43	916.82
628.77	912.06
629.12	907.27
629.46	902.87
629.81	898.39
630.15	893.59
630.50	888.65
630.84	883.92
631.19	879.23
631.53	874.70
631.88	869.50
632.22	864.65
632.57	860.27
632.91	855.55
633.26	850.93
633.60	846.29
633.95	841.87
634.29	837.00
634.64	832.65
634.98	828.02
635.32	823.67
635.67	819.61
636.01	815.33
636.36	810.67
636.70	806.26
637.05	801.80
637.39	797.52
637.73	793.74
638.08	789.99
638.42	786.21
638.77	782.13
639.11	778.03
639.45	773.98
639.80	769.42
640.14	765.17
640.49	760.92
640.83	756.62
641.17	752.48
641.52	748.16
641.86	743.70
642.20	739.57
642.55	734.83
642.89	730.38
643.23	726.01
643.58	722.25
643.92	717.82
644.26	713.65
644.61	709.50
644.95	705.11
645.29	700.70
645.64	696.35
645.98	692.21
646.32	688.36
646.66	684.15
647.01	680.24
647.35	676.39
647.69	672.24
648.04	668.45
648.38	664.36
648.72	660.29
649.06	656.33
649.41	652.40
649.75	648.64
650.09	644.98
650.43	641.21
650.78	637.08
651.12	633.07
651.46	629.24
651.80	625.53
652.14	621.65
652.49	617.97
652.83	614.15
653.17	610.04
653.51	606.19
653.85	602.54
654.20	598.72
654.54	594.78
654.88	591.09
655.22	587.15
655.56	583.36
655.90	579.79
656.25	576.05
656.59	572.23
656.93	568.68
657.27	565.08
657.61	561.33
657.95	557.89
658.29	554.52
658.64	551.20
658.98	547.57
659.32	543.96
659.66	540.44
660.00	536.89
660.34	533.51
660.68	530.08
661.02	526.69
661.36	523.46
661.70	520.25
662.05	517.24
662.39	514.44
662.73	511.56
663.07	508.54
663.41	505.70
663.75	502.74
664.09	499.69
664.43	496.60
664.77	493.89
665.11	491.01
665.45	488.22
665.79	485.38
666.13	482.53
666.47	479.85
666.81	477.06
667.15	474.34
667.49	471.84
667.83	469.26
668.17	466.75
668.51	464.23
668.85	461.78
669.19	459.33
669.53	456.68
669.87	454.11
670.21	451.62
670.55	449.12
670.89	447.07
671.23	444.90
671.57	442.59
671.91	440.05
672.25	437.62
672.58	435.39
672.92	432.94
673.26	430.85
673.60	428.55
673.94	426.34
674.28	424.20
674.62	422.14
674.96	420.07
675.30	417.88
675.64	415.75
675.97	413.58
676.31	411.54
676.65	409.45
676.99	407.65
677.33	405.60
677.67	403.68
678.01	401.44
678.34	399.45
678.68	397.52
679.02	395.64
679.36	393.80
679.70	391.81
680.04	389.93
680.37	387.99
680.71	386.20
681.05	384.52
681.39	382.72
681.73	380.80
682.06	378.99
682.40	377.25
682.74	375.62
683.08	374.02
683.42	372.19
683.75	370.61
684.09	368.79
684.43	367.12
684.77	365.34
685.10	363.58
685.44	361.80
685.78	360.13
686.12	358.65
686.45	357.04
686.79	355.45
687.13	353.93
687.46	352.46
687.80	351.11
688.14	349.45
688.48	348.03
688.81	346.44
689.15	345.05
689.49	343.52
689.82	341.98
690.16	340.31
690.50	338.84
690.83	337.19
691.17	335.63
691.51	334.13
691.84	332.78
692.18	331.45
692.52	330.15
692.85	328.80
693.19	327.54
693.52	326.20
693.86	324.84
694.20	323.58
694.53	322.28
694.87	320.97
695.21	319.75
695.54	318.29
695.88	316.96
696.21	315.59
696.55	314.44
696.88	313.28
697.22	312.04
697.56	310.90
697.89	309.69
698.23	308.56
698.56	307.41
698.90	306.25
699.23	305.22
699.57	304.04
699.90	302.91
700.24	301.61
700.58	300.59
700.91	299.60
701.25	298.74
701.58	297.73
701.92	296.57
702.25	295.51
702.59	294.56
702.92	293.70
703.26	292.75
703.59	291.88
703.93	291.12
704.26	290.28
704.60	289.40
704.93	288.59
705.26	287.63
705.60	286.79
705.93	285.89
706.27	285.01
706.60	284.35
706.94	283.63
707.27	282.78
707.61	281.88
707.94	281.02
708.27	279.93
708.61	279.01
708.94	278.29
709.28	277.50
709.61	276.80
709.94	276.06
710.28	275.36
710.61	274.52
710.95	273.59
711.28	273.13
711.61	272.35
711.95	271.79
712.28	271.08
712.61	270.38
712.95	269.89
713.28	269.31
713.61	268.47
713.95	267.77
714.28	267.22
714.61	266.62
714.95	265.97
715.28	265.37
715.61	264.73
715.95	264.15
716.28	263.54
716.61	262.85
716.95	262.27
717.28	261.68
717.61	261.06
717.94	260.48
718.28	259.64
718.61	259.10
718.94	258.32
719.27	257.85
719.61	257.36
719.94	256.75
720.27	256.11
720.60	255.60
720.94	255.09
721.27	254.65
721.60	254.20
721.93	253.79
722.27	253.50
722.60	253.16
722.93	252.62
723.26	252.21
723.59	251.81
723.93	251.33
724.26	250.91
724.59	250.52
724.92	250.07
725.25	249.67
725.59	249.26
725.92	248.95
726.25	248.48
726.58	248.11
726.91	247.74
727.24	247.36
727.57	247.05
727.91	246.65
728.24	246.19
728.57	245.85
728.90	245.53
729.23	244.99
729.56	244.81
729.89	244.51
730.22	244.17
730.55	243.78
730.89	243.43
731.22	243.03
731.55	242.69
731.88	242.34
732.21	242.05
732.54	241.74
732.87	241.41
733.20	241.14
733.53	240.78
733.86	240.47
734.19	240.20
734.52	239.93
734.85	239.92
735.18	239.64
735.51	239.39
735.84	239.10
736.17	238.89
736.50	238.36
736.83	238.47
737.16	238.13
737.49	237.93
737.82	237.64
738.15	237.40
738.48	237.14
738.81	236.88
739.14	236.55
739.47	236.27
739.80	235.98
740.13	235.75
740.46	235.44
740.79	235.15
741.12	234.85
741.45	234.52
741.78	233.98
742.11	233.75
742.44	233.46
742.77	233.26
743.10	232.95
743.43	232.73
743.75	232.15
744.08	232.39
744.41	232.16
744.74	231.91
745.07	231.67
745.40	231.53
745.73	231.46
746.06	231.25
746.39	231.09
746.71	230.93
747.04	230.67
747.37	230.49
747.70	230.27
748.03	230.13
748.36	229.99
748.68	229.89
749.01	229.54
749.34	229.35
749.67	229.10
750.00	228.94
750.33	229.04
750.65	228.85
750.98	228.28
751.31	228.00
751.64	227.85
751.97	227.81
752.29	227.57
752.62	227.22
752.95	227.09
753.28	226.82
753.60	226.66
753.93	226.61
754.26	226.43
754.59	226.21
754.91	225.95
755.24	225.73
755.57	225.50
755.90	225.51
756.22	225.35
756.55	225.16
756.88	225.04
757.20	224.65
757.53	224.34
757.86	224.10
758.19	224.04
758.51	223.83
758.84	223.49
759.17	223.34
759.49	223.24
759.82	223.16
760.15	223.04
760.47	222.84
760.80	222.59
761.13	222.50
761.45	222.40
761.78	222.29
762.11	222.10
762.43	221.96
762.76	221.74
763.08	221.68
763.41	221.61
763.74	221.48
764.06	221.38
764.39	221.36
764.71	221.28
765.04	221.04
765.37	221.00
765.69	220.95
766.02	220.89
766.34	220.69
766.67	220.46
767.00	220.37
767.32	220.52
767.65	220.64
767.97	220.46
768.30	220.35
768.62	220.20
768.95	220.19
769.27	220.09
769.60	220.03
769.92	219.85
770.25	219.73
770.57	219.55
770.90	219.40
771.22	219.29
771.55	219.24
771.87	219.19
772.20	219.10
772.52	219.27
772.85	219.50
773.17	219.49
773.50	219.42
773.82	219.36
774.15	219.06
774.47	218.78
774.80	218.74
775.12	218.67
775.45	218.60
775.77	218.51
776.09	218.46
776.42	218.40
776.74	218.39
777.07	218.28
777.39	218.19
777.72	218.06
778.04	218.07
778.36	217.93
778.69	217.90
779.01	217.84
779.33	217.51
779.66	217.08
779.98	216.98
780.31	216.97
780.63	217.06
780.95	217.04
781.28	216.94
781.60	216.85
781.92	216.85
782.25	216.81
782.57	216.71
782.89	216.69
783.22	216.61
783.54	216.55
783.86	216.49
784.19	216.39
784.51	216.50
784.83	216.34
785.16	216.30
785.48	216.27
785.80	216.25
786.12	216.16
786.45	216.16
786.77	216.16
787.09	216.09
787.42	215.87
787.74	215.81
788.06	215.79
