SpectraSuite Data File
++++++++++++++++++++++++++++++++++++
Date: Mon Feb 25 16:57:22 EST 2013
User: group
Dark Spectrum Present: No
Reference Spectrum Present: No
Number of Sampled Component Spectra: 1
Spectrometers: USB2E7196
Integration Time (usec): 104000 (USB2E7196)
Spectra Averaged: 20 (USB2E7196)
Boxcar Smoothing: 10 (USB2E7196)
Correct for Electrical Dark: No (USB2E7196)
Strobe/Lamp Enabled: No (USB2E7196)
Correct for Detector Non-linearity: No (USB2E7196)
Correct for Stray Light: No (USB2E7196)
Number of Pixels in Processed Spectrum: 2048
>>>>>Begin Processed Spectral Data<<<<<
339.09	0.00
339.48	197.20
339.86	199.00
340.24	201.50
340.63	203.25
341.01	207.90
341.39	204.80
341.78	207.60
342.16	208.35
342.54	207.75
342.93	197.69
343.31	207.66
343.69	208.24
344.07	208.71
344.46	209.18
344.84	209.56
345.22	209.70
345.60	209.99
345.99	210.12
346.37	210.20
346.75	210.25
347.13	210.37
347.52	210.42
347.90	210.65
348.28	210.74
348.66	210.92
349.05	210.75
349.43	210.85
349.81	210.81
350.19	210.83
350.57	210.98
350.96	211.08
351.34	211.15
351.72	211.33
352.10	211.45
352.48	211.52
352.87	211.58
353.25	211.65
353.63	211.69
354.01	211.80
354.39	211.93
354.77	212.10
355.15	212.27
355.54	212.29
355.92	212.18
356.30	212.23
356.68	212.57
357.06	212.80
357.44	212.81
357.82	212.94
358.20	213.10
358.58	213.17
358.97	213.25
359.35	213.46
359.73	213.54
360.11	213.64
360.49	213.66
360.87	213.73
361.25	213.85
361.63	214.06
362.01	214.19
362.39	214.21
362.77	214.27
363.15	214.36
363.53	214.43
363.91	214.55
364.29	214.67
364.67	214.32
365.05	214.35
365.43	214.40
365.81	214.48
366.19	214.61
366.57	214.79
366.95	214.74
367.33	214.66
367.71	214.65
368.09	214.73
368.47	214.77
368.85	214.79
369.23	214.81
369.61	214.66
369.99	214.74
370.37	214.76
370.75	214.94
371.13	214.71
371.51	214.68
371.89	214.65
372.27	214.67
372.65	214.64
373.03	214.61
373.41	214.57
373.78	214.47
374.16	214.29
374.54	214.15
374.92	214.13
375.30	214.11
375.68	213.99
376.06	213.94
376.44	213.81
376.82	213.80
377.19	213.69
377.57	213.65
377.95	213.43
378.33	213.39
378.71	213.07
379.09	213.13
379.47	213.13
379.84	213.08
380.22	212.87
380.60	212.81
380.98	212.74
381.36	212.70
381.73	212.69
382.11	212.64
382.49	212.57
382.87	212.47
383.25	212.35
383.62	212.75
384.00	212.60
384.38	212.66
384.76	212.60
385.13	212.74
385.51	212.68
385.89	212.61
386.27	212.54
386.64	212.59
387.02	212.48
387.40	212.36
387.78	212.39
388.15	212.41
388.53	212.41
388.91	212.38
389.29	212.32
389.66	212.32
390.04	212.25
390.42	212.27
390.79	212.30
391.17	212.32
391.55	211.89
391.92	211.94
392.30	211.94
392.68	211.87
393.05	211.75
393.43	211.76
393.81	211.78
394.18	211.80
394.56	211.83
394.94	211.99
395.31	212.00
395.69	212.06
396.06	212.15
396.44	212.16
396.82	212.14
397.19	212.32
397.57	212.25
397.95	212.38
398.32	212.29
398.70	212.33
399.07	212.46
399.45	212.55
399.82	212.64
400.20	212.60
400.58	212.71
400.95	212.72
401.33	212.90
401.70	213.28
402.08	213.37
402.45	213.46
402.83	213.65
403.20	213.84
403.58	213.95
403.95	214.19
404.33	214.42
404.71	214.67
405.08	215.09
405.46	215.30
405.83	215.50
406.21	215.76
406.58	216.10
406.96	216.43
407.33	216.79
407.70	217.17
408.08	217.91
408.45	218.38
408.83	218.98
409.20	219.42
409.58	219.84
409.95	220.52
410.33	221.26
410.70	221.87
411.08	222.64
411.45	223.48
411.82	224.30
412.20	225.34
412.57	226.51
412.95	227.30
413.32	228.56
413.69	229.91
414.07	231.27
414.44	232.73
414.82	234.20
415.19	235.96
415.56	237.76
415.94	239.53
416.31	241.60
416.68	243.69
417.06	246.19
417.43	248.49
417.81	251.23
418.18	253.99
418.55	256.92
418.93	260.04
419.30	263.19
419.67	266.50
420.04	270.01
420.42	273.72
420.79	278.06
421.16	282.39
421.54	286.88
421.91	291.60
422.28	296.36
422.66	301.53
423.03	306.66
423.40	311.90
423.77	317.58
424.15	323.26
424.52	329.20
424.89	335.69
425.26	342.09
425.64	348.01
426.01	354.54
426.38	361.49
426.75	368.65
427.13	376.08
427.50	383.80
427.87	391.89
428.24	400.01
428.61	407.86
428.99	416.33
429.36	425.52
429.73	434.63
430.10	443.87
430.47	453.33
430.85	463.08
431.22	473.36
431.59	484.33
431.96	494.86
432.33	506.61
432.70	517.92
433.08	531.11
433.45	543.81
433.82	556.51
434.19	570.49
434.56	584.08
434.93	597.40
435.30	610.98
435.68	625.79
436.05	640.51
436.42	655.15
436.79	668.68
437.16	683.44
437.53	698.92
437.90	714.15
438.27	729.23
438.64	745.09
439.01	759.92
439.38	773.29
439.75	786.18
440.13	800.63
440.50	814.61
440.87	826.32
441.24	838.37
441.61	851.61
441.98	861.81
442.35	873.66
442.72	885.53
443.09	896.61
443.46	903.72
443.83	908.93
444.20	913.58
444.57	920.17
444.94	923.72
445.31	927.48
445.68	931.07
446.05	933.30
446.42	933.04
446.79	932.41
447.16	931.55
447.53	931.48
447.90	927.28
448.27	922.80
448.64	915.85
449.01	911.20
449.37	902.13
449.74	893.33
450.11	882.52
450.48	870.81
450.85	859.03
451.22	849.06
451.59	839.45
451.96	830.33
452.33	817.52
452.70	805.97
453.07	791.94
453.43	777.86
453.80	764.26
454.17	750.98
454.54	738.63
454.91	725.24
455.28	712.13
455.65	699.90
456.02	687.59
456.38	677.37
456.75	664.32
457.12	653.52
457.49	642.78
457.86	632.39
458.23	623.21
458.59	613.30
458.96	603.33
459.33	594.44
459.70	585.44
460.07	578.32
460.43	570.33
460.80	562.84
461.17	556.06
461.54	549.00
461.91	542.41
462.27	535.54
462.64	529.78
463.01	523.38
463.38	517.25
463.74	511.13
464.11	505.69
464.48	501.00
464.85	495.93
465.21	492.07
465.58	487.88
465.95	482.81
466.32	478.59
466.68	474.45
467.05	470.20
467.42	466.02
467.78	461.62
468.15	457.40
468.52	454.14
468.88	450.21
469.25	446.62
469.62	443.65
469.98	440.44
470.35	437.34
470.72	434.55
471.08	431.54
471.45	428.96
471.82	426.32
472.18	423.52
472.55	421.35
472.92	418.90
473.28	416.72
473.65	414.64
474.02	412.53
474.38	410.73
474.75	409.40
475.11	407.83
475.48	406.73
475.85	405.61
476.21	404.60
476.58	403.71
476.94	403.03
477.31	402.25
477.67	401.65
478.04	401.13
478.41	400.70
478.77	400.67
479.14	400.18
479.50	400.00
479.87	400.09
480.23	400.11
480.60	399.97
480.96	400.01
481.33	400.66
481.69	401.14
482.06	401.45
482.42	401.60
482.79	401.99
483.15	402.67
483.52	403.58
483.88	404.36
484.25	405.12
484.61	406.05
484.98	406.92
485.34	408.20
485.71	409.61
486.07	411.09
486.44	412.20
486.80	413.97
487.17	415.78
487.53	417.66
487.90	419.78
488.26	422.13
488.62	424.55
488.99	426.86
489.35	429.32
489.72	432.12
490.08	435.07
490.44	438.11
490.81	441.17
491.17	444.15
491.54	447.55
491.90	451.08
492.26	454.69
492.63	458.50
492.99	462.34
493.36	466.34
493.72	470.62
494.08	474.94
494.45	479.52
494.81	484.12
495.17	488.77
495.54	493.66
495.90	498.53
496.26	503.54
496.63	508.72
496.99	513.97
497.35	519.49
497.72	525.15
498.08	530.74
498.44	536.42
498.80	542.76
499.17	548.85
499.53	555.13
499.89	561.52
500.26	567.73
500.62	574.00
500.98	580.54
501.34	587.02
501.71	593.63
502.07	600.08
502.43	606.80
502.79	613.48
503.16	620.13
503.52	626.97
503.88	633.67
504.24	640.53
504.60	647.57
504.97	654.45
505.33	661.15
505.69	668.67
506.05	675.75
506.41	682.56
506.78	689.27
507.14	695.90
507.50	702.60
507.86	709.46
508.22	716.26
508.59	722.63
508.95	729.46
509.31	736.39
509.67	743.14
510.03	749.50
510.39	756.41
510.75	763.25
511.12	769.81
511.48	776.50
511.84	782.93
512.20	789.26
512.56	795.81
512.92	802.22
513.28	807.99
513.64	814.15
514.00	820.07
514.37	825.92
514.73	832.05
515.09	837.82
515.45	843.60
515.81	849.11
516.17	854.94
516.53	860.21
516.89	865.30
517.25	870.27
517.61	875.61
517.97	880.32
518.33	884.83
518.69	889.37
519.05	893.93
519.41	898.41
519.77	902.96
520.13	906.84
520.49	910.85
520.85	914.81
521.21	918.81
521.57	922.74
521.93	926.53
522.29	930.28
522.65	934.12
523.01	937.70
523.37	941.09
523.73	944.34
524.09	947.49
524.45	950.72
524.81	954.06
525.17	957.44
525.53	960.72
525.89	963.70
526.25	966.83
526.61	969.53
526.97	972.23
527.33	975.01
527.68	978.16
528.04	980.93
528.40	983.66
528.76	986.23
529.12	989.10
529.48	992.25
529.84	994.93
530.20	997.60
530.56	1000.31
530.91	1003.40
531.27	1006.42
531.63	1009.30
531.99	1012.19
532.35	1014.92
532.71	1017.22
533.07	1019.83
533.42	1022.77
533.78	1025.44
534.14	1028.17
534.50	1030.45
534.86	1033.16
535.21	1035.28
535.57	1038.05
535.93	1040.59
536.29	1042.95
536.65	1045.13
537.00	1047.06
537.36	1049.08
537.72	1051.24
538.08	1053.38
538.44	1055.28
538.79	1057.40
539.15	1059.27
539.51	1061.22
539.87	1063.55
540.22	1065.85
540.58	1068.42
540.94	1070.50
541.29	1072.36
541.65	1074.01
542.01	1076.32
542.37	1078.16
542.72	1080.02
543.08	1081.46
543.44	1083.61
543.79	1085.24
544.15	1086.78
544.51	1088.86
544.87	1090.86
545.22	1092.35
545.58	1093.92
545.94	1095.47
546.29	1096.77
546.65	1098.22
547.01	1099.84
547.36	1101.02
547.72	1102.27
548.07	1103.10
548.43	1104.08
548.79	1104.79
549.14	1105.98
549.50	1107.07
549.86	1107.61
550.21	1108.82
550.57	1110.45
550.92	1111.19
551.28	1112.36
551.64	1113.48
551.99	1114.48
552.35	1115.20
552.70	1116.14
553.06	1117.16
553.41	1118.20
553.77	1119.26
554.13	1120.43
554.48	1121.44
554.84	1122.65
555.19	1123.67
555.55	1124.72
555.90	1125.47
556.26	1126.66
556.61	1127.64
556.97	1128.29
557.32	1129.31
557.68	1129.67
558.03	1129.84
558.39	1129.95
558.74	1130.59
559.10	1131.28
559.45	1131.69
559.81	1132.64
560.16	1133.15
560.52	1133.60
560.87	1134.17
561.23	1134.05
561.58	1134.53
561.94	1134.40
562.29	1134.01
562.64	1134.30
563.00	1134.52
563.35	1134.82
563.71	1135.57
564.06	1135.87
564.42	1136.50
564.77	1137.25
565.12	1138.00
565.48	1139.01
565.83	1139.74
566.19	1140.41
566.54	1140.59
566.89	1140.72
567.25	1140.91
567.60	1141.38
567.96	1141.92
568.31	1142.35
568.66	1142.90
569.02	1142.82
569.37	1142.70
569.72	1142.95
570.08	1142.57
570.43	1142.27
570.78	1141.93
571.14	1141.06
571.49	1140.41
571.84	1139.73
572.20	1138.51
572.55	1137.65
572.90	1136.22
573.26	1135.09
573.61	1133.79
573.96	1132.65
574.31	1131.24
574.67	1129.53
575.02	1127.67
575.37	1125.43
575.72	1122.78
576.08	1121.20
576.43	1118.95
576.78	1117.10
577.13	1115.30
577.49	1113.46
577.84	1111.45
578.19	1109.77
578.54	1108.32
578.90	1106.71
579.25	1104.63
579.60	1102.50
579.95	1100.11
580.30	1097.97
580.66	1095.93
581.01	1093.47
581.36	1090.87
581.71	1088.61
582.06	1086.42
582.42	1084.01
582.77	1081.45
583.12	1079.35
583.47	1076.71
583.82	1074.39
584.17	1071.90
584.53	1069.23
584.88	1066.58
585.23	1063.79
585.58	1060.88
585.93	1057.82
586.28	1054.92
586.63	1052.18
586.98	1049.78
587.34	1047.49
587.69	1044.65
588.04	1041.85
588.39	1039.20
588.74	1036.29
589.09	1033.57
589.44	1030.11
589.79	1027.53
590.14	1025.25
590.49	1022.55
590.84	1019.67
591.19	1017.10
591.54	1014.40
591.89	1011.00
592.25	1008.15
592.60	1004.92
592.95	1001.70
593.30	998.19
593.65	994.75
594.00	991.30
594.35	989.17
594.70	985.66
595.05	982.68
595.40	979.45
595.75	976.09
596.10	973.21
596.45	969.77
596.80	967.26
597.15	964.18
597.50	960.69
597.85	957.58
598.19	954.11
598.54	950.73
598.89	947.40
599.24	944.86
599.59	941.58
599.94	938.59
600.29	935.51
600.64	932.44
600.99	929.13
601.34	926.32
601.69	921.76
602.04	918.41
602.39	914.89
602.74	911.79
603.08	908.75
603.43	905.76
603.78	902.71
604.13	899.15
604.48	895.79
604.83	892.90
605.18	889.80
605.53	886.57
605.87	883.15
606.22	879.97
606.57	876.47
606.92	872.97
607.27	869.56
607.62	866.19
607.96	863.19
608.31	860.33
608.66	856.60
609.01	853.09
609.36	849.70
609.70	846.19
610.05	842.45
610.40	838.77
610.75	835.10
611.10	831.73
611.44	827.92
611.79	824.08
612.14	820.12
612.49	815.98
612.83	812.48
613.18	808.72
613.53	805.02
613.88	801.11
614.22	797.19
614.57	793.43
614.92	789.77
615.27	785.85
615.61	781.91
615.96	778.48
616.31	775.15
616.65	771.89
617.00	768.41
617.35	764.88
617.70	761.23
618.04	757.24
618.39	753.29
618.74	749.85
619.08	746.24
619.43	742.67
619.78	739.41
620.12	735.86
620.47	732.62
620.82	728.83
621.16	725.15
621.51	721.98
621.85	718.57
622.20	715.20
622.55	711.65
622.89	708.18
623.24	704.62
623.59	700.84
623.93	697.08
624.28	693.65
624.62	690.45
624.97	686.99
625.32	683.70
625.66	680.45
626.01	677.01
626.35	673.99
626.70	670.69
627.04	667.30
627.39	663.92
627.73	660.58
628.08	657.70
628.43	654.63
628.77	651.35
629.12	648.02
629.46	644.80
629.81	641.71
630.15	638.58
630.50	635.44
630.84	632.33
631.19	629.30
631.53	626.23
631.88	622.86
632.22	619.84
632.57	617.06
632.91	614.07
633.26	611.14
633.60	607.94
633.95	605.08
634.29	602.17
634.64	599.56
634.98	596.47
635.32	593.64
635.67	590.96
636.01	588.18
636.36	585.37
636.70	582.78
637.05	580.02
637.39	577.40
637.73	574.82
638.08	572.60
638.42	570.14
638.77	567.60
639.11	565.09
639.45	562.57
639.80	559.66
640.14	556.91
640.49	554.35
640.83	551.73
641.17	549.13
641.52	546.54
641.86	543.75
642.20	541.37
642.55	538.40
642.89	535.71
643.23	533.09
643.58	530.76
643.92	527.89
644.26	525.24
644.61	522.77
644.95	520.17
645.29	517.42
645.64	514.72
645.98	512.26
646.32	509.70
646.66	507.08
647.01	504.69
647.35	502.40
647.69	499.93
648.04	497.65
648.38	495.17
648.72	492.77
649.06	490.25
649.41	487.74
649.75	485.41
650.09	483.04
650.43	480.58
650.78	477.98
651.12	475.65
651.46	473.33
651.80	471.00
652.14	468.67
652.49	466.50
652.83	464.26
653.17	461.66
653.51	459.40
653.85	457.26
654.20	455.15
654.54	452.79
654.88	450.46
655.22	448.21
655.56	445.90
655.90	443.63
656.25	441.42
656.59	439.29
656.93	437.35
657.27	435.35
657.61	433.13
657.95	431.25
658.29	429.20
658.64	427.41
658.98	425.26
659.32	422.98
659.66	420.78
660.00	418.51
660.34	416.61
660.68	414.54
661.02	412.46
661.36	410.49
661.70	408.54
662.05	406.72
662.39	404.95
662.73	403.37
663.07	401.70
663.41	400.05
663.75	398.15
664.09	396.27
664.43	394.41
664.77	392.85
665.11	390.90
665.45	389.21
665.79	387.45
666.13	385.72
666.47	384.15
666.81	382.50
667.15	380.93
667.49	379.31
667.83	377.86
668.17	376.29
668.51	374.74
668.85	373.41
669.19	372.05
669.53	370.28
669.87	368.56
670.21	367.06
670.55	365.43
670.89	364.24
671.23	362.92
671.57	361.56
671.91	360.18
672.25	358.90
672.58	357.55
672.92	356.14
673.26	354.93
673.60	353.69
673.94	352.39
674.28	351.25
674.62	350.11
674.96	348.78
675.30	347.56
675.64	346.35
675.97	344.94
676.31	343.69
676.65	342.60
676.99	341.60
677.33	340.30
677.67	339.08
678.01	337.73
678.34	336.44
678.68	335.22
679.02	333.97
679.36	332.69
679.70	331.53
680.04	330.34
680.37	329.04
680.71	327.87
681.05	326.82
681.39	325.65
681.73	324.50
682.06	323.50
682.40	322.54
682.74	321.44
683.08	320.47
683.42	319.31
683.75	318.29
684.09	317.08
684.43	316.10
684.77	315.04
685.10	313.94
685.44	312.89
685.78	311.90
686.12	310.95
686.45	310.09
686.79	309.06
687.13	308.18
687.46	307.33
687.80	306.45
688.14	305.36
688.48	304.48
688.81	303.45
689.15	302.45
689.49	301.39
689.82	300.50
690.16	299.42
690.50	298.41
690.83	297.50
691.17	296.53
691.51	295.54
691.84	294.68
692.18	293.89
692.52	293.04
692.85	292.19
693.19	291.47
693.52	290.59
693.86	289.74
694.20	288.86
694.53	288.01
694.87	287.17
695.21	286.44
695.54	285.62
695.88	284.80
696.21	283.90
696.55	283.16
696.88	282.34
697.22	281.63
697.56	281.02
697.89	280.20
698.23	279.50
698.56	278.77
698.90	278.15
699.23	277.40
699.57	276.75
699.90	275.96
700.24	275.11
700.58	274.41
700.91	273.78
701.25	273.31
701.58	272.65
701.92	272.02
702.25	271.32
702.59	270.56
702.92	269.86
703.26	269.25
703.59	268.55
703.93	268.27
704.26	267.68
704.60	267.00
704.93	266.40
705.26	265.72
705.60	265.20
705.93	264.54
706.27	264.05
706.60	263.53
706.94	263.19
707.27	262.65
707.61	262.02
707.94	261.45
708.27	260.75
708.61	260.15
708.94	259.52
709.28	259.03
709.61	258.57
709.94	258.16
710.28	257.67
710.61	257.25
710.95	256.32
711.28	256.01
711.61	255.52
711.95	255.10
712.28	254.68
712.61	254.18
712.95	253.91
713.28	253.63
713.61	253.10
713.95	252.60
714.28	252.18
714.61	251.85
714.95	251.44
715.28	250.91
715.61	250.50
715.95	250.12
716.28	249.62
716.61	249.27
716.95	248.84
717.28	248.51
717.61	248.09
717.94	247.81
718.28	247.25
718.61	246.91
718.94	246.48
719.27	246.04
719.61	245.70
719.94	245.21
720.27	244.62
720.60	244.30
720.94	243.89
721.27	243.56
721.60	243.10
721.93	242.76
722.27	242.60
722.60	242.40
722.93	242.09
723.26	241.83
723.59	241.40
723.93	241.20
724.26	240.96
724.59	240.73
724.92	240.36
725.25	240.16
725.59	239.83
725.92	239.69
726.25	239.48
726.58	239.21
726.91	238.93
727.24	238.77
727.57	238.44
727.91	238.09
728.24	237.81
728.57	237.63
728.90	237.42
729.23	237.11
729.56	236.95
729.89	236.67
730.22	236.46
730.55	236.30
730.89	235.98
731.22	235.61
731.55	235.29
731.88	235.11
732.21	234.79
732.54	234.52
732.87	234.17
733.20	234.04
733.53	233.80
733.86	233.63
734.19	233.35
734.52	233.17
734.85	233.24
735.18	232.99
735.51	232.90
735.84	232.63
736.17	232.50
736.50	232.13
736.83	232.34
737.16	232.13
737.49	231.90
737.82	231.62
738.15	231.40
738.48	231.24
738.81	231.01
739.14	230.79
739.47	230.66
739.80	230.50
740.13	230.24
740.46	229.93
740.79	229.73
741.12	229.51
741.45	229.30
741.78	228.85
742.11	228.77
742.44	228.58
742.77	228.51
743.10	228.24
743.43	228.05
743.75	227.48
744.08	227.78
744.41	227.54
744.74	227.44
745.07	227.30
745.40	227.12
745.73	227.12
746.06	226.99
746.39	226.84
746.71	226.65
747.04	226.45
747.37	226.36
747.70	226.24
748.03	226.05
748.36	225.96
748.68	225.81
749.01	225.52
749.34	225.31
749.67	225.12
750.00	225.08
750.33	225.19
750.65	225.06
750.98	224.47
751.31	224.37
751.64	224.26
751.97	224.33
752.29	224.20
752.62	223.84
752.95	223.67
753.28	223.49
753.60	223.36
753.93	223.32
754.26	223.26
754.59	223.05
754.91	222.91
755.24	222.78
755.57	222.68
755.90	222.56
756.22	222.37
756.55	222.22
756.88	221.95
757.20	221.54
757.53	221.32
757.86	221.13
758.19	221.00
758.51	220.88
758.84	220.60
759.17	220.41
759.49	220.34
759.82	220.42
760.15	220.32
760.47	220.14
760.80	219.97
761.13	219.86
761.45	219.74
761.78	219.65
762.11	219.51
762.43	219.42
762.76	219.36
763.08	219.31
763.41	219.27
763.74	219.27
764.06	219.18
764.39	219.09
764.71	219.05
765.04	218.95
765.37	218.84
765.69	218.76
766.02	218.72
766.34	218.75
766.67	218.51
767.00	218.53
767.32	218.69
767.65	218.89
767.97	218.78
768.30	218.73
768.62	218.64
768.95	218.55
769.27	218.46
769.60	218.53
769.92	218.46
770.25	218.33
770.57	218.16
770.90	218.08
771.22	218.03
771.55	218.03
771.87	217.96
772.20	217.89
772.52	218.09
772.85	218.41
773.17	218.26
773.50	218.23
773.82	218.09
774.15	217.83
774.47	217.47
774.80	217.40
775.12	217.35
775.45	217.25
775.77	217.22
776.09	217.20
776.42	217.05
776.74	217.15
777.07	217.06
777.39	217.01
777.72	217.00
778.04	217.06
778.36	216.86
778.69	216.87
779.01	216.86
779.33	216.50
779.66	216.08
779.98	216.05
780.31	216.00
780.63	216.13
780.95	216.16
781.28	216.14
781.60	216.06
781.92	215.96
782.25	215.96
782.57	215.91
782.89	215.79
783.22	215.78
783.54	215.58
783.86	215.55
784.19	215.51
784.51	215.54
784.83	215.44
785.16	215.46
785.48	215.46
785.80	215.43
786.12	215.42
786.45	215.34
786.77	215.33
787.09	215.25
787.42	215.08
787.74	215.02
788.06	214.96
788.38	214.90
788.71	214.85
789.03	214.88
789.35	214.87
789.67	214.83
789.99	214.75
790.32	214.68
