SpectraSuite Data File
++++++++++++++++++++++++++++++++++++
Date: Mon Feb 25 17:15:40 EST 2013
User: group
Dark Spectrum Present: No
Reference Spectrum Present: No
Number of Sampled Component Spectra: 1
Spectrometers: USB2E7196
Integration Time (usec): 104000 (USB2E7196)
Spectra Averaged: 20 (USB2E7196)
Boxcar Smoothing: 10 (USB2E7196)
Correct for Electrical Dark: No (USB2E7196)
Strobe/Lamp Enabled: No (USB2E7196)
Correct for Detector Non-linearity: No (USB2E7196)
Correct for Stray Light: No (USB2E7196)
Number of Pixels in Processed Spectrum: 2048
>>>>>Begin Processed Spectral Data<<<<<
339.09	0.00
339.48	200.90
339.86	200.80
340.24	202.00
340.63	203.35
341.01	209.75
341.39	206.05
341.78	208.40
342.16	209.45
342.54	209.15
342.93	198.73
343.31	208.74
343.69	209.22
344.07	209.60
344.46	210.09
344.84	210.49
345.22	210.53
345.60	210.79
345.99	210.96
346.37	210.99
346.75	211.15
347.13	211.15
347.52	211.20
347.90	211.32
348.28	211.35
348.66	211.46
349.05	211.37
349.43	211.45
349.81	211.42
350.19	211.43
350.57	211.49
350.96	211.57
351.34	211.62
351.72	211.63
352.10	211.71
352.48	211.72
352.87	211.69
353.25	211.73
353.63	211.73
354.01	211.72
354.39	211.78
354.77	211.72
355.15	211.82
355.54	211.80
355.92	211.82
356.30	211.91
356.68	212.14
357.06	212.15
357.44	212.16
357.82	212.27
358.20	212.35
358.58	212.36
358.97	212.42
359.35	212.55
359.73	212.74
360.11	212.83
360.49	212.83
360.87	212.87
361.25	213.00
361.63	213.19
362.01	213.23
362.39	213.29
362.77	213.36
363.15	213.37
363.53	213.45
363.91	213.48
364.29	213.47
364.67	213.10
365.05	213.16
365.43	213.24
365.81	213.32
366.19	213.47
366.57	213.65
366.95	213.57
367.33	213.45
367.71	213.39
368.09	213.47
368.47	213.50
368.85	213.53
369.23	213.54
369.61	213.40
369.99	213.57
370.37	213.62
370.75	213.84
371.13	213.77
371.51	213.65
371.89	213.68
372.27	213.71
372.65	213.71
373.03	213.72
373.41	213.70
373.78	213.62
374.16	213.46
374.54	213.26
374.92	213.33
375.30	213.38
375.68	213.31
376.06	213.28
376.44	213.22
376.82	213.23
377.19	213.21
377.57	213.19
377.95	213.04
378.33	213.02
378.71	212.68
379.09	212.79
379.47	212.82
379.84	212.68
380.22	212.56
380.60	212.55
380.98	212.51
381.36	212.46
381.73	212.40
382.11	212.41
382.49	212.40
382.87	212.30
383.25	212.24
383.62	212.58
384.00	212.46
384.38	212.45
384.76	212.50
385.13	212.67
385.51	212.64
385.89	212.57
386.27	212.53
386.64	212.61
387.02	212.52
387.40	212.45
387.78	212.48
388.15	212.49
388.53	212.48
388.91	212.42
389.29	212.32
389.66	212.32
390.04	212.25
390.42	212.33
390.79	212.31
391.17	212.25
391.55	211.84
391.92	211.87
392.30	211.95
392.68	211.80
393.05	211.69
393.43	211.68
393.81	211.63
394.18	211.53
394.56	211.56
394.94	211.62
395.31	211.68
395.69	211.80
396.06	211.85
396.44	211.81
396.82	211.80
397.19	212.03
397.57	212.05
397.95	212.13
398.32	212.01
398.70	212.07
399.07	212.20
399.45	212.22
399.82	212.26
400.20	212.20
400.58	212.25
400.95	212.18
401.33	212.33
401.70	212.64
402.08	212.71
402.45	212.69
402.83	212.79
403.20	212.81
403.58	212.75
403.95	212.87
404.33	212.99
404.71	213.13
405.08	213.44
405.46	213.50
405.83	213.61
406.21	213.79
406.58	213.93
406.96	214.02
407.33	214.18
407.70	214.31
408.08	214.68
408.45	214.90
408.83	215.13
409.20	215.26
409.58	215.29
409.95	215.60
410.33	215.92
410.70	216.05
411.08	216.41
411.45	216.79
411.82	217.00
412.20	217.44
412.57	217.98
412.95	218.08
413.32	218.63
413.69	219.05
414.07	219.56
414.44	220.15
414.82	220.74
415.19	221.41
415.56	222.16
415.94	222.80
416.31	223.60
416.68	224.39
417.06	225.31
417.43	226.30
417.81	227.38
418.18	228.44
418.55	229.61
418.93	230.76
419.30	232.01
419.67	233.31
420.04	234.59
420.42	235.90
420.79	237.71
421.16	239.21
421.54	241.03
421.91	242.75
422.28	244.37
422.66	246.20
423.03	248.25
423.40	250.14
423.77	252.10
424.15	254.14
424.52	256.33
424.89	258.67
425.26	260.81
425.64	262.80
426.01	265.08
426.38	267.53
426.75	270.10
427.13	272.65
427.50	275.40
427.87	278.26
428.24	281.06
428.61	283.49
428.99	286.62
429.36	289.70
429.73	292.84
430.10	296.18
430.47	299.47
430.85	302.61
431.22	306.09
431.59	310.05
431.96	313.56
432.33	317.57
432.70	321.35
433.08	325.71
433.45	329.99
433.82	334.26
434.19	338.89
434.56	343.46
434.93	347.67
435.30	351.98
435.68	356.72
436.05	361.45
436.42	366.12
436.79	370.37
437.16	375.04
437.53	379.88
437.90	384.46
438.27	389.21
438.64	394.03
439.01	398.57
439.38	402.33
439.75	406.32
440.13	410.65
440.50	414.77
440.87	418.28
441.24	421.78
441.61	425.51
441.98	428.28
442.35	431.49
442.72	434.97
443.09	438.34
443.46	440.12
443.83	441.35
444.20	442.49
444.57	443.98
444.94	444.68
445.31	445.42
445.68	446.64
446.05	446.84
446.42	446.29
446.79	445.77
447.16	445.00
447.53	444.47
447.90	442.66
448.27	440.76
448.64	438.27
449.01	436.40
449.37	433.27
449.74	430.12
450.11	426.58
450.48	422.42
450.85	418.17
451.22	414.63
451.59	411.38
451.96	408.03
452.33	403.66
452.70	399.67
453.07	394.96
453.43	389.76
453.80	385.26
454.17	381.00
454.54	376.75
454.91	372.35
455.28	368.00
455.65	363.78
456.02	360.24
456.38	356.71
456.75	352.46
457.12	348.82
457.49	345.37
457.86	341.76
458.23	338.98
458.59	335.75
458.96	332.63
459.33	329.66
459.70	326.91
460.07	324.72
460.43	322.08
460.80	319.79
461.17	317.77
461.54	315.44
461.91	313.35
462.27	311.16
462.64	309.42
463.01	307.46
463.38	305.74
463.74	303.35
464.11	301.67
464.48	300.24
464.85	298.69
465.21	297.55
465.58	296.34
465.95	294.67
466.32	293.37
466.68	292.07
467.05	290.79
467.42	289.54
467.78	288.24
468.15	287.04
468.52	286.09
468.88	284.81
469.25	283.86
469.62	282.98
469.98	282.05
470.35	281.12
470.72	280.30
471.08	279.36
471.45	278.75
471.82	278.20
472.18	277.44
472.55	276.85
472.92	276.08
473.28	275.51
473.65	275.05
474.02	274.57
474.38	274.29
474.75	274.04
475.11	273.71
475.48	273.47
475.85	273.23
476.21	273.03
476.58	272.95
476.94	272.91
477.31	272.94
477.67	272.96
478.04	273.01
478.41	273.08
478.77	273.45
479.14	273.50
479.50	273.55
479.87	273.79
480.23	274.12
480.60	274.49
480.96	274.71
481.33	275.20
481.69	275.65
482.06	276.14
482.42	276.63
482.79	277.25
483.15	277.89
483.52	278.76
483.88	279.55
484.25	280.41
484.61	281.22
484.98	282.01
485.34	283.15
485.71	284.35
486.07	285.49
486.44	286.42
486.80	287.84
487.17	289.19
487.53	290.80
487.90	292.50
488.26	294.26
488.62	296.27
488.99	298.06
489.35	300.10
489.72	302.09
490.08	304.32
490.44	306.52
490.81	309.14
491.17	311.64
491.54	314.32
491.90	317.14
492.26	320.19
492.63	323.40
492.99	326.52
493.36	329.95
493.72	333.76
494.08	337.52
494.45	341.47
494.81	345.78
495.17	349.93
495.54	354.38
495.90	358.99
496.26	363.72
496.63	368.83
496.99	373.99
497.35	379.62
497.72	385.46
498.08	391.30
498.44	397.28
498.80	403.86
499.17	410.47
499.53	417.29
499.89	424.56
500.26	431.88
500.62	439.55
500.98	447.54
501.34	455.55
501.71	464.23
502.07	472.84
502.43	481.73
502.79	490.93
503.16	500.42
503.52	510.22
503.88	520.25
504.24	530.58
504.60	541.28
504.97	552.18
505.33	563.10
505.69	575.11
506.05	586.99
506.41	599.09
506.78	611.41
507.14	624.05
507.50	636.89
507.86	650.18
508.22	663.76
508.59	677.35
508.95	691.51
509.31	705.69
509.67	720.34
510.03	735.24
510.39	750.80
510.75	766.53
511.12	782.47
511.48	798.69
511.84	815.04
512.20	831.47
512.56	848.50
512.92	865.75
513.28	882.87
513.64	900.41
514.00	917.94
514.37	935.72
514.73	954.07
515.09	972.37
515.45	990.61
515.81	1008.98
516.17	1027.70
516.53	1046.21
516.89	1064.94
517.25	1083.95
517.61	1103.00
517.97	1121.89
518.33	1140.59
518.69	1159.75
519.05	1179.08
519.41	1198.77
519.77	1218.80
520.13	1238.11
520.49	1257.22
520.85	1276.76
521.21	1296.61
521.57	1316.52
521.93	1335.94
522.29	1355.85
522.65	1375.58
523.01	1395.15
523.37	1414.36
523.73	1433.89
524.09	1453.47
524.45	1473.10
524.81	1492.40
525.17	1512.20
525.53	1531.46
525.89	1551.13
526.25	1570.34
526.61	1588.56
526.97	1607.03
527.33	1625.14
527.68	1643.89
528.04	1662.25
528.40	1679.60
528.76	1697.10
529.12	1714.86
529.48	1733.38
529.84	1750.80
530.20	1768.25
530.56	1785.79
530.91	1803.95
531.27	1821.35
531.63	1838.72
531.99	1855.80
532.35	1872.25
532.71	1888.07
533.07	1904.86
533.42	1920.75
533.78	1936.50
534.14	1952.43
534.50	1966.90
534.86	1982.49
535.21	1996.35
535.57	2011.57
535.93	2026.13
536.29	2040.35
536.65	2054.60
537.00	2067.77
537.36	2080.60
537.72	2093.12
538.08	2105.85
538.44	2118.15
538.79	2130.80
539.15	2142.80
539.51	2154.67
539.87	2167.12
540.22	2178.77
540.58	2190.38
540.94	2201.43
541.29	2211.42
541.65	2221.06
542.01	2231.56
542.37	2241.30
542.72	2251.45
543.08	2259.98
543.44	2269.76
543.79	2278.01
544.15	2285.52
544.51	2293.93
544.87	2302.05
545.22	2309.78
545.58	2316.42
545.94	2322.40
546.29	2327.73
546.65	2333.05
547.01	2337.99
547.36	2342.69
547.72	2347.27
548.07	2351.06
548.43	2354.70
548.79	2358.65
549.14	2362.33
549.50	2365.85
549.86	2368.17
550.21	2370.43
550.57	2373.65
550.92	2375.02
551.28	2376.62
551.64	2378.64
551.99	2380.43
552.35	2381.78
552.70	2383.01
553.06	2384.42
553.41	2385.58
553.77	2386.30
554.13	2387.03
554.48	2388.06
554.84	2388.76
555.19	2388.64
555.55	2388.03
555.90	2387.32
556.26	2386.59
556.61	2385.72
556.97	2384.24
557.32	2383.30
557.68	2381.70
558.03	2379.70
558.39	2378.16
558.74	2377.62
559.10	2376.16
559.45	2373.95
559.81	2372.26
560.16	2369.56
560.52	2367.61
560.87	2365.35
561.23	2362.51
561.58	2360.20
561.94	2356.73
562.29	2352.89
562.64	2350.22
563.00	2347.27
563.35	2345.06
563.71	2343.21
564.06	2341.10
564.42	2338.60
564.77	2336.23
565.12	2334.07
565.48	2331.36
565.83	2328.80
566.19	2326.18
566.54	2322.34
566.89	2318.43
567.25	2314.84
567.60	2311.69
567.96	2307.50
568.31	2303.97
568.66	2300.29
569.02	2295.63
569.37	2290.52
569.72	2286.29
570.08	2281.45
570.43	2276.76
570.78	2271.35
571.14	2265.20
571.49	2259.13
571.84	2254.19
572.20	2247.86
572.55	2242.09
572.90	2235.63
573.26	2228.73
573.61	2221.45
573.96	2214.97
574.31	2207.90
574.67	2200.55
575.02	2192.84
575.37	2185.94
575.72	2177.86
576.08	2171.07
576.43	2163.70
576.78	2157.15
577.13	2150.48
577.49	2143.85
577.84	2136.53
578.19	2130.07
578.54	2123.78
578.90	2117.75
579.25	2110.39
579.60	2102.95
579.95	2095.22
580.30	2088.46
580.66	2082.40
581.01	2075.33
581.36	2067.90
581.71	2060.89
582.06	2053.90
582.42	2047.22
582.77	2039.52
583.12	2032.51
583.47	2025.61
583.82	2019.19
584.17	2012.10
584.53	2005.32
584.88	1997.96
585.23	1991.00
585.58	1983.54
585.93	1975.88
586.28	1968.57
586.63	1961.44
586.98	1954.60
587.34	1948.24
587.69	1941.07
588.04	1933.53
588.39	1926.58
588.74	1919.11
589.09	1912.57
589.44	1905.24
589.79	1898.60
590.14	1891.95
590.49	1884.97
590.84	1877.65
591.19	1871.31
591.54	1864.71
591.89	1856.57
592.25	1849.29
592.60	1841.97
592.95	1834.42
593.30	1826.39
593.65	1818.53
594.00	1811.03
594.35	1805.01
594.70	1797.62
595.05	1790.58
595.40	1783.70
595.75	1776.08
596.10	1770.01
596.45	1763.27
596.80	1757.12
597.15	1750.35
597.50	1743.42
597.85	1737.04
598.19	1730.06
598.54	1722.83
598.89	1716.20
599.24	1710.75
599.59	1704.48
599.94	1698.70
600.29	1692.76
600.64	1687.00
600.99	1680.54
601.34	1674.45
601.69	1666.95
602.04	1660.19
602.39	1653.75
602.74	1647.20
603.08	1641.78
603.43	1636.05
603.78	1629.70
604.13	1623.24
604.48	1617.07
604.83	1611.80
605.18	1606.52
605.53	1600.63
605.87	1594.26
606.22	1588.28
606.57	1581.92
606.92	1575.70
607.27	1569.00
607.62	1562.42
607.96	1556.71
608.31	1551.29
608.66	1544.62
609.01	1538.07
609.36	1531.62
609.70	1524.79
610.05	1518.06
610.40	1510.92
610.75	1503.65
611.10	1497.11
611.44	1489.44
611.79	1481.78
612.14	1473.74
612.49	1465.47
612.83	1458.26
613.18	1450.48
613.53	1442.91
613.88	1434.82
614.22	1427.45
614.57	1419.84
614.92	1412.39
615.27	1404.52
615.61	1396.58
615.96	1389.45
616.31	1382.54
616.65	1376.10
617.00	1369.27
617.35	1362.20
617.70	1354.85
618.04	1347.14
618.39	1339.08
618.74	1332.14
619.08	1325.01
619.43	1317.98
619.78	1311.32
620.12	1304.02
620.47	1297.11
620.82	1289.39
621.16	1281.75
621.51	1274.24
621.85	1267.38
622.20	1259.92
622.55	1252.52
622.89	1245.19
623.24	1238.04
623.59	1230.65
623.93	1223.06
624.28	1215.92
624.62	1209.20
624.97	1202.55
625.32	1195.76
625.66	1189.47
626.01	1183.02
626.35	1176.56
626.70	1169.85
627.04	1163.33
627.39	1156.91
627.73	1150.45
628.08	1144.60
628.43	1138.26
628.77	1131.75
629.12	1124.86
629.46	1119.21
629.81	1113.07
630.15	1106.85
630.50	1100.30
630.84	1093.79
631.19	1087.42
631.53	1081.22
631.88	1074.32
632.22	1067.55
632.57	1061.61
632.91	1055.12
633.26	1048.59
633.60	1042.26
633.95	1036.31
634.29	1029.81
634.64	1023.90
634.98	1017.47
635.32	1011.29
635.67	1005.88
636.01	1000.40
636.36	994.51
636.70	988.57
637.05	982.71
637.39	977.03
637.73	971.70
638.08	966.65
638.42	961.30
638.77	955.74
639.11	950.39
639.45	944.80
639.80	938.87
640.14	933.15
640.49	927.55
640.83	922.06
641.17	916.61
641.52	910.82
641.86	904.74
642.20	899.34
642.55	893.45
642.89	887.46
643.23	881.39
643.58	876.12
643.92	870.18
644.26	864.62
644.61	859.13
644.95	853.39
645.29	847.58
645.64	841.84
645.98	836.30
646.32	830.98
646.66	825.58
647.01	820.46
647.35	815.24
647.69	809.60
648.04	804.39
648.38	798.96
648.72	793.82
649.06	788.75
649.41	783.61
649.75	778.42
650.09	773.50
650.43	768.51
650.78	762.89
651.12	757.59
651.46	752.42
651.80	747.24
652.14	742.18
652.49	737.12
652.83	732.04
653.17	726.66
653.51	721.36
653.85	716.48
654.20	711.25
654.54	706.20
654.88	701.47
655.22	696.33
655.56	691.20
655.90	686.23
656.25	681.28
656.59	676.39
656.93	671.85
657.27	666.99
657.61	662.02
657.95	657.71
658.29	653.27
658.64	648.86
658.98	644.16
659.32	639.47
659.66	634.92
660.00	630.38
660.34	625.75
660.68	621.21
661.02	616.62
661.36	612.47
661.70	608.35
662.05	604.30
662.39	600.45
662.73	596.53
663.07	592.71
663.41	588.75
663.75	584.72
664.09	580.40
664.43	576.33
664.77	572.53
665.11	568.66
665.45	564.84
665.79	561.07
666.13	557.50
666.47	553.80
666.81	550.17
667.15	546.60
667.49	543.43
667.83	540.09
668.17	536.70
668.51	533.28
668.85	529.91
669.19	526.61
669.53	523.19
669.87	519.88
670.21	516.56
670.55	513.37
670.89	510.47
671.23	507.81
671.57	504.83
671.91	501.90
672.25	498.92
672.58	495.88
672.92	492.92
673.26	490.10
673.60	487.40
673.94	484.51
674.28	481.69
674.62	478.96
674.96	476.25
675.30	473.66
675.64	470.93
675.97	468.16
676.31	465.56
676.65	462.87
676.99	460.44
677.33	457.80
677.67	455.21
678.01	452.38
678.34	449.80
678.68	447.37
679.02	444.70
679.36	442.17
679.70	439.79
680.04	437.40
680.37	434.87
680.71	432.36
681.05	430.11
681.39	427.76
681.73	425.39
682.06	423.12
682.40	421.06
682.74	418.78
683.08	416.75
683.42	414.36
683.75	412.15
684.09	409.89
684.43	407.65
684.77	405.33
685.10	403.24
685.44	400.87
685.78	398.57
686.12	396.72
686.45	394.70
686.79	392.66
687.13	390.68
687.46	388.75
687.80	386.99
688.14	384.96
688.48	383.13
688.81	381.09
689.15	379.13
689.49	376.97
689.82	375.05
690.16	372.77
690.50	370.81
690.83	368.85
691.17	366.76
691.51	364.93
691.84	363.21
692.18	361.44
692.52	359.89
692.85	358.36
693.19	356.64
693.52	354.88
693.86	353.08
694.20	351.31
694.53	349.65
694.87	347.77
695.21	345.95
695.54	344.22
695.88	342.50
696.21	340.87
696.55	339.34
696.88	337.80
697.22	336.35
697.56	334.90
697.89	333.34
698.23	331.97
698.56	330.58
698.90	329.28
699.23	327.86
699.57	326.43
699.90	324.93
700.24	323.38
700.58	322.08
700.91	320.75
701.25	319.63
701.58	318.38
701.92	317.09
702.25	315.96
702.59	314.65
702.92	313.52
703.26	312.26
703.59	311.03
703.93	310.18
704.26	309.01
704.60	307.90
704.93	306.92
705.26	305.77
705.60	304.70
705.93	303.42
706.27	302.40
706.60	301.35
706.94	300.45
707.27	299.37
707.61	298.31
707.94	297.27
708.27	295.97
708.61	294.83
708.94	293.94
709.28	292.90
709.61	291.84
709.94	290.92
710.28	290.02
710.61	289.12
710.95	287.78
711.28	287.09
711.61	286.17
711.95	285.27
712.28	284.34
712.61	283.45
712.95	282.85
713.28	282.10
713.61	281.16
713.95	280.25
714.28	279.53
714.61	278.74
714.95	278.07
715.28	277.26
715.61	276.48
715.95	275.61
716.28	274.89
716.61	274.22
716.95	273.44
717.28	272.70
717.61	271.93
717.94	271.29
718.28	270.44
718.61	269.73
718.94	268.97
719.27	268.36
719.61	267.58
719.94	266.82
720.27	266.02
720.60	265.40
720.94	264.73
721.27	264.13
721.60	263.48
721.93	262.80
722.27	262.36
722.60	261.80
722.93	261.20
723.26	260.70
723.59	260.13
723.93	259.60
724.26	259.02
724.59	258.51
724.92	258.03
725.25	257.59
725.59	257.03
725.92	256.60
726.25	256.11
726.58	255.72
726.91	255.14
727.24	254.70
727.57	254.21
727.91	253.78
728.24	253.38
728.57	252.86
728.90	252.47
729.23	251.93
729.56	251.72
729.89	251.32
730.22	250.77
730.55	250.36
730.89	249.94
731.22	249.52
731.55	249.08
731.88	248.60
732.21	248.13
732.54	247.74
732.87	247.28
733.20	246.87
733.53	246.47
733.86	246.14
734.19	245.74
734.52	245.37
734.85	245.24
735.18	244.80
735.51	244.60
735.84	244.22
736.17	243.88
736.50	243.33
736.83	243.46
737.16	243.11
737.49	242.81
737.82	242.48
738.15	242.20
738.48	241.89
738.81	241.59
739.14	241.18
739.47	240.79
739.80	240.50
740.13	240.15
740.46	239.73
740.79	239.34
741.12	239.05
741.45	238.74
741.78	238.23
742.11	238.01
742.44	237.69
742.77	237.43
743.10	237.15
743.43	236.85
743.75	236.16
744.08	236.43
744.41	236.04
744.74	235.68
745.07	235.36
745.40	235.17
745.73	235.09
746.06	234.90
746.39	234.75
746.71	234.50
747.04	234.20
747.37	234.01
747.70	233.85
748.03	233.59
748.36	233.40
748.68	233.19
749.01	232.90
749.34	232.63
749.67	232.42
750.00	232.25
750.33	232.28
750.65	232.05
750.98	231.36
751.31	231.19
751.64	231.01
751.97	230.97
752.29	230.65
752.62	230.22
752.95	229.96
753.28	229.70
753.60	229.43
753.93	229.38
754.26	229.19
754.59	228.92
754.91	228.59
755.24	228.37
755.57	228.00
755.90	227.79
756.22	227.53
756.55	227.28
756.88	226.98
757.20	226.43
757.53	226.14
757.86	225.88
758.19	225.69
758.51	225.56
758.84	225.19
759.17	225.05
759.49	224.92
759.82	224.94
760.15	224.81
760.47	224.70
760.80	224.40
761.13	224.33
761.45	224.12
761.78	224.03
762.11	223.86
762.43	223.79
762.76	223.60
763.08	223.52
763.41	223.39
763.74	223.32
764.06	223.25
764.39	223.10
764.71	223.03
765.04	222.90
765.37	222.74
765.69	222.66
766.02	222.50
766.34	222.42
766.67	222.13
767.00	222.10
767.32	222.20
767.65	222.36
767.97	222.23
768.30	222.20
768.62	222.18
768.95	222.05
769.27	222.00
769.60	221.98
769.92	221.80
770.25	221.72
770.57	221.54
770.90	221.40
771.22	221.31
771.55	221.18
771.87	221.10
772.20	220.99
772.52	221.20
772.85	221.55
773.17	221.39
773.50	221.23
773.82	221.09
774.15	220.76
774.47	220.39
774.80	220.21
775.12	220.12
775.45	219.98
775.77	219.95
776.09	219.82
776.42	219.72
776.74	219.77
777.07	219.60
777.39	219.55
777.72	219.52
778.04	219.49
778.36	219.44
778.69	219.33
779.01	219.17
779.33	218.72
779.66	218.18
779.98	218.10
780.31	218.10
780.63	218.10
780.95	218.14
781.28	218.06
781.60	217.98
781.92	217.91
782.25	217.91
782.57	217.80
782.89	217.69
783.22	217.55
783.54	217.35
783.86	217.33
784.19	217.21
784.51	217.30
784.83	217.09
785.16	217.00
785.48	217.00
785.80	217.02
786.12	217.04
786.45	217.00
786.77	216.97
