SpectraSuite Data File
++++++++++++++++++++++++++++++++++++
Date: Mon Feb 25 17:08:13 EST 2013
User: group
Dark Spectrum Present: No
Reference Spectrum Present: No
Number of Sampled Component Spectra: 1
Spectrometers: USB2E7196
Integration Time (usec): 104000 (USB2E7196)
Spectra Averaged: 20 (USB2E7196)
Boxcar Smoothing: 10 (USB2E7196)
Correct for Electrical Dark: No (USB2E7196)
Strobe/Lamp Enabled: No (USB2E7196)
Correct for Detector Non-linearity: No (USB2E7196)
Correct for Stray Light: No (USB2E7196)
Number of Pixels in Processed Spectrum: 2048
>>>>>Begin Processed Spectral Data<<<<<
339.09	0.00
339.48	198.25
339.86	200.50
340.24	201.90
340.63	203.60
341.01	210.00
341.39	206.10
341.78	206.35
342.16	208.35
342.54	208.60
342.93	198.55
343.31	208.56
343.69	209.17
344.07	209.64
344.46	210.07
344.84	210.39
345.22	210.43
345.60	210.70
345.99	210.94
346.37	211.11
346.75	211.23
347.13	211.30
347.52	211.28
347.90	211.43
348.28	211.34
348.66	211.40
349.05	211.25
349.43	211.30
349.81	211.23
350.19	211.25
350.57	211.31
350.96	211.37
351.34	211.56
351.72	211.60
352.10	211.63
352.48	211.72
352.87	211.81
353.25	211.89
353.63	211.87
354.01	211.89
354.39	211.95
354.77	211.96
355.15	212.14
355.54	212.15
355.92	212.14
356.30	212.24
356.68	212.51
357.06	212.62
357.44	212.65
357.82	212.75
358.20	212.80
358.58	212.76
358.97	212.77
359.35	212.79
359.73	212.91
360.11	212.99
360.49	212.94
360.87	212.96
361.25	212.94
361.63	213.09
362.01	213.16
362.39	213.09
362.77	213.20
363.15	213.18
363.53	213.17
363.91	213.21
364.29	213.22
364.67	212.92
365.05	212.87
365.43	212.85
365.81	212.85
366.19	212.98
366.57	213.18
366.95	213.17
367.33	213.06
367.71	213.03
368.09	213.06
368.47	213.04
368.85	212.99
369.23	213.05
369.61	212.92
369.99	212.97
370.37	213.06
370.75	213.15
371.13	213.03
371.51	212.96
371.89	212.90
372.27	212.85
372.65	212.77
373.03	212.74
373.41	212.71
373.78	212.65
374.16	212.46
374.54	212.23
374.92	212.22
375.30	212.12
375.68	211.94
376.06	211.90
376.44	211.85
376.82	211.80
377.19	211.80
377.57	211.65
377.95	211.49
378.33	211.37
378.71	211.10
379.09	211.17
379.47	211.22
379.84	211.13
380.22	211.06
380.60	211.04
380.98	210.98
381.36	210.91
381.73	210.82
382.11	210.86
382.49	210.84
382.87	210.75
383.25	210.73
383.62	211.15
384.00	211.00
384.38	210.97
384.76	211.03
385.13	211.05
385.51	211.09
385.89	210.98
386.27	210.94
386.64	210.99
387.02	210.90
387.40	210.76
387.78	210.76
388.15	210.74
388.53	210.60
388.91	210.63
389.29	210.55
389.66	210.58
390.04	210.49
390.42	210.46
390.79	210.39
391.17	210.38
391.55	209.92
391.92	209.96
392.30	210.09
392.68	209.92
393.05	209.91
393.43	209.91
393.81	209.96
394.18	209.97
394.56	209.95
394.94	210.01
395.31	210.09
395.69	210.17
396.06	210.27
396.44	210.36
396.82	210.35
397.19	210.56
397.57	210.54
397.95	210.60
398.32	210.53
398.70	210.61
399.07	210.70
399.45	210.71
399.82	210.70
400.20	210.60
400.58	210.67
400.95	210.53
401.33	210.61
401.70	210.88
402.08	210.89
402.45	210.96
402.83	211.04
403.20	211.07
403.58	211.07
403.95	211.16
404.33	211.28
404.71	211.36
405.08	211.59
405.46	211.74
405.83	211.79
406.21	211.88
406.58	211.99
406.96	212.05
407.33	212.23
407.70	212.35
408.08	212.85
408.45	213.09
408.83	213.33
409.20	213.53
409.58	213.54
409.95	213.71
410.33	213.80
410.70	213.83
411.08	214.09
411.45	214.40
411.82	214.59
412.20	214.92
412.57	215.42
412.95	215.48
413.32	215.89
413.69	216.30
414.07	216.74
414.44	217.15
414.82	217.60
415.19	218.14
415.56	218.67
415.94	218.99
416.31	219.59
416.68	220.19
417.06	220.82
417.43	221.61
417.81	222.52
418.18	223.51
418.55	224.46
418.93	225.40
419.30	226.36
419.67	227.38
420.04	228.45
420.42	229.49
420.79	231.03
421.16	232.28
421.54	233.82
421.91	235.27
422.28	236.72
422.66	238.31
423.03	240.04
423.40	241.66
423.77	243.25
424.15	244.93
424.52	246.67
424.89	248.67
425.26	250.43
425.64	252.20
426.01	254.12
426.38	256.16
426.75	258.34
427.13	260.56
427.50	262.88
427.87	265.19
428.24	267.42
428.61	269.43
428.99	272.09
429.36	274.65
429.73	277.30
430.10	280.00
430.47	282.68
430.85	285.27
431.22	288.30
431.59	291.71
431.96	294.78
432.33	298.23
432.70	301.51
433.08	305.40
433.45	308.98
433.82	312.63
434.19	316.75
434.56	320.66
434.93	324.40
435.30	328.12
435.68	332.26
436.05	336.44
436.42	340.65
436.79	344.33
437.16	348.29
437.53	352.59
437.90	356.76
438.27	361.01
438.64	365.42
439.01	369.42
439.38	372.95
439.75	376.43
440.13	380.40
440.50	384.05
440.87	387.01
441.24	390.22
441.61	393.69
441.98	396.33
442.35	399.20
442.72	402.26
443.09	405.50
443.46	407.37
443.83	408.67
444.20	409.72
444.57	411.25
444.94	412.09
445.31	412.95
445.68	414.25
446.05	414.66
446.42	414.30
446.79	414.03
447.16	413.49
447.53	413.28
447.90	412.03
448.27	410.60
448.64	408.64
449.01	407.12
449.37	404.54
449.74	401.94
450.11	399.35
450.48	395.91
450.85	392.25
451.22	389.25
451.59	386.50
451.96	383.80
452.33	380.15
452.70	376.85
453.07	372.90
453.43	368.44
453.80	364.58
454.17	360.83
454.54	357.23
454.91	353.47
455.28	349.67
455.65	346.01
456.02	342.98
456.38	339.95
456.75	336.37
457.12	333.20
457.49	330.12
457.86	326.80
458.23	324.32
458.59	321.53
458.96	318.71
459.33	316.05
459.70	313.53
460.07	311.59
460.43	309.32
460.80	307.23
461.17	305.37
461.54	303.44
461.91	301.63
462.27	299.75
462.64	298.03
463.01	296.35
463.38	294.78
463.74	292.62
464.11	291.08
464.48	289.79
464.85	288.39
465.21	287.33
465.58	286.20
465.95	284.70
466.32	283.50
466.68	282.26
467.05	281.15
467.42	279.89
467.78	278.61
468.15	277.43
468.52	276.56
468.88	275.35
469.25	274.27
469.62	273.43
469.98	272.53
470.35	271.78
470.72	270.91
471.08	269.83
471.45	269.17
471.82	268.50
472.18	267.59
472.55	266.95
472.92	266.15
473.28	265.48
473.65	264.91
474.02	264.27
474.38	263.89
474.75	263.54
475.11	263.19
475.48	262.81
475.85	262.47
476.21	262.05
476.58	261.78
476.94	261.47
477.31	261.16
477.67	260.86
478.04	260.62
478.41	260.43
478.77	260.71
479.14	260.47
479.50	260.40
479.87	260.39
480.23	260.37
480.60	260.26
480.96	260.23
481.33	260.35
481.69	260.41
482.06	260.45
482.42	260.43
482.79	260.48
483.15	260.60
483.52	260.82
483.88	260.96
484.25	261.17
484.61	261.43
484.98	261.67
485.34	262.01
485.71	262.33
486.07	262.65
486.44	262.68
486.80	263.10
487.17	263.47
487.53	264.08
487.90	264.60
488.26	265.40
488.62	266.03
488.99	266.56
489.35	267.18
489.72	267.76
490.08	268.47
490.44	269.10
490.81	269.90
491.17	270.64
491.54	271.59
491.90	272.51
492.26	273.45
492.63	274.45
492.99	275.40
493.36	276.55
493.72	277.75
494.08	278.90
494.45	280.18
494.81	281.44
495.17	282.59
495.54	283.98
495.90	285.09
496.26	286.48
496.63	287.93
496.99	289.55
497.35	291.22
497.72	292.93
498.08	294.63
498.44	296.38
498.80	298.26
499.17	300.05
499.53	301.88
499.89	303.76
500.26	305.68
500.62	307.65
500.98	309.64
501.34	311.65
501.71	313.81
502.07	315.85
502.43	318.05
502.79	320.23
503.16	322.41
503.52	324.75
503.88	326.99
504.24	329.40
504.60	331.71
504.97	334.19
505.33	336.56
505.69	339.35
506.05	341.83
506.41	344.35
506.78	346.96
507.14	349.50
507.50	352.19
507.86	354.98
508.22	357.84
508.59	360.49
508.95	363.36
509.31	366.42
509.67	369.33
510.03	372.26
510.39	375.22
510.75	378.22
511.12	381.29
511.48	384.43
511.84	387.50
512.20	390.66
512.56	393.85
512.92	397.17
513.28	400.30
513.64	403.56
514.00	406.94
514.37	410.20
514.73	413.79
515.09	417.31
515.45	420.75
515.81	424.15
516.17	427.65
516.53	431.14
516.89	434.26
517.25	437.92
517.61	441.60
517.97	445.39
518.33	449.02
518.69	452.78
519.05	456.50
519.41	460.17
519.77	464.12
520.13	467.90
520.49	471.61
520.85	475.41
521.21	479.43
521.57	483.32
521.93	487.09
522.29	491.12
522.65	494.93
523.01	498.90
523.37	502.79
523.73	506.97
524.09	511.09
524.45	515.34
524.81	519.33
525.17	523.42
525.53	527.41
525.89	531.61
526.25	535.82
526.61	539.99
526.97	544.25
527.33	548.45
527.68	552.92
528.04	557.12
528.40	561.21
528.76	565.54
529.12	569.90
529.48	574.50
529.84	578.77
530.20	583.33
530.56	587.85
530.91	592.50
531.27	596.88
531.63	601.48
531.99	605.98
532.35	610.40
532.71	614.89
533.07	619.44
533.42	624.28
533.78	628.75
534.14	633.21
534.50	637.49
534.86	642.11
535.21	646.08
535.57	650.55
535.93	654.96
536.29	659.22
536.65	663.42
537.00	667.41
537.36	671.43
537.72	675.49
538.08	679.56
538.44	683.52
538.79	687.81
539.15	691.81
539.51	695.96
539.87	700.31
540.22	704.24
540.58	708.37
540.94	712.08
541.29	716.07
541.65	719.74
542.01	723.71
542.37	727.16
542.72	731.25
543.08	734.97
543.44	738.91
543.79	742.24
544.15	745.73
544.51	749.71
544.87	753.50
545.22	756.93
545.58	760.25
545.94	763.55
546.29	766.46
546.65	769.45
547.01	772.48
547.36	775.36
547.72	778.38
548.07	781.25
548.43	783.86
548.79	786.21
549.14	788.95
549.50	791.45
549.86	793.90
550.21	796.21
550.57	798.74
550.92	800.76
551.28	803.21
551.64	805.68
551.99	807.71
552.35	809.43
552.70	811.60
553.06	813.61
553.41	815.48
553.77	817.70
554.13	819.64
554.48	821.48
554.84	823.36
555.19	825.11
555.55	826.79
555.90	828.33
556.26	829.90
556.61	831.39
556.97	832.87
557.32	834.32
557.68	835.40
558.03	836.50
558.39	837.84
558.74	839.30
559.10	840.30
559.45	841.51
559.81	842.98
560.16	843.84
560.52	845.02
560.87	846.16
561.23	847.01
561.58	848.25
561.94	848.99
562.29	849.65
562.64	850.36
563.00	851.03
563.35	851.99
563.71	852.98
564.06	853.90
564.42	854.65
564.77	855.59
565.12	856.67
565.48	857.82
565.83	858.70
566.19	859.35
566.54	859.78
566.89	860.10
567.25	860.64
567.60	861.34
567.96	861.84
568.31	862.28
568.66	862.43
569.02	862.19
569.37	862.09
569.72	862.25
570.08	862.13
570.43	861.99
570.78	861.70
571.14	861.35
571.49	860.89
571.84	860.61
572.20	859.73
572.55	859.19
572.90	858.05
573.26	856.91
573.61	855.85
573.96	855.16
574.31	854.08
574.67	852.92
575.02	851.47
575.37	850.06
575.72	848.58
576.08	847.61
576.43	846.40
576.78	845.30
577.13	844.06
577.49	843.03
577.84	841.79
578.19	840.79
578.54	839.93
578.90	838.94
579.25	837.56
579.60	836.33
579.95	834.90
580.30	834.06
580.66	833.23
581.01	832.16
581.36	830.70
581.71	829.48
582.06	828.28
582.42	827.31
582.77	825.85
583.12	824.64
583.47	823.31
583.82	822.16
584.17	821.07
584.53	820.02
584.88	818.80
585.23	817.65
585.58	816.32
585.93	814.66
586.28	813.23
586.63	812.03
586.98	810.88
587.34	809.74
587.69	808.20
588.04	806.55
588.39	804.91
588.74	803.34
589.09	802.15
589.44	800.38
589.79	798.89
590.14	797.58
590.49	796.32
590.84	794.80
591.19	793.59
591.54	792.08
591.89	789.97
592.25	788.59
592.60	786.64
592.95	784.65
593.30	782.92
593.65	780.97
594.00	779.17
594.35	778.31
594.70	776.39
595.05	774.73
595.40	773.05
595.75	771.25
596.10	769.82
596.45	768.26
596.80	766.90
597.15	765.35
597.50	763.58
597.85	761.97
598.19	760.35
598.54	758.70
598.89	757.12
599.24	756.07
599.59	754.18
599.94	753.02
600.29	751.73
600.64	750.23
600.99	748.72
601.34	747.18
601.69	744.65
602.04	742.99
602.39	741.42
602.74	739.97
603.08	738.72
603.43	737.49
603.78	735.74
604.13	734.23
604.48	732.74
604.83	731.77
605.18	730.50
605.53	728.80
605.87	726.93
606.22	725.42
606.57	723.62
606.92	721.97
607.27	720.21
607.62	718.44
607.96	717.11
608.31	715.71
608.66	714.05
609.01	712.52
609.36	710.72
609.70	708.63
610.05	706.62
610.40	704.66
610.75	702.47
611.10	700.75
611.44	698.42
611.79	696.07
612.14	693.64
612.49	691.00
612.83	688.99
613.18	686.86
613.53	684.51
613.88	682.20
614.22	680.02
614.57	677.64
614.92	675.30
615.27	672.73
615.61	670.27
615.96	667.93
616.31	665.77
616.65	663.79
617.00	661.75
617.35	659.58
617.70	657.26
618.04	654.93
618.39	652.20
618.74	649.96
619.08	647.78
619.43	645.44
619.78	643.31
620.12	640.89
620.47	638.59
620.82	636.06
621.16	633.60
621.51	631.28
621.85	629.09
622.20	626.74
622.55	624.37
622.89	621.99
623.24	619.59
623.59	616.96
623.93	614.41
624.28	612.02
624.62	610.04
624.97	607.89
625.32	605.55
625.66	603.39
626.01	601.36
626.35	599.15
626.70	596.85
627.04	594.88
627.39	592.67
627.73	590.54
628.08	588.58
628.43	586.47
628.77	584.06
629.12	581.72
629.46	579.64
629.81	577.56
630.15	575.34
630.50	573.26
630.84	571.06
631.19	568.98
631.53	566.60
631.88	564.04
632.22	561.60
632.57	559.61
632.91	557.51
633.26	555.24
633.60	553.09
633.95	551.01
634.29	548.72
634.64	546.52
634.98	544.08
635.32	541.92
635.67	539.77
636.01	537.86
636.36	535.67
636.70	533.76
637.05	531.61
637.39	529.65
637.73	527.70
638.08	526.07
638.42	524.21
638.77	522.49
639.11	520.59
639.45	518.55
639.80	516.30
640.14	514.25
640.49	512.06
640.83	509.75
641.17	507.75
641.52	505.57
641.86	503.61
642.20	501.78
642.55	499.50
642.89	497.40
643.23	495.18
643.58	493.41
643.92	491.23
644.26	489.27
644.61	487.16
644.95	484.91
645.29	482.58
645.64	480.50
645.98	478.31
646.32	476.29
646.66	474.29
647.01	472.37
647.35	470.44
647.69	468.30
648.04	466.56
648.38	464.56
648.72	462.56
649.06	460.54
649.41	458.50
649.75	456.60
650.09	454.70
650.43	452.82
650.78	450.67
651.12	448.54
651.46	446.50
651.80	444.61
652.14	442.80
652.49	440.96
652.83	438.85
653.17	436.82
653.51	434.64
653.85	432.80
654.20	430.88
654.54	428.77
654.88	427.04
655.22	425.03
655.56	423.04
655.90	421.12
656.25	419.22
656.59	417.32
656.93	415.49
657.27	413.65
657.61	411.68
657.95	409.84
658.29	408.18
658.64	406.44
658.98	404.51
659.32	402.45
659.66	400.58
660.00	398.71
660.34	396.94
660.68	395.25
661.02	393.39
661.36	391.67
661.70	390.02
662.05	388.37
662.39	386.86
662.73	385.40
663.07	383.90
663.41	382.31
663.75	380.64
664.09	378.97
664.43	377.37
664.77	375.84
665.11	374.24
665.45	372.62
665.79	371.10
666.13	369.74
666.47	368.39
666.81	366.83
667.15	365.38
667.49	363.98
667.83	362.65
668.17	361.37
668.51	360.03
668.85	358.78
669.19	357.52
669.53	356.08
669.87	354.54
670.21	353.08
670.55	351.78
670.89	350.77
671.23	349.62
671.57	348.38
671.91	347.17
672.25	346.01
672.58	344.81
672.92	343.41
673.26	342.20
673.60	341.05
673.94	339.90
674.28	338.82
674.62	337.85
674.96	336.66
675.30	335.50
675.64	334.25
675.97	333.03
676.31	331.81
676.65	330.58
676.99	329.75
677.33	328.56
677.67	327.43
678.01	326.22
678.34	325.05
678.68	324.01
679.02	322.90
679.36	321.80
679.70	320.76
680.04	319.78
680.37	318.73
680.71	317.74
681.05	316.80
681.39	315.68
681.73	314.56
682.06	313.53
682.40	312.53
682.74	311.65
683.08	310.78
683.42	309.77
683.75	308.89
684.09	307.74
684.43	306.84
684.77	305.74
685.10	304.68
685.44	303.74
685.78	302.83
686.12	301.94
686.45	301.01
686.79	300.07
687.13	299.19
687.46	298.28
687.80	297.37
688.14	296.41
688.48	295.62
688.81	294.66
689.15	293.85
689.49	292.93
689.82	291.98
690.16	290.90
690.50	290.02
690.83	289.16
691.17	288.29
691.51	287.37
691.84	286.73
692.18	285.92
692.52	285.25
692.85	284.49
693.19	283.83
693.52	283.07
693.86	282.28
694.20	281.53
694.53	280.73
694.87	279.87
695.21	279.16
695.54	278.43
695.88	277.63
696.21	276.80
696.55	276.06
696.88	275.37
697.22	274.67
697.56	274.10
697.89	273.38
698.23	272.66
698.56	272.06
698.90	271.47
699.23	270.74
699.57	269.98
699.90	269.25
700.24	268.50
700.58	267.87
700.91	267.27
701.25	266.83
701.58	266.25
701.92	265.75
702.25	265.12
702.59	264.43
702.92	263.99
703.26	263.42
703.59	262.95
703.93	262.72
704.26	262.32
704.60	261.74
704.93	261.14
705.26	260.62
705.60	260.13
705.93	259.38
706.27	259.02
706.60	258.67
706.94	258.28
707.27	257.69
707.61	257.19
707.94	256.64
708.27	255.97
708.61	255.49
708.94	255.03
709.28	254.55
709.61	254.08
709.94	253.57
710.28	253.18
710.61	252.68
710.95	251.87
711.28	251.53
711.61	251.01
711.95	250.70
712.28	250.20
712.61	249.71
712.95	249.63
713.28	249.31
713.61	248.77
713.95	248.25
714.28	247.93
714.61	247.46
714.95	247.05
715.28	246.57
715.61	246.09
715.95	245.72
716.28	245.24
716.61	244.98
716.95	244.54
717.28	244.07
717.61	243.78
717.94	243.45
718.28	242.92
718.61	242.62
718.94	242.23
719.27	241.94
719.61	241.68
719.94	241.27
720.27	240.78
720.60	240.45
720.94	240.06
721.27	239.82
721.60	239.62
721.93	239.36
722.27	239.21
722.60	239.01
722.93	238.63
723.26	238.52
723.59	238.19
723.93	237.99
724.26	237.83
724.59	237.54
724.92	237.35
725.25	237.12
725.59	236.82
725.92	236.65
726.25	236.49
726.58	236.27
726.91	235.92
727.24	235.71
727.57	235.48
727.91	235.28
728.24	234.99
728.57	234.73
728.90	234.53
729.23	234.28
729.56	234.22
729.89	234.05
730.22	233.77
730.55	233.51
730.89	233.30
731.22	233.01
731.55	232.73
731.88	232.47
732.21	232.28
732.54	232.07
732.87	231.77
733.20	231.45
733.53	231.16
733.86	231.01
734.19	230.76
734.52	230.60
734.85	230.61
735.18	230.39
735.51	230.34
735.84	230.21
736.17	230.03
736.50	229.61
736.83	229.82
737.16	229.65
737.49	229.45
737.82	229.23
738.15	229.12
738.48	228.97
738.81	228.77
739.14	228.53
739.47	228.43
739.80	228.25
740.13	228.18
740.46	227.95
740.79	227.67
741.12	227.47
741.45	227.22
741.78	226.88
742.11	226.77
742.44	226.47
742.77	226.41
743.10	226.15
743.43	226.02
743.75	225.45
744.08	225.74
744.41	225.65
744.74	225.42
745.07	225.16
745.40	225.02
745.73	224.98
746.06	224.82
746.39	224.65
746.71	224.54
747.04	224.34
747.37	224.28
747.70	224.23
748.03	224.20
748.36	224.14
748.68	224.01
749.01	223.77
749.34	223.73
749.67	223.45
750.00	223.46
750.33	223.60
750.65	223.56
750.98	223.01
751.31	222.84
751.64	222.78
751.97	222.88
752.29	222.77
752.62	222.55
752.95	222.37
753.28	222.23
753.60	222.09
753.93	222.15
754.26	222.11
754.59	221.95
754.91	221.77
755.24	221.68
755.57	221.52
755.90	221.45
756.22	221.19
756.55	221.10
756.88	220.95
757.20	220.60
757.53	220.41
757.86	220.26
758.19	220.32
758.51	220.28
758.84	220.05
759.17	219.88
759.49	219.79
759.82	219.89
760.15	219.84
760.47	219.75
760.80	219.50
761.13	219.37
761.45	219.23
761.78	219.18
762.11	219.00
762.43	218.93
762.76	218.84
763.08	218.85
763.41	218.80
763.74	218.76
764.06	218.74
764.39	218.61
764.71	218.53
765.04	218.30
765.37	218.13
765.69	218.01
766.02	218.04
766.34	217.98
766.67	217.80
767.00	217.78
767.32	217.88
767.65	218.04
767.97	217.95
768.30	217.89
768.62	217.85
768.95	217.83
769.27	217.79
769.60	217.84
769.92	217.69
770.25	217.54
770.57	217.36
770.90	217.22
771.22	217.15
771.55	217.17
771.87	217.17
772.20	217.16
772.52	217.43
772.85	217.72
773.17	217.68
773.50	217.59
773.82	217.50
774.15	217.31
774.47	217.02
774.80	217.01
775.12	217.03
775.45	216.85
775.77	216.83
776.09	216.78
776.42	216.70
776.74	216.73
777.07	216.65
777.39	216.65
777.72	216.63
778.04	216.63
778.36	216.47
778.69	216.43
779.01	216.41
779.33	216.02
779.66	215.56
779.98	215.47
780.31	215.45
780.63	215.54
780.95	215.51
781.28	215.48
781.60	215.33
781.92	215.31
782.25	215.36
782.57	215.30
782.89	215.23
783.22	215.16
783.54	215.09
783.86	215.14
784.19	215.09
784.51	215.07
784.83	214.96
785.16	214.96
785.48	214.92
785.80	214.92
786.12	214.97
786.45	214.90
786.77	214.94
787.09	214.88
787.42	214.71
787.74	214.71
788.06	214.66
788.38	214.68
788.71	214.53
789.03	214.47
789.35	214.56
789.67	214.52
789.99	214.50
790.32	214.49
790.64	214.50
790.96	214.70
791.28	214.64
791.61	214.68
791.93	214.70
792.25	214.66
792.57	214.82
792.89	214.65
793.21	214.72
793.54	214.62
793.86	214.59
794.18	214.61
