SpectraSuite Data File
++++++++++++++++++++++++++++++++++++
Date: Mon Feb 25 17:11:53 EST 2013
User: group
Dark Spectrum Present: No
Reference Spectrum Present: No
Number of Sampled Component Spectra: 1
Spectrometers: USB2E7196
Integration Time (usec): 104000 (USB2E7196)
Spectra Averaged: 20 (USB2E7196)
Boxcar Smoothing: 10 (USB2E7196)
Correct for Electrical Dark: No (USB2E7196)
Strobe/Lamp Enabled: No (USB2E7196)
Correct for Detector Non-linearity: No (USB2E7196)
Correct for Stray Light: No (USB2E7196)
Number of Pixels in Processed Spectrum: 2048
>>>>>Begin Processed Spectral Data<<<<<
339.09	0.00
339.48	197.75
339.86	200.55
340.24	202.20
340.63	202.70
341.01	210.05
341.39	205.15
341.78	207.35
342.16	209.00
342.54	209.20
342.93	198.12
343.31	208.10
343.69	208.63
344.07	209.08
344.46	209.53
344.84	209.85
345.22	209.81
345.60	210.14
345.99	210.38
346.37	210.48
346.75	210.57
347.13	210.63
347.52	210.80
347.90	211.05
348.28	211.10
348.66	211.17
349.05	211.17
349.43	211.31
349.81	211.35
350.19	211.45
350.57	211.56
350.96	211.60
351.34	211.70
351.72	211.84
352.10	211.91
352.48	211.90
352.87	212.07
353.25	212.16
353.63	212.21
354.01	212.18
354.39	212.26
354.77	212.35
355.15	212.51
355.54	212.52
355.92	212.50
356.30	212.52
356.68	212.83
357.06	212.93
357.44	212.87
357.82	212.97
358.20	212.98
358.58	213.01
358.97	213.15
359.35	213.33
359.73	213.45
360.11	213.49
360.49	213.61
360.87	213.58
361.25	213.72
361.63	213.83
362.01	213.94
362.39	213.98
362.77	214.01
363.15	214.00
363.53	213.96
363.91	213.98
364.29	214.03
364.67	213.65
365.05	213.59
365.43	213.63
365.81	213.71
366.19	213.90
366.57	214.07
366.95	214.01
367.33	213.91
367.71	213.93
368.09	213.98
368.47	213.93
368.85	213.95
369.23	213.92
369.61	213.74
369.99	213.79
370.37	213.76
370.75	213.92
371.13	213.86
371.51	213.80
371.89	213.79
372.27	213.75
372.65	213.79
373.03	213.84
373.41	213.73
373.78	213.56
374.16	213.34
374.54	213.20
374.92	213.08
375.30	213.02
375.68	212.88
376.06	212.88
376.44	212.83
376.82	212.83
377.19	212.78
377.57	212.75
377.95	212.60
378.33	212.52
378.71	212.25
379.09	212.24
379.47	212.22
379.84	212.13
380.22	212.05
380.60	211.91
380.98	211.84
381.36	211.79
381.73	211.72
382.11	211.71
382.49	211.58
382.87	211.53
383.25	211.47
383.62	211.80
384.00	211.67
384.38	211.59
384.76	211.59
385.13	211.72
385.51	211.73
385.89	211.66
386.27	211.60
386.64	211.61
387.02	211.59
387.40	211.57
387.78	211.62
388.15	211.56
388.53	211.58
388.91	211.52
389.29	211.55
389.66	211.62
390.04	211.50
390.42	211.53
390.79	211.58
391.17	211.58
391.55	211.20
391.92	211.20
392.30	211.20
392.68	211.12
393.05	211.07
393.43	211.07
393.81	211.13
394.18	211.14
394.56	211.15
394.94	211.21
395.31	211.18
395.69	211.19
396.06	211.29
396.44	211.26
396.82	211.31
397.19	211.50
397.57	211.44
397.95	211.58
398.32	211.53
398.70	211.56
399.07	211.62
399.45	211.68
399.82	211.71
400.20	211.70
400.58	211.69
400.95	211.45
401.33	211.49
401.70	211.69
402.08	211.73
402.45	211.67
402.83	211.78
403.20	211.83
403.58	211.81
403.95	211.89
404.33	211.99
404.71	212.01
405.08	212.21
405.46	212.30
405.83	212.42
406.21	212.49
406.58	212.58
406.96	212.65
407.33	212.69
407.70	212.81
408.08	213.20
408.45	213.40
408.83	213.79
409.20	213.86
409.58	213.85
409.95	214.18
410.33	214.45
410.70	214.46
411.08	214.70
411.45	214.95
411.82	215.20
412.20	215.58
412.57	216.00
412.95	216.00
413.32	216.34
413.69	216.63
414.07	217.06
414.44	217.45
414.82	217.91
415.19	218.53
415.56	219.09
415.94	219.49
416.31	220.06
416.68	220.63
417.06	221.43
417.43	222.18
417.81	222.90
418.18	223.74
418.55	224.59
418.93	225.57
419.30	226.53
419.67	227.43
420.04	228.40
420.42	229.44
420.79	230.94
421.16	232.24
421.54	233.73
421.91	235.13
422.28	236.56
422.66	238.01
423.03	239.59
423.40	241.08
423.77	242.69
424.15	244.33
424.52	246.06
424.89	247.91
425.26	249.59
425.64	251.24
426.01	252.95
426.38	254.96
426.75	256.92
427.13	258.97
427.50	261.08
427.87	263.28
428.24	265.35
428.61	267.23
428.99	269.62
429.36	271.96
429.73	274.44
430.10	276.84
430.47	279.38
430.85	281.81
431.22	284.53
431.59	287.65
431.96	290.36
432.33	293.42
432.70	296.40
433.08	299.97
433.45	303.29
433.82	306.68
434.19	310.30
434.56	313.90
434.93	317.14
435.30	320.54
435.68	324.39
436.05	328.20
436.42	331.82
436.79	335.16
437.16	338.87
437.53	342.54
437.90	346.38
438.27	350.13
438.64	354.02
439.01	357.71
439.38	360.68
439.75	363.81
440.13	367.30
440.50	370.57
440.87	373.17
441.24	375.98
441.61	379.02
441.98	381.33
442.35	383.82
442.72	386.70
443.09	389.48
443.46	390.96
443.83	392.07
444.20	393.12
444.57	394.35
444.94	394.91
445.31	395.62
445.68	396.69
446.05	396.96
446.42	396.56
446.79	396.13
447.16	395.62
447.53	395.37
447.90	393.92
448.27	392.47
448.64	390.57
449.01	389.18
449.37	386.69
449.74	384.30
450.11	381.72
450.48	378.46
450.85	375.08
451.22	372.34
451.59	369.69
451.96	367.12
452.33	363.82
452.70	360.71
453.07	357.01
453.43	352.82
453.80	349.21
454.17	345.76
454.54	342.40
454.91	338.95
455.28	335.47
455.65	332.24
456.02	329.61
456.38	326.85
456.75	323.45
457.12	320.63
457.49	317.82
457.86	314.88
458.23	312.69
458.59	310.19
458.96	307.64
459.33	305.29
459.70	303.04
460.07	301.25
460.43	299.14
460.80	297.26
461.17	295.59
461.54	293.81
461.91	292.20
462.27	290.46
462.64	288.94
463.01	287.36
463.38	286.02
463.74	283.91
464.11	282.55
464.48	281.36
464.85	280.07
465.21	279.14
465.58	278.13
465.95	276.76
466.32	275.79
466.68	274.73
467.05	273.69
467.42	272.58
467.78	271.45
468.15	270.47
468.52	269.73
468.88	268.68
469.25	267.81
469.62	267.07
469.98	266.32
470.35	265.69
470.72	264.98
471.08	264.08
471.45	263.51
471.82	263.00
472.18	262.31
472.55	261.90
472.92	261.19
473.28	260.70
473.65	260.27
474.02	259.68
474.38	259.28
474.75	259.06
475.11	258.77
475.48	258.56
475.85	258.29
476.21	258.15
476.58	258.03
476.94	257.89
477.31	257.68
477.67	257.63
478.04	257.53
478.41	257.52
478.77	257.85
479.14	257.83
479.50	257.88
479.87	257.99
480.23	258.14
480.60	258.34
480.96	258.45
481.33	258.77
481.69	259.01
482.06	259.20
482.42	259.39
482.79	259.70
483.15	259.98
483.52	260.42
483.88	260.71
484.25	261.15
484.61	261.55
484.98	262.08
485.34	262.65
485.71	263.29
486.07	263.93
486.44	264.40
486.80	265.08
487.17	265.71
487.53	266.61
487.90	267.41
488.26	268.47
488.62	269.54
488.99	270.38
489.35	271.45
489.72	272.68
490.08	273.87
490.44	275.06
490.81	276.46
491.17	277.91
491.54	279.45
491.90	281.04
492.26	282.72
492.63	284.45
492.99	286.10
493.36	288.01
493.72	290.00
494.08	291.97
494.45	294.13
494.81	296.50
495.17	298.69
495.54	301.11
495.90	303.54
496.26	305.99
496.63	308.83
496.99	311.66
497.35	314.55
497.72	317.66
498.08	320.76
498.44	323.96
498.80	327.47
499.17	330.95
499.53	334.52
499.89	338.34
500.26	342.15
500.62	346.08
500.98	350.32
501.34	354.55
501.71	358.94
502.07	363.45
502.43	367.98
502.79	372.75
503.16	377.64
503.52	382.65
503.88	387.68
504.24	392.94
504.60	398.35
504.97	403.86
505.33	409.44
505.69	415.65
506.05	421.60
506.41	427.55
506.78	433.73
507.14	439.94
507.50	446.24
507.86	452.88
508.22	459.83
508.59	466.48
508.95	473.48
509.31	480.87
509.67	488.22
510.03	495.69
510.39	503.31
510.75	511.00
511.12	518.75
511.48	526.84
511.84	534.86
512.20	543.06
512.56	551.46
512.92	560.05
513.28	568.42
513.64	577.16
514.00	585.77
514.37	594.51
514.73	603.70
515.09	612.90
515.45	622.01
515.81	631.17
516.17	640.55
516.53	649.88
516.89	658.98
517.25	668.54
517.61	678.11
517.97	687.53
518.33	697.10
518.69	706.74
519.05	716.53
519.41	726.42
519.77	736.45
520.13	746.23
520.49	755.90
520.85	765.81
521.21	775.93
521.57	786.13
521.93	796.10
522.29	806.21
522.65	816.39
523.01	826.44
523.37	836.37
523.73	846.41
524.09	856.51
524.45	866.73
524.81	876.77
525.17	887.07
525.53	897.35
525.89	907.64
526.25	917.83
526.61	927.74
526.97	937.81
527.33	947.77
527.68	957.84
528.04	967.80
528.40	977.34
528.76	987.07
529.12	997.01
529.48	1007.13
529.84	1016.69
530.20	1026.25
530.56	1035.99
530.91	1046.01
531.27	1055.80
531.63	1065.58
531.99	1075.19
532.35	1084.25
532.71	1093.16
533.07	1102.60
533.42	1111.96
533.78	1121.23
534.14	1130.29
534.50	1138.58
534.86	1147.41
535.21	1155.70
535.57	1164.58
535.93	1172.98
536.29	1181.30
536.65	1189.37
537.00	1197.10
537.36	1204.88
537.72	1212.45
538.08	1220.23
538.44	1227.40
538.79	1234.80
539.15	1241.71
539.51	1248.83
539.87	1256.52
540.22	1263.50
540.58	1270.54
540.94	1277.10
541.29	1283.26
541.65	1289.23
542.01	1295.69
542.37	1301.52
542.72	1307.65
543.08	1313.25
543.44	1319.53
543.79	1324.65
544.15	1329.87
544.51	1335.45
544.87	1340.95
545.22	1345.87
545.58	1350.26
545.94	1354.73
546.29	1358.58
546.65	1362.59
547.01	1366.18
547.36	1369.73
547.72	1373.34
548.07	1376.54
548.43	1379.48
548.79	1382.37
549.14	1385.26
549.50	1388.02
549.86	1390.36
550.21	1392.81
550.57	1395.17
550.92	1396.64
551.28	1398.74
551.64	1400.60
551.99	1402.50
552.35	1403.93
552.70	1405.71
553.06	1407.54
553.41	1409.03
553.77	1410.45
554.13	1411.69
554.48	1413.30
554.84	1414.59
555.19	1415.75
555.55	1416.25
555.90	1416.73
556.26	1417.28
556.61	1417.79
556.97	1417.82
557.32	1418.19
557.68	1418.17
558.03	1418.00
558.39	1418.20
558.74	1418.47
559.10	1418.70
559.45	1418.16
559.81	1418.15
560.16	1417.67
560.52	1417.26
560.87	1416.68
561.23	1415.90
561.58	1415.90
561.94	1414.66
562.29	1413.19
562.64	1412.08
563.00	1411.37
563.35	1410.85
563.71	1410.61
564.06	1410.07
564.42	1409.84
564.77	1409.25
565.12	1408.51
565.48	1407.78
565.83	1406.85
566.19	1405.77
566.54	1404.04
566.89	1402.68
567.25	1401.34
567.60	1399.99
567.96	1398.40
568.31	1397.09
568.66	1395.55
569.02	1393.50
569.37	1391.61
569.72	1390.08
570.08	1388.15
570.43	1385.90
570.78	1383.47
571.14	1380.55
571.49	1377.76
571.84	1375.35
572.20	1372.28
572.55	1369.83
572.90	1366.71
573.26	1363.58
573.61	1360.46
573.96	1357.65
574.31	1354.44
574.67	1350.66
575.02	1347.12
575.37	1343.52
575.72	1339.54
576.08	1336.17
576.43	1332.21
576.78	1328.74
577.13	1325.44
577.49	1322.11
577.84	1318.56
578.19	1315.56
578.54	1312.69
578.90	1309.78
579.25	1306.02
579.60	1302.41
579.95	1298.15
580.30	1294.79
580.66	1291.73
581.01	1287.99
581.36	1284.15
581.71	1280.34
582.06	1277.01
582.42	1273.56
582.77	1269.71
583.12	1266.30
583.47	1262.96
583.82	1259.80
584.17	1256.35
584.53	1252.87
584.88	1249.34
585.23	1245.85
585.58	1241.85
585.93	1238.03
586.28	1234.58
586.63	1231.03
586.98	1227.81
587.34	1225.00
587.69	1221.42
588.04	1217.78
588.39	1214.46
588.74	1210.86
589.09	1207.63
589.44	1203.81
589.79	1200.57
590.14	1197.30
590.49	1193.75
590.84	1190.14
591.19	1186.86
591.54	1183.15
591.89	1178.92
592.25	1175.16
592.60	1171.32
592.95	1167.48
593.30	1163.25
593.65	1158.82
594.00	1154.75
594.35	1151.93
594.70	1147.85
595.05	1144.23
595.40	1140.43
595.75	1136.58
596.10	1133.10
596.45	1129.43
596.80	1126.22
597.15	1122.76
597.50	1119.03
597.85	1115.56
598.19	1111.66
598.54	1107.94
598.89	1104.76
599.24	1101.91
599.59	1098.46
599.94	1095.42
600.29	1092.12
600.64	1089.06
600.99	1085.69
601.34	1082.37
601.69	1077.90
602.04	1074.29
602.39	1070.78
602.74	1067.37
603.08	1064.38
603.43	1061.54
603.78	1058.12
604.13	1054.85
604.48	1051.29
604.83	1048.67
605.18	1045.81
605.53	1042.56
605.87	1039.12
606.22	1036.06
606.57	1032.47
606.92	1028.98
607.27	1025.14
607.62	1021.65
607.96	1018.36
608.31	1015.38
608.66	1012.10
609.01	1008.60
609.36	1005.20
609.70	1001.59
610.05	997.91
610.40	993.91
610.75	989.72
611.10	986.50
611.44	981.93
611.79	977.64
612.14	972.96
612.49	968.30
612.83	964.40
613.18	960.16
613.53	955.73
613.88	951.12
614.22	947.05
614.57	943.00
614.92	938.81
615.27	934.32
615.61	929.96
615.96	925.76
616.31	921.83
616.65	918.11
617.00	913.98
617.35	909.93
617.70	905.56
618.04	901.13
618.39	896.33
618.74	892.48
619.08	888.37
619.43	884.38
619.78	880.44
620.12	876.45
620.47	872.41
620.82	867.93
621.16	863.81
621.51	859.70
621.85	855.64
622.20	851.31
622.55	847.16
622.89	842.87
623.24	838.77
623.59	834.55
623.93	830.30
624.28	826.24
624.62	822.26
624.97	818.53
625.32	814.77
625.66	811.21
626.01	807.46
626.35	803.73
626.70	800.05
627.04	796.55
627.39	792.63
627.73	788.87
628.08	785.54
628.43	781.70
628.77	777.74
629.12	773.83
629.46	770.69
629.81	767.10
630.15	763.56
630.50	759.71
630.84	755.77
631.19	751.99
631.53	748.29
631.88	744.14
632.22	740.10
632.57	736.65
632.91	732.90
633.26	729.21
633.60	725.68
633.95	722.00
634.29	717.99
634.64	714.54
634.98	710.80
635.32	707.11
635.67	703.87
636.01	700.64
636.36	697.21
636.70	693.83
637.05	690.47
637.39	687.12
637.73	684.05
638.08	681.20
638.42	678.15
638.77	675.01
639.11	671.82
639.45	668.71
639.80	665.11
640.14	661.48
640.49	658.09
640.83	654.65
641.17	651.33
641.52	648.20
641.86	644.81
642.20	641.72
642.55	638.24
642.89	634.75
643.23	631.18
643.58	628.20
643.92	624.49
644.26	621.12
644.61	617.75
644.95	614.43
645.29	610.94
645.64	607.41
645.98	604.12
646.32	601.05
646.66	597.78
647.01	594.66
647.35	591.81
647.69	588.53
648.04	585.44
648.38	582.28
648.72	579.07
649.06	575.79
649.41	572.57
649.75	569.45
650.09	566.45
650.43	563.40
650.78	560.05
651.12	556.89
651.46	553.83
651.80	550.82
652.14	547.66
652.49	544.73
652.83	541.65
653.17	538.36
653.51	535.22
653.85	532.34
654.20	529.26
654.54	526.06
654.88	523.10
655.22	520.08
655.56	517.07
655.90	514.00
656.25	511.08
656.59	507.98
656.93	505.14
657.27	502.37
657.61	499.24
657.95	496.40
658.29	493.66
658.64	490.96
658.98	488.07
659.32	485.20
659.66	482.38
660.00	479.59
660.34	476.86
660.68	474.07
661.02	471.24
661.36	468.64
661.70	466.07
662.05	463.68
662.39	461.29
662.73	458.95
663.07	456.75
663.41	454.35
663.75	452.06
664.09	449.59
664.43	446.92
664.77	444.84
665.11	442.45
665.45	440.10
665.79	437.79
666.13	435.52
666.47	433.24
666.81	431.01
667.15	428.75
667.49	426.82
667.83	424.90
668.17	422.73
668.51	420.79
668.85	418.73
669.19	416.73
669.53	414.61
669.87	412.40
670.21	410.33
670.55	408.29
670.89	406.53
671.23	404.84
671.57	403.08
671.91	401.08
672.25	399.15
672.58	397.42
672.92	395.47
673.26	393.73
673.60	392.04
673.94	390.16
674.28	388.47
674.62	386.78
674.96	385.02
675.30	383.38
675.64	381.58
675.97	379.94
676.31	378.18
676.65	376.52
676.99	375.16
677.33	373.39
677.67	371.87
678.01	370.07
678.34	368.38
678.68	366.89
679.02	365.27
679.36	363.83
679.70	362.25
680.04	360.75
680.37	359.17
680.71	357.62
681.05	356.31
681.39	354.86
681.73	353.25
682.06	351.77
682.40	350.36
682.74	348.96
683.08	347.72
683.42	346.27
683.75	344.93
684.09	343.29
684.43	341.95
684.77	340.55
685.10	339.18
685.44	337.70
685.78	336.30
686.12	335.14
686.45	333.79
686.79	332.48
687.13	331.23
687.46	330.01
687.80	328.79
688.14	327.34
688.48	326.07
688.81	324.83
689.15	323.58
689.49	322.32
689.82	321.05
690.16	319.50
690.50	318.19
690.83	316.88
691.17	315.64
691.51	314.44
691.84	313.27
692.18	312.08
692.52	310.94
692.85	309.90
693.19	308.83
693.52	307.67
693.86	306.45
694.20	305.43
694.53	304.34
694.87	303.30
695.21	302.25
695.54	301.20
695.88	300.19
696.21	299.15
696.55	298.20
696.88	297.17
697.22	296.26
697.56	295.32
697.89	294.30
698.23	293.51
698.56	292.61
698.90	291.72
699.23	290.84
699.57	290.00
699.90	289.07
700.24	288.05
700.58	287.28
700.91	286.54
701.25	285.83
701.58	285.05
701.92	284.22
702.25	283.47
702.59	282.64
702.92	281.75
703.26	280.89
703.59	280.17
703.93	279.72
704.26	278.93
704.60	278.30
704.93	277.61
705.26	276.67
705.60	276.03
705.93	275.30
706.27	274.67
706.60	274.06
706.94	273.50
707.27	272.81
707.61	272.10
707.94	271.38
708.27	270.50
708.61	269.65
708.94	268.94
709.28	268.32
709.61	267.63
709.94	267.07
710.28	266.54
710.61	265.90
710.95	264.89
711.28	264.53
711.61	263.85
711.95	263.27
712.28	262.75
712.61	262.11
712.95	261.70
713.28	261.27
713.61	260.66
713.95	260.01
714.28	259.53
714.61	258.95
714.95	258.40
715.28	257.82
715.61	257.45
715.95	257.01
716.28	256.37
716.61	255.93
716.95	255.44
717.28	254.99
717.61	254.44
717.94	254.09
718.28	253.41
718.61	253.03
718.94	252.54
719.27	252.05
719.61	251.60
719.94	251.01
720.27	250.38
720.60	249.95
720.94	249.50
721.27	249.08
721.60	248.69
721.93	248.28
722.27	248.01
722.60	247.65
722.93	247.17
723.26	246.88
723.59	246.48
723.93	246.09
724.26	245.62
724.59	245.30
724.92	244.91
725.25	244.64
725.59	244.18
725.92	243.89
726.25	243.61
726.58	243.32
726.91	243.02
727.24	242.76
727.57	242.37
727.91	241.97
728.24	241.69
728.57	241.35
728.90	241.11
729.23	240.73
729.56	240.51
729.89	240.27
730.22	239.98
730.55	239.66
730.89	239.36
731.22	239.11
731.55	238.90
731.88	238.63
732.21	238.28
732.54	237.97
732.87	237.69
733.20	237.38
733.53	237.03
733.86	236.82
734.19	236.49
734.52	236.34
734.85	236.39
735.18	236.05
735.51	235.98
735.84	235.76
736.17	235.63
736.50	235.13
736.83	235.26
737.16	235.02
737.49	234.81
737.82	234.56
738.15	234.42
738.48	234.13
738.81	233.95
739.14	233.67
739.47	233.57
739.80	233.36
740.13	233.17
740.46	232.96
740.79	232.59
741.12	232.35
741.45	232.10
741.78	231.65
742.11	231.55
742.44	231.19
742.77	230.96
743.10	230.60
743.43	230.42
743.75	229.87
744.08	230.05
744.41	229.77
744.74	229.54
745.07	229.24
745.40	229.04
745.73	229.02
746.06	228.85
746.39	228.62
746.71	228.39
747.04	228.19
747.37	227.99
747.70	227.85
748.03	227.75
748.36	227.57
748.68	227.42
749.01	227.13
749.34	226.92
749.67	226.83
750.00	226.73
750.33	226.93
750.65	226.75
750.98	226.18
751.31	226.06
751.64	225.85
751.97	225.85
752.29	225.69
752.62	225.29
752.95	225.14
753.28	224.96
753.60	224.80
753.93	224.72
754.26	224.60
754.59	224.41
754.91	224.17
755.24	224.02
755.57	223.85
755.90	223.72
756.22	223.59
756.55	223.35
756.88	223.16
757.20	222.67
757.53	222.48
757.86	222.34
758.19	222.28
758.51	222.22
758.84	221.94
759.17	221.79
759.49	221.73
759.82	221.82
760.15	221.68
760.47	221.57
760.80	221.35
761.13	221.28
761.45	221.14
761.78	221.00
762.11	220.87
762.43	220.71
762.76	220.63
763.08	220.54
763.41	220.48
763.74	220.39
764.06	220.38
764.39	220.23
764.71	220.14
765.04	219.98
765.37	219.90
765.69	219.74
766.02	219.60
766.34	219.51
766.67	219.21
767.00	219.28
767.32	219.31
767.65	219.46
767.97	219.36
768.30	219.30
768.62	219.26
768.95	219.14
769.27	219.13
769.60	219.11
769.92	218.99
770.25	218.78
770.57	218.62
770.90	218.48
771.22	218.38
771.55	218.26
771.87	218.27
772.20	218.19
772.52	218.44
772.85	218.84
773.17	218.75
773.50	218.71
773.82	218.52
774.15	218.36
774.47	218.10
774.80	218.03
775.12	217.95
775.45	217.86
775.77	217.88
776.09	217.80
776.42	217.77
776.74	217.85
777.07	217.93
777.39	217.91
777.72	217.88
778.04	217.91
778.36	217.86
778.69	217.71
779.01	217.70
779.33	217.38
779.66	216.90
779.98	216.78
780.31	216.70
780.63	216.80
780.95	216.77
781.28	216.69
781.60	216.61
781.92	216.61
782.25	216.56
782.57	216.45
782.89	216.40
783.22	216.25
783.54	216.14
783.86	216.06
784.19	216.00
784.51	216.05
784.83	216.00
785.16	215.99
785.48	215.98
785.80	215.87
786.12	215.81
786.45	215.77
786.77	215.79
787.09	215.81
787.42	215.61
787.74	215.62
788.06	215.62
788.38	215.55
788.71	215.46
789.03	215.42
789.35	215.41
