SpectraSuite Data File
++++++++++++++++++++++++++++++++++++
Date: Mon Feb 25 17:15:34 EST 2013
User: group
Dark Spectrum Present: No
Reference Spectrum Present: No
Number of Sampled Component Spectra: 1
Spectrometers: USB2E7196
Integration Time (usec): 104000 (USB2E7196)
Spectra Averaged: 20 (USB2E7196)
Boxcar Smoothing: 10 (USB2E7196)
Correct for Electrical Dark: No (USB2E7196)
Strobe/Lamp Enabled: No (USB2E7196)
Correct for Detector Non-linearity: No (USB2E7196)
Correct for Stray Light: No (USB2E7196)
Number of Pixels in Processed Spectrum: 2048
>>>>>Begin Processed Spectral Data<<<<<
339.09	0.00
339.48	199.45
339.86	200.05
340.24	201.20
340.63	202.40
341.01	209.10
341.39	205.65
341.78	208.65
342.16	209.80
342.54	209.40
342.93	198.03
343.31	208.01
343.69	208.45
344.07	208.86
344.46	209.36
344.84	209.76
345.22	209.82
345.60	210.13
345.99	210.26
346.37	210.26
346.75	210.25
347.13	210.31
347.52	210.37
347.90	210.61
348.28	210.67
348.66	210.72
349.05	210.63
349.43	210.69
349.81	210.76
350.19	210.87
350.57	210.98
350.96	211.14
351.34	211.27
351.72	211.43
352.10	211.56
352.48	211.57
352.87	211.62
353.25	211.69
353.63	211.62
354.01	211.70
354.39	211.80
354.77	212.00
355.15	212.13
355.54	212.21
355.92	212.15
356.30	212.30
356.68	212.57
357.06	212.76
357.44	212.75
357.82	212.86
358.20	212.97
358.58	213.07
358.97	213.13
359.35	213.22
359.73	213.33
360.11	213.36
360.49	213.43
360.87	213.51
361.25	213.65
361.63	213.95
362.01	214.04
362.39	214.08
362.77	214.12
363.15	214.20
363.53	214.23
363.91	214.27
364.29	214.22
364.67	213.97
365.05	214.00
365.43	214.17
365.81	214.25
366.19	214.37
366.57	214.50
366.95	214.53
367.33	214.52
367.71	214.56
368.09	214.65
368.47	214.64
368.85	214.58
369.23	214.63
369.61	214.45
369.99	214.50
370.37	214.61
370.75	214.76
371.13	214.69
371.51	214.68
371.89	214.68
372.27	214.68
372.65	214.66
373.03	214.60
373.41	214.49
373.78	214.38
374.16	214.23
374.54	214.03
374.92	213.89
375.30	213.89
375.68	213.77
376.06	213.78
376.44	213.76
376.82	213.81
377.19	213.76
377.57	213.72
377.95	213.57
378.33	213.42
378.71	213.15
379.09	213.12
379.47	213.08
379.84	212.94
380.22	212.92
380.60	212.77
380.98	212.67
381.36	212.62
381.73	212.53
382.11	212.57
382.49	212.56
382.87	212.50
383.25	212.34
383.62	212.71
384.00	212.52
384.38	212.53
384.76	212.51
385.13	212.57
385.51	212.45
385.89	212.36
386.27	212.36
386.64	212.34
387.02	212.24
387.40	212.19
387.78	212.20
388.15	212.17
388.53	212.17
388.91	212.19
389.29	212.10
389.66	212.13
390.04	211.99
390.42	211.99
390.79	211.98
391.17	212.02
391.55	211.60
391.92	211.61
392.30	211.58
392.68	211.48
393.05	211.45
393.43	211.53
393.81	211.59
394.18	211.54
394.56	211.57
394.94	211.70
395.31	211.63
395.69	211.78
396.06	211.83
396.44	211.88
396.82	211.89
397.19	212.07
397.57	212.05
397.95	212.18
398.32	212.09
398.70	212.14
399.07	212.21
399.45	212.20
399.82	212.28
400.20	212.24
400.58	212.35
400.95	212.18
401.33	212.25
401.70	212.47
402.08	212.53
402.45	212.52
402.83	212.63
403.20	212.76
403.58	212.70
403.95	212.82
404.33	212.93
404.71	213.08
405.08	213.36
405.46	213.47
405.83	213.55
406.21	213.75
406.58	213.90
406.96	213.99
407.33	214.16
407.70	214.37
408.08	214.84
408.45	215.02
408.83	215.33
409.20	215.48
409.58	215.56
409.95	215.86
410.33	216.27
410.70	216.39
411.08	216.75
411.45	217.12
411.82	217.36
412.20	217.73
412.57	218.20
412.95	218.37
413.32	218.85
413.69	219.31
414.07	219.77
414.44	220.33
414.82	220.95
415.19	221.58
415.56	222.20
415.94	222.73
416.31	223.57
416.68	224.41
417.06	225.37
417.43	226.28
417.81	227.28
418.18	228.28
418.55	229.39
418.93	230.44
419.30	231.66
419.67	232.95
420.04	234.30
420.42	235.55
420.79	237.32
421.16	238.83
421.54	240.59
421.91	242.28
422.28	244.03
422.66	245.89
423.03	248.02
423.40	249.86
423.77	251.85
424.15	253.77
424.52	255.80
424.89	258.09
425.26	260.22
425.64	262.25
426.01	264.44
426.38	266.82
426.75	269.42
427.13	271.90
427.50	274.61
427.87	277.27
428.24	280.07
428.61	282.55
428.99	285.52
429.36	288.60
429.73	291.75
430.10	294.92
430.47	298.03
430.85	301.07
431.22	304.68
431.59	308.58
431.96	312.04
432.33	316.00
432.70	319.79
433.08	324.21
433.45	328.45
433.82	332.61
434.19	337.23
434.56	341.67
434.93	345.85
435.30	350.05
435.68	354.80
436.05	359.30
436.42	363.92
436.79	368.15
437.16	372.61
437.53	377.44
437.90	382.08
438.27	386.89
438.64	391.76
439.01	396.23
439.38	400.04
439.75	403.93
440.13	408.22
440.50	412.30
440.87	415.59
441.24	419.08
441.61	422.92
441.98	425.65
442.35	428.84
442.72	432.32
443.09	435.68
443.46	437.55
443.83	439.00
444.20	440.03
444.57	441.58
444.94	442.34
445.31	442.95
445.68	444.00
446.05	444.07
446.42	443.48
446.79	442.91
447.16	442.03
447.53	441.46
447.90	439.51
448.27	437.56
448.64	435.25
449.01	433.36
449.37	430.12
449.74	427.07
450.11	423.63
450.48	419.56
450.85	415.14
451.22	411.67
451.59	408.38
451.96	405.22
452.33	400.98
452.70	397.10
453.07	392.50
453.43	387.52
453.80	383.12
454.17	378.77
454.54	374.56
454.91	370.29
455.28	366.08
455.65	362.23
456.02	358.76
456.38	355.22
456.75	351.05
457.12	347.64
457.49	344.18
457.86	340.55
458.23	337.84
458.59	334.80
458.96	331.65
459.33	328.75
459.70	325.96
460.07	323.73
460.43	321.13
460.80	318.87
461.17	316.80
461.54	314.57
461.91	312.46
462.27	310.35
462.64	308.54
463.01	306.61
463.38	304.79
463.74	302.47
464.11	300.77
464.48	299.28
464.85	297.65
465.21	296.59
465.58	295.40
465.95	293.73
466.32	292.50
466.68	291.16
467.05	289.79
467.42	288.52
467.78	287.19
468.15	286.04
468.52	285.19
468.88	283.90
469.25	282.79
469.62	282.09
469.98	281.27
470.35	280.44
470.72	279.65
471.08	278.70
471.45	278.09
471.82	277.48
472.18	276.72
472.55	276.22
472.92	275.47
473.28	274.90
473.65	274.37
474.02	273.89
474.38	273.63
474.75	273.37
475.11	272.98
475.48	272.84
475.85	272.65
476.21	272.42
476.58	272.37
476.94	272.43
477.31	272.26
477.67	272.15
478.04	272.14
478.41	272.30
478.77	272.68
479.14	272.81
479.50	272.97
479.87	273.32
480.23	273.60
480.60	273.85
480.96	274.10
481.33	274.68
481.69	275.16
482.06	275.54
482.42	276.09
482.79	276.64
483.15	277.16
483.52	277.87
483.88	278.57
484.25	279.33
484.61	280.16
484.98	281.22
485.34	282.36
485.71	283.58
486.07	284.72
486.44	285.75
486.80	287.01
487.17	288.32
487.53	289.88
487.90	291.45
488.26	293.37
488.62	295.34
488.99	297.06
489.35	299.05
489.72	301.18
490.08	303.48
490.44	305.85
490.81	308.41
491.17	310.86
491.54	313.46
491.90	316.37
492.26	319.30
492.63	322.31
492.99	325.37
493.36	328.76
493.72	332.35
494.08	335.93
494.45	339.78
494.81	344.03
495.17	348.19
495.54	352.78
495.90	357.18
496.26	361.96
496.63	367.09
496.99	372.25
497.35	377.58
497.72	383.23
498.08	388.93
498.44	394.94
498.80	401.54
499.17	408.27
499.53	414.97
499.89	422.23
500.26	429.43
500.62	436.94
500.98	444.73
501.34	452.71
501.71	461.28
502.07	469.84
502.43	478.66
502.79	487.74
503.16	496.97
503.52	506.78
503.88	516.63
504.24	526.74
504.60	537.24
504.97	548.25
505.33	558.99
505.69	570.78
506.05	582.53
506.41	594.38
506.78	606.49
507.14	619.00
507.50	631.55
507.86	644.51
508.22	657.83
508.59	671.27
508.95	685.30
509.31	699.58
509.67	714.17
510.03	728.95
510.39	744.19
510.75	759.58
511.12	775.06
511.48	791.08
511.84	807.31
512.20	823.51
512.56	839.99
512.92	857.15
513.28	874.24
513.64	891.53
514.00	908.77
514.37	926.26
514.73	944.08
515.09	962.04
515.45	980.24
515.81	998.55
516.17	1016.94
516.53	1035.33
516.89	1053.70
517.25	1072.26
517.61	1091.05
517.97	1109.40
518.33	1128.18
518.69	1147.26
519.05	1166.23
519.41	1185.19
519.77	1204.87
520.13	1223.95
520.49	1242.71
520.85	1261.76
521.21	1281.13
521.57	1300.66
521.93	1319.76
522.29	1339.76
522.65	1359.28
523.01	1378.50
523.37	1397.34
523.73	1416.65
524.09	1435.70
524.45	1454.83
524.81	1474.10
525.17	1493.37
525.53	1512.82
525.89	1531.83
526.25	1550.42
526.61	1568.82
526.97	1587.57
527.33	1605.73
527.68	1624.39
528.04	1642.49
528.40	1660.05
528.76	1677.62
529.12	1695.64
529.48	1713.67
529.84	1730.88
530.20	1748.13
530.56	1765.56
530.91	1783.56
531.27	1800.98
531.63	1817.71
531.99	1834.38
532.35	1850.36
532.71	1866.37
533.07	1882.67
533.42	1898.52
533.78	1914.65
534.14	1930.24
534.50	1944.28
534.86	1959.44
535.21	1973.21
535.57	1988.36
535.93	2002.49
536.29	2016.35
536.65	2030.26
537.00	2043.40
537.36	2055.70
537.72	2068.19
538.08	2080.74
538.44	2092.78
538.79	2104.85
539.15	2117.22
539.51	2129.16
539.87	2141.52
540.22	2152.54
540.58	2163.91
540.94	2174.94
541.29	2184.85
541.65	2194.34
542.01	2204.99
542.37	2214.04
542.72	2224.28
543.08	2232.83
543.44	2242.40
543.79	2250.80
544.15	2258.05
544.51	2266.56
544.87	2275.01
545.22	2282.13
545.58	2288.86
545.94	2294.95
546.29	2300.56
546.65	2305.83
547.01	2310.98
547.36	2315.52
547.72	2320.50
548.07	2324.30
548.43	2328.05
548.79	2331.36
549.14	2335.20
549.50	2338.45
549.86	2341.21
550.21	2343.49
550.57	2346.64
550.92	2347.91
551.28	2349.42
551.64	2351.53
551.99	2353.13
552.35	2354.25
552.70	2355.80
553.06	2357.00
553.41	2357.93
553.77	2358.77
554.13	2359.36
554.48	2360.02
554.84	2360.74
555.19	2360.71
555.55	2360.42
555.90	2359.50
556.26	2359.06
556.61	2357.99
556.97	2356.49
557.32	2355.78
557.68	2353.93
558.03	2351.54
558.39	2350.37
558.74	2349.91
559.10	2348.45
559.45	2346.58
559.81	2345.08
560.16	2343.02
560.52	2341.32
560.87	2339.32
561.23	2336.52
561.58	2334.52
561.94	2331.20
562.29	2327.54
562.64	2324.58
563.00	2321.69
563.35	2319.33
563.71	2317.62
564.06	2315.15
564.42	2312.90
564.77	2310.71
565.12	2308.58
565.48	2306.01
565.83	2303.18
566.19	2299.85
566.54	2296.04
566.89	2292.04
567.25	2288.30
567.60	2284.77
567.96	2280.82
568.31	2276.78
568.66	2272.80
569.02	2267.89
569.37	2263.28
569.72	2259.19
570.08	2254.50
570.43	2249.72
570.78	2244.70
571.14	2238.59
571.49	2232.85
571.84	2227.76
572.20	2220.99
572.55	2215.42
572.90	2209.40
573.26	2202.89
573.61	2196.56
573.96	2190.38
574.31	2183.53
574.67	2176.22
575.02	2168.70
575.37	2161.10
575.72	2153.45
576.08	2146.99
576.43	2139.69
576.78	2132.93
577.13	2126.39
577.49	2119.66
577.84	2112.72
578.19	2106.02
578.54	2099.89
578.90	2093.88
579.25	2086.57
579.60	2079.52
579.95	2071.67
580.30	2064.88
580.66	2058.31
581.01	2050.93
581.36	2043.23
581.71	2036.25
582.06	2029.46
582.42	2023.08
582.77	2015.90
583.12	2008.97
583.47	2001.89
583.82	1995.72
584.17	1988.68
584.53	1981.80
584.88	1974.63
585.23	1967.68
585.58	1960.69
585.93	1952.94
586.28	1946.02
586.63	1939.20
586.98	1932.68
587.34	1926.51
587.69	1919.50
588.04	1912.67
588.39	1905.91
588.74	1898.92
589.09	1892.56
589.44	1885.46
589.79	1878.53
590.14	1872.17
590.49	1865.43
590.84	1858.40
591.19	1852.08
591.54	1845.40
591.89	1837.07
592.25	1830.11
592.60	1822.47
592.95	1814.83
593.30	1807.01
593.65	1799.01
594.00	1791.60
594.35	1785.73
594.70	1778.17
595.05	1771.29
595.40	1764.15
595.75	1756.73
596.10	1750.37
596.45	1743.73
596.80	1737.30
597.15	1730.67
597.50	1723.73
597.85	1717.47
598.19	1710.55
598.54	1703.36
598.89	1696.98
599.24	1691.94
599.59	1685.68
599.94	1680.38
600.29	1674.65
600.64	1669.16
600.99	1662.87
601.34	1656.85
601.69	1649.10
602.04	1642.78
602.39	1636.30
602.74	1630.06
603.08	1624.91
603.43	1619.26
603.78	1612.79
604.13	1606.63
604.48	1600.75
604.83	1595.59
605.18	1590.18
605.53	1584.33
605.87	1578.15
606.22	1572.40
606.57	1565.80
606.92	1559.46
607.27	1552.56
607.62	1546.14
607.96	1540.32
608.31	1534.73
608.66	1528.15
609.01	1522.00
609.36	1515.50
609.70	1508.58
610.05	1501.82
610.40	1494.58
610.75	1487.48
611.10	1481.25
611.44	1473.54
611.79	1466.15
612.14	1458.15
612.49	1449.97
612.83	1442.79
613.18	1435.11
613.53	1427.28
613.88	1419.50
614.22	1412.30
614.57	1404.79
614.92	1397.20
615.27	1389.31
615.61	1381.66
615.96	1374.73
616.31	1367.79
616.65	1361.34
617.00	1354.74
617.35	1347.56
617.70	1340.26
618.04	1332.60
618.39	1324.42
618.74	1317.68
619.08	1310.16
619.43	1303.27
619.78	1296.65
620.12	1289.63
620.47	1283.10
620.82	1275.76
621.16	1268.34
621.51	1261.27
621.85	1254.46
622.20	1247.31
622.55	1240.30
622.89	1233.06
623.24	1225.79
623.59	1218.21
623.93	1210.80
624.28	1203.70
624.62	1196.95
624.97	1190.04
625.32	1183.39
625.66	1177.08
626.01	1170.65
626.35	1164.47
626.70	1157.92
627.04	1151.72
627.39	1145.43
627.73	1138.78
628.08	1133.02
628.43	1126.80
628.77	1120.16
629.12	1113.59
629.46	1107.73
629.81	1101.70
630.15	1095.58
630.50	1089.27
630.84	1083.05
631.19	1076.91
631.53	1070.78
631.88	1064.38
632.22	1058.06
632.57	1052.12
632.91	1045.75
633.26	1039.50
633.60	1033.15
633.95	1027.25
634.29	1020.83
634.64	1014.68
634.98	1008.50
635.32	1002.50
635.67	997.05
636.01	991.44
636.36	985.44
636.70	979.60
637.05	973.53
637.39	967.89
637.73	962.56
638.08	957.65
638.42	952.41
638.77	946.95
639.11	941.31
639.45	935.75
639.80	929.92
640.14	924.42
640.49	918.93
640.83	913.51
641.17	907.85
641.52	902.37
641.86	896.67
642.20	891.39
642.55	885.46
642.89	879.62
643.23	873.94
643.58	869.05
643.92	863.26
644.26	857.82
644.61	852.38
644.95	846.68
645.29	841.06
645.64	835.19
645.98	829.78
646.32	824.71
646.66	819.39
647.01	814.28
647.35	809.20
647.69	803.55
648.04	798.33
648.38	793.06
648.72	787.71
649.06	782.52
649.41	777.27
649.75	772.10
650.09	767.20
650.43	762.02
650.78	756.46
651.12	751.42
651.46	746.41
651.80	741.52
652.14	736.47
652.49	731.33
652.83	726.37
653.17	720.85
653.51	715.75
653.85	711.04
654.20	706.10
654.54	700.85
654.88	696.10
655.22	691.12
655.56	686.18
655.90	681.29
656.25	676.38
656.59	671.55
656.93	667.02
657.27	662.37
657.61	657.46
657.95	652.98
658.29	648.40
658.64	644.09
658.98	639.53
659.32	634.86
659.66	630.44
660.00	625.88
660.34	621.63
660.68	617.09
661.02	612.45
661.36	608.29
661.70	604.24
662.05	600.30
662.39	596.51
662.73	592.57
663.07	589.00
663.41	585.28
663.75	581.46
664.09	577.29
664.43	573.27
664.77	569.64
665.11	565.71
665.45	562.09
665.79	558.21
666.13	554.46
666.47	550.91
666.81	547.15
667.15	543.68
667.49	540.40
667.83	537.09
668.17	533.81
668.51	530.59
668.85	527.35
669.19	524.17
669.53	520.72
669.87	517.35
670.21	513.91
670.55	510.57
670.89	507.58
671.23	504.81
671.57	501.91
671.91	498.90
672.25	496.04
672.58	492.95
672.92	490.04
673.26	487.27
673.60	484.53
673.94	481.85
674.28	479.09
674.62	476.36
674.96	473.74
675.30	471.00
675.64	468.16
675.97	465.40
676.31	462.69
676.65	460.04
676.99	457.66
677.33	455.16
677.67	452.62
678.01	449.89
678.34	447.44
678.68	444.79
679.02	442.25
679.36	439.75
679.70	437.36
680.04	434.95
680.37	432.47
680.71	430.10
681.05	427.75
681.39	425.37
681.73	422.97
682.06	420.66
682.40	418.56
682.74	416.38
683.08	414.29
683.42	411.98
683.75	409.90
684.09	407.65
684.43	405.44
684.77	403.28
685.10	401.25
685.44	398.92
685.78	396.85
686.12	394.91
686.45	392.85
686.79	390.80
687.13	388.93
687.46	386.90
687.80	384.93
688.14	382.76
688.48	380.93
688.81	379.02
689.15	377.12
689.49	375.08
689.82	373.10
690.16	371.09
690.50	369.17
690.83	367.20
691.17	365.17
691.51	363.29
691.84	361.49
692.18	359.68
692.52	358.04
692.85	356.51
693.19	354.93
693.52	353.27
693.86	351.59
694.20	349.94
694.53	348.35
694.87	346.65
695.21	345.20
695.54	343.50
695.88	341.80
696.21	339.96
696.55	338.46
696.88	336.93
697.22	335.42
697.56	334.12
697.89	332.72
698.23	331.31
698.56	329.89
698.90	328.60
699.23	327.11
699.57	325.67
699.90	324.17
700.24	322.62
700.58	321.26
700.91	319.93
701.25	318.74
701.58	317.53
701.92	316.25
702.25	314.99
702.59	313.78
702.92	312.64
703.26	311.70
703.59	310.60
703.93	309.68
704.26	308.57
704.60	307.28
704.93	306.09
705.26	304.91
705.60	303.84
705.93	302.67
706.27	301.65
706.60	300.74
706.94	299.76
707.27	298.64
707.61	297.60
707.94	296.59
708.27	295.30
708.61	294.19
708.94	293.21
709.28	292.13
709.61	291.10
709.94	290.16
710.28	289.15
710.61	288.12
710.95	286.89
711.28	286.23
711.61	285.32
711.95	284.50
712.28	283.71
712.61	282.89
712.95	282.25
713.28	281.59
713.61	280.65
713.95	279.81
714.28	279.15
714.61	278.39
714.95	277.59
715.28	276.80
715.61	276.01
715.95	275.36
716.28	274.52
716.61	273.86
716.95	273.07
717.28	272.34
717.61	271.65
717.94	271.00
718.28	269.99
718.61	269.40
718.94	268.59
719.27	267.91
719.61	267.20
719.94	266.41
720.27	265.58
720.60	264.95
720.94	264.28
721.27	263.72
721.60	263.19
721.93	262.65
722.27	262.16
722.60	261.65
722.93	260.99
723.26	260.58
723.59	259.94
723.93	259.49
724.26	259.02
724.59	258.53
724.92	258.02
725.25	257.65
725.59	257.05
725.92	256.74
726.25	256.25
726.58	255.78
726.91	255.28
727.24	254.84
727.57	254.38
727.91	253.78
728.24	253.25
728.57	252.72
728.90	252.30
729.23	251.79
729.56	251.47
729.89	251.07
730.22	250.64
730.55	250.19
730.89	249.65
731.22	249.20
731.55	248.67
731.88	248.36
732.21	247.89
732.54	247.51
732.87	247.10
733.20	246.68
733.53	246.30
733.86	245.89
734.19	245.45
734.52	245.03
734.85	245.06
735.18	244.61
735.51	244.33
735.84	243.94
736.17	243.71
736.50	243.15
736.83	243.19
737.16	242.81
737.49	242.57
737.82	242.27
738.15	241.87
738.48	241.60
738.81	241.19
739.14	240.80
739.47	240.45
739.80	240.01
740.13	239.68
740.46	239.31
740.79	239.02
741.12	238.76
741.45	238.44
741.78	237.85
742.11	237.68
742.44	237.32
742.77	237.07
743.10	236.63
743.43	236.36
743.75	235.69
744.08	235.81
744.41	235.43
744.74	235.20
745.07	234.90
745.40	234.62
745.73	234.47
746.06	234.18
746.39	233.86
746.71	233.59
747.04	233.37
747.37	233.05
747.70	232.85
748.03	232.55
748.36	232.37
748.68	232.15
749.01	231.80
749.34	231.61
749.67	231.35
750.00	231.23
750.33	231.26
750.65	231.01
750.98	230.39
751.31	230.21
751.64	230.03
751.97	230.07
752.29	229.89
752.62	229.51
752.95	229.28
753.28	229.16
753.60	229.01
753.93	228.94
754.26	228.76
754.59	228.40
754.91	228.26
755.24	228.01
755.57	227.82
755.90	227.65
756.22	227.50
756.55	227.30
756.88	227.05
757.20	226.66
757.53	226.39
757.86	226.26
758.19	226.13
758.51	225.93
758.84	225.58
759.17	225.39
759.49	225.29
759.82	225.34
760.15	225.17
760.47	224.89
760.80	224.58
761.13	224.50
761.45	224.34
761.78	224.16
762.11	224.02
762.43	223.85
762.76	223.68
763.08	223.46
763.41	223.37
763.74	223.32
764.06	223.12
764.39	223.10
764.71	222.96
765.04	222.76
765.37	222.59
765.69	222.45
766.02	222.31
766.34	222.18
766.67	221.96
767.00	221.89
767.32	222.03
767.65	222.08
767.97	221.98
768.30	221.97
768.62	221.92
768.95	221.76
769.27	221.69
769.60	221.60
769.92	221.43
770.25	221.21
770.57	221.04
770.90	220.97
771.22	220.73
771.55	220.57
771.87	220.56
772.20	220.53
772.52	220.70
772.85	221.05
773.17	220.94
773.50	220.75
773.82	220.59
774.15	220.37
774.47	220.11
774.80	219.97
775.12	219.85
775.45	219.73
775.77	219.74
776.09	219.70
776.42	219.75
776.74	219.79
777.07	219.75
777.39	219.60
777.72	219.41
778.04	219.44
778.36	219.37
778.69	219.30
779.01	219.21
779.33	218.83
779.66	218.32
779.98	218.24
780.31	218.22
780.63	218.31
780.95	218.33
781.28	218.30
781.60	218.26
781.92	218.20
782.25	218.05
782.57	217.96
782.89	217.75
783.22	217.60
783.54	217.47
783.86	217.42
784.19	217.41
784.51	217.53
784.83	217.37
785.16	217.30
785.48	217.18
785.80	217.04
786.12	217.04
786.45	216.98
786.77	216.87
787.09	216.78
