SpectraSuite Data File
++++++++++++++++++++++++++++++++++++
Date: Mon Feb 25 17:12:47 EST 2013
User: group
Dark Spectrum Present: No
Reference Spectrum Present: No
Number of Sampled Component Spectra: 1
Spectrometers: USB2E7196
Integration Time (usec): 104000 (USB2E7196)
Spectra Averaged: 20 (USB2E7196)
Boxcar Smoothing: 10 (USB2E7196)
Correct for Electrical Dark: No (USB2E7196)
Strobe/Lamp Enabled: No (USB2E7196)
Correct for Detector Non-linearity: No (USB2E7196)
Correct for Stray Light: No (USB2E7196)
Number of Pixels in Processed Spectrum: 2048
>>>>>Begin Processed Spectral Data<<<<<
339.09	0.00
339.48	199.55
339.86	201.15
340.24	202.25
340.63	204.95
341.01	210.60
341.39	204.10
341.78	208.55
342.16	209.40
342.54	209.10
342.93	198.79
343.31	208.84
343.69	209.32
344.07	209.74
344.46	210.11
344.84	210.40
345.22	210.35
345.60	210.71
345.99	210.82
346.37	210.91
346.75	211.02
347.13	211.05
347.52	211.12
347.90	211.31
348.28	211.27
348.66	211.31
349.05	211.14
349.43	211.13
349.81	211.20
350.19	211.15
350.57	211.19
350.96	211.33
351.34	211.35
351.72	211.46
352.10	211.56
352.48	211.63
352.87	211.62
353.25	211.71
353.63	211.70
354.01	211.77
354.39	211.85
354.77	211.85
355.15	211.97
355.54	212.00
355.92	211.91
356.30	211.97
356.68	212.25
357.06	212.38
357.44	212.46
357.82	212.50
358.20	212.56
358.58	212.60
358.97	212.60
359.35	212.75
359.73	212.84
360.11	212.90
360.49	212.96
360.87	213.05
361.25	213.21
361.63	213.36
362.01	213.37
362.39	213.35
362.77	213.41
363.15	213.44
363.53	213.43
363.91	213.47
364.29	213.53
364.67	213.24
365.05	213.20
365.43	213.20
365.81	213.27
366.19	213.45
366.57	213.60
366.95	213.65
367.33	213.55
367.71	213.52
368.09	213.51
368.47	213.49
368.85	213.46
369.23	213.45
369.61	213.25
369.99	213.37
370.37	213.36
370.75	213.45
371.13	213.39
371.51	213.29
371.89	213.25
372.27	213.23
372.65	213.23
373.03	213.20
373.41	213.18
373.78	213.09
374.16	212.83
374.54	212.61
374.92	212.52
375.30	212.50
375.68	212.42
376.06	212.43
376.44	212.40
376.82	212.34
377.19	212.28
377.57	212.36
377.95	212.22
378.33	212.22
378.71	212.04
379.09	212.03
379.47	212.12
379.84	212.05
380.22	211.93
380.60	211.76
380.98	211.63
381.36	211.60
381.73	211.51
382.11	211.53
382.49	211.61
382.87	211.55
383.25	211.52
383.62	211.88
384.00	211.81
384.38	211.74
384.76	211.78
385.13	211.85
385.51	211.85
385.89	211.81
386.27	211.81
386.64	211.83
387.02	211.78
387.40	211.65
387.78	211.69
388.15	211.73
388.53	211.75
388.91	211.75
389.29	211.77
389.66	211.79
390.04	211.75
390.42	211.76
390.79	211.77
391.17	211.73
391.55	211.36
391.92	211.29
392.30	211.27
392.68	211.15
393.05	211.13
393.43	211.06
393.81	211.09
394.18	211.02
394.56	210.93
394.94	210.98
395.31	211.00
395.69	211.13
396.06	211.11
396.44	211.10
396.82	211.10
397.19	211.15
397.57	211.13
397.95	211.21
398.32	211.18
398.70	211.18
399.07	211.30
399.45	211.23
399.82	211.25
400.20	211.38
400.58	211.37
400.95	211.20
401.33	211.24
401.70	211.50
402.08	211.53
402.45	211.61
402.83	211.72
403.20	211.77
403.58	211.75
403.95	211.90
404.33	212.05
404.71	212.19
405.08	212.44
405.46	212.55
405.83	212.58
406.21	212.62
406.58	212.75
406.96	212.82
407.33	212.94
407.70	213.08
408.08	213.38
408.45	213.61
408.83	213.89
409.20	214.08
409.58	213.99
409.95	214.25
410.33	214.47
410.70	214.56
411.08	214.87
411.45	215.11
411.82	215.27
412.20	215.59
412.57	216.07
412.95	216.17
413.32	216.54
413.69	216.91
414.07	217.35
414.44	217.75
414.82	218.21
415.19	218.83
415.56	219.38
415.94	219.77
416.31	220.53
416.68	221.10
417.06	221.78
417.43	222.60
417.81	223.42
418.18	224.31
418.55	225.20
418.93	226.10
419.30	227.05
419.67	228.06
420.04	229.09
420.42	230.06
420.79	231.48
421.16	232.78
421.54	234.31
421.91	235.67
422.28	237.14
422.66	238.63
423.03	240.33
423.40	241.92
423.77	243.57
424.15	245.11
424.52	246.85
424.89	248.80
425.26	250.56
425.64	252.27
426.01	254.09
426.38	256.08
426.75	258.18
427.13	260.24
427.50	262.50
427.87	264.78
428.24	267.02
428.61	269.07
428.99	271.64
429.36	274.05
429.73	276.57
430.10	279.11
430.47	281.72
430.85	284.16
431.22	287.04
431.59	290.24
431.96	293.10
432.33	296.32
432.70	299.35
433.08	302.89
433.45	306.39
433.82	309.76
434.19	313.59
434.56	317.29
434.93	320.83
435.30	324.30
435.68	328.08
436.05	331.90
436.42	335.56
436.79	338.95
437.16	342.75
437.53	346.74
437.90	350.62
438.27	354.46
438.64	358.40
439.01	362.07
439.38	365.05
439.75	368.26
440.13	371.93
440.50	375.32
440.87	378.16
441.24	381.01
441.61	384.21
441.98	386.39
442.35	388.95
442.72	391.71
443.09	394.50
443.46	396.18
443.83	397.31
444.20	398.40
444.57	399.67
444.94	400.25
445.31	400.92
445.68	401.91
446.05	402.25
446.42	401.97
446.79	401.59
447.16	401.14
447.53	400.89
447.90	399.32
448.27	397.87
448.64	395.85
449.01	394.30
449.37	391.74
449.74	389.28
450.11	386.57
450.48	383.28
450.85	379.75
451.22	376.87
451.59	374.12
451.96	371.47
452.33	367.89
452.70	364.76
453.07	360.91
453.43	356.69
453.80	352.96
454.17	349.40
454.54	345.92
454.91	342.31
455.28	338.71
455.65	335.48
456.02	332.69
456.38	329.92
456.75	326.53
457.12	323.65
457.49	320.85
457.86	317.87
458.23	315.60
458.59	313.14
458.96	310.53
459.33	308.16
459.70	305.86
460.07	304.07
460.43	301.97
460.80	300.09
461.17	298.44
461.54	296.55
461.91	294.74
462.27	292.94
462.64	291.42
463.01	289.79
463.38	288.22
463.74	286.08
464.11	284.56
464.48	283.34
464.85	281.98
465.21	281.03
465.58	279.88
465.95	278.49
466.32	277.36
466.68	276.30
467.05	275.19
467.42	274.05
467.78	272.87
468.15	271.79
468.52	271.01
468.88	269.91
469.25	269.04
469.62	268.33
469.98	267.63
470.35	267.02
470.72	266.38
471.08	265.66
471.45	265.19
471.82	264.73
472.18	264.07
472.55	263.66
472.92	262.99
473.28	262.58
473.65	262.13
474.02	261.70
474.38	261.35
474.75	261.13
475.11	260.89
475.48	260.76
475.85	260.55
476.21	260.27
476.58	260.25
476.94	260.14
477.31	260.09
477.67	259.94
478.04	259.78
478.41	259.82
478.77	260.12
479.14	260.03
479.50	260.00
479.87	260.09
480.23	260.18
480.60	260.29
480.96	260.42
481.33	260.75
481.69	260.98
482.06	261.26
482.42	261.60
482.79	261.90
483.15	262.26
483.52	262.80
483.88	263.21
484.25	263.58
484.61	264.13
484.98	264.66
485.34	265.37
485.71	266.16
486.07	266.79
486.44	267.28
486.80	268.13
487.17	268.97
487.53	270.01
487.90	271.09
488.26	272.31
488.62	273.56
488.99	274.72
489.35	276.03
489.72	277.38
490.08	278.79
490.44	280.11
490.81	281.78
491.17	283.28
491.54	285.02
491.90	286.89
492.26	288.80
492.63	290.71
492.99	292.81
493.36	294.97
493.72	297.28
494.08	299.65
494.45	302.16
494.81	304.82
495.17	307.47
495.54	310.29
495.90	313.13
496.26	316.14
496.63	319.24
496.99	322.52
497.35	325.87
497.72	329.48
498.08	333.27
498.44	336.87
498.80	340.99
499.17	345.09
499.53	349.39
499.89	353.93
500.26	358.47
500.62	363.00
500.98	367.97
501.34	373.05
501.71	378.25
502.07	383.55
502.43	388.98
502.79	394.60
503.16	400.50
503.52	406.47
503.88	412.55
504.24	418.89
504.60	425.45
504.97	432.13
505.33	438.88
505.69	446.17
506.05	453.55
506.41	460.84
506.78	468.47
507.14	476.01
507.50	483.69
507.86	491.84
508.22	500.16
508.59	508.32
508.95	516.89
509.31	525.70
509.67	534.65
510.03	543.91
510.39	553.15
510.75	562.59
511.12	572.25
511.48	581.86
511.84	591.79
512.20	601.57
512.56	611.73
512.92	622.15
513.28	632.45
513.64	642.96
514.00	653.47
514.37	664.17
514.73	675.18
515.09	686.27
515.45	697.18
515.81	708.32
516.17	719.45
516.53	730.66
516.89	741.97
517.25	753.24
517.61	764.55
517.97	775.95
518.33	787.30
518.69	799.07
519.05	811.05
519.41	822.90
519.77	835.04
520.13	846.85
520.49	858.47
520.85	870.43
521.21	882.65
521.57	894.91
521.93	906.75
522.29	918.80
522.65	930.96
523.01	943.17
523.37	955.07
523.73	967.25
524.09	979.16
524.45	991.25
524.81	1003.52
525.17	1015.91
525.53	1028.09
525.89	1040.52
526.25	1052.42
526.61	1063.97
526.97	1075.75
527.33	1087.48
527.68	1099.64
528.04	1111.32
528.40	1122.70
528.76	1134.02
529.12	1145.69
529.48	1157.54
529.84	1169.20
530.20	1180.45
530.56	1191.79
530.91	1203.78
531.27	1215.54
531.63	1227.03
531.99	1238.14
532.35	1249.18
532.71	1259.68
533.07	1270.79
533.42	1281.51
533.78	1292.08
534.14	1302.62
534.50	1312.51
534.86	1323.05
535.21	1332.48
535.57	1342.70
535.93	1352.17
536.29	1361.78
536.65	1370.84
537.00	1379.60
537.36	1388.19
537.72	1396.76
538.08	1405.41
538.44	1413.57
538.79	1421.74
539.15	1430.01
539.51	1438.17
539.87	1446.38
540.22	1454.37
540.58	1462.71
540.94	1469.97
541.29	1477.20
541.65	1484.11
542.01	1491.41
542.37	1497.90
542.72	1504.93
543.08	1511.05
543.44	1518.17
543.79	1524.10
544.15	1530.15
544.51	1536.61
544.87	1542.84
545.22	1548.51
545.58	1553.49
545.94	1557.83
546.29	1562.12
546.65	1566.34
547.01	1570.45
547.36	1574.47
547.72	1578.38
548.07	1581.19
548.43	1584.49
548.79	1587.34
549.14	1590.47
549.50	1593.37
549.86	1595.80
550.21	1598.26
550.57	1601.03
550.92	1602.59
551.28	1604.38
551.64	1606.32
551.99	1608.16
552.35	1609.30
552.70	1610.89
553.06	1612.47
553.41	1614.30
553.77	1615.89
554.13	1617.12
554.48	1618.43
554.84	1619.39
555.19	1620.05
555.55	1620.34
555.90	1620.34
556.26	1620.44
556.61	1620.49
556.97	1620.21
557.32	1620.06
557.68	1619.13
558.03	1618.48
558.39	1618.04
558.74	1618.51
559.10	1618.25
559.45	1617.37
559.81	1617.11
560.16	1616.00
560.52	1615.20
560.87	1614.21
561.23	1612.60
561.58	1611.71
561.94	1610.05
562.29	1608.06
562.64	1606.71
563.00	1605.68
563.35	1604.77
563.71	1604.25
564.06	1603.09
564.42	1602.20
564.77	1601.05
565.12	1600.40
565.48	1599.15
565.83	1598.32
566.19	1596.58
566.54	1594.38
566.89	1592.35
567.25	1590.61
567.60	1588.91
567.96	1586.99
568.31	1585.11
568.66	1582.89
569.02	1580.21
569.37	1577.55
569.72	1575.27
570.08	1572.39
570.43	1569.39
570.78	1566.51
571.14	1563.09
571.49	1559.94
571.84	1556.90
572.20	1553.22
572.55	1549.82
572.90	1545.97
573.26	1541.46
573.61	1537.42
573.96	1533.75
574.31	1529.85
574.67	1525.45
575.02	1520.93
575.37	1516.63
575.72	1511.72
576.08	1508.04
576.43	1503.55
576.78	1499.65
577.13	1495.82
577.49	1491.73
577.84	1487.64
578.19	1483.56
578.54	1479.82
578.90	1476.03
579.25	1471.54
579.60	1467.33
579.95	1462.60
580.30	1458.60
580.66	1454.75
581.01	1450.26
581.36	1445.56
581.71	1441.01
582.06	1436.62
582.42	1432.58
582.77	1427.84
583.12	1423.73
583.47	1419.42
583.82	1415.57
584.17	1411.29
584.53	1407.00
584.88	1402.84
585.23	1398.35
585.58	1393.74
585.93	1389.13
586.28	1384.94
586.63	1380.44
586.98	1376.23
587.34	1372.47
587.69	1368.22
588.04	1363.98
588.39	1360.08
588.74	1355.74
589.09	1351.99
589.44	1347.42
589.79	1343.43
590.14	1339.66
590.49	1335.27
590.84	1331.04
591.19	1327.04
591.54	1322.71
591.89	1317.53
592.25	1313.28
592.60	1308.62
592.95	1303.90
593.30	1298.98
593.65	1293.78
594.00	1289.22
594.35	1285.80
594.70	1281.20
595.05	1276.52
595.40	1271.84
595.75	1266.76
596.10	1262.64
596.45	1258.14
596.80	1254.39
597.15	1250.21
597.50	1245.62
597.85	1241.96
598.19	1237.36
598.54	1232.78
598.89	1228.35
599.24	1224.98
599.59	1220.86
599.94	1217.35
600.29	1213.58
600.64	1209.82
600.99	1205.77
601.34	1201.99
601.69	1197.00
602.04	1192.44
602.39	1188.40
602.74	1184.66
603.08	1181.46
603.43	1178.12
603.78	1174.20
604.13	1170.08
604.48	1165.90
604.83	1162.68
605.18	1159.14
605.53	1155.20
605.87	1151.09
606.22	1147.55
606.57	1143.53
606.92	1139.41
607.27	1135.26
607.62	1131.32
607.96	1127.53
608.31	1123.91
608.66	1119.70
609.01	1115.46
609.36	1111.51
609.70	1107.31
610.05	1102.75
610.40	1098.26
610.75	1093.44
611.10	1089.10
611.44	1083.99
611.79	1079.11
612.14	1073.79
612.49	1068.21
612.83	1063.71
613.18	1058.78
613.53	1053.69
613.88	1048.36
614.22	1043.45
614.57	1038.36
614.92	1033.37
615.27	1027.97
615.61	1022.91
615.96	1018.16
616.31	1013.45
616.65	1009.23
617.00	1004.63
617.35	1000.11
617.70	995.02
618.04	989.70
618.39	984.29
618.74	979.77
619.08	974.91
619.43	970.33
619.78	965.83
620.12	960.95
620.47	956.63
620.82	951.83
621.16	947.00
621.51	942.40
621.85	937.91
622.20	933.05
622.55	928.59
622.89	923.79
623.24	918.93
623.59	914.12
623.93	909.09
624.28	904.25
624.62	899.84
624.97	895.53
625.32	891.46
625.66	887.23
626.01	882.93
626.35	878.87
626.70	874.37
627.04	870.34
627.39	866.06
627.73	861.54
628.08	857.32
628.43	852.94
628.77	848.42
629.12	843.85
629.46	840.00
629.81	835.69
630.15	831.50
630.50	827.13
630.84	822.84
631.19	818.57
631.53	814.54
631.88	809.81
632.22	805.17
632.57	800.93
632.91	796.78
633.26	792.58
633.60	788.39
633.95	784.37
634.29	779.75
634.64	775.70
634.98	771.55
635.32	767.60
635.67	763.98
636.01	760.24
636.36	756.34
636.70	752.34
637.05	748.56
637.39	744.86
637.73	741.46
638.08	738.19
638.42	734.76
638.77	730.96
639.11	727.24
639.45	723.60
639.80	719.65
640.14	715.73
640.49	711.84
640.83	707.89
641.17	704.22
641.52	700.49
641.86	696.44
642.20	692.77
642.55	688.81
642.89	684.70
643.23	680.61
643.58	677.11
643.92	673.28
644.26	669.38
644.61	665.60
644.95	661.65
645.29	657.56
645.64	653.58
645.98	649.93
646.32	646.52
646.66	642.84
647.01	639.28
647.35	635.84
647.69	632.21
648.04	628.83
648.38	625.10
648.72	621.62
649.06	618.13
649.41	614.48
649.75	610.99
650.09	607.68
650.43	604.42
650.78	600.53
651.12	596.74
651.46	593.26
651.80	589.76
652.14	586.30
652.49	582.84
652.83	579.37
653.17	575.63
653.51	571.89
653.85	568.55
654.20	565.06
654.54	561.59
654.88	558.20
655.22	554.75
655.56	551.30
655.90	547.85
656.25	544.48
656.59	541.10
656.93	537.75
657.27	534.53
657.61	530.99
657.95	527.99
658.29	524.93
658.64	521.96
658.98	518.67
659.32	515.45
659.66	512.27
660.00	509.08
660.34	506.03
660.68	502.97
661.02	499.90
661.36	497.04
661.70	494.12
662.05	491.33
662.39	488.49
662.73	485.90
663.07	483.36
663.41	480.76
663.75	478.01
664.09	475.30
664.43	472.31
664.77	469.71
665.11	466.95
665.45	464.38
665.79	461.76
666.13	459.22
666.47	456.74
666.81	454.32
667.15	451.68
667.49	449.45
667.83	447.27
668.17	444.73
668.51	442.41
668.85	440.22
669.19	437.98
669.53	435.68
669.87	433.30
670.21	430.81
670.55	428.49
670.89	426.70
671.23	424.70
671.57	422.83
671.91	420.68
672.25	418.56
672.58	416.54
672.92	414.39
673.26	412.47
673.60	410.51
673.94	408.54
674.28	406.77
674.62	404.82
674.96	402.82
675.30	401.09
675.64	399.18
675.97	397.17
676.31	395.25
676.65	393.32
676.99	391.66
677.33	389.91
677.67	388.15
678.01	386.15
678.34	384.40
678.68	382.52
679.02	380.76
679.36	379.05
679.70	377.23
680.04	375.55
680.37	373.74
680.71	371.91
681.05	370.31
681.39	368.72
681.73	367.02
682.06	365.46
682.40	363.87
682.74	362.31
683.08	360.83
683.42	359.22
683.75	357.74
684.09	356.09
684.43	354.55
684.77	352.96
685.10	351.33
685.44	349.61
685.78	348.20
686.12	346.84
686.45	345.43
686.79	344.10
687.13	342.82
687.46	341.41
687.80	340.20
688.14	338.67
688.48	337.29
688.81	335.88
689.15	334.45
689.49	333.06
689.82	331.70
690.16	330.17
690.50	328.77
690.83	327.38
691.17	325.89
691.51	324.52
691.84	323.33
692.18	322.09
692.52	320.90
692.85	319.73
693.19	318.55
693.52	317.28
693.86	316.07
694.20	314.75
694.53	313.66
694.87	312.42
695.21	311.25
695.54	310.04
695.88	308.78
696.21	307.60
696.55	306.47
696.88	305.29
697.22	304.14
697.56	303.19
697.89	302.08
698.23	301.09
698.56	300.03
698.90	299.05
699.23	297.96
699.57	296.96
699.90	295.88
700.24	294.79
700.58	293.80
700.91	292.82
701.25	292.20
701.58	291.32
701.92	290.42
702.25	289.51
702.59	288.56
702.92	287.77
703.26	286.88
703.59	286.04
703.93	285.48
704.26	284.79
704.60	283.93
704.93	283.19
705.26	282.40
705.60	281.63
705.93	280.70
706.27	279.95
706.60	279.29
706.94	278.67
707.27	277.85
707.61	277.11
707.94	276.32
708.27	275.21
708.61	274.35
708.94	273.62
709.28	272.94
709.61	272.26
709.94	271.57
710.28	271.04
710.61	270.33
710.95	269.37
711.28	268.91
711.61	268.19
711.95	267.57
712.28	266.95
712.61	266.34
712.95	265.98
713.28	265.57
713.61	264.82
713.95	264.10
714.28	263.60
714.61	263.00
714.95	262.48
715.28	261.94
715.61	261.36
715.95	260.81
716.28	260.22
716.61	259.68
716.95	259.14
717.28	258.55
717.61	257.93
717.94	257.39
718.28	256.59
718.61	256.12
718.94	255.57
719.27	255.01
719.61	254.52
719.94	253.87
720.27	253.21
720.60	252.82
720.94	252.34
721.27	251.86
721.60	251.51
721.93	251.03
722.27	250.75
722.60	250.42
722.93	249.96
723.26	249.58
723.59	249.12
723.93	248.77
724.26	248.34
724.59	248.01
724.92	247.70
725.25	247.44
725.59	247.03
725.92	246.65
726.25	246.37
726.58	245.99
726.91	245.64
727.24	245.36
727.57	244.96
727.91	244.45
728.24	244.14
728.57	243.70
728.90	243.37
729.23	242.92
729.56	242.74
729.89	242.31
730.22	241.97
730.55	241.69
730.89	241.33
731.22	240.98
731.55	240.66
731.88	240.37
732.21	239.97
732.54	239.61
732.87	239.30
733.20	239.00
733.53	238.70
733.86	238.37
734.19	237.99
734.52	237.70
734.85	237.84
735.18	237.49
735.51	237.38
735.84	237.06
736.17	236.85
736.50	236.41
736.83	236.55
737.16	236.22
737.49	235.97
737.82	235.67
738.15	235.43
738.48	235.21
738.81	234.93
739.14	234.66
739.47	234.44
739.80	234.23
740.13	234.02
740.46	233.77
740.79	233.57
741.12	233.37
741.45	233.16
741.78	232.69
742.11	232.62
742.44	232.30
742.77	232.21
743.10	231.89
743.43	231.62
743.75	231.17
744.08	231.46
744.41	231.17
744.74	230.98
745.07	230.78
745.40	230.64
745.73	230.53
746.06	230.38
746.39	230.21
746.71	229.93
747.04	229.69
747.37	229.48
747.70	229.29
748.03	229.14
748.36	229.04
748.68	228.89
749.01	228.55
749.34	228.36
749.67	228.12
750.00	228.06
750.33	228.12
750.65	227.88
750.98	227.28
751.31	227.18
751.64	227.04
751.97	226.99
752.29	226.65
752.62	226.36
752.95	226.13
753.28	225.90
753.60	225.75
753.93	225.68
754.26	225.56
754.59	225.34
754.91	225.05
755.24	224.78
755.57	224.57
755.90	224.46
756.22	224.27
756.55	224.08
756.88	223.80
757.20	223.42
757.53	223.20
757.86	223.02
758.19	222.89
758.51	222.73
758.84	222.53
759.17	222.37
759.49	222.25
759.82	222.31
760.15	222.23
760.47	222.06
760.80	221.85
761.13	221.74
761.45	221.64
761.78	221.54
762.11	221.52
762.43	221.44
762.76	221.33
763.08	221.23
763.41	221.12
763.74	221.08
764.06	220.96
764.39	220.86
764.71	220.73
765.04	220.55
765.37	220.41
765.69	220.27
766.02	220.23
766.34	220.11
766.67	219.90
767.00	219.90
767.32	219.98
767.65	220.05
767.97	219.95
768.30	219.81
768.62	219.73
768.95	219.59
769.27	219.50
769.60	219.46
769.92	219.27
770.25	219.18
770.57	219.01
770.90	218.97
771.22	218.89
771.55	218.89
771.87	218.83
772.20	218.76
772.52	218.96
772.85	219.34
773.17	219.30
773.50	219.17
773.82	219.01
774.15	218.88
774.47	218.63
774.80	218.51
775.12	218.53
775.45	218.45
775.77	218.46
776.09	218.40
776.42	218.31
776.74	218.44
777.07	218.35
777.39	218.28
777.72	218.17
778.04	218.13
778.36	217.95
778.69	217.95
779.01	217.92
779.33	217.64
779.66	217.20
779.98	217.18
780.31	217.14
780.63	217.27
780.95	217.23
781.28	217.24
781.60	217.22
781.92	217.12
782.25	217.07
782.57	216.90
782.89	216.76
783.22	216.74
783.54	216.57
783.86	216.57
784.19	216.56
784.51	216.59
784.83	216.53
785.16	216.57
785.48	216.50
785.80	216.46
786.12	216.36
786.45	216.25
786.77	216.15
787.09	216.13
787.42	215.91
787.74	215.87
788.06	215.78
788.38	215.72
788.71	215.64
