SpectraSuite Data File
++++++++++++++++++++++++++++++++++++
Date: Mon Feb 25 16:55:54 EST 2013
User: group
Dark Spectrum Present: No
Reference Spectrum Present: No
Number of Sampled Component Spectra: 1
Spectrometers: USB2E7196
Integration Time (usec): 104000 (USB2E7196)
Spectra Averaged: 20 (USB2E7196)
Boxcar Smoothing: 10 (USB2E7196)
Correct for Electrical Dark: No (USB2E7196)
Strobe/Lamp Enabled: No (USB2E7196)
Correct for Detector Non-linearity: No (USB2E7196)
Correct for Stray Light: No (USB2E7196)
Number of Pixels in Processed Spectrum: 2048
>>>>>Begin Processed Spectral Data<<<<<
339.09	0.00
339.48	198.65
339.86	200.90
340.24	202.25
340.63	202.95
341.01	209.60
341.39	205.55
341.78	207.75
342.16	210.10
342.54	209.45
342.93	198.76
343.31	208.81
343.69	209.41
344.07	209.85
344.46	210.31
344.84	210.73
345.22	210.82
345.60	211.11
345.99	211.22
346.37	211.35
346.75	211.46
347.13	211.60
347.52	211.68
347.90	211.88
348.28	211.93
348.66	212.00
349.05	211.89
349.43	211.96
349.81	212.00
350.19	212.06
350.57	212.20
350.96	212.31
351.34	212.44
351.72	212.46
352.10	212.55
352.48	212.56
352.87	212.52
353.25	212.60
353.63	212.69
354.01	212.74
354.39	212.79
354.77	212.82
355.15	212.96
355.54	212.96
355.92	212.80
356.30	212.85
356.68	213.16
357.06	213.26
357.44	213.22
357.82	213.21
358.20	213.23
358.58	213.18
358.97	213.26
359.35	213.27
359.73	213.34
360.11	213.40
360.49	213.44
360.87	213.52
361.25	213.57
361.63	213.67
362.01	213.76
362.39	213.72
362.77	213.75
363.15	213.69
363.53	213.75
363.91	213.85
364.29	213.89
364.67	213.54
365.05	213.50
365.43	213.62
365.81	213.69
366.19	213.91
366.57	214.08
366.95	214.06
367.33	213.93
367.71	213.97
368.09	214.04
368.47	214.08
368.85	214.08
369.23	214.17
369.61	214.04
369.99	214.15
370.37	214.23
370.75	214.43
371.13	214.32
371.51	214.22
371.89	214.20
372.27	214.17
372.65	214.17
373.03	214.14
373.41	214.07
373.78	214.04
374.16	213.76
374.54	213.61
374.92	213.50
375.30	213.63
375.68	213.47
376.06	213.48
376.44	213.40
376.82	213.36
377.19	213.22
377.57	213.18
377.95	212.99
378.33	212.81
378.71	212.53
379.09	212.60
379.47	212.62
379.84	212.48
380.22	212.43
380.60	212.39
380.98	212.35
381.36	212.21
381.73	212.12
382.11	212.15
382.49	212.08
382.87	212.05
383.25	212.03
383.62	212.44
384.00	212.33
384.38	212.27
384.76	212.35
385.13	212.47
385.51	212.50
385.89	212.46
386.27	212.50
386.64	212.52
387.02	212.44
387.40	212.39
387.78	212.44
388.15	212.41
388.53	212.40
388.91	212.38
389.29	212.35
389.66	212.42
390.04	212.40
390.42	212.48
390.79	212.47
391.17	212.41
391.55	212.02
391.92	212.06
392.30	212.14
392.68	212.08
393.05	211.99
393.43	211.91
393.81	211.96
394.18	211.98
394.56	212.04
394.94	212.17
395.31	212.17
395.69	212.23
396.06	212.31
396.44	212.39
396.82	212.45
397.19	212.73
397.57	212.75
397.95	212.90
398.32	212.87
398.70	212.90
399.07	213.05
399.45	213.14
399.82	213.14
400.20	213.17
400.58	213.30
400.95	213.30
401.33	213.47
401.70	213.84
402.08	213.96
402.45	214.09
402.83	214.31
403.20	214.56
403.58	214.76
403.95	215.07
404.33	215.29
404.71	215.46
405.08	215.86
405.46	216.12
405.83	216.44
406.21	216.76
406.58	217.18
406.96	217.55
407.33	218.03
407.70	218.48
408.08	219.31
408.45	219.92
408.83	220.65
409.20	221.30
409.58	221.76
409.95	222.57
410.33	223.37
410.70	224.15
411.08	225.07
411.45	226.05
411.82	227.01
412.20	228.15
412.57	229.62
412.95	230.59
413.32	232.00
413.69	233.44
414.07	235.02
414.44	236.75
414.82	238.55
415.19	240.53
415.56	242.67
415.94	244.73
416.31	247.18
416.68	249.59
417.06	252.39
417.43	255.25
417.81	258.38
418.18	261.58
418.55	264.96
418.93	268.60
419.30	272.41
419.67	276.47
420.04	280.66
420.42	284.94
420.79	290.10
421.16	295.24
421.54	300.53
421.91	305.94
422.28	311.59
422.66	317.61
423.03	323.63
423.40	329.79
423.77	336.51
424.15	343.33
424.52	350.42
424.89	358.17
425.26	365.64
425.64	372.77
426.01	380.76
426.38	389.08
426.75	397.50
427.13	406.21
427.50	415.44
427.87	425.14
428.24	434.79
428.61	444.02
428.99	454.14
429.36	465.10
429.73	476.04
430.10	486.87
430.47	497.96
430.85	509.41
431.22	521.69
431.59	534.48
431.96	546.83
432.33	560.68
432.70	574.12
433.08	589.68
433.45	604.67
433.82	619.48
434.19	636.02
434.56	652.12
434.93	667.99
435.30	683.92
435.68	701.54
436.05	718.99
436.42	736.47
436.79	752.43
437.16	769.81
437.53	788.07
437.90	806.22
438.27	824.23
438.64	843.04
439.01	860.71
439.38	876.86
439.75	892.38
440.13	909.78
440.50	926.50
440.87	940.45
441.24	954.71
441.61	970.57
441.98	982.75
442.35	996.95
442.72	1010.86
443.09	1024.16
443.46	1032.64
443.83	1038.88
444.20	1044.30
444.57	1052.01
444.94	1056.18
445.31	1060.64
445.68	1065.01
446.05	1067.60
446.42	1067.29
446.79	1066.40
447.16	1065.34
447.53	1064.91
447.90	1059.88
448.27	1054.52
448.64	1046.52
449.01	1041.10
449.37	1030.36
449.74	1019.86
450.11	1007.15
450.48	993.20
450.85	979.03
451.22	966.92
451.59	955.46
451.96	944.74
452.33	929.60
452.70	916.00
453.07	899.46
453.43	882.67
453.80	866.65
454.17	851.20
454.54	836.73
454.91	820.65
455.28	805.07
455.65	790.36
456.02	775.63
456.38	763.36
456.75	747.82
457.12	735.03
457.49	722.27
457.86	709.85
458.23	699.20
458.59	687.40
458.96	675.65
459.33	665.13
459.70	654.47
460.07	646.12
460.43	636.54
460.80	627.48
461.17	619.64
461.54	611.29
461.91	603.40
462.27	595.29
462.64	588.53
463.01	581.03
463.38	573.87
463.74	566.61
464.11	560.16
464.48	554.62
464.85	548.53
465.21	544.02
465.58	539.07
465.95	533.16
466.32	528.18
466.68	523.11
467.05	518.15
467.42	513.13
467.78	507.90
468.15	503.16
468.52	499.53
468.88	494.75
469.25	490.55
469.62	487.09
469.98	483.29
470.35	479.85
470.72	476.52
471.08	472.93
471.45	469.96
471.82	466.92
472.18	463.58
472.55	461.03
472.92	458.02
473.28	455.48
473.65	452.92
474.02	450.54
474.38	448.60
474.75	447.03
475.11	445.21
475.48	443.91
475.85	442.63
476.21	441.44
476.58	440.39
476.94	439.61
477.31	438.57
477.67	437.78
478.04	437.19
478.41	436.81
478.77	436.61
479.14	436.25
479.50	436.17
479.87	436.26
480.23	436.54
480.60	436.60
480.96	436.76
481.33	437.58
481.69	438.24
482.06	438.85
482.42	439.16
482.79	439.85
483.15	440.86
483.52	442.08
483.88	443.15
484.25	444.23
484.61	445.41
484.98	446.87
485.34	448.58
485.71	450.32
486.07	452.30
486.44	454.21
486.80	456.25
487.17	458.56
487.53	461.13
487.90	463.75
488.26	466.76
488.62	469.86
488.99	472.80
489.35	476.09
489.72	479.64
490.08	483.34
490.44	487.09
490.81	490.94
491.17	494.70
491.54	498.95
491.90	503.36
492.26	507.97
492.63	512.79
492.99	517.77
493.36	523.05
493.72	528.58
494.08	534.01
494.45	539.89
494.81	545.92
495.17	552.07
495.54	558.51
495.90	564.94
496.26	571.51
496.63	578.38
496.99	585.30
497.35	592.44
497.72	599.84
498.08	607.45
498.44	615.11
498.80	623.35
499.17	631.71
499.53	640.10
499.89	648.57
500.26	656.97
500.62	665.27
500.98	673.99
501.34	682.68
501.71	691.79
502.07	700.81
502.43	709.97
502.79	719.10
503.16	728.35
503.52	737.65
503.88	746.99
504.24	756.60
504.60	766.39
504.97	776.25
505.33	786.04
505.69	796.23
506.05	806.32
506.41	816.12
506.78	825.61
507.14	835.25
507.50	845.31
507.86	855.34
508.22	865.56
508.59	875.20
508.95	885.26
509.31	895.25
509.67	905.32
510.03	915.36
510.39	925.59
510.75	935.59
511.12	945.66
511.48	955.55
511.84	965.54
512.20	975.05
512.56	984.62
512.92	994.51
513.28	1004.03
513.64	1013.33
514.00	1022.81
514.37	1032.48
514.73	1042.18
515.09	1051.41
515.45	1060.36
515.81	1069.23
516.17	1078.21
516.53	1086.81
516.89	1095.23
517.25	1103.21
517.61	1111.12
517.97	1118.99
518.33	1126.52
518.69	1134.25
519.05	1142.05
519.41	1149.56
519.77	1157.50
520.13	1165.05
520.49	1171.90
520.85	1178.85
521.21	1185.88
521.57	1192.65
521.93	1198.93
522.29	1205.46
522.65	1211.87
523.01	1218.27
523.37	1224.31
523.73	1230.70
524.09	1236.76
524.45	1242.91
524.81	1249.09
525.17	1255.17
525.53	1261.20
525.89	1266.97
526.25	1272.44
526.61	1277.30
526.97	1282.07
527.33	1286.88
527.68	1291.96
528.04	1296.90
528.40	1301.19
528.76	1305.63
529.12	1310.55
529.48	1315.68
529.84	1319.82
530.20	1324.11
530.56	1328.49
530.91	1333.17
531.27	1337.40
531.63	1341.55
531.99	1345.60
532.35	1349.32
532.71	1353.06
533.07	1356.92
533.42	1360.79
533.78	1364.60
534.14	1368.54
534.50	1371.95
534.86	1375.41
535.21	1378.27
535.57	1381.77
535.93	1384.95
536.29	1388.32
536.65	1391.15
537.00	1393.55
537.36	1396.32
537.72	1398.56
538.08	1401.03
538.44	1403.38
538.79	1405.78
539.15	1408.12
539.51	1410.45
539.87	1413.19
540.22	1415.70
540.58	1418.30
540.94	1420.92
541.29	1422.78
541.65	1424.20
542.01	1426.22
542.37	1427.90
542.72	1429.71
543.08	1431.08
543.44	1433.35
543.79	1434.32
544.15	1435.48
544.51	1437.24
544.87	1438.89
545.22	1440.57
545.58	1441.73
545.94	1442.37
546.29	1442.86
546.65	1443.38
547.01	1443.72
547.36	1443.97
547.72	1443.93
548.07	1443.33
548.43	1442.75
548.79	1442.54
549.14	1442.79
549.50	1442.92
549.86	1442.53
550.21	1442.30
550.57	1442.35
550.92	1441.76
551.28	1441.65
551.64	1441.45
551.99	1440.96
552.35	1440.46
552.70	1439.88
553.06	1439.60
553.41	1439.47
553.77	1439.67
554.13	1439.53
554.48	1439.43
554.84	1439.76
555.19	1439.67
555.55	1439.72
555.90	1439.24
556.26	1438.80
556.61	1438.17
556.97	1437.07
557.32	1436.63
557.68	1435.63
558.03	1434.68
558.39	1433.48
558.74	1432.79
559.10	1431.83
559.45	1430.97
559.81	1430.33
560.16	1429.15
560.52	1428.07
560.87	1427.12
561.23	1425.36
561.58	1424.41
561.94	1422.82
562.29	1420.59
562.64	1419.50
563.00	1418.22
563.35	1417.18
563.71	1416.55
564.06	1415.89
564.42	1415.61
564.77	1414.58
565.12	1414.19
565.48	1413.30
565.83	1412.65
566.19	1412.05
566.54	1411.00
566.89	1409.83
567.25	1408.90
567.60	1408.11
567.96	1407.49
568.31	1406.71
568.66	1405.98
569.02	1404.17
569.37	1402.71
569.72	1401.78
570.08	1400.05
570.43	1398.46
570.78	1396.93
571.14	1394.80
571.49	1392.47
571.84	1390.40
572.20	1388.33
572.55	1385.94
572.90	1383.40
573.26	1380.69
573.61	1377.74
573.96	1375.15
574.31	1372.20
574.67	1368.94
575.02	1365.68
575.37	1362.11
575.72	1358.16
576.08	1354.75
576.43	1351.47
576.78	1348.47
577.13	1345.33
577.49	1342.03
577.84	1338.29
578.19	1335.00
578.54	1332.27
578.90	1329.70
579.25	1326.21
579.60	1322.38
579.95	1318.59
580.30	1315.31
580.66	1312.12
581.01	1308.50
581.36	1304.86
581.71	1301.02
582.06	1297.44
582.42	1293.67
582.77	1289.52
583.12	1285.74
583.47	1281.95
583.82	1278.30
584.17	1274.17
584.53	1270.25
584.88	1266.34
585.23	1262.53
585.58	1258.20
585.93	1253.75
586.28	1249.58
586.63	1245.43
586.98	1241.79
587.34	1238.35
587.69	1234.16
588.04	1230.23
588.39	1226.38
588.74	1222.22
589.09	1218.74
589.44	1214.01
589.79	1210.46
590.14	1206.84
590.49	1202.98
590.84	1198.73
591.19	1194.94
591.54	1191.16
591.89	1186.36
592.25	1182.38
592.60	1178.03
592.95	1173.81
593.30	1168.84
593.65	1163.69
594.00	1158.98
594.35	1155.60
594.70	1150.70
595.05	1146.37
595.40	1141.86
595.75	1137.19
596.10	1132.94
596.45	1128.40
596.80	1124.78
597.15	1120.56
597.50	1115.77
597.85	1111.48
598.19	1107.05
598.54	1102.59
598.89	1098.26
599.24	1094.75
599.59	1090.09
599.94	1086.03
600.29	1081.72
600.64	1077.80
600.99	1073.73
601.34	1069.94
601.69	1064.67
602.04	1060.43
602.39	1056.09
602.74	1051.85
603.08	1047.81
603.43	1043.76
603.78	1039.36
604.13	1034.90
604.48	1030.42
604.83	1026.84
605.18	1022.98
605.53	1018.89
605.87	1014.44
606.22	1010.40
606.57	1005.69
606.92	1001.42
607.27	996.83
607.62	992.81
607.96	988.73
608.31	984.89
608.66	980.37
609.01	975.87
609.36	971.39
609.70	966.94
610.05	962.24
610.40	957.79
610.75	953.09
611.10	948.70
611.44	943.74
611.79	938.97
612.14	934.31
612.49	929.10
612.83	924.52
613.18	919.75
613.53	914.88
613.88	910.00
614.22	905.36
614.57	900.61
614.92	895.87
615.27	891.16
615.61	886.23
615.96	881.66
616.31	877.36
616.65	873.32
617.00	868.87
617.35	864.53
617.70	859.79
618.04	854.92
618.39	850.00
618.74	845.90
619.08	841.23
619.43	836.67
619.78	832.74
620.12	828.51
620.47	824.37
620.82	819.69
621.16	815.02
621.51	810.66
621.85	806.63
622.20	802.14
622.55	797.52
622.89	792.97
623.24	788.51
623.59	783.92
623.93	779.42
624.28	775.27
624.62	771.41
624.97	767.31
625.32	763.28
625.66	759.61
626.01	755.30
626.35	751.40
626.70	747.24
627.04	743.07
627.39	738.88
627.73	734.99
628.08	731.55
628.43	727.93
628.77	724.06
629.12	720.00
629.46	716.39
629.81	713.00
630.15	709.24
630.50	705.58
630.84	701.70
631.19	697.91
631.53	694.27
631.88	690.08
632.22	686.47
632.57	683.01
632.91	679.35
633.26	675.80
633.60	672.19
633.95	668.69
634.29	665.02
634.64	661.62
634.98	658.04
635.32	654.40
635.67	651.28
636.01	647.95
636.36	644.52
636.70	641.20
637.05	637.66
637.39	634.61
637.73	631.55
638.08	628.97
638.42	626.01
638.77	622.81
639.11	619.78
639.45	616.71
639.80	613.41
640.14	610.10
640.49	606.96
640.83	603.95
641.17	600.75
641.52	597.63
641.86	594.46
642.20	591.35
642.55	587.99
642.89	584.50
643.23	581.32
643.58	578.53
643.92	575.26
644.26	572.28
644.61	569.27
644.95	566.05
645.29	562.76
645.64	559.51
645.98	556.45
646.32	553.51
646.66	550.38
647.01	547.69
647.35	544.92
647.69	542.07
648.04	539.21
648.38	536.44
648.72	533.65
649.06	530.78
649.41	527.96
649.75	525.30
650.09	522.73
650.43	519.99
650.78	516.97
651.12	514.14
651.46	511.43
651.80	508.88
652.14	506.36
652.49	503.76
652.83	501.14
653.17	498.35
653.51	495.51
653.85	492.96
654.20	490.31
654.54	487.64
654.88	484.90
655.22	482.39
655.56	479.65
655.90	476.97
656.25	474.46
656.59	471.90
656.93	469.46
657.27	467.02
657.61	464.43
657.95	462.19
658.29	460.05
658.64	457.75
658.98	455.30
659.32	452.62
659.66	450.05
660.00	447.63
660.34	445.29
660.68	442.98
661.02	440.44
661.36	438.20
661.70	435.84
662.05	433.66
662.39	431.48
662.73	429.61
663.07	427.74
663.41	425.73
663.75	423.65
664.09	421.45
664.43	419.25
664.77	417.25
665.11	415.15
665.45	413.09
665.79	411.05
666.13	409.06
666.47	407.25
666.81	405.42
667.15	403.52
667.49	401.73
667.83	399.97
668.17	398.30
668.51	396.51
668.85	394.92
669.19	393.42
669.53	391.60
669.87	389.64
670.21	387.79
670.55	386.00
670.89	384.54
671.23	383.09
671.57	381.67
671.91	380.20
672.25	378.58
672.58	376.95
672.92	375.27
673.26	373.68
673.60	372.16
673.94	370.56
674.28	369.04
674.62	367.68
674.96	366.32
675.30	364.89
675.64	363.34
675.97	361.84
676.31	360.33
676.65	358.93
676.99	357.72
677.33	356.30
677.67	354.93
678.01	353.35
678.34	351.93
678.68	350.55
679.02	349.09
679.36	347.82
679.70	346.45
680.04	345.27
680.37	343.96
680.71	342.57
681.05	341.45
681.39	340.28
681.73	338.83
682.06	337.53
682.40	336.40
682.74	335.23
683.08	334.09
683.42	332.81
683.75	331.65
684.09	330.34
684.43	329.20
684.77	327.94
685.10	326.68
685.44	325.47
685.78	324.21
686.12	323.04
686.45	321.80
686.79	320.63
687.13	319.48
687.46	318.35
687.80	317.47
688.14	316.27
688.48	315.24
688.81	314.20
689.15	313.09
689.49	311.93
689.82	310.81
690.16	309.65
690.50	308.49
690.83	307.39
691.17	306.22
691.51	305.08
691.84	304.11
692.18	303.16
692.52	302.21
692.85	301.33
693.19	300.50
693.52	299.59
693.86	298.63
694.20	297.67
694.53	296.75
694.87	295.65
695.21	294.68
695.54	293.59
695.88	292.50
696.21	291.49
696.55	290.64
696.88	289.77
697.22	288.83
697.56	288.12
697.89	287.25
698.23	286.50
698.56	285.70
698.90	284.88
699.23	284.08
699.57	283.31
699.90	282.44
700.24	281.57
700.58	280.74
700.91	280.05
701.25	279.54
701.58	278.83
701.92	278.15
702.25	277.45
702.59	276.86
702.92	276.31
703.26	275.67
703.59	274.93
703.93	274.58
704.26	274.00
704.60	273.34
704.93	272.68
705.26	271.95
705.60	271.26
705.93	270.62
706.27	270.09
706.60	269.53
706.94	269.00
707.27	268.36
707.61	267.70
707.94	266.99
708.27	266.13
708.61	265.46
708.94	264.85
709.28	264.27
709.61	263.62
709.94	263.05
710.28	262.60
710.61	262.09
710.95	261.19
711.28	260.78
711.61	260.15
711.95	259.65
712.28	259.13
712.61	258.73
712.95	258.37
713.28	257.94
713.61	257.28
713.95	256.70
714.28	256.22
714.61	255.79
714.95	255.39
715.28	254.79
715.61	254.29
715.95	253.75
716.28	253.25
716.61	252.79
716.95	252.27
717.28	251.70
717.61	251.26
717.94	250.81
718.28	250.22
718.61	249.85
718.94	249.38
719.27	249.01
719.61	248.51
719.94	248.04
720.27	247.44
720.60	247.06
720.94	246.78
721.27	246.37
721.60	246.04
721.93	245.63
722.27	245.45
722.60	245.23
722.93	244.97
723.26	244.68
723.59	244.30
723.93	244.07
724.26	243.82
724.59	243.44
724.92	243.14
725.25	242.89
725.59	242.49
725.92	242.30
726.25	242.04
726.58	241.84
726.91	241.50
727.24	241.26
727.57	241.01
727.91	240.54
728.24	240.36
728.57	240.06
728.90	239.88
729.23	239.53
729.56	239.40
729.89	239.00
730.22	238.69
730.55	238.53
730.89	238.20
731.22	237.89
731.55	237.61
731.88	237.38
732.21	237.05
732.54	236.75
732.87	236.47
733.20	236.29
733.53	235.96
733.86	235.67
734.19	235.39
734.52	235.22
734.85	235.32
735.18	234.97
735.51	234.83
735.84	234.59
736.17	234.45
736.50	233.98
736.83	234.31
737.16	234.06
737.49	233.74
737.82	233.49
738.15	233.23
738.48	233.02
738.81	232.77
739.14	232.48
739.47	232.28
739.80	232.07
740.13	231.82
740.46	231.64
740.79	231.45
741.12	231.27
741.45	230.93
741.78	230.50
742.11	230.44
742.44	230.17
742.77	229.94
743.10	229.65
743.43	229.54
743.75	228.86
744.08	229.10
744.41	228.91
744.74	228.70
745.07	228.53
745.40	228.40
745.73	228.37
746.06	228.20
746.39	228.07
746.71	227.85
747.04	227.61
747.37	227.33
747.70	227.29
748.03	227.14
748.36	227.05
748.68	226.84
749.01	226.60
749.34	226.39
749.67	226.28
750.00	226.21
750.33	226.30
750.65	226.17
750.98	225.68
751.31	225.55
751.64	225.48
751.97	225.53
752.29	225.38
752.62	225.04
752.95	224.94
753.28	224.72
753.60	224.54
753.93	224.52
754.26	224.42
754.59	224.09
754.91	223.88
755.24	223.76
755.57	223.60
755.90	223.45
756.22	223.31
756.55	223.13
756.88	222.88
757.20	222.46
757.53	222.34
757.86	222.17
758.19	222.09
758.51	221.99
758.84	221.76
759.17	221.62
759.49	221.56
759.82	221.58
760.15	221.56
760.47	221.43
760.80	221.25
761.13	221.22
761.45	221.13
761.78	221.03
762.11	220.84
762.43	220.72
762.76	220.64
763.08	220.61
763.41	220.49
763.74	220.40
764.06	220.33
764.39	220.22
764.71	220.12
765.04	220.03
765.37	219.88
765.69	219.83
766.02	219.72
766.34	219.65
766.67	219.45
767.00	219.43
767.32	219.62
767.65	219.64
767.97	219.56
768.30	219.57
768.62	219.60
768.95	219.52
769.27	219.51
769.60	219.50
769.92	219.32
770.25	219.25
770.57	219.08
770.90	218.99
771.22	218.87
771.55	218.87
771.87	218.76
772.20	218.74
772.52	218.91
772.85	219.27
773.17	219.23
773.50	219.13
773.82	218.98
774.15	218.71
774.47	218.55
774.80	218.44
775.12	218.26
775.45	218.15
775.77	218.17
776.09	218.06
776.42	217.97
776.74	218.03
777.07	217.94
777.39	218.00
777.72	217.92
778.04	217.87
778.36	217.69
778.69	217.63
779.01	217.57
779.33	217.18
779.66	216.75
779.98	216.67
780.31	216.58
780.63	216.66
780.95	216.66
781.28	216.55
781.60	216.42
781.92	216.39
782.25	216.35
782.57	216.29
782.89	216.27
783.22	216.10
783.54	216.00
783.86	216.03
784.19	215.96
784.51	216.08
784.83	215.98
785.16	215.93
785.48	215.84
785.80	215.77
786.12	215.70
786.45	215.67
786.77	215.61
787.09	215.60
787.42	215.44
787.74	215.41
788.06	215.33
