SpectraSuite Data File
++++++++++++++++++++++++++++++++++++
Date: Mon Feb 25 17:02:57 EST 2013
User: group
Dark Spectrum Present: No
Reference Spectrum Present: No
Number of Sampled Component Spectra: 1
Spectrometers: USB2E7196
Integration Time (usec): 104000 (USB2E7196)
Spectra Averaged: 20 (USB2E7196)
Boxcar Smoothing: 10 (USB2E7196)
Correct for Electrical Dark: No (USB2E7196)
Strobe/Lamp Enabled: No (USB2E7196)
Correct for Detector Non-linearity: No (USB2E7196)
Correct for Stray Light: No (USB2E7196)
Number of Pixels in Processed Spectrum: 2048
>>>>>Begin Processed Spectral Data<<<<<
339.09	0.00
339.48	198.75
339.86	199.95
340.24	200.95
340.63	202.50
341.01	209.05
341.39	205.10
341.78	207.35
342.16	209.90
342.54	208.70
342.93	198.09
343.31	208.13
343.69	208.54
344.07	209.01
344.46	209.48
344.84	209.89
345.22	209.94
345.60	210.20
345.99	210.34
346.37	210.37
346.75	210.40
347.13	210.42
347.52	210.44
347.90	210.58
348.28	210.47
348.66	210.57
349.05	210.42
349.43	210.42
349.81	210.51
350.19	210.63
350.57	210.74
350.96	210.86
351.34	210.87
351.72	211.07
352.10	211.10
352.48	211.14
352.87	211.11
353.25	211.16
353.63	211.15
354.01	211.20
354.39	211.30
354.77	211.43
355.15	211.55
355.54	211.64
355.92	211.58
356.30	211.71
356.68	211.92
357.06	212.03
357.44	212.04
357.82	212.07
358.20	212.12
358.58	212.08
358.97	212.19
359.35	212.34
359.73	212.47
360.11	212.50
360.49	212.57
360.87	212.64
361.25	212.72
361.63	212.99
362.01	213.07
362.39	213.11
362.77	213.20
363.15	213.26
363.53	213.29
363.91	213.37
364.29	213.43
364.67	213.06
365.05	213.08
365.43	213.14
365.81	213.19
366.19	213.30
366.57	213.52
366.95	213.48
367.33	213.43
367.71	213.36
368.09	213.40
368.47	213.40
368.85	213.44
369.23	213.56
369.61	213.43
369.99	213.53
370.37	213.51
370.75	213.67
371.13	213.55
371.51	213.51
371.89	213.51
372.27	213.56
372.65	213.58
373.03	213.55
373.41	213.49
373.78	213.47
374.16	213.22
374.54	213.09
374.92	213.05
375.30	212.98
375.68	212.90
376.06	212.94
376.44	212.84
376.82	212.79
377.19	212.69
377.57	212.59
377.95	212.40
378.33	212.35
378.71	212.01
379.09	212.00
379.47	211.96
379.84	211.90
380.22	211.71
380.60	211.73
380.98	211.69
381.36	211.66
381.73	211.47
382.11	211.56
382.49	211.51
382.87	211.36
383.25	211.31
383.62	211.60
384.00	211.56
384.38	211.52
384.76	211.53
385.13	211.58
385.51	211.53
385.89	211.45
386.27	211.33
386.64	211.37
387.02	211.34
387.40	211.26
387.78	211.22
388.15	211.21
388.53	211.15
388.91	211.07
389.29	211.04
389.66	211.06
390.04	211.02
390.42	211.01
390.79	211.07
391.17	211.07
391.55	210.73
391.92	210.67
392.30	210.67
392.68	210.54
393.05	210.45
393.43	210.47
393.81	210.49
394.18	210.49
394.56	210.49
394.94	210.49
395.31	210.45
395.69	210.60
396.06	210.62
396.44	210.64
396.82	210.64
397.19	210.76
397.57	210.78
397.95	210.87
398.32	210.81
398.70	210.77
399.07	210.82
399.45	210.78
399.82	210.75
400.20	210.77
400.58	210.80
400.95	210.79
401.33	210.83
401.70	211.12
402.08	211.21
402.45	211.28
402.83	211.42
403.20	211.52
403.58	211.50
403.95	211.59
404.33	211.72
404.71	211.86
405.08	212.18
405.46	212.30
405.83	212.42
406.21	212.51
406.58	212.74
406.96	212.94
407.33	213.25
407.70	213.47
408.08	213.95
408.45	214.33
408.83	214.61
409.20	214.94
409.58	215.05
409.95	215.41
410.33	215.79
410.70	216.09
411.08	216.57
411.45	216.99
411.82	217.42
412.20	217.89
412.57	218.54
412.95	218.76
413.32	219.37
413.69	219.88
414.07	220.58
414.44	221.27
414.82	221.99
415.19	222.83
415.56	223.71
415.94	224.52
416.31	225.57
416.68	226.60
417.06	227.81
417.43	228.99
417.81	230.31
418.18	231.59
418.55	233.06
418.93	234.54
419.30	236.12
419.67	237.85
420.04	239.62
420.42	241.37
420.79	243.78
421.16	245.91
421.54	248.37
421.91	250.69
422.28	253.13
422.66	255.60
423.03	258.22
423.40	260.84
423.77	263.54
424.15	266.31
424.52	269.22
424.89	272.44
425.26	275.54
425.64	278.42
426.01	281.69
426.38	285.16
426.75	288.65
427.13	292.33
427.50	296.10
427.87	300.04
428.24	304.07
428.61	307.64
428.99	311.95
429.36	316.25
429.73	320.74
430.10	325.17
430.47	329.78
430.85	334.45
431.22	339.46
431.59	345.07
431.96	350.31
432.33	356.07
432.70	361.71
433.08	368.23
433.45	374.51
433.82	380.71
434.19	387.47
434.56	394.34
434.93	400.77
435.30	407.28
435.68	414.50
436.05	421.62
436.42	428.64
436.79	435.20
437.16	442.26
437.53	449.59
437.90	456.96
438.27	464.46
438.64	472.01
439.01	479.20
439.38	485.43
439.75	491.62
440.13	498.53
440.50	505.02
440.87	510.54
441.24	516.13
441.61	522.36
441.98	527.20
442.35	532.58
442.72	538.09
443.09	543.65
443.46	547.03
443.83	549.53
444.20	551.84
444.57	554.71
444.94	556.43
445.31	558.32
445.68	560.23
446.05	561.07
446.42	560.94
446.79	560.70
447.16	560.18
447.53	560.01
447.90	557.96
448.27	555.69
448.64	552.28
449.01	550.18
449.37	545.86
449.74	541.56
450.11	536.59
450.48	530.91
450.85	524.81
451.22	519.83
451.59	514.99
451.96	510.49
452.33	504.28
452.70	498.64
453.07	491.81
453.43	484.63
453.80	478.06
454.17	471.55
454.54	465.34
454.91	458.93
455.28	452.45
455.65	446.39
456.02	440.76
456.38	435.78
456.75	429.30
457.12	424.05
457.49	418.75
457.86	413.42
458.23	409.09
458.59	404.34
458.96	399.51
459.33	395.25
459.70	390.87
460.07	387.48
460.43	383.45
460.80	379.78
461.17	376.67
461.54	373.14
461.91	369.93
462.27	366.71
462.64	363.70
463.01	360.66
463.38	357.76
463.74	354.46
464.11	351.72
464.48	349.44
464.85	346.81
465.21	344.92
465.58	342.88
465.95	340.32
466.32	338.25
466.68	336.22
467.05	334.09
467.42	332.02
467.78	329.84
468.15	327.84
468.52	326.34
468.88	324.24
469.25	322.42
469.62	321.05
469.98	319.36
470.35	317.93
470.72	316.36
471.08	314.79
471.45	313.47
471.82	312.17
472.18	310.75
472.55	309.68
472.92	308.35
473.28	307.19
473.65	306.12
474.02	305.15
474.38	304.22
474.75	303.47
475.11	302.56
475.48	301.88
475.85	301.20
476.21	300.53
476.58	300.03
476.94	299.63
477.31	299.01
477.67	298.51
478.04	298.15
478.41	297.86
478.77	297.84
479.14	297.55
479.50	297.44
479.87	297.29
480.23	297.17
480.60	297.07
480.96	296.92
481.33	297.11
481.69	297.08
482.06	297.06
482.42	297.04
482.79	297.16
483.15	297.28
483.52	297.67
483.88	297.85
484.25	298.12
484.61	298.41
484.98	298.71
485.34	299.22
485.71	299.66
486.07	300.16
486.44	300.29
486.80	300.78
487.17	301.24
487.53	301.96
487.90	302.66
488.26	303.49
488.62	304.36
488.99	304.98
489.35	305.73
489.72	306.64
490.08	307.53
490.44	308.36
490.81	309.36
491.17	310.31
491.54	311.34
491.90	312.41
492.26	313.59
492.63	314.82
492.99	316.04
493.36	317.32
493.72	318.73
494.08	320.07
494.45	321.54
494.81	323.03
495.17	324.47
495.54	326.03
495.90	327.53
496.26	328.96
496.63	330.56
496.99	332.22
497.35	333.77
497.72	335.47
498.08	337.18
498.44	338.86
498.80	340.61
499.17	342.30
499.53	343.89
499.89	345.55
500.26	347.15
500.62	348.69
500.98	350.39
501.34	351.99
501.71	353.74
502.07	355.30
502.43	356.77
502.79	358.19
503.16	359.58
503.52	360.93
503.88	362.30
504.24	363.75
504.60	365.08
504.97	366.47
505.33	367.71
505.69	369.27
506.05	370.50
506.41	371.65
506.78	372.62
507.14	373.64
507.50	374.59
507.86	375.65
508.22	376.64
508.59	377.37
508.95	378.16
509.31	379.05
509.67	379.83
510.03	380.61
510.39	381.35
510.75	382.09
511.12	382.74
511.48	383.38
511.84	383.88
512.20	384.37
512.56	384.88
512.92	385.32
513.28	385.47
513.64	385.76
514.00	386.02
514.37	386.26
514.73	386.54
515.09	386.82
515.45	386.79
515.81	386.78
516.17	386.84
516.53	386.80
516.89	386.52
517.25	386.39
517.61	386.37
517.97	386.25
518.33	385.98
518.69	385.84
519.05	385.72
519.41	385.59
519.77	385.73
520.13	385.39
520.49	385.23
520.85	385.05
521.21	384.89
521.57	384.74
521.93	384.66
522.29	384.58
522.65	384.31
523.01	384.30
523.37	384.26
523.73	384.20
524.09	384.25
524.45	384.31
524.81	384.36
525.17	384.38
525.53	384.56
525.89	384.80
526.25	385.04
526.61	385.19
526.97	385.37
527.33	385.41
527.68	386.18
528.04	386.52
528.40	386.96
528.76	387.63
529.12	388.15
529.48	388.93
529.84	389.60
530.20	390.53
530.56	391.40
530.91	392.44
531.27	393.43
531.63	394.43
531.99	395.50
532.35	396.73
532.71	397.87
533.07	399.06
533.42	400.59
533.78	401.87
534.14	403.38
534.50	404.61
534.86	406.25
535.21	407.40
535.57	409.06
535.93	410.57
536.29	412.23
536.65	413.94
537.00	415.55
537.36	417.24
537.72	419.01
538.08	420.90
538.44	422.60
538.79	424.62
539.15	426.55
539.51	428.60
539.87	430.59
540.22	432.74
540.58	434.97
540.94	437.01
541.29	439.26
541.65	441.37
542.01	443.85
542.37	446.19
542.72	448.68
543.08	451.00
543.44	453.55
543.79	455.83
544.15	458.43
544.51	461.20
544.87	463.86
545.22	466.55
545.58	469.15
545.94	471.75
546.29	474.27
546.65	476.78
547.01	479.40
547.36	482.13
547.72	484.87
548.07	487.46
548.43	489.94
548.79	492.66
549.14	495.39
549.50	498.15
549.86	500.71
550.21	503.46
550.57	506.22
550.92	508.86
551.28	511.60
551.64	514.32
551.99	516.92
552.35	519.44
552.70	521.97
553.06	524.53
553.41	527.20
553.77	529.98
554.13	532.76
554.48	535.46
554.84	538.07
555.19	540.75
555.55	543.72
555.90	546.37
556.26	548.80
556.61	551.28
556.97	553.70
557.32	556.13
557.68	558.36
558.03	560.57
558.39	562.93
558.74	565.30
559.10	567.61
559.45	570.03
559.81	572.74
560.16	574.92
560.52	577.30
560.87	579.72
561.23	581.84
561.58	584.30
561.94	586.59
562.29	588.65
562.64	590.74
563.00	592.53
563.35	594.73
563.71	597.10
564.06	599.26
564.42	601.48
564.77	603.75
565.12	605.97
565.48	608.45
565.83	610.60
566.19	612.66
566.54	614.54
566.89	616.36
567.25	618.15
567.60	620.26
567.96	622.38
568.31	624.38
568.66	626.20
569.02	627.46
569.37	628.86
569.72	630.54
570.08	632.02
570.43	633.32
570.78	634.59
571.14	635.55
571.49	636.68
571.84	637.77
572.20	638.67
572.55	639.74
572.90	640.35
573.26	640.98
573.61	641.51
573.96	642.26
574.31	642.71
574.67	643.15
575.02	643.45
575.37	643.57
575.72	643.41
576.08	643.70
576.43	644.04
576.78	644.19
577.13	644.38
577.49	644.57
577.84	644.88
578.19	645.15
578.54	645.61
578.90	646.07
579.25	646.22
579.60	646.19
579.95	646.08
580.30	646.37
580.66	646.59
581.01	646.72
581.36	646.54
581.71	646.47
582.06	646.58
582.42	646.69
582.77	646.59
583.12	646.79
583.47	646.80
583.82	646.81
584.17	646.88
584.53	646.93
584.88	646.77
585.23	646.76
585.58	646.54
585.93	646.24
586.28	646.04
586.63	645.67
586.98	645.54
587.34	645.37
587.69	644.89
588.04	644.54
588.39	644.26
588.74	643.87
589.09	643.82
589.44	643.11
589.79	642.66
590.14	642.37
590.49	641.81
590.84	641.11
591.19	640.85
591.54	640.23
591.89	639.47
592.25	638.99
592.60	638.10
592.95	637.37
593.30	636.55
593.65	635.42
594.00	634.69
594.35	634.71
594.70	633.80
595.05	632.98
595.40	632.17
595.75	631.20
596.10	630.50
596.45	629.68
596.80	629.10
597.15	628.29
597.50	627.17
597.85	626.40
598.19	625.52
598.54	624.58
598.89	623.76
599.24	623.17
599.59	622.21
599.94	621.44
600.29	620.53
600.64	619.60
600.99	618.73
601.34	617.90
601.69	616.11
602.04	615.20
602.39	614.29
602.74	613.41
603.08	612.70
603.43	612.07
603.78	610.93
604.13	609.97
604.48	609.09
604.83	608.46
605.18	607.59
605.53	606.69
605.87	605.62
606.22	604.78
606.57	603.65
606.92	602.57
607.27	601.46
607.62	600.41
607.96	599.48
608.31	598.67
608.66	597.52
609.01	596.39
609.36	595.25
609.70	594.01
610.05	592.64
610.40	591.35
610.75	589.81
611.10	588.77
611.44	587.23
611.79	585.65
612.14	584.13
612.49	582.44
612.83	581.02
613.18	579.39
613.53	577.76
613.88	576.09
614.22	574.55
614.57	573.03
614.92	571.51
615.27	569.84
615.61	568.11
615.96	566.54
616.31	565.13
616.65	563.75
617.00	562.33
617.35	560.96
617.70	559.39
618.04	557.60
618.39	555.58
618.74	554.07
619.08	552.31
619.43	550.66
619.78	549.09
620.12	547.49
620.47	545.87
620.82	543.99
621.16	542.27
621.51	540.79
621.85	539.24
622.20	537.38
622.55	535.66
622.89	533.84
623.24	532.17
623.59	530.23
623.93	528.51
624.28	526.78
624.62	525.28
624.97	523.69
625.32	522.16
625.66	520.73
626.01	519.06
626.35	517.58
626.70	515.86
627.04	514.50
627.39	512.92
627.73	511.58
628.08	510.22
628.43	508.51
628.77	506.69
629.12	504.90
629.46	503.60
629.81	502.04
630.15	500.42
630.50	498.78
630.84	497.31
631.19	495.66
631.53	494.02
631.88	491.96
632.22	490.24
632.57	488.81
632.91	487.20
633.26	485.58
633.60	483.97
633.95	482.44
634.29	480.63
634.64	479.00
634.98	477.20
635.32	475.67
635.67	474.26
636.01	472.68
636.36	471.03
636.70	469.56
637.05	468.08
637.39	466.80
637.73	465.35
638.08	464.00
638.42	462.55
638.77	461.17
639.11	459.75
639.45	458.20
639.80	456.44
640.14	454.73
640.49	453.11
640.83	451.47
641.17	449.82
641.52	448.23
641.86	446.70
642.20	445.32
642.55	443.49
642.89	441.85
643.23	440.32
643.58	439.12
643.92	437.34
644.26	435.79
644.61	434.17
644.95	432.55
645.29	430.81
645.64	429.15
645.98	427.58
646.32	426.12
646.66	424.44
647.01	422.95
647.35	421.65
647.69	420.19
648.04	418.80
648.38	417.32
648.72	415.89
649.06	414.31
649.41	412.51
649.75	411.04
650.09	409.60
650.43	408.01
650.78	406.20
651.12	404.59
651.46	403.08
651.80	401.57
652.14	400.13
652.49	398.74
652.83	397.23
653.17	395.49
653.51	393.94
653.85	392.60
654.20	391.07
654.54	389.48
654.88	387.87
655.22	386.44
655.56	384.85
655.90	383.25
656.25	381.60
656.59	380.27
656.93	378.92
657.27	377.51
657.61	375.98
657.95	374.78
658.29	373.40
658.64	372.02
658.98	370.40
659.32	368.74
659.66	367.24
660.00	365.77
660.34	364.46
660.68	363.01
661.02	361.51
661.36	360.25
661.70	358.89
662.05	357.67
662.39	356.34
662.73	355.34
663.07	354.29
663.41	353.18
663.75	351.86
664.09	350.61
664.43	349.25
664.77	348.17
665.11	346.71
665.45	345.52
665.79	344.30
666.13	343.25
666.47	342.12
666.81	340.95
667.15	339.78
667.49	338.67
667.83	337.64
668.17	336.56
668.51	335.44
668.85	334.44
669.19	333.53
669.53	332.35
669.87	331.01
670.21	329.89
670.55	328.84
670.89	328.06
671.23	327.09
671.57	326.15
671.91	325.12
672.25	324.15
672.58	323.39
672.92	322.33
673.26	321.43
673.60	320.56
673.94	319.65
674.28	318.80
674.62	317.90
674.96	316.99
675.30	316.11
675.64	315.10
675.97	314.06
676.31	313.07
676.65	312.20
676.99	311.55
677.33	310.63
677.67	309.66
678.01	308.53
678.34	307.62
678.68	306.78
679.02	305.99
679.36	305.20
679.70	304.11
680.04	303.28
680.37	302.31
680.71	301.51
681.05	300.75
681.39	299.89
681.73	299.05
682.06	298.22
682.40	297.41
682.74	296.67
683.08	296.08
683.42	295.23
683.75	294.50
684.09	293.56
684.43	292.74
684.77	291.98
685.10	291.26
685.44	290.44
685.78	289.61
686.12	288.82
686.45	288.08
686.79	287.30
687.13	286.58
687.46	285.92
687.80	285.32
688.14	284.54
688.48	283.87
688.81	283.20
689.15	282.56
689.49	281.83
689.82	281.22
690.16	280.34
690.50	279.60
690.83	278.84
691.17	278.14
691.51	277.41
691.84	276.87
692.18	276.15
692.52	275.50
692.85	274.98
693.19	274.41
693.52	273.74
693.86	273.12
694.20	272.49
694.53	271.84
694.87	271.06
695.21	270.31
695.54	269.61
695.88	268.89
696.21	268.17
696.55	267.60
696.88	266.90
697.22	266.29
697.56	265.79
697.89	265.24
698.23	264.68
698.56	264.18
698.90	263.51
699.23	262.95
699.57	262.41
699.90	261.76
700.24	261.11
700.58	260.57
700.91	260.13
701.25	259.83
701.58	259.37
701.92	258.93
702.25	258.50
702.59	258.05
702.92	257.56
703.26	257.14
703.59	256.67
703.93	256.53
704.26	256.17
704.60	255.72
704.93	255.20
705.26	254.70
705.60	254.26
705.93	253.76
706.27	253.38
706.60	253.05
706.94	252.72
707.27	252.28
707.61	251.92
707.94	251.48
708.27	250.84
708.61	250.38
708.94	249.92
709.28	249.60
709.61	249.19
709.94	248.85
710.28	248.42
710.61	248.12
710.95	247.40
711.28	247.19
711.61	246.76
711.95	246.53
712.28	246.16
712.61	245.85
712.95	245.73
713.28	245.56
713.61	245.17
713.95	244.76
714.28	244.50
714.61	244.11
714.95	243.72
715.28	243.34
715.61	243.06
715.95	242.77
716.28	242.35
716.61	242.02
716.95	241.72
717.28	241.48
717.61	241.10
717.94	240.80
718.28	240.30
718.61	240.01
718.94	239.62
719.27	239.38
719.61	239.02
719.94	238.55
720.27	238.06
720.60	237.77
720.94	237.45
721.27	237.17
721.60	236.95
721.93	236.77
722.27	236.63
722.60	236.39
722.93	236.11
723.26	235.89
723.59	235.60
723.93	235.40
724.26	235.18
724.59	234.90
724.92	234.72
725.25	234.57
725.59	234.30
725.92	234.07
726.25	233.86
726.58	233.68
726.91	233.61
727.24	233.53
727.57	233.25
727.91	232.97
728.24	232.72
728.57	232.52
728.90	232.29
729.23	231.95
729.56	231.93
729.89	231.78
730.22	231.57
730.55	231.38
730.89	231.11
731.22	230.85
731.55	230.72
731.88	230.57
732.21	230.31
732.54	230.10
732.87	229.95
733.20	229.72
733.53	229.58
733.86	229.35
734.19	229.12
734.52	229.01
734.85	229.14
735.18	229.02
735.51	228.93
735.84	228.82
736.17	228.78
736.50	228.36
736.83	228.54
737.16	228.35
737.49	228.21
737.82	228.02
738.15	227.89
738.48	227.67
738.81	227.47
739.14	227.26
739.47	227.12
739.80	227.00
740.13	226.89
740.46	226.62
740.79	226.45
741.12	226.26
741.45	226.08
741.78	225.80
742.11	225.71
742.44	225.57
742.77	225.48
743.10	225.30
743.43	225.11
743.75	224.65
744.08	225.01
744.41	224.87
744.74	224.77
745.07	224.60
745.40	224.49
745.73	224.50
746.06	224.46
746.39	224.38
746.71	224.21
747.04	224.04
747.37	223.99
747.70	223.96
748.03	223.81
748.36	223.72
748.68	223.59
749.01	223.35
749.34	223.18
749.67	223.04
750.00	222.97
750.33	223.20
750.65	223.04
750.98	222.44
751.31	222.31
751.64	222.21
751.97	222.35
752.29	222.19
752.62	221.92
752.95	221.71
753.28	221.53
753.60	221.41
753.93	221.42
754.26	221.24
754.59	221.00
754.91	220.92
755.24	220.80
755.57	220.61
755.90	220.62
756.22	220.49
756.55	220.32
756.88	220.18
757.20	219.85
757.53	219.69
757.86	219.67
758.19	219.67
758.51	219.55
758.84	219.18
759.17	219.13
759.49	219.07
759.82	219.17
760.15	219.14
760.47	219.07
760.80	218.83
761.13	218.83
761.45	218.72
761.78	218.59
762.11	218.51
762.43	218.40
762.76	218.21
763.08	218.12
763.41	218.10
763.74	218.03
764.06	217.93
764.39	217.81
764.71	217.65
765.04	217.45
765.37	217.35
765.69	217.27
766.02	217.15
766.34	217.09
766.67	216.83
767.00	216.80
767.32	216.90
767.65	217.05
767.97	217.00
768.30	216.99
768.62	216.97
768.95	216.81
769.27	216.80
769.60	216.79
769.92	216.69
770.25	216.54
770.57	216.40
770.90	216.35
771.22	216.23
771.55	216.25
771.87	216.22
772.20	216.16
772.52	216.43
772.85	216.78
773.17	216.67
773.50	216.67
773.82	216.58
774.15	216.39
774.47	216.07
774.80	215.98
775.12	215.86
775.45	215.71
775.77	215.74
776.09	215.68
776.42	215.66
776.74	215.78
777.07	215.74
777.39	215.72
777.72	215.65
778.04	215.76
778.36	215.64
778.69	215.59
779.01	215.65
779.33	215.32
779.66	214.91
779.98	214.89
780.31	214.83
780.63	214.97
780.95	214.97
781.28	215.04
781.60	214.96
781.92	214.98
782.25	215.08
782.57	215.02
782.89	215.02
783.22	214.90
783.54	214.73
783.86	214.72
784.19	214.68
784.51	214.68
784.83	214.59
785.16	214.57
785.48	214.64
785.80	214.60
786.12	214.56
786.45	214.55
786.77	214.57
787.09	214.55
787.42	214.34
787.74	214.31
788.06	214.32
788.38	214.31
788.71	214.25
789.03	214.12
789.35	214.12
789.67	214.07
789.99	214.13
790.32	214.19
790.64	214.17
790.96	214.36
791.28	214.32
791.61	214.28
791.93	214.30
792.25	214.22
792.57	214.37
792.89	214.34
793.21	214.30
793.54	214.22
793.86	214.18
794.18	214.22
