SpectraSuite Data File
++++++++++++++++++++++++++++++++++++
Date: Mon Feb 25 16:59:23 EST 2013
User: group
Dark Spectrum Present: No
Reference Spectrum Present: No
Number of Sampled Component Spectra: 1
Spectrometers: USB2E7196
Integration Time (usec): 104000 (USB2E7196)
Spectra Averaged: 20 (USB2E7196)
Boxcar Smoothing: 10 (USB2E7196)
Correct for Electrical Dark: No (USB2E7196)
Strobe/Lamp Enabled: No (USB2E7196)
Correct for Detector Non-linearity: No (USB2E7196)
Correct for Stray Light: No (USB2E7196)
Number of Pixels in Processed Spectrum: 2048
>>>>>Begin Processed Spectral Data<<<<<
339.09	0.00
339.48	197.60
339.86	199.75
340.24	200.60
340.63	202.25
341.01	209.45
341.39	205.95
341.78	206.20
342.16	209.15
342.54	208.85
342.93	197.96
343.31	207.98
343.69	208.55
344.07	209.07
344.46	209.53
344.84	209.95
345.22	210.04
345.60	210.26
345.99	210.48
346.37	210.56
346.75	210.57
347.13	210.64
347.52	210.75
347.90	210.92
348.28	210.93
348.66	211.00
349.05	210.96
349.43	211.01
349.81	211.17
350.19	211.18
350.57	211.23
350.96	211.33
351.34	211.40
351.72	211.46
352.10	211.46
352.48	211.53
352.87	211.54
353.25	211.49
353.63	211.54
354.01	211.57
354.39	211.70
354.77	211.81
355.15	211.95
355.54	211.98
355.92	211.98
356.30	212.13
356.68	212.35
357.06	212.47
357.44	212.53
357.82	212.45
358.20	212.57
358.58	212.66
358.97	212.75
359.35	212.91
359.73	213.02
360.11	213.14
360.49	213.22
360.87	213.32
361.25	213.51
361.63	213.73
362.01	213.89
362.39	213.88
362.77	214.00
363.15	214.06
363.53	214.07
363.91	214.10
364.29	214.04
364.67	213.84
365.05	213.80
365.43	213.82
365.81	213.89
366.19	213.99
366.57	214.08
366.95	213.99
367.33	213.93
367.71	213.98
368.09	214.06
368.47	213.99
368.85	214.00
369.23	214.06
369.61	213.86
369.99	213.95
370.37	213.96
370.75	214.08
371.13	213.93
371.51	213.88
371.89	213.88
372.27	213.90
372.65	213.87
373.03	213.77
373.41	213.74
373.78	213.73
374.16	213.61
374.54	213.47
374.92	213.44
375.30	213.39
375.68	213.28
376.06	213.23
376.44	213.16
376.82	213.06
377.19	212.98
377.57	212.96
377.95	212.68
378.33	212.65
378.71	212.35
379.09	212.41
379.47	212.36
379.84	212.23
380.22	212.16
380.60	212.04
380.98	212.12
381.36	212.09
381.73	212.02
382.11	212.10
382.49	212.13
382.87	212.02
383.25	211.97
383.62	212.35
384.00	212.18
384.38	212.19
384.76	212.24
385.13	212.23
385.51	212.17
385.89	212.14
386.27	212.02
386.64	212.09
387.02	211.96
387.40	211.89
387.78	211.91
388.15	211.89
388.53	211.83
388.91	211.77
389.29	211.69
389.66	211.63
390.04	211.45
390.42	211.42
390.79	211.49
391.17	211.49
391.55	211.05
391.92	211.10
392.30	211.18
392.68	211.08
393.05	211.17
393.43	211.15
393.81	211.17
394.18	211.15
394.56	211.13
394.94	211.22
395.31	211.17
395.69	211.32
396.06	211.40
396.44	211.50
396.82	211.40
397.19	211.63
397.57	211.60
397.95	211.60
398.32	211.52
398.70	211.47
399.07	211.53
399.45	211.50
399.82	211.49
400.20	211.40
400.58	211.46
400.95	211.29
401.33	211.41
401.70	211.72
402.08	211.90
402.45	211.93
402.83	212.08
403.20	212.28
403.58	212.25
403.95	212.31
404.33	212.48
404.71	212.71
405.08	212.93
405.46	213.14
405.83	213.36
406.21	213.64
406.58	213.91
406.96	214.05
407.33	214.40
407.70	214.77
408.08	215.36
408.45	215.74
408.83	216.18
409.20	216.57
409.58	216.75
409.95	217.21
410.33	217.78
410.70	218.20
411.08	218.78
411.45	219.44
411.82	220.00
412.20	220.75
412.57	221.74
412.95	222.30
413.32	223.31
413.69	224.30
414.07	225.29
414.44	226.48
414.82	227.73
415.19	229.10
415.56	230.50
415.94	231.81
416.31	233.41
416.68	235.12
417.06	236.99
417.43	238.84
417.81	240.90
418.18	243.01
418.55	245.24
418.93	247.56
419.30	250.00
419.67	252.76
420.04	255.45
420.42	258.08
420.79	261.41
421.16	264.65
421.54	268.14
421.91	271.68
422.28	275.33
422.66	279.23
423.03	283.12
423.40	287.00
423.77	291.29
424.15	295.64
424.52	300.16
424.89	305.08
425.26	309.89
425.64	314.46
426.01	319.52
426.38	324.87
426.75	330.42
427.13	335.97
427.50	341.78
427.87	347.84
428.24	354.15
428.61	359.92
428.99	366.42
429.36	373.44
429.73	380.40
430.10	387.27
430.47	394.36
430.85	401.69
431.22	409.59
431.59	417.98
431.96	425.95
432.33	434.86
432.70	443.41
433.08	453.48
433.45	463.00
433.82	472.51
434.19	483.04
434.56	493.32
434.93	503.57
435.30	513.59
435.68	524.87
436.05	535.86
436.42	547.03
436.79	557.28
437.16	568.25
437.53	579.84
437.90	591.28
438.27	602.66
438.64	614.51
439.01	625.65
439.38	635.59
439.75	645.42
440.13	656.34
440.50	666.92
440.87	675.79
441.24	684.96
441.61	694.81
441.98	702.44
442.35	711.36
442.72	720.03
443.09	728.69
443.46	734.20
443.83	738.15
444.20	741.71
444.57	746.60
444.94	749.18
445.31	752.02
445.68	755.03
446.05	756.74
446.42	756.55
446.79	756.02
447.16	755.21
447.53	754.89
447.90	751.55
448.27	748.15
448.64	742.85
449.01	739.16
449.37	732.52
449.74	725.94
450.11	717.98
450.48	709.16
450.85	699.95
451.22	692.26
451.59	684.91
451.96	677.84
452.33	668.11
452.70	659.58
453.07	648.99
453.43	638.22
453.80	627.91
454.17	617.99
454.54	608.67
454.91	598.71
455.28	588.87
455.65	579.63
456.02	570.48
456.38	562.64
456.75	552.75
457.12	544.42
457.49	536.33
457.86	528.21
458.23	521.65
458.59	514.26
458.96	506.62
459.33	499.90
459.70	493.11
460.07	487.74
460.43	481.53
460.80	475.82
461.17	470.75
461.54	465.47
461.91	460.31
462.27	455.13
462.64	450.78
463.01	445.84
463.38	441.21
463.74	436.32
464.11	432.24
464.48	428.76
464.85	424.94
465.21	421.99
465.58	418.80
465.95	414.68
466.32	411.47
466.68	408.34
467.05	405.27
467.42	402.19
467.78	398.75
468.15	395.71
468.52	393.30
468.88	390.14
469.25	387.43
469.62	385.26
469.98	382.87
470.35	380.57
470.72	378.51
471.08	376.15
471.45	374.17
471.82	372.07
472.18	369.87
472.55	368.21
472.92	366.19
473.28	364.48
473.65	362.81
474.02	361.20
474.38	359.76
474.75	358.58
475.11	357.40
475.48	356.53
475.85	355.58
476.21	354.76
476.58	354.08
476.94	353.46
477.31	352.77
477.67	352.05
478.04	351.58
478.41	351.18
478.77	351.21
479.14	350.84
479.50	350.69
479.87	350.65
480.23	350.62
480.60	350.48
480.96	350.37
481.33	350.75
481.69	350.96
482.06	351.15
482.42	351.28
482.79	351.42
483.15	351.76
483.52	352.30
483.88	352.71
484.25	353.05
484.61	353.55
484.98	354.11
485.34	355.05
485.71	355.95
486.07	356.87
486.44	357.46
486.80	358.44
487.17	359.65
487.53	361.11
487.90	362.42
488.26	364.04
488.62	365.76
488.99	367.23
489.35	368.88
489.72	370.61
490.08	372.48
490.44	374.31
490.81	376.28
491.17	378.23
491.54	380.31
491.90	382.68
492.26	385.05
492.63	387.44
492.99	389.78
493.36	392.32
493.72	394.98
494.08	397.75
494.45	400.62
494.81	403.51
495.17	406.14
495.54	409.27
495.90	412.22
496.26	415.10
496.63	418.30
496.99	421.41
497.35	424.75
497.72	428.10
498.08	431.54
498.44	435.05
498.80	438.76
499.17	442.53
499.53	446.16
499.89	449.83
500.26	453.48
500.62	457.11
500.98	460.89
501.34	464.58
501.71	468.46
502.07	472.30
502.43	475.97
502.79	479.73
503.16	483.22
503.52	486.95
503.88	490.75
504.24	494.48
504.60	498.12
504.97	501.80
505.33	505.31
505.69	509.24
506.05	512.90
506.41	516.40
506.78	519.61
507.14	522.91
507.50	526.17
507.86	529.53
508.22	532.88
508.59	535.88
508.95	538.95
509.31	542.00
509.67	545.02
510.03	547.96
510.39	551.00
510.75	554.04
511.12	556.87
511.48	559.51
511.84	562.12
512.20	564.73
512.56	567.16
512.92	569.72
513.28	572.05
513.64	574.28
514.00	576.34
514.37	578.65
514.73	580.85
515.09	583.12
515.45	585.07
515.81	586.90
516.17	588.78
516.53	590.65
516.89	592.13
517.25	593.73
517.61	595.33
517.97	596.79
518.33	598.02
518.69	599.35
519.05	600.90
519.41	602.15
519.77	603.77
520.13	604.98
520.49	606.10
520.85	607.00
521.21	608.10
521.57	609.29
521.93	610.14
522.29	611.09
522.65	611.89
523.01	612.84
523.37	613.57
523.73	614.48
524.09	615.23
524.45	616.10
524.81	616.87
525.17	617.88
525.53	618.70
525.89	619.65
526.25	620.74
526.61	621.24
526.97	621.90
527.33	622.59
527.68	623.80
528.04	624.71
528.40	625.51
528.76	626.31
529.12	627.23
529.48	628.40
529.84	629.36
530.20	630.46
530.56	631.67
530.91	633.05
531.27	634.33
531.63	635.70
531.99	636.97
532.35	638.34
532.71	639.67
533.07	641.20
533.42	642.94
533.78	644.18
534.14	645.92
534.50	647.47
534.86	649.24
535.21	650.60
535.57	652.40
535.93	654.21
536.29	656.14
536.65	657.86
537.00	659.59
537.36	661.24
537.72	662.92
538.08	664.70
538.44	666.53
538.79	668.44
539.15	670.39
539.51	672.41
539.87	674.49
540.22	676.56
540.58	678.82
540.94	680.88
541.29	683.07
541.65	684.92
542.01	687.20
542.37	689.37
542.72	691.56
543.08	693.71
543.44	696.14
543.79	698.16
544.15	700.50
544.51	702.95
544.87	705.67
545.22	708.23
545.58	710.58
545.94	712.95
546.29	715.19
546.65	717.35
547.01	719.70
547.36	722.00
547.72	724.12
548.07	726.20
548.43	728.34
548.79	730.34
549.14	732.61
549.50	734.92
549.86	737.11
550.21	739.52
550.57	741.81
550.92	743.86
551.28	746.22
551.64	748.55
551.99	750.90
552.35	752.97
552.70	755.20
553.06	757.60
553.41	759.73
553.77	762.19
554.13	764.68
554.48	767.20
554.84	769.64
555.19	772.17
555.55	774.52
555.90	776.71
556.26	779.15
556.61	781.50
556.97	783.51
557.32	785.67
557.68	787.54
558.03	789.71
558.39	791.62
558.74	793.71
559.10	795.75
559.45	797.72
559.81	799.81
560.16	801.45
560.52	803.35
560.87	805.45
561.23	806.99
561.58	808.82
561.94	810.28
562.29	811.71
562.64	813.38
563.00	815.02
563.35	816.74
563.71	818.66
564.06	820.44
564.42	822.47
564.77	824.26
565.12	826.20
565.48	827.97
565.83	829.98
566.19	831.75
566.54	833.21
566.89	834.58
567.25	836.16
567.60	838.14
567.96	840.01
568.31	841.79
568.66	843.23
569.02	844.50
569.37	845.77
569.72	847.22
570.08	848.45
570.43	849.56
570.78	850.64
571.14	851.29
571.49	852.02
571.84	852.84
572.20	853.28
572.55	854.14
572.90	854.39
573.26	854.59
573.61	854.64
573.96	854.85
574.31	855.01
574.67	854.96
575.02	854.38
575.37	854.01
575.72	853.26
576.08	853.36
576.43	852.82
576.78	852.51
577.13	852.17
577.49	851.70
577.84	851.22
578.19	850.96
578.54	851.02
578.90	850.81
579.25	850.11
579.60	849.50
579.95	848.28
580.30	847.89
580.66	847.42
581.01	846.91
581.36	845.92
581.71	845.14
582.06	844.56
582.42	844.21
582.77	843.06
583.12	842.08
583.47	840.97
583.82	840.10
584.17	839.07
584.53	838.15
584.88	836.87
585.23	835.89
585.58	834.45
585.93	832.94
586.28	831.79
586.63	830.64
586.98	829.60
587.34	828.94
587.69	827.36
588.04	826.05
588.39	824.84
588.74	823.72
589.09	822.52
589.44	820.81
589.79	819.36
590.14	818.12
590.49	816.91
590.84	815.40
591.19	814.23
591.54	812.79
591.89	810.84
592.25	809.63
592.60	807.90
592.95	806.15
593.30	804.31
593.65	802.27
594.00	800.33
594.35	799.42
594.70	797.25
595.05	795.66
595.40	793.77
595.75	791.78
596.10	790.07
596.45	788.30
596.80	786.82
597.15	785.18
597.50	783.10
597.85	781.38
598.19	779.62
598.54	777.89
598.89	776.14
599.24	774.78
599.59	772.81
599.94	771.00
600.29	769.25
600.64	767.27
600.99	765.39
601.34	763.65
601.69	760.92
602.04	758.95
602.39	756.76
602.74	755.00
603.08	753.35
603.43	751.50
603.78	749.34
604.13	747.20
604.48	745.06
604.83	743.41
605.18	741.56
605.53	739.58
605.87	737.40
606.22	735.37
606.57	733.04
606.92	730.83
607.27	728.87
607.62	726.83
607.96	725.03
608.31	723.15
608.66	721.00
609.01	718.73
609.36	716.63
609.70	714.38
610.05	711.94
610.40	709.36
610.75	706.98
611.10	705.04
611.44	702.34
611.79	699.66
612.14	697.02
612.49	694.23
612.83	691.78
613.18	689.11
613.53	686.69
613.88	684.09
614.22	681.42
614.57	678.70
614.92	675.93
615.27	673.35
615.61	670.69
615.96	668.33
616.31	665.88
616.65	663.68
617.00	661.38
617.35	658.89
617.70	656.38
618.04	653.67
618.39	650.63
618.74	648.30
619.08	645.87
619.43	643.37
619.78	641.15
620.12	638.84
620.47	636.54
620.82	633.80
621.16	631.11
621.51	628.73
621.85	626.35
622.20	624.06
622.55	621.34
622.89	618.79
623.24	616.04
623.59	613.40
623.93	610.63
624.28	608.24
624.62	606.06
624.97	603.64
625.32	601.25
625.66	599.07
626.01	596.74
626.35	594.31
626.70	591.88
627.04	589.45
627.39	586.76
627.73	584.46
628.08	582.30
628.43	580.05
628.77	577.67
629.12	575.08
629.46	572.78
629.81	570.51
630.15	568.02
630.50	565.78
630.84	563.27
631.19	560.91
631.53	558.54
631.88	555.71
632.22	553.23
632.57	551.18
632.91	548.81
633.26	546.56
633.60	544.29
633.95	542.07
634.29	539.66
634.64	537.48
634.98	534.92
635.32	532.61
635.67	530.60
636.01	528.40
636.36	526.21
636.70	524.19
637.05	522.14
637.39	520.29
637.73	518.19
638.08	516.47
638.42	514.51
638.77	512.42
639.11	510.58
639.45	508.74
639.80	506.49
640.14	504.25
640.49	502.15
640.83	500.19
641.17	498.20
641.52	496.14
641.86	494.03
642.20	492.02
642.55	489.86
642.89	487.61
643.23	485.55
643.58	483.94
643.92	481.63
644.26	479.63
644.61	477.63
644.95	475.62
645.29	473.48
645.64	471.44
645.98	469.39
646.32	467.40
646.66	465.14
647.01	463.19
647.35	461.42
647.69	459.49
648.04	457.55
648.38	455.56
648.72	453.70
649.06	451.68
649.41	449.78
649.75	447.83
650.09	446.03
650.43	444.18
650.78	441.86
651.12	440.05
651.46	438.10
651.80	436.13
652.14	434.29
652.49	432.45
652.83	430.44
653.17	428.43
653.51	426.48
653.85	424.83
654.20	422.99
654.54	421.05
654.88	419.02
655.22	417.26
655.56	415.29
655.90	413.45
656.25	411.75
656.59	409.86
656.93	408.10
657.27	406.44
657.61	404.62
657.95	403.02
658.29	401.22
658.64	399.65
658.98	397.88
659.32	395.89
659.66	394.14
660.00	392.44
660.34	390.80
660.68	389.19
661.02	387.39
661.36	385.68
661.70	384.17
662.05	382.63
662.39	381.13
662.73	379.75
663.07	378.31
663.41	376.77
663.75	375.22
664.09	373.73
664.43	372.15
664.77	370.70
665.11	369.15
665.45	367.84
665.79	366.32
666.13	364.87
666.47	363.47
666.81	362.07
667.15	360.71
667.49	359.45
667.83	358.18
668.17	356.93
668.51	355.60
668.85	354.28
669.19	353.22
669.53	351.76
669.87	350.30
670.21	348.95
670.55	347.71
670.89	346.77
671.23	345.62
671.57	344.40
671.91	343.11
672.25	341.91
672.58	340.73
672.92	339.43
673.26	338.33
673.60	337.33
673.94	336.23
674.28	335.12
674.62	333.98
674.96	332.79
675.30	331.64
675.64	330.52
675.97	329.44
676.31	328.18
676.65	327.15
676.99	326.42
677.33	325.30
677.67	324.24
678.01	323.10
678.34	321.99
678.68	321.02
679.02	319.98
679.36	319.02
679.70	317.94
680.04	316.92
680.37	315.84
680.71	314.82
681.05	313.82
681.39	312.86
681.73	311.87
682.06	310.97
682.40	310.10
682.74	309.22
683.08	308.32
683.42	307.37
683.75	306.41
684.09	305.22
684.43	304.33
684.77	303.35
685.10	302.37
685.44	301.50
685.78	300.60
686.12	299.84
686.45	298.92
686.79	297.99
687.13	297.24
687.46	296.42
687.80	295.69
688.14	294.85
688.48	294.05
688.81	293.26
689.15	292.40
689.49	291.52
689.82	290.83
690.16	289.90
690.50	289.03
690.83	288.20
691.17	287.40
691.51	286.56
691.84	285.90
692.18	285.18
692.52	284.44
692.85	283.69
693.19	283.10
693.52	282.38
693.86	281.69
694.20	280.98
694.53	280.34
694.87	279.50
695.21	278.75
695.54	278.02
695.88	277.19
696.21	276.43
696.55	275.73
696.88	274.94
697.22	274.29
697.56	273.76
697.89	273.17
698.23	272.63
698.56	272.00
698.90	271.28
699.23	270.57
699.57	269.95
699.90	269.22
700.24	268.41
700.58	267.80
700.91	267.11
701.25	266.74
701.58	266.18
701.92	265.75
702.25	265.23
702.59	264.56
702.92	264.08
703.26	263.58
703.59	263.08
703.93	262.83
704.26	262.30
704.60	261.73
704.93	261.19
705.26	260.60
705.60	260.15
705.93	259.60
706.27	259.19
706.60	258.77
706.94	258.48
707.27	257.91
707.61	257.37
707.94	256.88
708.27	256.13
708.61	255.62
708.94	255.06
709.28	254.58
709.61	254.11
709.94	253.64
710.28	253.15
710.61	252.75
710.95	251.96
711.28	251.76
711.61	251.32
711.95	250.89
712.28	250.42
712.61	249.95
712.95	249.79
713.28	249.50
713.61	249.09
713.95	248.61
714.28	248.28
714.61	247.95
714.95	247.63
715.28	247.23
715.61	246.75
715.95	246.35
716.28	245.95
716.61	245.69
716.95	245.27
717.28	244.89
717.61	244.55
717.94	244.23
718.28	243.68
718.61	243.34
718.94	242.92
719.27	242.60
719.61	242.34
719.94	241.89
720.27	241.43
720.60	241.02
720.94	240.69
721.27	240.39
721.60	240.13
721.93	239.83
722.27	239.67
722.60	239.45
722.93	239.26
723.26	239.08
723.59	238.77
723.93	238.63
724.26	238.40
724.59	238.07
724.92	237.90
725.25	237.71
725.59	237.42
725.92	237.28
726.25	237.10
726.58	236.84
726.91	236.63
727.24	236.45
727.57	236.16
727.91	235.80
728.24	235.63
728.57	235.33
728.90	235.18
729.23	234.91
729.56	234.90
729.89	234.59
730.22	234.25
730.55	234.06
730.89	233.80
731.22	233.53
731.55	233.38
731.88	233.13
732.21	232.82
732.54	232.61
732.87	232.37
733.20	232.13
733.53	231.87
733.86	231.65
734.19	231.28
734.52	231.20
734.85	231.30
735.18	231.01
735.51	230.96
735.84	230.78
736.17	230.62
736.50	230.18
736.83	230.37
737.16	230.20
737.49	230.01
737.82	229.80
738.15	229.68
738.48	229.38
738.81	229.22
739.14	228.98
739.47	228.76
739.80	228.52
740.13	228.38
740.46	228.11
740.79	227.89
741.12	227.87
741.45	227.65
741.78	227.32
742.11	227.29
742.44	227.05
742.77	226.88
743.10	226.61
743.43	226.41
743.75	225.92
744.08	226.23
744.41	225.96
744.74	225.75
745.07	225.50
745.40	225.51
745.73	225.49
746.06	225.35
746.39	225.29
746.71	225.13
747.04	224.95
747.37	224.79
747.70	224.71
748.03	224.49
748.36	224.41
748.68	224.30
749.01	224.05
749.34	223.87
749.67	223.73
750.00	223.77
750.33	223.87
750.65	223.72
750.98	223.14
751.31	223.06
751.64	222.89
751.97	223.00
752.29	222.84
752.62	222.50
752.95	222.44
753.28	222.32
753.60	222.27
753.93	222.22
754.26	222.21
754.59	221.98
754.91	221.89
755.24	221.73
755.57	221.63
755.90	221.48
756.22	221.35
756.55	221.19
756.88	220.98
757.20	220.72
757.53	220.54
757.86	220.53
758.19	220.46
758.51	220.48
758.84	220.26
759.17	220.15
759.49	220.12
759.82	220.12
760.15	220.03
760.47	219.95
760.80	219.82
761.13	219.74
761.45	219.63
761.78	219.62
762.11	219.55
762.43	219.39
762.76	219.35
763.08	219.33
763.41	219.29
763.74	219.19
764.06	219.12
764.39	219.09
764.71	218.94
765.04	218.85
765.37	218.70
765.69	218.61
766.02	218.54
766.34	218.39
766.67	218.19
767.00	218.17
767.32	218.25
767.65	218.26
767.97	218.29
768.30	218.28
768.62	218.17
768.95	218.15
769.27	218.08
769.60	218.09
769.92	218.03
770.25	217.91
770.57	217.84
770.90	217.75
771.22	217.59
771.55	217.57
771.87	217.50
772.20	217.53
772.52	217.63
772.85	217.90
773.17	217.92
773.50	217.89
773.82	217.74
774.15	217.54
774.47	217.43
774.80	217.24
775.12	217.15
775.45	217.12
775.77	217.00
776.09	216.96
776.42	216.80
776.74	216.86
777.07	216.79
777.39	216.70
777.72	216.59
778.04	216.63
778.36	216.54
778.69	216.56
779.01	216.43
779.33	216.20
779.66	215.81
779.98	215.65
780.31	215.63
780.63	215.70
780.95	215.70
781.28	215.64
781.60	215.55
781.92	215.48
782.25	215.42
782.57	215.44
782.89	215.40
783.22	215.35
783.54	215.15
783.86	215.13
784.19	215.07
784.51	215.20
784.83	215.06
785.16	214.99
785.48	214.90
785.80	214.87
786.12	214.86
786.45	214.87
786.77	214.91
787.09	214.85
787.42	214.73
787.74	214.70
788.06	214.62
788.38	214.57
788.71	214.55
789.03	214.48
789.35	214.45
789.67	214.33
789.99	214.28
790.32	214.22
790.64	214.25
790.96	214.52
791.28	214.36
791.61	214.42
791.93	214.40
792.25	214.31
792.57	214.61
792.89	214.55
793.21	214.45
793.54	214.41
793.86	214.37
794.18	214.41
