SpectraSuite Data File
++++++++++++++++++++++++++++++++++++
Date: Mon Feb 25 17:17:13 EST 2013
User: group
Dark Spectrum Present: No
Reference Spectrum Present: No
Number of Sampled Component Spectra: 1
Spectrometers: USB2E7196
Integration Time (usec): 104000 (USB2E7196)
Spectra Averaged: 20 (USB2E7196)
Boxcar Smoothing: 10 (USB2E7196)
Correct for Electrical Dark: No (USB2E7196)
Strobe/Lamp Enabled: No (USB2E7196)
Correct for Detector Non-linearity: No (USB2E7196)
Correct for Stray Light: No (USB2E7196)
Number of Pixels in Processed Spectrum: 2048
>>>>>Begin Processed Spectral Data<<<<<
339.09	0.00
339.48	200.25
339.86	201.40
340.24	201.70
340.63	205.05
341.01	211.15
341.39	206.50
341.78	209.30
342.16	209.45
342.54	210.05
342.93	199.19
343.31	209.17
343.69	209.68
344.07	210.09
344.46	210.60
344.84	210.94
345.22	210.92
345.60	211.21
345.99	211.35
346.37	211.45
346.75	211.49
347.13	211.54
347.52	211.59
347.90	211.74
348.28	211.71
348.66	211.76
349.05	211.70
349.43	211.65
349.81	211.75
350.19	211.74
350.57	211.75
350.96	211.88
351.34	212.01
351.72	212.09
352.10	212.18
352.48	212.14
352.87	212.16
353.25	212.25
353.63	212.24
354.01	212.23
354.39	212.32
354.77	212.46
355.15	212.61
355.54	212.59
355.92	212.48
356.30	212.54
356.68	212.84
357.06	212.91
357.44	212.95
357.82	212.96
358.20	212.97
358.58	212.99
358.97	213.03
359.35	213.11
359.73	213.25
360.11	213.28
360.49	213.38
360.87	213.39
361.25	213.42
361.63	213.59
362.01	213.65
362.39	213.65
362.77	213.65
363.15	213.71
363.53	213.71
363.91	213.74
364.29	213.77
364.67	213.43
365.05	213.44
365.43	213.54
365.81	213.62
366.19	213.90
366.57	214.11
366.95	214.12
367.33	214.06
367.71	214.00
368.09	214.04
368.47	214.02
368.85	214.06
369.23	214.13
369.61	214.02
369.99	214.09
370.37	214.17
370.75	214.34
371.13	214.27
371.51	214.27
371.89	214.37
372.27	214.40
372.65	214.47
373.03	214.44
373.41	214.36
373.78	214.30
374.16	214.08
374.54	213.87
374.92	213.78
375.30	213.80
375.68	213.78
376.06	213.75
376.44	213.78
376.82	213.76
377.19	213.71
377.57	213.68
377.95	213.59
378.33	213.56
378.71	213.35
379.09	213.31
379.47	213.30
379.84	213.13
380.22	213.12
380.60	212.97
380.98	212.91
381.36	212.88
381.73	212.86
382.11	212.93
382.49	212.95
382.87	212.93
383.25	212.88
383.62	213.25
384.00	213.20
384.38	213.10
384.76	213.15
385.13	213.24
385.51	213.23
385.89	213.17
386.27	213.06
386.64	213.00
387.02	212.93
387.40	212.93
387.78	213.00
388.15	212.94
388.53	212.93
388.91	212.94
389.29	212.91
389.66	212.88
390.04	212.76
390.42	212.82
390.79	212.84
391.17	212.82
391.55	212.38
391.92	212.41
392.30	212.39
392.68	212.26
393.05	212.25
393.43	212.27
393.81	212.32
394.18	212.37
394.56	212.45
394.94	212.61
395.31	212.58
395.69	212.66
396.06	212.70
396.44	212.74
396.82	212.72
397.19	212.89
397.57	212.84
397.95	212.93
398.32	212.78
398.70	212.84
399.07	212.90
399.45	212.92
399.82	212.85
400.20	212.89
400.58	212.92
400.95	212.80
401.33	212.84
401.70	213.05
402.08	213.05
402.45	213.10
402.83	213.16
403.20	213.25
403.58	213.26
403.95	213.41
404.33	213.52
404.71	213.59
405.08	213.83
405.46	213.93
405.83	214.05
406.21	214.24
406.58	214.39
406.96	214.53
407.33	214.67
407.70	214.95
408.08	215.43
408.45	215.74
408.83	216.05
409.20	216.22
409.58	216.25
409.95	216.66
410.33	216.94
410.70	217.17
411.08	217.54
411.45	217.90
411.82	218.22
412.20	218.67
412.57	219.35
412.95	219.53
413.32	220.15
413.69	220.66
414.07	221.17
414.44	221.86
414.82	222.55
415.19	223.33
415.56	224.08
415.94	224.67
416.31	225.58
416.68	226.48
417.06	227.52
417.43	228.65
417.81	229.73
418.18	230.96
418.55	232.27
418.93	233.62
419.30	235.08
419.67	236.56
420.04	238.10
420.42	239.61
420.79	241.73
421.16	243.58
421.54	245.65
421.91	247.72
422.28	249.69
422.66	251.82
423.03	254.16
423.40	256.35
423.77	258.78
424.15	261.16
424.52	263.66
424.89	266.54
425.26	269.14
425.64	271.67
426.01	274.42
426.38	277.31
426.75	280.23
427.13	283.20
427.50	286.39
427.87	289.73
428.24	293.01
428.61	295.92
428.99	299.46
429.36	303.12
429.73	306.80
430.10	310.63
430.47	314.49
430.85	318.24
431.22	322.36
431.59	326.77
431.96	330.88
432.33	335.49
432.70	339.72
433.08	344.90
433.45	349.72
433.82	354.50
434.19	359.89
434.56	365.34
434.93	370.36
435.30	375.45
435.68	380.97
436.05	386.47
436.42	391.98
436.79	396.90
437.16	402.33
437.53	408.03
437.90	413.50
438.27	419.06
438.64	424.74
439.01	430.15
439.38	434.77
439.75	439.40
440.13	444.65
440.50	449.73
440.87	453.79
441.24	458.04
441.61	462.72
441.98	466.03
442.35	469.73
442.72	473.73
443.09	477.58
443.46	479.84
443.83	481.32
444.20	482.64
444.57	484.49
444.94	485.24
445.31	486.19
445.68	487.52
446.05	487.72
446.42	487.13
446.79	486.35
447.16	485.51
447.53	484.92
447.90	482.61
448.27	480.34
448.64	477.29
449.01	475.02
449.37	471.05
449.74	467.26
450.11	463.10
450.48	458.15
450.85	453.16
451.22	448.90
451.59	444.91
451.96	441.07
452.33	435.98
452.70	431.41
453.07	425.95
453.43	419.92
453.80	414.57
454.17	409.44
454.54	404.58
454.91	399.52
455.28	394.37
455.65	389.69
456.02	385.40
456.38	381.39
456.75	376.45
457.12	372.42
457.49	368.50
457.86	364.32
458.23	361.17
458.59	357.52
458.96	353.92
459.33	350.63
459.70	347.41
460.07	344.87
460.43	341.77
460.80	338.96
461.17	336.54
461.54	334.01
461.91	331.57
462.27	329.09
462.64	326.84
463.01	324.63
463.38	322.47
463.74	319.72
464.11	317.69
464.48	315.92
464.85	314.02
465.21	312.61
465.58	311.14
465.95	309.28
466.32	307.77
466.68	306.20
467.05	304.76
467.42	303.19
467.78	301.64
468.15	300.30
468.52	299.22
468.88	297.70
469.25	296.50
469.62	295.53
469.98	294.50
470.35	293.59
470.72	292.58
471.08	291.65
471.45	290.96
471.82	290.27
472.18	289.50
472.55	289.01
472.92	288.21
473.28	287.69
473.65	287.12
474.02	286.56
474.38	286.21
474.75	285.90
475.11	285.50
475.48	285.27
475.85	285.05
476.21	284.86
476.58	284.80
476.94	284.79
477.31	284.77
477.67	284.73
478.04	284.84
478.41	285.09
478.77	285.54
479.14	285.65
479.50	285.94
479.87	286.21
480.23	286.54
480.60	286.91
480.96	287.29
481.33	287.93
481.69	288.48
482.06	289.10
482.42	289.78
482.79	290.55
483.15	291.41
483.52	292.48
483.88	293.44
484.25	294.45
484.61	295.60
484.98	296.77
485.34	298.30
485.71	299.68
486.07	301.07
486.44	302.27
486.80	303.90
487.17	305.60
487.53	307.72
487.90	309.79
488.26	312.16
488.62	314.51
488.99	316.81
489.35	319.41
489.72	322.03
490.08	324.80
490.44	327.63
490.81	330.71
491.17	333.82
491.54	337.21
491.90	340.79
492.26	344.46
492.63	348.34
492.99	352.37
493.36	356.81
493.72	361.48
494.08	366.16
494.45	371.26
494.81	376.52
495.17	381.73
495.54	387.49
495.90	393.11
496.26	399.17
496.63	405.56
496.99	412.12
497.35	419.00
497.72	426.10
498.08	433.66
498.44	441.29
498.80	449.53
499.17	457.92
499.53	466.61
499.89	475.72
500.26	485.02
500.62	494.55
500.98	504.51
501.34	514.71
501.71	525.50
502.07	536.36
502.43	547.62
502.79	559.18
503.16	571.14
503.52	583.38
503.88	595.97
504.24	609.07
504.60	622.57
504.97	636.50
505.33	650.57
505.69	665.61
506.05	680.64
506.41	695.97
506.78	711.56
507.14	727.62
507.50	743.81
507.86	760.53
508.22	777.69
508.59	794.97
508.95	812.82
509.31	830.98
509.67	849.70
510.03	868.57
510.39	888.19
510.75	907.93
511.12	928.04
511.48	948.29
511.84	968.89
512.20	989.46
512.56	1010.66
512.92	1032.25
513.28	1053.74
513.64	1075.84
514.00	1097.85
514.37	1120.12
514.73	1143.08
515.09	1166.05
515.45	1188.85
515.81	1211.66
516.17	1234.80
516.53	1258.11
516.89	1281.66
517.25	1305.19
517.61	1328.88
517.97	1352.37
518.33	1375.67
518.69	1399.63
519.05	1423.83
519.41	1448.00
519.77	1472.80
520.13	1496.73
520.49	1520.50
520.85	1544.74
521.21	1568.98
521.57	1593.35
521.93	1617.04
522.29	1641.25
522.65	1665.78
523.01	1690.26
523.37	1714.09
523.73	1738.31
524.09	1762.17
524.45	1786.12
524.81	1809.95
525.17	1834.03
525.53	1857.81
525.89	1882.06
526.25	1905.43
526.61	1927.89
526.97	1950.60
527.33	1972.99
527.68	1995.89
528.04	2018.19
528.40	2039.71
528.76	2061.37
529.12	2083.59
529.48	2106.15
529.84	2127.86
530.20	2148.90
530.56	2170.07
530.91	2192.11
531.27	2213.42
531.63	2234.20
531.99	2254.69
532.35	2274.53
532.71	2294.05
533.07	2314.16
533.42	2332.92
533.78	2352.34
534.14	2371.82
534.50	2389.45
534.86	2408.10
535.21	2425.33
535.57	2443.69
535.93	2461.09
536.29	2478.25
536.65	2494.92
537.00	2510.64
537.36	2526.00
537.72	2541.13
538.08	2556.15
538.44	2570.72
538.79	2585.37
539.15	2599.84
539.51	2613.86
539.87	2628.57
540.22	2642.60
540.58	2656.37
540.94	2669.80
541.29	2681.56
541.65	2693.06
542.01	2705.18
542.37	2716.25
542.72	2728.10
543.08	2738.25
543.44	2749.64
543.79	2758.98
544.15	2767.93
544.51	2778.25
544.87	2788.20
545.22	2797.26
545.58	2805.16
545.94	2812.14
546.29	2818.65
546.65	2824.99
547.01	2831.10
547.36	2836.71
547.72	2841.99
548.07	2846.45
548.43	2850.66
548.79	2854.67
549.14	2858.96
549.50	2862.93
549.86	2865.78
550.21	2868.43
550.57	2872.23
550.92	2873.29
551.28	2875.56
551.64	2877.56
551.99	2879.41
552.35	2879.94
552.70	2880.94
553.06	2882.33
553.41	2883.58
553.77	2884.11
554.13	2884.77
554.48	2885.46
554.84	2886.26
555.19	2885.77
555.55	2884.64
555.90	2883.36
556.26	2882.45
556.61	2880.51
556.97	2878.54
557.32	2877.27
557.68	2874.69
558.03	2871.63
558.39	2869.65
558.74	2868.13
559.10	2866.42
559.45	2863.47
559.81	2861.26
560.16	2857.91
560.52	2855.06
560.87	2852.10
561.23	2848.38
561.58	2845.12
561.94	2840.54
562.29	2835.02
562.64	2831.31
563.00	2827.62
563.35	2824.58
563.71	2821.88
564.06	2818.71
564.42	2815.87
564.77	2812.43
565.12	2809.31
565.48	2805.61
565.83	2802.21
566.19	2798.53
566.54	2793.11
566.89	2788.21
567.25	2783.32
567.60	2779.13
567.96	2774.15
568.31	2769.40
568.66	2764.49
569.02	2758.75
569.37	2752.75
569.72	2747.74
570.08	2741.65
570.43	2735.50
570.78	2728.89
571.14	2721.41
571.49	2714.40
571.84	2707.87
572.20	2700.09
572.55	2693.19
572.90	2685.65
573.26	2677.34
573.61	2668.90
573.96	2660.96
574.31	2651.83
574.67	2642.88
575.02	2633.38
575.37	2624.06
575.72	2614.28
576.08	2605.82
576.43	2596.53
576.78	2588.05
577.13	2579.51
577.49	2571.03
577.84	2562.11
578.19	2553.66
578.54	2545.85
578.90	2538.12
579.25	2528.82
579.60	2519.27
579.95	2509.43
580.30	2501.04
580.66	2492.93
581.01	2483.50
581.36	2474.37
581.71	2465.81
582.06	2456.93
582.42	2448.59
582.77	2439.44
583.12	2430.38
583.47	2421.81
583.82	2413.51
584.17	2404.90
584.53	2396.14
584.88	2387.12
585.23	2377.89
585.58	2369.01
585.93	2359.35
586.28	2350.28
586.63	2341.33
586.98	2333.22
587.34	2325.35
587.69	2316.05
588.04	2307.07
588.39	2298.89
588.74	2289.88
589.09	2281.72
589.44	2272.85
589.79	2264.64
590.14	2256.67
590.49	2248.16
590.84	2239.41
591.19	2231.61
591.54	2223.03
591.89	2213.11
592.25	2203.79
592.60	2195.23
592.95	2185.57
593.30	2175.70
593.65	2166.00
594.00	2156.95
594.35	2149.55
594.70	2140.33
595.05	2131.88
595.40	2122.99
595.75	2113.38
596.10	2105.46
596.45	2096.87
596.80	2088.97
597.15	2080.74
597.50	2072.14
597.85	2064.09
598.19	2055.13
598.54	2046.45
598.89	2038.33
599.24	2031.32
599.59	2023.87
599.94	2016.80
600.29	2009.37
600.64	2002.40
600.99	1994.36
601.34	1986.88
601.69	1977.47
602.04	1969.14
602.39	1960.94
602.74	1953.10
603.08	1946.33
603.43	1939.01
603.78	1931.38
604.13	1923.35
604.48	1915.44
604.83	1908.81
605.18	1902.10
605.53	1894.74
605.87	1886.80
606.22	1879.71
606.57	1871.97
606.92	1864.05
607.27	1855.56
607.62	1847.48
607.96	1839.96
608.31	1832.91
608.66	1824.59
609.01	1816.54
609.36	1808.60
609.70	1800.22
610.05	1791.52
610.40	1783.32
610.75	1774.58
611.10	1766.61
611.44	1757.65
611.79	1748.33
612.14	1738.53
612.49	1728.44
612.83	1719.65
613.18	1710.51
613.53	1700.79
613.88	1691.14
614.22	1682.26
614.57	1673.08
614.92	1664.21
615.27	1654.79
615.61	1645.27
615.96	1636.55
616.31	1628.14
616.65	1620.06
617.00	1611.73
617.35	1603.54
617.70	1594.18
618.04	1584.67
618.39	1574.95
618.74	1566.64
619.08	1557.89
619.43	1549.15
619.78	1540.83
620.12	1532.21
620.47	1523.76
620.82	1514.77
621.16	1505.95
621.51	1496.93
621.85	1488.33
622.20	1479.28
622.55	1470.36
622.89	1461.61
623.24	1452.90
623.59	1443.63
623.93	1434.61
624.28	1425.79
624.62	1417.12
624.97	1408.96
625.32	1401.21
625.66	1393.23
626.01	1384.87
626.35	1377.25
626.70	1369.25
627.04	1361.68
627.39	1353.91
627.73	1345.78
628.08	1338.72
628.43	1330.48
628.77	1322.65
629.12	1314.74
629.46	1307.62
629.81	1300.41
630.15	1292.95
630.50	1285.09
630.84	1277.54
631.19	1269.88
631.53	1262.49
631.88	1254.37
632.22	1246.28
632.57	1238.72
632.91	1230.85
633.26	1223.37
633.60	1215.62
633.95	1208.41
634.29	1200.54
634.64	1193.18
634.98	1185.38
635.32	1177.82
635.67	1171.28
636.01	1164.29
636.36	1156.92
636.70	1149.80
637.05	1142.56
637.39	1135.65
637.73	1129.33
638.08	1123.30
638.42	1116.95
638.77	1110.27
639.11	1103.68
639.45	1096.99
639.80	1090.00
640.14	1083.23
640.49	1076.35
640.83	1069.52
641.17	1062.55
641.52	1055.67
641.86	1048.34
642.20	1041.64
642.55	1034.40
642.89	1027.12
643.23	1019.85
643.58	1013.63
643.92	1006.42
644.26	999.70
644.61	992.86
644.95	985.65
645.29	978.31
645.64	971.16
645.98	964.40
646.32	958.27
646.66	951.58
647.01	944.94
647.35	938.81
647.69	931.93
648.04	925.36
648.38	918.85
648.72	912.70
649.06	906.27
649.41	900.10
649.75	893.73
650.09	887.82
650.43	881.63
650.78	874.85
651.12	868.51
651.46	862.27
651.80	856.20
652.14	849.96
652.49	843.75
652.83	837.70
653.17	831.01
653.51	824.46
653.85	818.50
654.20	812.59
654.54	806.04
654.88	800.24
655.22	794.15
655.56	788.01
655.90	781.88
656.25	775.91
656.59	769.98
656.93	764.32
657.27	758.61
657.61	752.86
657.95	747.10
658.29	741.74
658.64	736.42
658.98	730.72
659.32	725.03
659.66	719.62
660.00	714.10
660.34	708.77
660.68	703.21
661.02	697.72
661.36	692.39
661.70	687.39
662.05	682.26
662.39	677.57
662.73	672.86
663.07	668.16
663.41	663.54
663.75	658.63
664.09	653.69
664.43	648.57
664.77	643.86
665.11	639.38
665.45	634.69
665.79	629.94
666.13	625.41
666.47	621.14
666.81	616.67
667.15	612.07
667.49	608.13
667.83	604.19
668.17	600.02
668.51	595.99
668.85	591.94
669.19	588.27
669.53	584.12
669.87	580.05
670.21	575.98
670.55	571.90
670.89	568.42
671.23	564.98
671.57	561.45
671.91	557.63
672.25	553.97
672.58	550.38
672.92	546.74
673.26	543.31
673.60	539.79
673.94	536.39
674.28	533.00
674.62	529.55
674.96	526.27
675.30	522.98
675.64	519.66
675.97	516.50
676.31	513.13
676.65	509.99
676.99	507.09
677.33	504.01
677.67	501.01
678.01	497.67
678.34	494.51
678.68	491.50
679.02	488.59
679.36	485.71
679.70	482.75
680.04	479.89
680.37	476.91
680.71	474.02
681.05	471.30
681.39	468.50
681.73	465.66
682.06	462.97
682.40	460.35
682.74	457.71
683.08	454.98
683.42	452.21
683.75	449.58
684.09	446.78
684.43	444.01
684.77	441.19
685.10	438.54
685.44	435.78
685.78	433.16
686.12	430.77
686.45	428.21
686.79	425.74
687.13	423.33
687.46	421.05
687.80	418.69
688.14	416.16
688.48	413.91
688.81	411.52
689.15	409.18
689.49	406.77
689.82	404.38
690.16	401.79
690.50	399.42
690.83	397.03
691.17	394.53
691.51	392.35
691.84	390.39
692.18	388.40
692.52	386.50
692.85	384.60
693.19	382.65
693.52	380.65
693.86	378.50
694.20	376.54
694.53	374.45
694.87	372.44
695.21	370.51
695.54	368.51
695.88	366.48
696.21	364.50
696.55	362.84
696.88	360.97
697.22	359.34
697.56	357.70
697.89	355.96
698.23	354.35
698.56	352.60
698.90	350.98
699.23	349.14
699.57	347.33
699.90	345.55
700.24	343.73
700.58	342.06
700.91	340.57
701.25	339.18
701.58	337.55
701.92	336.07
702.25	334.52
702.59	333.05
702.92	331.62
703.26	330.11
703.59	328.56
703.93	327.43
704.26	326.01
704.60	324.57
704.93	323.14
705.26	321.70
705.60	320.50
705.93	318.98
706.27	317.92
706.60	316.76
706.94	315.67
707.27	314.38
707.61	313.13
707.94	311.82
708.27	310.35
708.61	309.16
708.94	307.93
709.28	306.74
709.61	305.43
709.94	304.37
710.28	303.26
710.61	302.18
710.95	300.75
711.28	299.91
711.61	298.81
711.95	298.00
712.28	297.10
712.61	296.05
712.95	295.22
713.28	294.25
713.61	293.28
713.95	292.23
714.28	291.27
714.61	290.35
714.95	289.45
715.28	288.41
715.61	287.47
715.95	286.55
716.28	285.63
716.61	284.91
716.95	283.96
717.28	283.12
717.61	282.32
717.94	281.55
718.28	280.49
718.61	279.73
718.94	278.76
719.27	277.86
719.61	277.00
719.94	276.23
720.27	275.27
720.60	274.39
720.94	273.60
721.27	273.00
721.60	272.29
721.93	271.54
722.27	271.01
722.60	270.39
722.93	269.72
723.26	269.10
723.59	268.36
723.93	267.75
724.26	267.10
724.59	266.36
724.92	265.79
725.25	265.19
725.59	264.58
725.92	264.07
726.25	263.58
726.58	263.08
726.91	262.51
727.24	262.03
727.57	261.56
727.91	260.95
728.24	260.35
728.57	259.73
728.90	259.33
729.23	258.74
729.56	258.42
729.89	257.92
730.22	257.40
730.55	256.90
730.89	256.41
731.22	255.86
731.55	255.44
731.88	255.04
732.21	254.54
732.54	253.99
732.87	253.49
733.20	252.94
733.53	252.39
733.86	251.90
734.19	251.46
734.52	251.04
734.85	250.91
735.18	250.47
735.51	250.10
735.84	249.65
736.17	249.34
736.50	248.71
736.83	248.69
737.16	248.22
737.49	247.89
737.82	247.39
738.15	247.09
738.48	246.69
738.81	246.18
739.14	245.78
739.47	245.40
739.80	245.00
740.13	244.70
740.46	244.34
740.79	243.91
741.12	243.46
741.45	242.98
741.78	242.35
742.11	242.09
742.44	241.71
742.77	241.36
743.10	240.97
743.43	240.65
743.75	240.01
744.08	240.17
744.41	239.75
744.74	239.50
745.07	239.15
745.40	238.85
745.73	238.75
746.06	238.43
746.39	238.18
746.71	237.80
747.04	237.48
747.37	237.17
747.70	236.95
748.03	236.66
748.36	236.47
748.68	236.28
749.01	235.88
749.34	235.63
749.67	235.41
750.00	235.18
750.33	235.14
750.65	234.83
750.98	234.14
751.31	233.96
751.64	233.69
751.97	233.60
752.29	233.39
752.62	232.89
752.95	232.64
753.28	232.36
753.60	232.13
753.93	232.00
754.26	231.83
754.59	231.50
754.91	231.31
755.24	231.13
755.57	230.86
755.90	230.70
756.22	230.48
756.55	230.19
756.88	229.88
757.20	229.32
757.53	228.90
757.86	228.69
758.19	228.46
758.51	228.22
758.84	227.76
759.17	227.50
759.49	227.38
759.82	227.25
760.15	227.05
760.47	226.85
760.80	226.48
761.13	226.36
761.45	226.15
761.78	225.97
762.11	225.70
762.43	225.45
762.76	225.19
763.08	225.00
763.41	224.85
763.74	224.71
764.06	224.64
764.39	224.58
764.71	224.44
765.04	224.27
765.37	224.17
765.69	224.04
766.02	223.88
766.34	223.67
766.67	223.50
767.00	223.42
767.32	223.51
767.65	223.55
767.97	223.38
768.30	223.30
768.62	223.17
768.95	223.00
769.27	222.84
769.60	222.79
769.92	222.64
770.25	222.47
770.57	222.34
770.90	222.14
771.22	222.04
771.55	221.90
771.87	221.76
772.20	221.64
772.52	221.88
772.85	222.18
773.17	222.12
773.50	222.00
773.82	221.87
774.15	221.55
774.47	221.30
774.80	221.08
775.12	220.95
775.45	220.76
775.77	220.77
776.09	220.70
776.42	220.62
776.74	220.62
777.07	220.48
777.39	220.36
777.72	220.29
778.04	220.27
778.36	220.12
778.69	220.07
779.01	219.97
779.33	219.54
779.66	219.05
779.98	218.95
780.31	218.86
780.63	218.87
780.95	218.93
781.28	218.81
781.60	218.78
781.92	218.66
782.25	218.60
782.57	218.50
782.89	218.42
783.22	218.26
783.54	218.09
783.86	218.01
784.19	217.93
784.51	217.97
784.83	217.76
785.16	217.74
785.48	217.69
785.80	217.60
786.12	217.67
