SpectraSuite Data File
++++++++++++++++++++++++++++++++++++
Date: Mon Feb 25 17:01:31 EST 2013
User: group
Dark Spectrum Present: No
Reference Spectrum Present: No
Number of Sampled Component Spectra: 1
Spectrometers: USB2E7196
Integration Time (usec): 104000 (USB2E7196)
Spectra Averaged: 20 (USB2E7196)
Boxcar Smoothing: 10 (USB2E7196)
Correct for Electrical Dark: No (USB2E7196)
Strobe/Lamp Enabled: No (USB2E7196)
Correct for Detector Non-linearity: No (USB2E7196)
Correct for Stray Light: No (USB2E7196)
Number of Pixels in Processed Spectrum: 2048
>>>>>Begin Processed Spectral Data<<<<<
339.09	0.00
339.48	198.70
339.86	200.20
340.24	201.65
340.63	202.20
341.01	209.30
341.39	205.25
341.78	207.35
342.16	209.05
342.54	209.90
342.93	198.33
343.31	208.35
343.69	208.93
344.07	209.45
344.46	209.96
344.84	210.46
345.22	210.51
345.60	210.82
345.99	211.02
346.37	211.11
346.75	211.15
347.13	211.27
347.52	211.48
347.90	211.63
348.28	211.62
348.66	211.81
349.05	211.66
349.43	211.59
349.81	211.66
350.19	211.73
350.57	211.78
350.96	211.80
351.34	211.88
351.72	211.93
352.10	211.91
352.48	211.85
352.87	211.80
353.25	211.87
353.63	211.90
354.01	211.88
354.39	211.93
354.77	211.96
355.15	212.09
355.54	212.06
355.92	211.90
356.30	211.96
356.68	212.13
357.06	212.25
357.44	212.28
357.82	212.33
358.20	212.32
358.58	212.36
358.97	212.37
359.35	212.42
359.73	212.52
360.11	212.55
360.49	212.62
360.87	212.64
361.25	212.74
361.63	212.84
362.01	212.90
362.39	212.86
362.77	212.90
363.15	212.88
363.53	212.94
363.91	213.02
364.29	213.07
364.67	212.71
365.05	212.66
365.43	212.64
365.81	212.67
366.19	212.78
366.57	212.86
366.95	212.88
367.33	212.81
367.71	212.71
368.09	212.82
368.47	212.80
368.85	212.81
369.23	212.76
369.61	212.60
369.99	212.65
370.37	212.72
370.75	212.90
371.13	212.74
371.51	212.69
371.89	212.63
372.27	212.64
372.65	212.60
373.03	212.64
373.41	212.59
373.78	212.58
374.16	212.37
374.54	212.25
374.92	212.17
375.30	212.20
375.68	212.21
376.06	212.16
376.44	212.06
376.82	212.00
377.19	211.91
377.57	211.89
377.95	211.73
378.33	211.69
378.71	211.41
379.09	211.46
379.47	211.42
379.84	211.39
380.22	211.24
380.60	211.20
380.98	211.13
381.36	211.09
381.73	210.92
382.11	210.99
382.49	210.96
382.87	210.89
383.25	210.75
383.62	211.06
384.00	210.97
384.38	210.96
384.76	210.97
385.13	211.12
385.51	211.15
385.89	211.08
386.27	211.00
386.64	211.09
387.02	211.05
387.40	210.99
387.78	211.01
388.15	211.05
388.53	211.00
388.91	210.96
389.29	210.92
389.66	210.93
390.04	210.82
390.42	210.87
390.79	210.91
391.17	210.90
391.55	210.48
391.92	210.45
392.30	210.49
392.68	210.44
393.05	210.40
393.43	210.41
393.81	210.48
394.18	210.41
394.56	210.35
394.94	210.38
395.31	210.40
395.69	210.55
396.06	210.57
396.44	210.59
396.82	210.57
397.19	210.81
397.57	210.87
397.95	210.90
398.32	210.72
398.70	210.74
399.07	210.83
399.45	210.80
399.82	210.84
400.20	210.83
400.58	210.80
400.95	210.73
401.33	210.75
401.70	211.02
402.08	211.12
402.45	211.20
402.83	211.30
403.20	211.36
403.58	211.30
403.95	211.46
404.33	211.60
404.71	211.75
405.08	212.05
405.46	212.15
405.83	212.43
406.21	212.66
406.58	212.87
406.96	213.12
407.33	213.40
407.70	213.63
408.08	214.18
408.45	214.60
408.83	214.93
409.20	215.24
409.58	215.32
409.95	215.76
410.33	216.15
410.70	216.51
411.08	217.01
411.45	217.46
411.82	218.00
412.20	218.64
412.57	219.32
412.95	219.65
413.32	220.43
413.69	221.06
414.07	221.90
414.44	222.75
414.82	223.59
415.19	224.66
415.56	225.67
415.94	226.53
416.31	227.77
416.68	229.01
417.06	230.45
417.43	231.95
417.81	233.53
418.18	235.14
418.55	236.86
418.93	238.76
419.30	240.75
419.67	242.67
420.04	244.71
420.42	246.92
420.79	249.65
421.16	252.12
421.54	254.95
421.91	257.69
422.28	260.53
422.66	263.58
423.03	266.64
423.40	269.80
423.77	273.18
424.15	276.44
424.52	279.92
424.89	283.82
425.26	287.44
425.64	290.97
426.01	294.83
426.38	298.95
426.75	302.99
427.13	307.26
427.50	311.80
427.87	316.57
428.24	321.31
428.61	325.68
428.99	330.72
429.36	335.98
429.73	341.34
430.10	346.73
430.47	352.20
430.85	357.81
431.22	363.89
431.59	370.40
431.96	376.59
432.33	383.43
432.70	390.11
433.08	397.94
433.45	405.27
433.82	412.71
434.19	420.80
434.56	428.94
434.93	436.62
435.30	444.35
435.68	452.90
436.05	461.51
436.42	470.03
436.79	477.86
437.16	486.26
437.53	495.18
437.90	504.05
438.27	512.87
438.64	521.98
439.01	530.56
439.38	538.09
439.75	545.63
440.13	554.21
440.50	562.10
440.87	568.73
441.24	575.61
441.61	583.10
441.98	588.78
442.35	595.29
442.72	602.13
443.09	608.73
443.46	612.93
443.83	615.83
444.20	618.49
444.57	622.10
444.94	624.25
445.31	626.35
445.68	628.53
446.05	629.80
446.42	629.44
446.79	628.97
447.16	628.48
447.53	628.38
447.90	625.63
448.27	622.97
448.64	619.04
449.01	616.42
449.37	611.32
449.74	606.39
450.11	600.42
450.48	593.54
450.85	586.45
451.22	580.55
451.59	574.90
451.96	569.57
452.33	562.25
452.70	555.51
453.07	547.36
453.43	539.01
453.80	531.05
454.17	523.59
454.54	516.36
454.91	508.53
455.28	500.68
455.65	493.53
456.02	486.78
456.38	480.73
456.75	473.08
457.12	466.68
457.49	460.42
457.86	454.27
458.23	449.07
458.59	443.37
458.96	437.47
459.33	432.33
459.70	427.09
460.07	422.90
460.43	418.10
460.80	413.71
461.17	409.72
461.54	405.54
461.91	401.64
462.27	397.64
462.64	394.27
463.01	390.58
463.38	387.02
463.74	383.04
464.11	379.78
464.48	377.11
464.85	374.10
465.21	371.83
465.58	369.28
465.95	366.31
466.32	363.86
466.68	361.49
467.05	358.99
467.42	356.50
467.78	353.85
468.15	351.46
468.52	349.60
468.88	347.26
469.25	345.16
469.62	343.36
469.98	341.43
470.35	339.70
470.72	337.98
471.08	336.17
471.45	334.66
471.82	333.21
472.18	331.39
472.55	330.09
472.92	328.59
473.28	327.28
473.65	326.00
474.02	324.69
474.38	323.67
474.75	322.74
475.11	321.81
475.48	321.07
475.85	320.39
476.21	319.65
476.58	319.00
476.94	318.62
477.31	318.09
477.67	317.64
478.04	317.17
478.41	316.89
478.77	316.92
479.14	316.58
479.50	316.34
479.87	316.29
480.23	316.17
480.60	315.91
480.96	315.73
481.33	315.95
481.69	316.15
482.06	316.12
482.42	316.11
482.79	316.20
483.15	316.41
483.52	316.75
483.88	317.04
484.25	317.38
484.61	317.70
484.98	318.09
485.34	318.70
485.71	319.31
486.07	319.89
486.44	320.18
486.80	320.76
487.17	321.38
487.53	322.32
487.90	323.28
488.26	324.39
488.62	325.46
488.99	326.32
489.35	327.31
489.72	328.55
490.08	329.85
490.44	331.02
490.81	332.32
491.17	333.64
491.54	335.07
491.90	336.45
492.26	337.89
492.63	339.40
492.99	340.84
493.36	342.46
493.72	344.20
494.08	345.93
494.45	347.85
494.81	349.88
495.17	351.70
495.54	353.60
495.90	355.50
496.26	357.37
496.63	359.39
496.99	361.56
497.35	363.63
497.72	365.71
498.08	367.91
498.44	370.11
498.80	372.40
499.17	374.60
499.53	376.82
499.89	379.12
500.26	381.24
500.62	383.41
500.98	385.64
501.34	387.85
501.71	390.21
502.07	392.35
502.43	394.40
502.79	396.42
503.16	398.47
503.52	400.43
503.88	402.45
504.24	404.49
504.60	406.38
504.97	408.34
505.33	410.33
505.69	412.43
506.05	414.22
506.41	415.79
506.78	417.40
507.14	419.02
507.50	420.51
507.86	422.24
508.22	423.81
508.59	425.11
508.95	426.45
509.31	427.69
509.67	428.88
510.03	430.07
510.39	431.31
510.75	432.64
511.12	433.81
511.48	434.84
511.84	435.74
512.20	436.57
512.56	437.38
512.92	438.08
513.28	438.65
513.64	439.26
514.00	439.93
514.37	440.58
514.73	441.20
515.09	441.79
515.45	442.05
515.81	442.34
516.17	442.69
516.53	442.92
516.89	443.00
517.25	443.11
517.61	443.28
517.97	443.31
518.33	443.13
518.69	443.10
519.05	443.19
519.41	443.24
519.77	443.44
520.13	443.22
520.49	443.06
520.85	442.97
521.21	443.00
521.57	442.97
521.93	442.69
522.29	442.42
522.65	442.17
523.01	442.18
523.37	442.03
523.73	442.05
524.09	441.91
524.45	441.85
524.81	441.96
525.17	442.04
525.53	442.23
525.89	442.37
526.25	442.54
526.61	442.57
526.97	442.71
527.33	442.85
527.68	443.59
528.04	443.98
528.40	444.16
528.76	444.69
529.12	445.20
529.48	445.96
529.84	446.59
530.20	447.35
530.56	448.05
530.91	448.96
531.27	449.63
531.63	450.71
531.99	451.81
532.35	452.78
532.71	453.78
533.07	454.96
533.42	456.39
533.78	457.47
534.14	458.80
534.50	460.08
534.86	461.41
535.21	462.46
535.57	464.00
535.93	465.57
536.29	467.02
536.65	468.51
537.00	469.82
537.36	471.40
537.72	472.94
538.08	474.69
538.44	476.35
538.79	478.30
539.15	480.06
539.51	481.98
539.87	483.92
540.22	485.86
540.58	487.84
540.94	489.73
541.29	491.99
541.65	493.95
542.01	496.10
542.37	498.28
542.72	500.57
543.08	502.73
543.44	505.25
543.79	507.40
544.15	509.87
544.51	512.60
544.87	515.27
545.22	517.97
545.58	520.61
545.94	523.20
546.29	525.70
546.65	528.29
547.01	530.80
547.36	533.54
547.72	536.16
548.07	538.77
548.43	541.36
548.79	543.87
549.14	546.64
549.50	549.44
549.86	552.03
550.21	554.65
550.57	557.50
550.92	559.97
551.28	562.89
551.64	565.53
551.99	568.21
552.35	570.69
552.70	573.30
553.06	575.80
553.41	578.40
553.77	581.20
554.13	583.87
554.48	586.64
554.84	589.28
555.19	591.89
555.55	594.58
555.90	597.02
556.26	599.69
556.61	602.08
556.97	604.45
557.32	607.07
557.68	609.60
558.03	611.95
558.39	614.27
558.74	616.62
559.10	619.04
559.45	621.42
559.81	624.06
560.16	626.18
560.52	628.55
560.87	630.93
561.23	633.12
561.58	635.72
561.94	637.82
562.29	639.85
562.64	642.15
563.00	644.26
563.35	646.55
563.71	648.92
564.06	651.26
564.42	653.58
564.77	655.72
565.12	657.93
565.48	660.26
565.83	662.63
566.19	664.67
566.54	666.64
566.89	668.55
567.25	670.57
567.60	672.87
567.96	675.12
568.31	677.26
568.66	679.05
569.02	680.35
569.37	681.93
569.72	683.65
570.08	685.21
570.43	686.77
570.78	688.13
571.14	689.05
571.49	690.31
571.84	691.42
572.20	692.29
572.55	693.09
572.90	693.82
573.26	694.40
573.61	695.05
573.96	695.80
574.31	696.42
574.67	696.81
575.02	696.82
575.37	696.59
575.72	696.35
576.08	696.66
576.43	696.81
576.78	696.98
577.13	697.21
577.49	697.46
577.84	697.29
578.19	697.58
578.54	698.05
578.90	698.21
579.25	698.23
579.60	698.21
579.95	698.07
580.30	698.05
580.66	698.10
581.01	697.94
581.36	697.64
581.71	697.39
582.06	697.28
582.42	697.34
582.77	697.35
583.12	697.32
583.47	697.10
583.82	696.93
584.17	696.70
584.53	696.59
584.88	695.95
585.23	695.80
585.58	695.33
585.93	694.72
586.28	694.29
586.63	693.91
586.98	693.59
587.34	693.36
587.69	692.78
588.04	692.28
588.39	691.99
588.74	691.41
589.09	691.02
589.44	690.30
589.79	689.57
590.14	688.89
590.49	688.24
590.84	687.43
591.19	686.98
591.54	686.34
591.89	685.12
592.25	684.76
592.60	683.66
592.95	682.64
593.30	681.55
593.65	680.42
594.00	679.13
594.35	679.00
594.70	677.90
595.05	676.92
595.40	675.85
595.75	674.39
596.10	673.50
596.45	672.35
596.80	671.35
597.15	670.53
597.50	669.26
597.85	668.31
598.19	667.18
598.54	665.98
598.89	664.75
599.24	664.04
599.59	662.57
599.94	661.72
600.29	660.67
600.64	659.71
600.99	658.56
601.34	657.65
601.69	655.49
602.04	654.12
602.39	652.70
602.74	651.50
603.08	650.64
603.43	649.61
603.78	648.40
604.13	646.95
604.48	645.70
604.83	644.93
605.18	643.83
605.53	642.70
605.87	641.46
606.22	640.40
606.57	638.86
606.92	637.49
607.27	635.97
607.62	634.45
607.96	633.15
608.31	632.05
608.66	630.75
609.01	629.42
609.36	628.27
609.70	627.01
610.05	625.50
610.40	623.90
610.75	622.17
611.10	620.65
611.44	618.99
611.79	617.19
612.14	615.42
612.49	613.35
612.83	611.65
613.18	609.66
613.53	607.79
613.88	605.81
614.22	604.02
614.57	602.12
614.92	600.48
615.27	598.55
615.61	596.39
615.96	594.45
616.31	592.69
616.65	590.90
617.00	588.98
617.35	587.03
617.70	585.02
618.04	583.04
618.39	581.05
618.74	579.32
619.08	577.27
619.43	575.29
619.78	573.57
620.12	571.59
620.47	569.94
620.82	567.99
621.16	565.97
621.51	564.28
621.85	562.62
622.20	560.60
622.55	558.64
622.89	556.76
623.24	554.80
623.59	552.69
623.93	550.63
624.28	548.77
624.62	547.34
624.97	545.73
625.32	543.70
625.66	541.84
626.01	539.89
626.35	538.28
626.70	536.22
627.04	534.42
627.39	532.70
627.73	530.79
628.08	529.12
628.43	527.48
628.77	525.56
629.12	523.55
629.46	521.90
629.81	520.04
630.15	518.22
630.50	516.42
630.84	514.78
631.19	512.93
631.53	511.10
631.88	508.89
632.22	506.81
632.57	505.40
632.91	503.55
633.26	501.95
633.60	500.15
633.95	498.61
634.29	496.72
634.64	495.00
634.98	493.12
635.32	491.40
635.67	489.81
636.01	488.12
636.36	486.44
636.70	484.75
637.05	483.13
637.39	481.44
637.73	479.81
638.08	478.29
638.42	476.87
638.77	475.33
639.11	473.86
639.45	472.28
639.80	470.28
640.14	468.55
640.49	466.66
640.83	464.86
641.17	463.16
641.52	461.61
641.86	459.76
642.20	458.18
642.55	456.21
642.89	454.41
643.23	452.70
643.58	451.20
643.92	449.30
644.26	447.54
644.61	445.93
644.95	444.32
645.29	442.53
645.64	440.65
645.98	438.77
646.32	437.14
646.66	435.30
647.01	433.69
647.35	432.15
647.69	430.51
648.04	429.00
648.38	427.34
648.72	425.58
649.06	423.88
649.41	422.16
649.75	420.62
650.09	419.05
650.43	417.28
650.78	415.44
651.12	413.75
651.46	412.22
651.80	410.61
652.14	408.91
652.49	407.40
652.83	405.86
653.17	404.33
653.51	402.54
653.85	401.21
654.20	399.68
654.54	398.06
654.88	396.43
655.22	394.91
655.56	393.18
655.90	391.61
656.25	390.11
656.59	388.59
656.93	387.17
657.27	385.70
657.61	384.15
657.95	382.76
658.29	381.39
658.64	380.03
658.98	378.51
659.32	376.89
659.66	375.27
660.00	373.64
660.34	372.13
660.68	370.63
661.02	369.02
661.36	367.65
661.70	366.24
662.05	364.94
662.39	363.56
662.73	362.45
663.07	361.30
663.41	359.95
663.75	358.57
664.09	357.16
664.43	355.75
664.77	354.57
665.11	353.08
665.45	351.78
665.79	350.40
666.13	349.13
666.47	347.97
666.81	346.71
667.15	345.51
667.49	344.40
667.83	343.28
668.17	342.19
668.51	341.05
668.85	340.06
669.19	339.07
669.53	337.73
669.87	336.42
670.21	335.08
670.55	333.90
670.89	332.99
671.23	331.90
671.57	330.88
671.91	329.82
672.25	328.87
672.58	327.96
672.92	326.87
673.26	325.91
673.60	324.92
673.94	323.90
674.28	323.02
674.62	322.14
674.96	321.08
675.30	320.13
675.64	319.15
675.97	317.99
676.31	316.90
676.65	316.06
676.99	315.41
677.33	314.49
677.67	313.65
678.01	312.59
678.34	311.74
678.68	310.85
679.02	309.87
679.36	309.03
679.70	307.98
680.04	307.15
680.37	306.21
680.71	305.27
681.05	304.49
681.39	303.56
681.73	302.61
682.06	301.81
682.40	300.98
682.74	300.21
683.08	299.63
683.42	298.81
683.75	298.00
684.09	296.93
684.43	296.14
684.77	295.37
685.10	294.54
685.44	293.66
685.78	292.82
686.12	292.12
686.45	291.25
686.79	290.42
687.13	289.72
687.46	288.93
687.80	288.34
688.14	287.58
688.48	286.96
688.81	286.20
689.15	285.56
689.49	284.79
689.82	284.02
690.16	283.10
690.50	282.31
690.83	281.61
691.17	280.87
691.51	280.12
691.84	279.37
692.18	278.70
692.52	278.07
692.85	277.44
693.19	276.81
693.52	276.20
693.86	275.59
694.20	274.82
694.53	274.30
694.87	273.56
695.21	272.83
695.54	272.08
695.88	271.40
696.21	270.67
696.55	270.03
696.88	269.32
697.22	268.75
697.56	268.22
697.89	267.48
698.23	266.92
698.56	266.36
698.90	265.82
699.23	265.21
699.57	264.64
699.90	263.97
700.24	263.35
700.58	262.71
700.91	262.21
701.25	262.05
701.58	261.50
701.92	261.02
702.25	260.51
702.59	260.02
702.92	259.56
703.26	259.08
703.59	258.61
703.93	258.46
704.26	257.94
704.60	257.51
704.93	257.05
705.26	256.56
705.60	256.19
705.93	255.72
706.27	255.40
706.60	254.98
706.94	254.74
707.27	254.21
707.61	253.94
707.94	253.51
708.27	252.75
708.61	252.30
708.94	251.88
709.28	251.53
709.61	251.05
709.94	250.65
710.28	250.23
710.61	249.85
710.95	249.14
711.28	249.00
711.61	248.53
711.95	248.26
712.28	247.90
712.61	247.46
712.95	247.30
713.28	247.03
713.61	246.63
713.95	246.22
714.28	245.91
714.61	245.49
714.95	245.13
715.28	244.74
715.61	244.30
715.95	243.98
716.28	243.54
716.61	243.22
716.95	242.85
717.28	242.54
717.61	242.27
717.94	241.92
718.28	241.33
718.61	241.08
718.94	240.71
719.27	240.33
719.61	240.09
719.94	239.61
720.27	239.00
720.60	238.72
720.94	238.40
721.27	238.10
721.60	237.82
721.93	237.56
722.27	237.45
722.60	237.25
722.93	236.88
723.26	236.67
723.59	236.35
723.93	236.11
724.26	235.92
724.59	235.58
724.92	235.45
725.25	235.33
725.59	235.04
725.92	234.91
726.25	234.75
726.58	234.50
726.91	234.32
727.24	234.35
727.57	234.04
727.91	233.69
728.24	233.57
728.57	233.27
728.90	233.11
729.23	232.80
729.56	232.80
729.89	232.59
730.22	232.33
730.55	232.18
730.89	231.91
731.22	231.61
731.55	231.40
731.88	231.19
732.21	230.94
732.54	230.65
732.87	230.32
733.20	230.08
733.53	229.85
733.86	229.59
734.19	229.27
734.52	229.24
734.85	229.36
735.18	229.06
735.51	229.11
735.84	228.88
736.17	228.77
736.50	228.38
736.83	228.61
737.16	228.47
737.49	228.30
737.82	228.21
738.15	228.13
738.48	227.96
738.81	227.74
739.14	227.50
739.47	227.41
739.80	227.33
740.13	227.22
740.46	227.01
740.79	226.88
741.12	226.82
741.45	226.60
741.78	226.21
742.11	226.26
742.44	225.98
742.77	225.96
743.10	225.75
743.43	225.56
743.75	225.02
744.08	225.38
744.41	225.18
744.74	224.96
745.07	224.72
745.40	224.74
745.73	224.81
746.06	224.72
746.39	224.65
746.71	224.41
747.04	224.23
747.37	224.14
747.70	224.03
748.03	223.85
748.36	223.79
748.68	223.77
749.01	223.47
749.34	223.37
749.67	223.15
750.00	223.09
750.33	223.28
750.65	223.18
750.98	222.59
751.31	222.58
751.64	222.54
751.97	222.64
752.29	222.45
752.62	222.07
752.95	221.95
753.28	221.78
753.60	221.73
753.93	221.72
754.26	221.60
754.59	221.37
754.91	221.19
755.24	221.06
755.57	220.87
755.90	220.77
756.22	220.60
756.55	220.43
756.88	220.25
757.20	219.90
757.53	219.79
757.86	219.71
758.19	219.60
758.51	219.45
758.84	219.25
759.17	219.07
759.49	219.05
759.82	219.15
760.15	219.03
760.47	218.93
760.80	218.72
761.13	218.68
761.45	218.58
761.78	218.53
762.11	218.34
762.43	218.26
762.76	218.13
763.08	218.16
763.41	218.12
763.74	218.07
764.06	218.00
764.39	217.93
764.71	217.83
765.04	217.75
765.37	217.71
765.69	217.59
766.02	217.48
766.34	217.38
766.67	217.08
767.00	217.10
767.32	217.24
767.65	217.42
767.97	217.30
768.30	217.25
768.62	217.22
768.95	217.16
769.27	217.15
769.60	217.18
769.92	216.97
770.25	216.90
770.57	216.80
770.90	216.70
771.22	216.58
771.55	216.51
771.87	216.40
772.20	216.36
772.52	216.51
772.85	216.91
773.17	216.89
773.50	216.90
773.82	216.85
774.15	216.58
774.47	216.30
774.80	216.23
775.12	216.21
775.45	216.06
775.77	216.02
776.09	215.94
776.42	215.87
776.74	216.01
777.07	215.95
777.39	215.90
777.72	215.91
778.04	215.88
778.36	215.86
778.69	215.81
779.01	215.77
779.33	215.49
779.66	215.06
779.98	214.98
780.31	214.99
780.63	215.02
780.95	215.06
781.28	215.01
781.60	214.97
781.92	214.93
782.25	214.97
782.57	215.01
782.89	214.93
783.22	214.87
783.54	214.76
783.86	214.79
784.19	214.73
784.51	214.80
784.83	214.70
785.16	214.64
785.48	214.64
785.80	214.60
786.12	214.60
786.45	214.55
786.77	214.56
787.09	214.45
787.42	214.31
787.74	214.25
788.06	214.26
788.38	214.23
788.71	214.11
789.03	214.09
789.35	214.09
789.67	214.03
789.99	214.04
790.32	213.95
790.64	213.93
790.96	214.16
791.28	213.98
791.61	213.92
791.93	213.94
792.25	213.85
792.57	214.08
792.89	213.97
793.21	213.96
793.54	213.87
793.86	213.84
794.18	213.82
