SpectraSuite Data File
++++++++++++++++++++++++++++++++++++
Date: Mon Feb 25 17:05:56 EST 2013
User: group
Dark Spectrum Present: No
Reference Spectrum Present: No
Number of Sampled Component Spectra: 1
Spectrometers: USB2E7196
Integration Time (usec): 104000 (USB2E7196)
Spectra Averaged: 20 (USB2E7196)
Boxcar Smoothing: 10 (USB2E7196)
Correct for Electrical Dark: No (USB2E7196)
Strobe/Lamp Enabled: No (USB2E7196)
Correct for Detector Non-linearity: No (USB2E7196)
Correct for Stray Light: No (USB2E7196)
Number of Pixels in Processed Spectrum: 2048
>>>>>Begin Processed Spectral Data<<<<<
339.09	0.00
339.48	197.75
339.86	200.30
340.24	200.10
340.63	204.05
341.01	209.50
341.39	205.25
341.78	206.80
342.16	208.55
342.54	207.25
342.93	198.19
343.31	208.22
343.69	208.84
344.07	209.33
344.46	209.87
344.84	210.18
345.22	210.23
345.60	210.52
345.99	210.64
346.37	210.80
346.75	210.94
347.13	210.93
347.52	210.98
347.90	211.07
348.28	211.05
348.66	211.11
349.05	210.96
349.43	210.99
349.81	211.08
350.19	211.09
350.57	211.06
350.96	211.03
351.34	211.03
351.72	211.07
352.10	211.11
352.48	211.15
352.87	211.21
353.25	211.27
353.63	211.30
354.01	211.39
354.39	211.43
354.77	211.49
355.15	211.62
355.54	211.64
355.92	211.51
356.30	211.61
356.68	211.90
357.06	211.99
357.44	212.05
357.82	212.10
358.20	212.18
358.58	212.29
358.97	212.39
359.35	212.58
359.73	212.71
360.11	212.72
360.49	212.76
360.87	212.77
361.25	212.81
361.63	212.95
362.01	213.03
362.39	213.03
362.77	213.07
363.15	213.11
363.53	213.13
363.91	213.26
364.29	213.30
364.67	212.99
365.05	213.01
365.43	213.03
365.81	213.11
366.19	213.28
366.57	213.40
366.95	213.41
367.33	213.25
367.71	213.16
368.09	213.25
368.47	213.15
368.85	213.18
369.23	213.24
369.61	213.12
369.99	213.22
370.37	213.26
370.75	213.43
371.13	213.35
371.51	213.25
371.89	213.24
372.27	213.24
372.65	213.18
373.03	213.19
373.41	213.20
373.78	213.09
374.16	212.91
374.54	212.75
374.92	212.72
375.30	212.73
375.68	212.69
376.06	212.67
376.44	212.69
376.82	212.65
377.19	212.60
377.57	212.50
377.95	212.29
378.33	212.24
378.71	211.96
379.09	211.98
379.47	212.02
379.84	211.89
380.22	211.85
380.60	211.75
380.98	211.64
381.36	211.52
381.73	211.46
382.11	211.43
382.49	211.42
382.87	211.31
383.25	211.25
383.62	211.58
384.00	211.50
384.38	211.46
384.76	211.48
385.13	211.55
385.51	211.52
385.89	211.48
386.27	211.42
386.64	211.50
387.02	211.43
387.40	211.42
387.78	211.39
388.15	211.31
388.53	211.25
388.91	211.18
389.29	211.18
389.66	211.22
390.04	211.17
390.42	211.13
390.79	211.11
391.17	211.12
391.55	210.70
391.92	210.65
392.30	210.69
392.68	210.56
393.05	210.48
393.43	210.47
393.81	210.44
394.18	210.38
394.56	210.41
394.94	210.46
395.31	210.38
395.69	210.48
396.06	210.51
396.44	210.63
396.82	210.67
397.19	210.83
397.57	210.79
397.95	210.86
398.32	210.78
398.70	210.85
399.07	210.94
399.45	210.99
399.82	210.95
400.20	210.91
400.58	210.94
400.95	210.90
401.33	211.00
401.70	211.32
402.08	211.37
402.45	211.36
402.83	211.53
403.20	211.57
403.58	211.59
403.95	211.71
404.33	211.82
404.71	211.87
405.08	212.15
405.46	212.26
405.83	212.30
406.21	212.45
406.58	212.49
406.96	212.50
407.33	212.65
407.70	212.87
408.08	213.36
408.45	213.62
408.83	213.82
409.20	213.96
409.58	213.91
409.95	214.13
410.33	214.39
410.70	214.46
411.08	214.78
411.45	215.05
411.82	215.30
412.20	215.65
412.57	216.23
412.95	216.31
413.32	216.70
413.69	217.05
414.07	217.48
414.44	218.05
414.82	218.60
415.19	219.23
415.56	219.85
415.94	220.31
416.31	221.02
416.68	221.74
417.06	222.59
417.43	223.52
417.81	224.46
418.18	225.53
418.55	226.59
418.93	227.75
419.30	228.91
419.67	230.15
420.04	231.38
420.42	232.68
420.79	234.40
421.16	236.00
421.54	237.79
421.91	239.52
422.28	241.22
422.66	243.01
423.03	244.97
423.40	246.80
423.77	248.71
424.15	250.76
424.52	252.92
424.89	255.30
425.26	257.48
425.64	259.58
426.01	261.82
426.38	264.39
426.75	266.92
427.13	269.46
427.50	272.06
427.87	274.87
428.24	277.56
428.61	280.16
428.99	283.28
429.36	286.36
429.73	289.52
430.10	292.73
430.47	296.12
430.85	299.31
431.22	302.95
431.59	307.01
431.96	310.61
432.33	314.72
432.70	318.68
433.08	323.41
433.45	327.89
433.82	332.27
434.19	337.08
434.56	341.83
434.93	346.51
435.30	351.19
435.68	356.31
436.05	361.39
436.42	366.36
436.79	370.91
437.16	375.92
437.53	381.15
437.90	386.37
438.27	391.55
438.64	396.80
439.01	401.89
439.38	406.07
439.75	410.42
440.13	415.27
440.50	419.89
440.87	423.49
441.24	427.39
441.61	431.73
441.98	434.89
442.35	438.63
442.72	442.36
443.09	446.14
443.46	448.42
443.83	450.12
444.20	451.57
444.57	453.46
444.94	454.64
445.31	455.82
445.68	457.13
446.05	457.72
446.42	457.60
446.79	457.27
447.16	456.98
447.53	456.81
447.90	455.24
448.27	453.53
448.64	451.35
449.01	449.66
449.37	446.40
449.74	443.47
450.11	439.99
450.48	435.80
450.85	431.60
451.22	428.07
451.59	424.61
451.96	421.30
452.33	416.85
452.70	412.77
453.07	407.94
453.43	402.83
453.80	398.12
454.17	393.57
454.54	389.18
454.91	384.49
455.28	379.82
455.65	375.50
456.02	371.66
456.38	367.94
456.75	363.55
457.12	359.91
457.49	356.03
457.86	352.28
458.23	349.49
458.59	346.03
458.96	342.62
459.33	339.62
459.70	336.65
460.07	334.34
460.43	331.51
460.80	328.89
461.17	326.64
461.54	324.16
461.91	321.93
462.27	319.63
462.64	317.63
463.01	315.51
463.38	313.59
463.74	311.14
464.11	309.12
464.48	307.39
464.85	305.58
465.21	304.36
465.58	302.85
465.95	300.86
466.32	299.34
466.68	297.82
467.05	296.38
467.42	294.87
467.78	293.30
468.15	291.87
468.52	290.84
468.88	289.31
469.25	288.17
469.62	287.09
469.98	285.89
470.35	284.82
470.72	283.86
471.08	282.66
471.45	281.73
471.82	281.04
472.18	280.11
472.55	279.41
472.92	278.52
473.28	277.74
473.65	277.10
474.02	276.49
474.38	275.87
474.75	275.31
475.11	274.71
475.48	274.31
475.85	273.88
476.21	273.33
476.58	273.01
476.94	272.64
477.31	272.33
477.67	272.07
478.04	271.80
478.41	271.61
478.77	271.73
479.14	271.39
479.50	271.18
479.87	271.08
480.23	271.04
480.60	270.90
480.96	270.74
481.33	270.83
481.69	270.80
482.06	270.91
482.42	270.86
482.79	270.98
483.15	271.09
483.52	271.35
483.88	271.50
484.25	271.63
484.61	271.79
484.98	271.97
485.34	272.31
485.71	272.66
486.07	272.97
486.44	272.99
486.80	273.46
487.17	273.85
487.53	274.40
487.90	274.89
488.26	275.63
488.62	276.29
488.99	276.79
489.35	277.46
489.72	278.02
490.08	278.64
490.44	279.31
490.81	280.04
491.17	280.75
491.54	281.60
491.90	282.50
492.26	283.27
492.63	284.15
492.99	284.99
493.36	285.93
493.72	286.94
494.08	287.90
494.45	289.05
494.81	290.16
495.17	291.20
495.54	292.38
495.90	293.37
496.26	294.53
496.63	295.80
496.99	296.95
497.35	298.19
497.72	299.64
498.08	300.88
498.44	302.14
498.80	303.51
499.17	304.92
499.53	306.27
499.89	307.84
500.26	309.20
500.62	310.52
500.98	312.07
501.34	313.44
501.71	314.89
502.07	316.19
502.43	317.55
502.79	318.91
503.16	320.18
503.52	321.57
503.88	322.90
504.24	324.24
504.60	325.64
504.97	327.03
505.33	328.37
505.69	329.98
506.05	331.44
506.41	332.81
506.78	334.05
507.14	335.28
507.50	336.52
507.86	337.83
508.22	339.25
508.59	340.47
508.95	341.83
509.31	343.44
509.67	344.80
510.03	346.13
510.39	347.39
510.75	348.83
511.12	350.16
511.48	351.47
511.84	352.77
512.20	353.98
512.56	355.38
512.92	356.69
513.28	358.00
513.64	359.14
514.00	360.22
514.37	361.58
514.73	362.96
515.09	364.29
515.45	365.45
515.81	366.63
516.17	367.76
516.53	368.98
516.89	370.07
517.25	371.34
517.61	372.63
517.97	373.97
518.33	375.26
518.69	376.51
519.05	377.81
519.41	379.09
519.77	380.71
520.13	382.00
520.49	383.22
520.85	384.40
521.21	385.95
521.57	387.52
521.93	388.81
522.29	390.22
522.65	391.59
523.01	393.25
523.37	394.78
523.73	396.46
524.09	398.00
524.45	399.47
524.81	401.10
525.17	402.81
525.53	404.56
525.89	406.25
526.25	408.04
526.61	409.85
526.97	411.73
527.33	413.60
527.68	415.84
528.04	417.88
528.40	419.94
528.76	421.95
529.12	424.05
529.48	426.42
529.84	428.60
530.20	430.86
530.56	433.20
530.91	435.71
531.27	438.11
531.63	440.60
531.99	443.00
532.35	445.44
532.71	447.94
533.07	450.49
533.42	453.43
533.78	456.19
534.14	458.87
534.50	461.31
534.86	463.99
535.21	466.36
535.57	469.13
535.93	471.84
536.29	474.71
536.65	477.57
537.00	480.07
537.36	482.93
537.72	485.67
538.08	488.35
538.44	491.01
538.79	493.80
539.15	496.51
539.51	499.37
539.87	502.18
540.22	505.00
540.58	507.81
540.94	510.30
541.29	513.06
541.65	515.78
542.01	518.96
542.37	521.75
542.72	524.70
543.08	527.47
543.44	530.35
543.79	532.96
544.15	535.85
544.51	538.93
544.87	541.91
545.22	544.89
545.58	547.94
545.94	550.74
546.29	553.51
546.65	556.37
547.01	559.28
547.36	562.10
547.72	564.83
548.07	567.70
548.43	570.33
548.79	572.76
549.14	575.49
549.50	578.15
549.86	580.51
550.21	582.90
550.57	585.59
550.92	588.08
551.28	590.65
551.64	592.94
551.99	595.50
552.35	597.53
552.70	599.87
553.06	602.10
553.41	604.37
553.77	606.71
554.13	608.86
554.48	611.17
554.84	613.60
555.19	615.92
555.55	618.16
555.90	620.31
556.26	622.49
556.61	624.30
556.97	626.06
557.32	628.19
557.68	630.08
558.03	631.97
558.39	633.74
558.74	635.52
559.10	637.42
559.45	639.08
559.81	641.22
560.16	642.85
560.52	644.69
560.87	646.49
561.23	648.09
561.58	650.18
561.94	651.68
562.29	653.01
562.64	654.50
563.00	655.89
563.35	657.55
563.71	659.15
564.06	660.93
564.42	662.63
564.77	664.19
565.12	665.96
565.48	667.66
565.83	669.23
566.19	670.84
566.54	672.00
566.89	673.37
567.25	674.54
567.60	676.07
567.96	677.38
568.31	678.63
568.66	679.75
569.02	680.28
569.37	681.13
569.72	682.14
570.08	683.00
570.43	683.89
570.78	684.53
571.14	685.12
571.49	685.50
571.84	685.91
572.20	686.24
572.55	686.58
572.90	686.51
573.26	686.69
573.61	686.67
573.96	687.01
574.31	686.87
574.67	686.83
575.02	686.45
575.37	686.17
575.72	685.80
576.08	685.73
576.43	685.59
576.78	685.38
577.13	685.26
577.49	684.98
577.84	684.50
578.19	684.27
578.54	684.21
578.90	684.23
579.25	683.96
579.60	683.56
579.95	682.97
580.30	682.64
580.66	682.53
581.01	682.13
581.36	681.56
581.71	681.07
582.06	680.91
582.42	680.47
582.77	679.82
583.12	679.52
583.47	679.01
583.82	678.72
584.17	678.26
584.53	677.94
584.88	677.45
585.23	677.14
585.58	676.61
585.93	675.94
586.28	675.50
586.63	675.08
586.98	674.76
587.34	674.39
587.69	673.82
588.04	673.08
588.39	672.72
588.74	671.99
589.09	671.77
589.44	670.90
589.79	670.48
590.14	669.87
590.49	669.05
590.84	668.22
591.19	667.71
591.54	667.06
591.89	665.79
592.25	665.17
592.60	664.06
592.95	662.98
593.30	661.87
593.65	660.62
594.00	659.38
594.35	659.29
594.70	658.19
595.05	657.25
595.40	656.18
595.75	654.90
596.10	654.07
596.45	652.79
596.80	651.94
597.15	650.99
597.50	649.97
597.85	649.05
598.19	648.09
598.54	646.85
598.89	645.76
599.24	645.07
599.59	643.89
599.94	643.12
600.29	642.18
600.64	641.23
600.99	640.21
601.34	639.46
601.69	637.39
602.04	636.35
602.39	635.41
602.74	634.40
603.08	633.60
603.43	632.83
603.78	632.07
604.13	630.94
604.48	629.96
604.83	629.11
605.18	628.32
605.53	627.20
605.87	626.08
606.22	625.35
606.57	624.12
606.92	622.95
607.27	621.74
607.62	620.73
607.96	619.92
608.31	619.01
608.66	617.67
609.01	616.41
609.36	615.32
609.70	613.94
610.05	612.55
610.40	611.11
610.75	609.61
611.10	608.20
611.44	606.73
611.79	605.11
612.14	603.54
612.49	601.71
612.83	600.39
613.18	598.84
613.53	596.98
613.88	595.34
614.22	593.87
614.57	592.28
614.92	590.61
615.27	588.90
615.61	587.17
615.96	585.61
616.31	584.21
616.65	582.62
617.00	581.05
617.35	579.67
617.70	578.01
618.04	576.22
618.39	574.15
618.74	572.36
619.08	570.56
619.43	568.84
619.78	567.19
620.12	565.39
620.47	563.65
620.82	561.68
621.16	559.81
621.51	558.04
621.85	556.21
622.20	554.36
622.55	552.31
622.89	550.40
623.24	548.57
623.59	546.61
623.93	544.74
624.28	542.90
624.62	541.28
624.97	539.68
625.32	537.96
625.66	536.37
626.01	534.65
626.35	532.96
626.70	531.05
627.04	529.57
627.39	527.85
627.73	526.15
628.08	524.82
628.43	523.11
628.77	521.31
629.12	519.54
629.46	518.06
629.81	516.52
630.15	514.80
630.50	512.88
630.84	511.10
631.19	509.33
631.53	507.65
631.88	505.52
632.22	503.50
632.57	501.91
632.91	500.18
633.26	498.66
633.60	496.95
633.95	495.58
634.29	493.63
634.64	492.07
634.98	490.32
635.32	488.62
635.67	487.08
636.01	485.48
636.36	483.75
636.70	481.98
637.05	480.28
637.39	478.65
637.73	477.41
638.08	476.09
638.42	474.59
638.77	473.12
639.11	471.56
639.45	470.02
639.80	468.09
640.14	466.55
640.49	464.65
640.83	462.95
641.17	461.14
641.52	459.41
641.86	457.54
642.20	455.99
642.55	454.01
642.89	452.30
643.23	450.61
643.58	449.27
643.92	447.51
644.26	445.84
644.61	444.34
644.95	442.45
645.29	440.66
645.64	438.97
645.98	437.05
646.32	435.42
646.66	433.68
647.01	432.04
647.35	430.29
647.69	428.64
648.04	427.10
648.38	425.48
648.72	423.78
649.06	422.22
649.41	420.47
649.75	418.95
650.09	417.45
650.43	415.74
650.78	414.00
651.12	412.41
651.46	410.77
651.80	409.13
652.14	407.68
652.49	406.13
652.83	404.53
653.17	402.98
653.51	401.27
653.85	399.83
654.20	398.45
654.54	396.96
654.88	395.33
655.22	393.73
655.56	392.14
655.90	390.78
656.25	389.15
656.59	387.65
656.93	386.14
657.27	384.69
657.61	383.13
657.95	381.53
658.29	380.05
658.64	378.74
658.98	377.20
659.32	375.51
659.66	373.92
660.00	372.41
660.34	370.98
660.68	369.58
661.02	367.97
661.36	366.43
661.70	364.97
662.05	363.75
662.39	362.47
662.73	361.25
663.07	359.99
663.41	358.85
663.75	357.56
664.09	356.24
664.43	354.72
664.77	353.52
665.11	352.25
665.45	351.01
665.79	349.70
666.13	348.38
666.47	347.14
666.81	346.00
667.15	344.61
667.49	343.52
667.83	342.46
668.17	341.34
668.51	340.22
668.85	339.17
669.19	338.17
669.53	336.91
669.87	335.65
670.21	334.45
670.55	333.20
670.89	332.30
671.23	331.21
671.57	330.28
671.91	329.27
672.25	328.21
672.58	327.14
672.92	325.97
673.26	325.07
673.60	324.14
673.94	323.03
674.28	322.10
674.62	321.10
674.96	320.09
675.30	319.12
675.64	318.17
675.97	317.12
676.31	316.06
676.65	315.13
676.99	314.38
677.33	313.43
677.67	312.49
678.01	311.32
678.34	310.43
678.68	309.61
679.02	308.58
679.36	307.71
679.70	306.80
680.04	305.97
680.37	304.95
680.71	304.10
681.05	303.35
681.39	302.62
681.73	301.82
682.06	300.89
682.40	300.07
682.74	299.22
683.08	298.57
683.42	297.64
683.75	296.83
684.09	295.84
684.43	295.07
684.77	294.25
685.10	293.46
685.44	292.76
685.78	291.83
686.12	291.15
686.45	290.44
686.79	289.62
687.13	288.91
687.46	288.20
687.80	287.40
688.14	286.54
688.48	285.75
688.81	284.90
689.15	284.28
689.49	283.60
689.82	282.90
690.16	281.95
690.50	281.22
690.83	280.47
691.17	279.74
691.51	278.87
691.84	278.20
692.18	277.46
692.52	276.64
692.85	276.01
693.19	275.42
693.52	274.65
693.86	273.99
694.20	273.29
694.53	272.62
694.87	271.90
695.21	271.23
695.54	270.58
695.88	269.99
696.21	269.29
696.55	268.66
696.88	268.01
697.22	267.41
697.56	266.93
697.89	266.37
698.23	265.77
698.56	265.23
698.90	264.71
699.23	264.22
699.57	263.68
699.90	263.11
700.24	262.47
700.58	261.95
700.91	261.45
701.25	261.14
701.58	260.71
701.92	260.31
702.25	259.89
702.59	259.38
702.92	258.78
703.26	258.23
703.59	257.76
703.93	257.54
704.26	257.09
704.60	256.56
704.93	255.98
705.26	255.48
705.60	255.15
705.93	254.59
706.27	254.20
706.60	253.86
706.94	253.49
707.27	252.91
707.61	252.46
707.94	252.00
708.27	251.31
708.61	250.85
708.94	250.39
709.28	249.96
709.61	249.50
709.94	249.15
710.28	248.73
710.61	248.35
710.95	247.65
711.28	247.51
711.61	247.12
711.95	246.92
712.28	246.61
712.61	246.16
712.95	246.05
713.28	245.80
713.61	245.25
713.95	244.81
714.28	244.55
714.61	244.30
714.95	243.96
715.28	243.61
715.61	243.22
715.95	242.93
716.28	242.50
716.61	242.12
716.95	241.76
717.28	241.45
717.61	241.11
717.94	240.80
718.28	240.24
718.61	239.90
718.94	239.50
719.27	239.10
719.61	238.87
719.94	238.42
720.27	237.89
720.60	237.74
720.94	237.55
721.27	237.21
721.60	236.96
721.93	236.68
722.27	236.51
722.60	236.33
722.93	236.00
723.26	235.87
723.59	235.68
723.93	235.52
724.26	235.37
724.59	235.13
724.92	234.99
725.25	234.83
725.59	234.65
725.92	234.46
726.25	234.32
726.58	234.03
726.91	233.79
727.24	233.72
727.57	233.36
727.91	233.01
728.24	232.90
728.57	232.56
728.90	232.45
729.23	232.11
729.56	232.01
729.89	231.86
730.22	231.55
730.55	231.31
730.89	230.96
731.22	230.72
731.55	230.47
731.88	230.26
732.21	230.02
732.54	229.83
732.87	229.71
733.20	229.53
733.53	229.37
733.86	229.22
734.19	228.95
734.52	228.89
734.85	229.01
735.18	228.73
735.51	228.67
735.84	228.50
736.17	228.41
736.50	228.09
736.83	228.38
737.16	228.27
737.49	228.10
737.82	228.00
738.15	227.84
738.48	227.70
738.81	227.48
739.14	227.28
739.47	227.09
739.80	226.83
740.13	226.68
740.46	226.45
740.79	226.28
741.12	226.08
741.45	225.84
741.78	225.49
742.11	225.50
742.44	225.29
742.77	225.16
743.10	225.04
743.43	224.92
743.75	224.41
744.08	224.67
744.41	224.54
744.74	224.43
745.07	224.27
745.40	224.23
745.73	224.30
746.06	224.18
746.39	224.10
746.71	223.86
747.04	223.71
747.37	223.68
747.70	223.58
748.03	223.56
748.36	223.50
748.68	223.33
749.01	223.12
749.34	222.97
749.67	222.84
750.00	222.78
750.33	222.86
750.65	222.70
750.98	222.15
751.31	222.14
751.64	221.98
751.97	222.11
752.29	221.95
752.62	221.63
752.95	221.57
753.28	221.39
753.60	221.44
753.93	221.43
754.26	221.27
754.59	221.06
754.91	220.89
755.24	220.83
755.57	220.78
755.90	220.65
756.22	220.53
756.55	220.34
756.88	220.15
757.20	219.85
757.53	219.63
757.86	219.59
758.19	219.50
758.51	219.43
758.84	219.16
759.17	219.02
759.49	219.03
759.82	219.05
760.15	219.08
760.47	218.86
760.80	218.59
761.13	218.55
761.45	218.55
761.78	218.49
762.11	218.41
762.43	218.29
762.76	218.27
763.08	218.28
763.41	218.25
763.74	218.19
764.06	218.07
764.39	218.13
764.71	218.06
765.04	217.88
765.37	217.83
765.69	217.68
766.02	217.68
766.34	217.56
766.67	217.31
767.00	217.23
767.32	217.40
767.65	217.69
767.97	217.56
768.30	217.50
768.62	217.45
768.95	217.36
769.27	217.30
769.60	217.26
769.92	217.13
770.25	217.04
770.57	216.93
770.90	216.90
771.22	216.73
771.55	216.66
771.87	216.68
772.20	216.58
772.52	216.85
772.85	217.17
773.17	217.10
773.50	217.09
773.82	216.98
774.15	216.80
774.47	216.47
774.80	216.44
775.12	216.33
775.45	216.27
775.77	216.18
776.09	216.14
776.42	216.06
776.74	216.18
777.07	216.10
777.39	216.07
777.72	216.00
778.04	216.06
778.36	215.94
778.69	215.90
779.01	215.85
779.33	215.55
779.66	215.13
779.98	215.04
780.31	215.05
780.63	215.15
780.95	215.15
781.28	215.07
781.60	214.98
781.92	214.95
782.25	214.88
782.57	214.89
782.89	214.86
783.22	214.83
783.54	214.63
783.86	214.59
784.19	214.57
784.51	214.64
784.83	214.54
785.16	214.58
785.48	214.48
785.80	214.53
786.12	214.53
786.45	214.46
786.77	214.58
787.09	214.44
787.42	214.24
787.74	214.18
788.06	214.17
788.38	214.12
788.71	214.18
789.03	214.22
789.35	214.27
789.67	214.15
789.99	214.19
790.32	214.18
790.64	214.18
790.96	214.48
791.28	214.34
791.61	214.32
791.93	214.27
792.25	214.31
792.57	214.52
792.89	214.37
793.21	214.32
793.54	214.13
793.86	214.17
794.18	214.17
