SpectraSuite Data File
++++++++++++++++++++++++++++++++++++
Date: Mon Feb 25 17:07:22 EST 2013
User: group
Dark Spectrum Present: No
Reference Spectrum Present: No
Number of Sampled Component Spectra: 1
Spectrometers: USB2E7196
Integration Time (usec): 104000 (USB2E7196)
Spectra Averaged: 20 (USB2E7196)
Boxcar Smoothing: 10 (USB2E7196)
Correct for Electrical Dark: No (USB2E7196)
Strobe/Lamp Enabled: No (USB2E7196)
Correct for Detector Non-linearity: No (USB2E7196)
Correct for Stray Light: No (USB2E7196)
Number of Pixels in Processed Spectrum: 2048
>>>>>Begin Processed Spectral Data<<<<<
339.09	0.00
339.48	199.10
339.86	200.40
340.24	200.70
340.63	204.80
341.01	209.15
341.39	206.20
341.78	207.65
342.16	209.50
342.54	208.40
342.93	198.50
343.31	208.54
343.69	209.06
344.07	209.53
344.46	209.97
344.84	210.23
345.22	210.29
345.60	210.50
345.99	210.66
346.37	210.75
346.75	210.82
347.13	210.80
347.52	210.71
347.90	210.78
348.28	210.81
348.66	210.80
349.05	210.67
349.43	210.71
349.81	210.80
350.19	210.79
350.57	210.79
350.96	210.85
351.34	210.82
351.72	210.87
352.10	210.87
352.48	210.91
352.87	210.94
353.25	210.98
353.63	210.97
354.01	210.96
354.39	211.04
354.77	211.09
355.15	211.29
355.54	211.35
355.92	211.20
356.30	211.21
356.68	211.48
357.06	211.58
357.44	211.53
357.82	211.52
358.20	211.70
358.58	211.74
358.97	211.79
359.35	211.99
359.73	212.10
360.11	212.13
360.49	212.16
360.87	212.20
361.25	212.30
361.63	212.49
362.01	212.53
362.39	212.43
362.77	212.51
363.15	212.48
363.53	212.55
363.91	212.69
364.29	212.69
364.67	212.39
365.05	212.38
365.43	212.49
365.81	212.51
366.19	212.58
366.57	212.77
366.95	212.80
367.33	212.70
367.71	212.62
368.09	212.74
368.47	212.73
368.85	212.75
369.23	212.86
369.61	212.71
369.99	212.93
370.37	212.98
370.75	213.12
371.13	213.06
371.51	212.99
371.89	212.98
372.27	212.93
372.65	212.95
373.03	212.94
373.41	212.90
373.78	212.90
374.16	212.70
374.54	212.49
374.92	212.40
375.30	212.36
375.68	212.29
376.06	212.26
376.44	212.26
376.82	212.23
377.19	212.10
377.57	212.08
377.95	211.83
378.33	211.80
378.71	211.56
379.09	211.58
379.47	211.52
379.84	211.42
380.22	211.38
380.60	211.29
380.98	211.27
381.36	211.18
381.73	211.08
382.11	211.07
382.49	211.03
382.87	210.93
383.25	210.88
383.62	211.27
384.00	211.19
384.38	211.12
384.76	211.20
385.13	211.28
385.51	211.23
385.89	211.17
386.27	211.15
386.64	211.16
387.02	211.02
387.40	211.04
387.78	211.04
388.15	211.07
388.53	211.11
388.91	211.01
389.29	210.95
389.66	210.91
390.04	210.85
390.42	210.95
390.79	210.97
391.17	210.90
391.55	210.46
391.92	210.37
392.30	210.36
392.68	210.21
393.05	210.14
393.43	210.11
393.81	210.11
394.18	210.05
394.56	210.03
394.94	210.13
395.31	210.05
395.69	210.12
396.06	210.11
396.44	210.10
396.82	209.99
397.19	210.24
397.57	210.30
397.95	210.40
398.32	210.23
398.70	210.30
399.07	210.40
399.45	210.47
399.82	210.48
400.20	210.50
400.58	210.48
400.95	210.33
401.33	210.42
401.70	210.67
402.08	210.73
402.45	210.79
402.83	210.85
403.20	210.96
403.58	210.98
403.95	211.11
404.33	211.21
404.71	211.38
405.08	211.49
405.46	211.57
405.83	211.59
406.21	211.74
406.58	211.84
406.96	211.92
407.33	212.00
407.70	212.17
408.08	212.58
408.45	212.76
408.83	213.05
409.20	213.16
409.58	213.12
409.95	213.34
410.33	213.53
410.70	213.72
411.08	214.01
411.45	214.27
411.82	214.52
412.20	214.83
412.57	215.29
412.95	215.45
413.32	215.89
413.69	216.30
414.07	216.72
414.44	217.14
414.82	217.69
415.19	218.31
415.56	218.96
415.94	219.30
416.31	220.04
416.68	220.71
417.06	221.56
417.43	222.45
417.81	223.35
418.18	224.21
418.55	225.07
418.93	226.03
419.30	227.04
419.67	228.11
420.04	229.19
420.42	230.38
420.79	231.93
421.16	233.22
421.54	234.86
421.91	236.35
422.28	237.88
422.66	239.47
423.03	241.13
423.40	242.71
423.77	244.57
424.15	246.32
424.52	248.22
424.89	250.23
425.26	252.11
425.64	253.99
426.01	256.16
426.38	258.38
426.75	260.61
427.13	262.93
427.50	265.29
427.87	267.82
428.24	270.28
428.61	272.48
428.99	275.26
429.36	277.91
429.73	280.71
430.10	283.51
430.47	286.42
430.85	289.23
431.22	292.38
431.59	295.92
431.96	299.16
432.33	302.74
432.70	306.21
433.08	310.31
433.45	314.11
433.82	317.97
434.19	322.22
434.56	326.51
434.93	330.45
435.30	334.51
435.68	338.97
436.05	343.31
436.42	347.68
436.79	351.73
437.16	356.11
437.53	360.65
437.90	365.19
438.27	369.69
438.64	374.45
439.01	378.89
439.38	382.55
439.75	386.34
440.13	390.53
440.50	394.56
440.87	397.79
441.24	401.20
441.61	404.85
441.98	407.73
442.35	410.84
442.72	414.11
443.09	417.33
443.46	419.32
443.83	420.77
444.20	421.96
444.57	423.56
444.94	424.50
445.31	425.44
445.68	426.74
446.05	427.10
446.42	426.85
446.79	426.49
447.16	426.01
447.53	425.72
447.90	424.27
448.27	422.75
448.64	420.64
449.01	419.25
449.37	416.44
449.74	413.59
450.11	410.63
450.48	407.04
450.85	403.31
451.22	400.07
451.59	397.08
451.96	394.22
452.33	390.33
452.70	386.68
453.07	382.45
453.43	377.85
453.80	373.81
454.17	369.83
454.54	366.03
454.91	362.02
455.28	358.05
455.65	354.28
456.02	351.11
456.38	348.01
456.75	344.02
457.12	340.85
457.49	337.74
457.86	334.30
458.23	331.72
458.59	328.80
458.96	325.93
459.33	323.19
459.70	320.61
460.07	318.51
460.43	316.09
460.80	313.77
461.17	311.81
461.54	309.67
461.91	307.59
462.27	305.53
462.64	303.78
463.01	301.88
463.38	300.24
463.74	297.76
464.11	296.04
464.48	294.58
464.85	292.98
465.21	291.82
465.58	290.60
465.95	289.02
466.32	287.67
466.68	286.31
467.05	285.17
467.42	283.92
467.78	282.49
468.15	281.30
468.52	280.42
468.88	279.09
469.25	277.99
469.62	277.12
469.98	276.18
470.35	275.29
470.72	274.44
471.08	273.28
471.45	272.59
471.82	271.87
472.18	271.03
472.55	270.34
472.92	269.53
473.28	268.82
473.65	268.23
474.02	267.69
474.38	267.25
474.75	266.71
475.11	266.13
475.48	265.86
475.85	265.47
476.21	265.05
476.58	264.71
476.94	264.46
477.31	264.17
477.67	263.87
478.04	263.66
478.41	263.52
478.77	263.75
479.14	263.54
479.50	263.38
479.87	263.34
480.23	263.26
480.60	263.16
480.96	263.10
481.33	263.20
481.69	263.14
482.06	263.13
482.42	263.27
482.79	263.35
483.15	263.40
483.52	263.70
483.88	263.78
484.25	263.92
484.61	264.08
484.98	264.23
485.34	264.61
485.71	264.93
486.07	265.20
486.44	265.24
486.80	265.67
487.17	266.10
487.53	266.55
487.90	267.15
488.26	267.77
488.62	268.44
488.99	268.93
489.35	269.53
489.72	270.19
490.08	270.76
490.44	271.35
490.81	272.16
491.17	272.83
491.54	273.75
491.90	274.73
492.26	275.62
492.63	276.59
492.99	277.50
493.36	278.50
493.72	279.63
494.08	280.74
494.45	281.87
494.81	283.09
495.17	284.34
495.54	285.58
495.90	286.84
496.26	288.08
496.63	289.46
496.99	290.87
497.35	292.25
497.72	293.78
498.08	295.36
498.44	296.90
498.80	298.48
499.17	300.02
499.53	301.58
499.89	303.30
500.26	304.99
500.62	306.59
500.98	308.32
501.34	310.04
501.71	311.81
502.07	313.60
502.43	315.32
502.79	317.02
503.16	318.80
503.52	320.65
503.88	322.52
504.24	324.35
504.60	326.36
504.97	328.39
505.33	330.29
505.69	332.51
506.05	334.55
506.41	336.59
506.78	338.61
507.14	340.58
507.50	342.67
507.86	344.80
508.22	346.88
508.59	348.95
508.95	351.14
509.31	353.46
509.67	355.66
510.03	357.94
510.39	360.22
510.75	362.51
511.12	364.82
511.48	367.17
511.84	369.53
512.20	371.77
512.56	374.13
512.92	376.67
513.28	378.99
513.64	381.32
514.00	383.78
514.37	386.33
514.73	388.90
515.09	391.43
515.45	393.90
515.81	396.58
516.17	399.12
516.53	401.60
516.89	403.97
517.25	406.56
517.61	409.35
517.97	411.85
518.33	414.55
518.69	417.15
519.05	419.82
519.41	422.62
519.77	425.70
520.13	428.34
520.49	431.08
520.85	433.83
521.21	436.84
521.57	439.82
521.93	442.57
522.29	445.61
522.65	448.46
523.01	451.45
523.37	454.39
523.73	457.52
524.09	460.65
524.45	463.87
524.81	467.00
525.17	470.02
525.53	473.40
525.89	476.59
526.25	479.97
526.61	483.09
526.97	486.35
527.33	489.47
527.68	493.22
528.04	496.43
528.40	499.70
528.76	502.86
529.12	506.11
529.48	509.84
529.84	513.22
530.20	516.70
530.56	520.25
530.91	523.96
531.27	527.55
531.63	531.13
531.99	534.73
532.35	538.38
532.71	542.01
533.07	545.83
533.42	549.66
533.78	553.25
534.14	557.02
534.50	560.44
534.86	564.14
535.21	567.58
535.57	571.35
535.93	574.91
536.29	578.77
536.65	582.45
537.00	585.82
537.36	589.35
537.72	592.96
538.08	596.61
538.44	599.97
538.79	603.57
539.15	607.04
539.51	610.48
539.87	614.18
540.22	617.65
540.58	621.19
540.94	624.56
541.29	628.06
541.65	631.42
542.01	635.09
542.37	638.35
542.72	641.62
543.08	644.90
543.44	648.48
543.79	651.51
544.15	654.90
544.51	658.43
544.87	661.87
545.22	665.01
545.58	667.95
545.94	671.10
546.29	674.17
546.65	677.16
547.01	680.17
547.36	683.00
547.72	685.89
548.07	688.56
548.43	691.15
548.79	693.74
549.14	696.43
549.50	699.05
549.86	701.59
550.21	704.17
550.57	706.75
550.92	708.92
551.28	711.46
551.64	713.66
551.99	715.92
552.35	717.95
552.70	720.04
553.06	722.40
553.41	724.53
553.77	726.33
554.13	728.22
554.48	730.41
554.84	732.42
555.19	734.21
555.55	736.04
555.90	737.70
556.26	739.33
556.61	740.95
556.97	742.34
557.32	743.94
557.68	745.26
558.03	746.64
558.39	748.16
558.74	749.73
559.10	751.10
559.45	752.46
559.81	753.99
560.16	755.31
560.52	756.66
560.87	758.00
561.23	759.27
561.58	760.94
561.94	761.86
562.29	762.75
562.64	763.80
563.00	764.85
563.35	766.19
563.71	767.63
564.06	768.84
564.42	770.15
564.77	771.26
565.12	772.47
565.48	773.86
565.83	774.94
566.19	775.89
566.54	776.51
566.89	777.34
567.25	778.31
567.60	779.44
567.96	780.26
568.31	780.91
568.66	781.53
569.02	781.84
569.37	782.11
569.72	782.46
570.08	782.78
570.43	782.98
570.78	783.01
571.14	782.71
571.49	782.44
571.84	782.33
572.20	782.10
572.55	781.99
572.90	781.34
573.26	781.07
573.61	780.52
573.96	780.20
574.31	779.48
574.67	778.65
575.02	777.63
575.37	776.50
575.72	775.33
576.08	774.75
576.43	773.70
576.78	773.11
577.13	772.42
577.49	771.79
577.84	770.83
578.19	770.24
578.54	769.98
578.90	769.58
579.25	768.90
579.60	767.85
579.95	766.79
580.30	766.11
580.66	765.28
581.01	764.26
581.36	763.40
581.71	762.43
582.06	761.85
582.42	761.13
582.77	760.39
583.12	759.83
583.47	759.05
583.82	758.38
584.17	757.41
584.53	756.79
584.88	755.90
585.23	755.19
585.58	754.25
585.93	753.04
586.28	752.04
586.63	750.90
586.98	750.21
587.34	749.51
587.69	748.53
588.04	747.52
588.39	746.72
588.74	745.57
589.09	744.75
589.44	743.27
589.79	742.21
590.14	741.09
590.49	739.89
590.84	738.59
591.19	737.66
591.54	736.45
591.89	734.88
592.25	733.92
592.60	732.57
592.95	731.09
593.30	729.42
593.65	727.75
594.00	726.41
594.35	725.95
594.70	724.32
595.05	722.87
595.40	721.48
595.75	719.82
596.10	718.60
596.45	717.20
596.80	716.13
597.15	714.79
597.50	713.32
597.85	711.98
598.19	710.46
598.54	708.90
598.89	707.62
599.24	706.63
599.59	705.03
599.94	703.91
600.29	702.53
600.64	701.54
600.99	700.32
601.34	699.13
601.69	696.70
602.04	695.38
602.39	693.94
602.74	692.64
603.08	691.53
603.43	690.54
603.78	689.15
604.13	687.68
604.48	686.45
604.83	685.55
605.18	684.57
605.53	683.50
605.87	682.10
606.22	680.86
606.57	679.34
606.92	677.88
607.27	676.33
607.62	675.10
607.96	673.71
608.31	672.61
608.66	671.08
609.01	669.68
609.36	668.20
609.70	666.51
610.05	664.78
610.40	663.23
610.75	661.39
611.10	659.96
611.44	657.75
611.79	655.80
612.14	653.61
612.49	651.43
612.83	649.50
613.18	647.51
613.53	645.46
613.88	643.36
614.22	641.56
614.57	639.31
614.92	637.17
615.27	635.01
615.61	632.82
615.96	630.78
616.31	629.04
616.65	627.22
617.00	625.23
617.35	623.13
617.70	621.00
618.04	618.70
618.39	616.32
618.74	614.63
619.08	612.48
619.43	610.50
619.78	608.47
620.12	606.35
620.47	604.40
620.82	602.16
621.16	599.98
621.51	597.80
621.85	596.17
622.20	594.10
622.55	591.87
622.89	589.70
623.24	587.61
623.59	585.22
623.93	583.15
624.28	581.28
624.62	579.65
624.97	577.78
625.32	576.00
625.66	574.20
626.01	572.25
626.35	570.25
626.70	568.29
627.04	566.55
627.39	564.73
627.73	562.84
628.08	561.19
628.43	559.19
628.77	557.04
629.12	554.75
629.46	552.94
629.81	551.08
630.15	549.12
630.50	547.04
630.84	544.98
631.19	542.83
631.53	540.86
631.88	538.35
632.22	536.05
632.57	534.10
632.91	532.00
633.26	530.02
633.60	528.11
633.95	526.17
634.29	523.94
634.64	521.97
634.98	519.71
635.32	517.75
635.67	516.11
636.01	514.38
636.36	512.32
636.70	510.33
637.05	508.39
637.39	506.49
637.73	504.84
638.08	503.46
638.42	501.79
638.77	499.94
639.11	498.28
639.45	496.59
639.80	494.53
640.14	492.60
640.49	490.68
640.83	488.73
641.17	486.94
641.52	485.10
641.86	483.15
642.20	481.65
642.55	479.53
642.89	477.47
643.23	475.52
643.58	474.06
643.92	472.11
644.26	470.28
644.61	468.45
644.95	466.44
645.29	464.32
645.64	462.37
645.98	460.45
646.32	458.61
646.66	456.49
647.01	454.65
647.35	452.91
647.69	451.08
648.04	449.43
648.38	447.46
648.72	445.56
649.06	443.67
649.41	441.70
649.75	439.96
650.09	438.15
650.43	436.34
650.78	434.22
651.12	432.37
651.46	430.55
651.80	428.70
652.14	426.92
652.49	425.06
652.83	423.23
653.17	421.41
653.51	419.59
653.85	418.01
654.20	416.30
654.54	414.53
654.88	412.61
655.22	410.87
655.56	409.04
655.90	407.31
656.25	405.52
656.59	403.71
656.93	402.00
657.27	400.48
657.61	398.62
657.95	397.07
658.29	395.46
658.64	393.95
658.98	392.24
659.32	390.46
659.66	388.92
660.00	387.28
660.34	385.51
660.68	383.81
661.02	382.13
661.36	380.53
661.70	378.84
662.05	377.46
662.39	375.93
662.73	374.66
663.07	373.33
663.41	371.94
663.75	370.47
664.09	368.95
664.43	367.28
664.77	365.90
665.11	364.39
665.45	362.99
665.79	361.50
666.13	360.13
666.47	358.80
666.81	357.39
667.15	355.90
667.49	354.82
667.83	353.61
668.17	352.35
668.51	351.07
668.85	349.91
669.19	348.79
669.53	347.40
669.87	346.05
670.21	344.66
670.55	343.32
670.89	342.26
671.23	341.17
671.57	340.07
671.91	338.97
672.25	337.78
672.58	336.64
672.92	335.37
673.26	334.32
673.60	333.23
673.94	332.04
674.28	331.06
674.62	329.92
674.96	328.91
675.30	327.85
675.64	326.79
675.97	325.66
676.31	324.33
676.65	323.34
676.99	322.44
677.33	321.45
677.67	320.46
678.01	319.39
678.34	318.35
678.68	317.28
679.02	316.10
679.36	315.08
679.70	314.11
680.04	313.20
680.37	312.08
680.71	311.06
681.05	310.07
681.39	309.12
681.73	308.11
682.06	307.19
682.40	306.28
682.74	305.46
683.08	304.70
683.42	303.84
683.75	302.98
684.09	301.94
684.43	301.03
684.77	300.08
685.10	299.14
685.44	298.24
685.78	297.45
686.12	296.78
686.45	295.99
686.79	295.09
687.13	294.33
687.46	293.58
687.80	292.87
688.14	292.05
688.48	291.22
688.81	290.33
689.15	289.57
689.49	288.75
689.82	287.87
690.16	286.81
690.50	286.00
690.83	285.09
691.17	284.24
691.51	283.52
691.84	282.85
692.18	282.09
692.52	281.35
692.85	280.66
693.19	279.99
693.52	279.29
693.86	278.49
694.20	277.68
694.53	277.00
694.87	276.19
695.21	275.47
695.54	274.74
695.88	274.00
696.21	273.12
696.55	272.40
696.88	271.69
697.22	271.15
697.56	270.60
697.89	270.01
698.23	269.41
698.56	268.72
698.90	268.08
699.23	267.44
699.57	266.88
699.90	266.12
700.24	265.39
700.58	264.83
700.91	264.35
701.25	264.11
701.58	263.60
701.92	263.17
702.25	262.67
702.59	262.10
702.92	261.64
703.26	261.13
703.59	260.63
703.93	260.38
704.26	259.86
704.60	259.31
704.93	258.82
705.26	258.23
705.60	257.83
705.93	257.25
706.27	256.84
706.60	256.35
706.94	256.14
707.27	255.65
707.61	255.16
707.94	254.70
708.27	253.89
708.61	253.29
708.94	252.82
709.28	252.37
709.61	251.95
709.94	251.52
710.28	251.15
710.61	250.77
710.95	250.10
711.28	250.02
711.61	249.57
711.95	249.22
712.28	248.86
712.61	248.42
712.95	248.22
713.28	247.97
713.61	247.53
713.95	246.96
714.28	246.66
714.61	246.22
714.95	245.74
715.28	245.38
715.61	245.07
715.95	244.64
716.28	244.27
716.61	243.91
716.95	243.52
717.28	243.24
717.61	242.97
717.94	242.60
718.28	241.97
718.61	241.64
718.94	241.23
719.27	240.94
719.61	240.59
719.94	240.23
720.27	239.75
720.60	239.40
720.94	239.17
721.27	238.82
721.60	238.64
721.93	238.40
722.27	238.28
722.60	238.08
722.93	237.85
723.26	237.59
723.59	237.32
723.93	237.21
724.26	236.84
724.59	236.51
724.92	236.25
725.25	236.09
725.59	235.93
725.92	235.76
726.25	235.54
726.58	235.30
726.91	234.97
727.24	234.78
727.57	234.63
727.91	234.33
728.24	234.14
728.57	233.83
728.90	233.61
729.23	233.25
729.56	233.12
729.89	232.82
730.22	232.53
730.55	232.25
730.89	231.96
731.22	231.73
731.55	231.47
731.88	231.29
732.21	231.01
732.54	230.77
732.87	230.53
733.20	230.33
733.53	230.19
733.86	230.07
734.19	229.75
734.52	229.56
734.85	229.59
735.18	229.37
735.51	229.34
735.84	229.17
736.17	229.12
736.50	228.82
736.83	229.10
737.16	229.06
737.49	228.94
737.82	228.78
738.15	228.71
738.48	228.57
738.81	228.36
739.14	228.16
739.47	227.98
739.80	227.83
740.13	227.69
740.46	227.46
740.79	227.26
741.12	227.10
741.45	226.92
741.78	226.59
742.11	226.53
742.44	226.25
742.77	226.23
743.10	226.03
743.43	225.81
743.75	225.32
744.08	225.63
744.41	225.47
744.74	225.31
745.07	225.07
745.40	224.98
745.73	225.00
746.06	224.85
746.39	224.74
746.71	224.58
747.04	224.32
747.37	224.21
747.70	224.18
748.03	224.15
748.36	224.13
748.68	223.98
749.01	223.74
749.34	223.65
749.67	223.42
750.00	223.28
750.33	223.46
750.65	223.35
750.98	222.78
751.31	222.65
751.64	222.51
751.97	222.64
752.29	222.52
752.62	222.23
752.95	222.11
753.28	221.95
753.60	221.90
753.93	221.98
754.26	221.87
754.59	221.60
754.91	221.43
755.24	221.25
755.57	221.10
755.90	221.03
756.22	220.86
756.55	220.73
756.88	220.55
757.20	220.13
757.53	219.84
757.86	219.69
758.19	219.66
758.51	219.61
758.84	219.30
759.17	219.11
759.49	219.08
759.82	219.20
760.15	219.15
760.47	219.03
760.80	218.79
761.13	218.77
761.45	218.61
761.78	218.45
762.11	218.39
762.43	218.32
762.76	218.16
763.08	218.14
763.41	218.11
763.74	218.07
764.06	218.09
764.39	218.06
764.71	217.95
765.04	217.79
765.37	217.64
765.69	217.48
766.02	217.44
766.34	217.32
766.67	217.10
767.00	217.04
767.32	217.17
767.65	217.34
767.97	217.20
768.30	217.26
768.62	217.26
768.95	217.12
769.27	217.01
769.60	217.07
769.92	217.00
770.25	216.89
770.57	216.75
770.90	216.71
771.22	216.68
771.55	216.66
771.87	216.70
772.20	216.59
772.52	216.82
772.85	217.20
773.17	217.18
773.50	217.07
773.82	216.96
774.15	216.70
774.47	216.39
774.80	216.37
775.12	216.26
775.45	216.21
775.77	216.23
776.09	216.19
776.42	216.17
776.74	216.25
777.07	216.13
777.39	216.16
777.72	215.99
778.04	215.98
778.36	215.86
778.69	215.77
779.01	215.81
779.33	215.56
779.66	215.12
779.98	215.04
780.31	215.04
780.63	215.12
780.95	215.19
781.28	215.15
781.60	215.00
781.92	215.02
782.25	215.05
782.57	215.06
782.89	215.04
783.22	214.92
783.54	214.79
783.86	214.87
784.19	214.80
784.51	214.96
784.83	214.85
785.16	214.82
785.48	214.86
785.80	214.84
786.12	214.90
786.45	214.84
786.77	214.86
787.09	214.78
787.42	214.64
787.74	214.55
788.06	214.59
788.38	214.62
788.71	214.60
789.03	214.55
789.35	214.47
789.67	214.45
789.99	214.42
790.32	214.33
790.64	214.38
790.96	214.67
791.28	214.46
791.61	214.56
791.93	214.54
792.25	214.50
792.57	214.72
792.89	214.60
793.21	214.66
793.54	214.58
793.86	214.62
794.18	214.63
