SpectraSuite Data File
++++++++++++++++++++++++++++++++++++
Date: Mon Feb 25 17:09:10 EST 2013
User: group
Dark Spectrum Present: No
Reference Spectrum Present: No
Number of Sampled Component Spectra: 1
Spectrometers: USB2E7196
Integration Time (usec): 104000 (USB2E7196)
Spectra Averaged: 20 (USB2E7196)
Boxcar Smoothing: 10 (USB2E7196)
Correct for Electrical Dark: No (USB2E7196)
Strobe/Lamp Enabled: No (USB2E7196)
Correct for Detector Non-linearity: No (USB2E7196)
Correct for Stray Light: No (USB2E7196)
Number of Pixels in Processed Spectrum: 2048
>>>>>Begin Processed Spectral Data<<<<<
339.09	0.00
339.48	198.50
339.86	200.40
340.24	201.15
340.63	202.85
341.01	209.90
341.39	206.40
341.78	207.10
342.16	208.60
342.54	209.30
342.93	198.25
343.31	208.23
343.69	208.81
344.07	209.28
344.46	209.75
344.84	210.10
345.22	210.09
345.60	210.31
345.99	210.42
346.37	210.57
346.75	210.65
347.13	210.68
347.52	210.75
347.90	210.85
348.28	210.89
348.66	211.04
349.05	210.97
349.43	210.99
349.81	211.01
350.19	211.02
350.57	211.09
350.96	211.12
351.34	211.18
351.72	211.17
352.10	211.24
352.48	211.22
352.87	211.24
353.25	211.32
353.63	211.34
354.01	211.44
354.39	211.50
354.77	211.51
355.15	211.67
355.54	211.66
355.92	211.62
356.30	211.72
356.68	211.92
357.06	212.05
357.44	212.10
357.82	212.16
358.20	212.17
358.58	212.28
358.97	212.27
359.35	212.38
359.73	212.56
360.11	212.56
360.49	212.62
360.87	212.68
361.25	212.83
361.63	212.98
362.01	213.03
362.39	212.97
362.77	213.04
363.15	213.05
363.53	213.12
363.91	213.11
364.29	213.07
364.67	212.73
365.05	212.74
365.43	212.84
365.81	212.91
366.19	213.04
366.57	213.12
366.95	213.16
367.33	213.08
367.71	213.01
368.09	213.15
368.47	213.17
368.85	213.13
369.23	213.13
369.61	212.97
369.99	213.05
370.37	213.12
370.75	213.29
371.13	213.21
371.51	213.15
371.89	213.20
372.27	213.22
372.65	213.30
373.03	213.18
373.41	213.06
373.78	212.95
374.16	212.79
374.54	212.63
374.92	212.54
375.30	212.57
375.68	212.43
376.06	212.34
376.44	212.32
376.82	212.36
377.19	212.30
377.57	212.32
377.95	212.19
378.33	212.08
378.71	211.83
379.09	211.80
379.47	211.83
379.84	211.72
380.22	211.63
380.60	211.53
380.98	211.51
381.36	211.52
381.73	211.41
382.11	211.48
382.49	211.45
382.87	211.40
383.25	211.29
383.62	211.73
384.00	211.59
384.38	211.55
384.76	211.57
385.13	211.66
385.51	211.58
385.89	211.50
386.27	211.51
386.64	211.45
387.02	211.40
387.40	211.33
387.78	211.30
388.15	211.22
388.53	211.13
388.91	211.11
389.29	211.05
389.66	211.12
390.04	210.97
390.42	211.00
390.79	211.01
391.17	211.06
391.55	210.63
391.92	210.69
392.30	210.71
392.68	210.61
393.05	210.48
393.43	210.55
393.81	210.56
394.18	210.53
394.56	210.66
394.94	210.74
395.31	210.65
395.69	210.76
396.06	210.89
396.44	210.88
396.82	210.85
397.19	210.98
397.57	210.96
397.95	211.07
398.32	210.96
398.70	210.98
399.07	211.02
399.45	211.02
399.82	210.99
400.20	210.92
400.58	210.94
400.95	210.90
401.33	210.90
401.70	211.09
402.08	211.06
402.45	211.01
402.83	211.17
403.20	211.30
403.58	211.27
403.95	211.30
404.33	211.45
404.71	211.56
405.08	211.78
405.46	211.87
405.83	211.94
406.21	212.05
406.58	212.21
406.96	212.24
407.33	212.38
407.70	212.50
408.08	212.87
408.45	213.07
408.83	213.20
409.20	213.31
409.58	213.29
409.95	213.53
410.33	213.77
410.70	213.80
411.08	213.99
411.45	214.24
411.82	214.50
412.20	214.84
412.57	215.31
412.95	215.37
413.32	215.70
413.69	216.02
414.07	216.44
414.44	216.81
414.82	217.43
415.19	218.04
415.56	218.50
415.94	218.92
416.31	219.56
416.68	220.20
417.06	220.95
417.43	221.75
417.81	222.55
418.18	223.37
418.55	224.14
418.93	225.10
419.30	226.14
419.67	227.12
420.04	228.18
420.42	229.16
420.79	230.66
421.16	231.95
421.54	233.42
421.91	234.76
422.28	236.21
422.66	237.55
423.03	239.13
423.40	240.76
423.77	242.34
424.15	243.95
424.52	245.70
424.89	247.64
425.26	249.35
425.64	251.04
426.01	252.84
426.38	254.86
426.75	256.96
427.13	258.91
427.50	261.06
427.87	263.29
428.24	265.43
428.61	267.38
428.99	269.86
429.36	272.25
429.73	274.82
430.10	277.36
430.47	280.06
430.85	282.52
431.22	285.37
431.59	288.58
431.96	291.56
432.33	294.80
432.70	297.88
433.08	301.55
433.45	305.00
433.82	308.58
434.19	312.52
434.56	316.25
434.93	319.96
435.30	323.51
435.68	327.47
436.05	331.53
436.42	335.49
436.79	339.08
437.16	342.88
437.53	347.02
437.90	351.00
438.27	355.03
438.64	359.16
439.01	363.03
439.38	366.20
439.75	369.54
440.13	373.30
440.50	376.85
440.87	379.85
441.24	382.99
441.61	386.34
441.98	388.75
442.35	391.54
442.72	394.54
443.09	397.55
443.46	399.26
443.83	400.41
444.20	401.44
444.57	402.87
444.94	403.65
445.31	404.38
445.68	405.60
446.05	405.85
446.42	405.63
446.79	405.41
447.16	405.00
447.53	404.75
447.90	403.34
448.27	401.96
448.64	399.94
449.01	398.44
449.37	395.87
449.74	393.36
450.11	390.64
450.48	387.26
450.85	383.81
451.22	380.99
451.59	378.32
451.96	375.75
452.33	372.22
452.70	369.16
453.07	365.26
453.43	360.93
453.80	357.20
454.17	353.58
454.54	349.98
454.91	346.38
455.28	342.71
455.65	339.31
456.02	336.49
456.38	333.65
456.75	330.13
457.12	327.11
457.49	324.23
457.86	321.10
458.23	318.78
458.59	316.10
458.96	313.38
459.33	310.99
459.70	308.59
460.07	306.70
460.43	304.50
460.80	302.56
461.17	300.91
461.54	299.10
461.91	297.32
462.27	295.57
462.64	294.02
463.01	292.36
463.38	290.91
463.74	288.69
464.11	287.17
464.48	285.97
464.85	284.48
465.21	283.50
465.58	282.43
465.95	280.96
466.32	279.89
466.68	278.81
467.05	277.68
467.42	276.51
467.78	275.30
468.15	274.16
468.52	273.36
468.88	272.18
469.25	271.20
469.62	270.48
469.98	269.64
470.35	268.84
470.72	268.02
471.08	267.09
471.45	266.50
471.82	265.94
472.18	265.20
472.55	264.78
472.92	264.06
473.28	263.44
473.65	262.80
474.02	262.19
474.38	261.70
474.75	261.35
475.11	260.90
475.48	260.63
475.85	260.24
476.21	259.86
476.58	259.58
476.94	259.30
477.31	259.04
477.67	258.78
478.04	258.60
478.41	258.56
478.77	258.75
479.14	258.50
479.50	258.46
479.87	258.43
480.23	258.39
480.60	258.33
480.96	258.34
481.33	258.64
481.69	258.67
482.06	258.79
482.42	258.86
482.79	259.00
483.15	259.12
483.52	259.50
483.88	259.75
484.25	259.95
484.61	260.25
484.98	260.51
485.34	260.91
485.71	261.26
486.07	261.56
486.44	261.58
486.80	262.13
487.17	262.44
487.53	263.04
487.90	263.65
488.26	264.37
488.62	265.15
488.99	265.64
489.35	266.46
489.72	267.17
490.08	267.85
490.44	268.67
490.81	269.56
491.17	270.47
491.54	271.41
491.90	272.48
492.26	273.50
492.63	274.57
492.99	275.64
493.36	276.96
493.72	278.25
494.08	279.67
494.45	280.93
494.81	282.40
495.17	283.83
495.54	285.42
495.90	286.98
496.26	288.57
496.63	290.28
496.99	291.98
497.35	293.77
497.72	295.77
498.08	297.66
498.44	299.59
498.80	301.53
499.17	303.60
499.53	305.65
499.89	307.92
500.26	310.12
500.62	312.43
500.98	314.81
501.34	317.23
501.71	319.74
502.07	322.36
502.43	325.01
502.79	327.48
503.16	330.04
503.52	332.63
503.88	335.28
504.24	338.01
504.60	340.77
504.97	343.83
505.33	346.75
505.69	350.01
506.05	353.28
506.41	356.53
506.78	359.71
507.14	363.04
507.50	366.28
507.86	369.74
508.22	373.30
508.59	376.75
508.95	380.42
509.31	384.19
509.67	387.96
510.03	391.65
510.39	395.52
510.75	399.37
511.12	403.24
511.48	407.29
511.84	411.44
512.20	415.55
512.56	419.63
512.92	423.93
513.28	428.00
513.64	432.16
514.00	436.33
514.37	440.66
514.73	445.18
515.09	449.64
515.45	454.05
515.81	458.43
516.17	463.03
516.53	467.49
516.89	471.81
517.25	476.38
517.61	481.02
517.97	485.59
518.33	490.19
518.69	495.17
519.05	499.94
519.41	504.75
519.77	509.98
520.13	514.80
520.49	519.45
520.85	524.35
521.21	529.49
521.57	534.69
521.93	539.54
522.29	544.61
522.65	549.68
523.01	554.80
523.37	559.82
523.73	564.94
524.09	570.06
524.45	575.33
524.81	580.60
525.17	586.02
525.53	591.44
525.89	596.89
526.25	602.00
526.61	607.20
526.97	612.42
527.33	617.52
527.68	623.28
528.04	628.71
528.40	633.89
528.76	638.94
529.12	644.23
529.48	649.89
529.84	655.13
530.20	660.56
530.56	666.07
530.91	671.68
531.27	677.08
531.63	682.62
531.99	688.09
532.35	693.30
532.71	698.49
533.07	704.00
533.42	709.65
533.78	715.08
534.14	720.33
534.50	725.32
534.86	730.41
535.21	735.05
535.57	740.35
535.93	745.45
536.29	750.81
536.65	755.84
537.00	760.61
537.36	765.32
537.72	769.95
538.08	774.63
538.44	779.22
538.79	783.82
539.15	788.35
539.51	792.93
539.87	797.69
540.22	802.33
540.58	806.87
540.94	811.18
541.29	815.58
541.65	819.91
542.01	824.44
542.37	828.74
542.72	833.04
543.08	836.94
543.44	841.24
543.79	844.78
544.15	848.51
544.51	852.61
544.87	856.69
545.22	860.47
545.58	863.94
545.94	867.38
546.29	870.59
546.65	873.72
547.01	876.87
547.36	879.97
547.72	882.90
548.07	885.77
548.43	888.39
548.79	890.78
549.14	893.20
549.50	895.96
549.86	898.16
550.21	900.59
550.57	903.13
550.92	905.07
551.28	907.12
551.64	909.33
551.99	911.45
552.35	913.25
552.70	915.18
553.06	917.36
553.41	919.29
553.77	921.24
554.13	923.13
554.48	924.89
554.84	926.69
555.19	928.30
555.55	929.87
555.90	931.05
556.26	932.37
556.61	933.80
556.97	934.53
557.32	935.83
557.68	936.65
558.03	937.27
558.39	938.30
558.74	939.68
559.10	940.76
559.45	941.60
559.81	942.68
560.16	943.30
560.52	943.98
560.87	944.68
561.23	945.28
561.58	946.19
561.94	946.61
562.29	946.76
562.64	947.43
563.00	947.64
563.35	948.45
563.71	949.28
564.06	949.85
564.42	950.59
564.77	951.09
565.12	951.82
565.48	952.78
565.83	953.39
566.19	953.73
566.54	953.69
566.89	953.55
567.25	953.75
567.60	954.17
567.96	954.14
568.31	954.27
568.66	954.36
569.02	953.76
569.37	953.37
569.72	953.16
570.08	952.35
570.43	951.78
570.78	950.84
571.14	949.87
571.49	948.81
571.84	948.08
572.20	946.96
572.55	945.98
572.90	944.44
573.26	943.03
573.61	941.67
573.96	940.44
574.31	939.02
574.67	937.34
575.02	935.55
575.37	934.04
575.72	932.08
576.08	930.48
576.43	928.86
576.78	927.26
577.13	925.67
577.49	924.36
577.84	923.00
578.19	921.58
578.54	920.33
578.90	919.22
579.25	917.62
579.60	916.03
579.95	914.25
580.30	912.86
580.66	911.63
581.01	909.97
581.36	908.07
581.71	906.38
582.06	904.65
582.42	903.14
582.77	901.20
583.12	899.64
583.47	897.97
583.82	896.34
584.17	894.55
584.53	893.29
584.88	891.49
585.23	889.70
585.58	888.23
585.93	886.30
586.28	884.57
586.63	882.81
586.98	881.28
587.34	879.60
587.69	877.60
588.04	875.74
588.39	874.03
588.74	872.25
589.09	870.73
589.44	868.93
589.79	867.24
590.14	865.66
590.49	863.82
590.84	861.94
591.19	860.50
591.54	858.84
591.89	856.30
592.25	854.51
592.60	852.36
592.95	849.94
593.30	847.70
593.65	845.35
594.00	843.10
594.35	841.76
594.70	839.64
595.05	837.73
595.40	835.46
595.75	833.19
596.10	831.23
596.45	829.34
596.80	827.61
597.15	825.73
597.50	823.52
597.85	821.71
598.19	819.62
598.54	817.50
598.89	815.56
599.24	814.00
599.59	811.98
599.94	810.40
600.29	808.72
600.64	806.99
600.99	805.24
601.34	803.51
601.69	800.95
602.04	799.01
602.39	797.12
602.74	795.40
603.08	793.88
603.43	792.48
603.78	790.53
604.13	788.35
604.48	786.36
604.83	784.97
605.18	783.37
605.53	781.60
605.87	779.53
606.22	777.77
606.57	775.69
606.92	773.56
607.27	771.34
607.62	769.46
607.96	767.75
608.31	766.01
608.66	763.99
609.01	761.85
609.36	759.71
609.70	757.38
610.05	755.17
610.40	752.81
610.75	750.39
611.10	748.07
611.44	745.66
611.79	743.17
612.14	740.50
612.49	737.59
612.83	735.00
613.18	732.39
613.53	729.78
613.88	727.12
614.22	724.73
614.57	722.13
614.92	719.41
615.27	716.51
615.61	713.60
615.96	711.01
616.31	708.50
616.65	706.24
617.00	703.94
617.35	701.20
617.70	698.49
618.04	695.52
618.39	692.86
618.74	690.52
619.08	687.83
619.43	685.21
619.78	682.60
620.12	679.97
620.47	677.62
620.82	674.67
621.16	671.93
621.51	669.25
621.85	666.64
622.20	664.13
622.55	661.58
622.89	658.98
623.24	656.31
623.59	653.54
623.93	650.69
624.28	647.95
624.62	645.86
624.97	643.58
625.32	641.11
625.66	638.66
626.01	636.02
626.35	633.67
626.70	631.00
627.04	628.92
627.39	626.46
627.73	624.03
628.08	621.94
628.43	619.45
628.77	616.92
629.12	614.40
629.46	611.95
629.81	609.54
630.15	606.93
630.50	604.43
630.84	601.75
631.19	599.22
631.53	596.86
631.88	593.86
632.22	591.06
632.57	588.87
632.91	586.24
633.26	583.98
633.60	581.42
633.95	579.25
634.29	576.58
634.64	574.35
634.98	571.60
635.32	569.13
635.67	567.00
636.01	564.74
636.36	562.40
636.70	560.05
637.05	557.77
637.39	555.74
637.73	553.67
638.08	551.86
638.42	549.94
638.77	547.90
639.11	545.84
639.45	543.63
639.80	541.18
640.14	538.90
640.49	536.45
640.83	534.17
641.17	531.80
641.52	529.45
641.86	527.08
642.20	525.13
642.55	522.77
642.89	520.38
643.23	517.98
643.58	516.03
643.92	513.63
644.26	511.40
644.61	509.04
644.95	506.62
645.29	504.25
645.64	501.85
645.98	499.47
646.32	497.22
646.66	494.98
647.01	492.79
647.35	490.92
647.69	488.70
648.04	486.57
648.38	484.36
648.72	482.16
649.06	479.79
649.41	477.59
649.75	475.37
650.09	473.34
650.43	471.25
650.78	468.78
651.12	466.72
651.46	464.46
651.80	462.43
652.14	460.32
652.49	458.22
652.83	456.08
653.17	453.69
653.51	451.55
653.85	449.56
654.20	447.45
654.54	445.07
654.88	442.86
655.22	440.72
655.56	438.62
655.90	436.69
656.25	434.74
656.59	432.62
656.93	430.70
657.27	428.58
657.61	426.42
657.95	424.54
658.29	422.41
658.64	420.60
658.98	418.51
659.32	416.50
659.66	414.46
660.00	412.47
660.34	410.65
660.68	408.63
661.02	406.65
661.36	404.85
661.70	403.00
662.05	401.28
662.39	399.69
662.73	398.12
663.07	396.49
663.41	394.79
663.75	393.01
664.09	391.23
664.43	389.39
664.77	387.76
665.11	385.97
665.45	384.35
665.79	382.65
666.13	380.98
666.47	379.38
666.81	377.79
667.15	376.12
667.49	374.70
667.83	373.34
668.17	371.92
668.51	370.45
668.85	369.01
669.19	367.60
669.53	365.96
669.87	364.25
670.21	362.63
670.55	361.12
670.89	359.86
671.23	358.53
671.57	357.27
671.91	355.91
672.25	354.55
672.58	353.34
672.92	351.94
673.26	350.74
673.60	349.46
673.94	348.17
674.28	346.96
674.62	345.77
674.96	344.46
675.30	343.15
675.64	341.93
675.97	340.69
676.31	339.51
676.65	338.35
676.99	337.41
677.33	336.20
677.67	335.13
678.01	333.87
678.34	332.61
678.68	331.55
679.02	330.35
679.36	329.26
679.70	328.14
680.04	327.07
680.37	325.77
680.71	324.63
681.05	323.58
681.39	322.51
681.73	321.33
682.06	320.23
682.40	319.23
682.74	318.16
683.08	317.16
683.42	316.07
683.75	315.08
684.09	313.87
684.43	312.81
684.77	311.65
685.10	310.63
685.44	309.69
685.78	308.63
686.12	307.75
686.45	306.82
686.79	305.75
687.13	304.85
687.46	304.00
687.80	303.17
688.14	302.19
688.48	301.24
688.81	300.22
689.15	299.34
689.49	298.31
689.82	297.31
690.16	296.25
690.50	295.29
690.83	294.24
691.17	293.30
691.51	292.49
691.84	291.66
692.18	290.76
692.52	290.03
692.85	289.27
693.19	288.55
693.52	287.66
693.86	286.85
694.20	285.95
694.53	285.25
694.87	284.41
695.21	283.60
695.54	282.80
695.88	281.95
696.21	281.09
696.55	280.38
696.88	279.62
697.22	278.86
697.56	278.18
697.89	277.52
698.23	276.89
698.56	276.13
698.90	275.54
699.23	274.76
699.57	273.91
699.90	273.08
700.24	272.22
700.58	271.54
700.91	270.90
701.25	270.45
701.58	269.75
701.92	269.07
702.25	268.41
702.59	267.75
702.92	267.20
703.26	266.61
703.59	266.00
703.93	265.65
704.26	265.13
704.60	264.52
704.93	263.89
705.26	263.23
705.60	262.70
705.93	262.01
706.27	261.66
706.60	261.30
706.94	260.93
707.27	260.35
707.61	259.83
707.94	259.24
708.27	258.44
708.61	257.87
708.94	257.38
709.28	256.88
709.61	256.36
709.94	255.83
710.28	255.33
710.61	254.89
710.95	254.14
711.28	253.92
711.61	253.47
711.95	253.13
712.28	252.69
712.61	252.23
712.95	251.97
713.28	251.64
713.61	251.08
713.95	250.55
714.28	250.24
714.61	249.85
714.95	249.44
715.28	249.00
715.61	248.57
715.95	248.25
716.28	247.83
716.61	247.50
716.95	247.10
717.28	246.76
717.61	246.35
717.94	246.04
718.28	245.48
718.61	245.12
718.94	244.72
719.27	244.35
719.61	243.99
719.94	243.57
720.27	242.99
720.60	242.62
720.94	242.28
721.27	241.90
721.60	241.55
721.93	241.31
722.27	241.16
722.60	240.93
722.93	240.57
723.26	240.34
723.59	240.00
723.93	239.78
724.26	239.48
724.59	239.22
724.92	238.96
725.25	238.66
725.59	238.42
725.92	238.13
726.25	237.91
726.58	237.66
726.91	237.37
727.24	237.19
727.57	236.86
727.91	236.59
728.24	236.45
728.57	236.21
728.90	236.03
729.23	235.64
729.56	235.53
729.89	235.23
730.22	234.99
730.55	234.77
730.89	234.45
731.22	234.27
731.55	233.98
731.88	233.77
732.21	233.58
732.54	233.22
732.87	232.96
733.20	232.68
733.53	232.50
733.86	232.32
734.19	232.01
734.52	231.92
734.85	231.94
735.18	231.58
735.51	231.47
735.84	231.18
736.17	231.14
736.50	230.67
736.83	230.95
737.16	230.72
737.49	230.53
737.82	230.38
738.15	230.18
738.48	230.01
738.81	229.73
739.14	229.42
739.47	229.29
739.80	229.10
740.13	228.96
740.46	228.65
740.79	228.40
741.12	228.20
741.45	227.93
741.78	227.55
742.11	227.50
742.44	227.21
742.77	227.18
743.10	226.87
743.43	226.71
743.75	226.07
744.08	226.38
744.41	226.15
744.74	225.92
745.07	225.69
745.40	225.59
745.73	225.61
746.06	225.51
746.39	225.39
746.71	225.26
747.04	225.06
747.37	224.91
747.70	224.80
748.03	224.67
748.36	224.63
748.68	224.48
749.01	224.21
749.34	224.17
749.67	223.93
750.00	223.89
750.33	224.08
750.65	223.96
750.98	223.35
751.31	223.25
751.64	223.16
751.97	223.24
752.29	223.05
752.62	222.75
752.95	222.60
753.28	222.46
753.60	222.35
753.93	222.34
754.26	222.29
754.59	222.12
754.91	221.96
755.24	221.85
755.57	221.74
755.90	221.65
756.22	221.39
756.55	221.29
756.88	221.11
757.20	220.69
757.53	220.52
757.86	220.44
758.19	220.30
758.51	220.14
758.84	219.78
759.17	219.67
759.49	219.66
759.82	219.76
760.15	219.67
760.47	219.57
760.80	219.42
761.13	219.35
761.45	219.14
761.78	219.07
762.11	218.85
762.43	218.71
762.76	218.62
763.08	218.64
763.41	218.51
763.74	218.42
764.06	218.42
764.39	218.34
764.71	218.21
765.04	218.19
765.37	218.14
765.69	218.09
766.02	218.05
766.34	217.84
766.67	217.57
767.00	217.45
767.32	217.58
767.65	217.66
767.97	217.60
768.30	217.60
768.62	217.52
768.95	217.51
769.27	217.46
769.60	217.48
769.92	217.36
770.25	217.24
770.57	217.14
770.90	217.03
771.22	217.00
771.55	216.97
771.87	216.91
772.20	216.86
772.52	217.15
772.85	217.41
773.17	217.40
773.50	217.33
773.82	217.30
774.15	216.99
774.47	216.66
774.80	216.57
775.12	216.49
775.45	216.48
775.77	216.39
776.09	216.32
776.42	216.22
776.74	216.16
777.07	216.10
777.39	216.07
777.72	216.01
778.04	215.90
778.36	215.82
778.69	215.76
779.01	215.75
779.33	215.40
779.66	215.08
779.98	215.03
780.31	215.03
780.63	215.11
780.95	215.21
781.28	215.23
781.60	215.16
781.92	215.18
782.25	215.13
782.57	215.08
782.89	215.09
783.22	214.96
783.54	214.92
783.86	214.92
784.19	214.81
784.51	214.83
784.83	214.79
785.16	214.79
785.48	214.75
785.80	214.67
786.12	214.62
786.45	214.50
786.77	214.49
787.09	214.48
787.42	214.31
787.74	214.24
788.06	214.20
788.38	214.14
788.71	214.01
789.03	213.95
789.35	214.04
789.67	213.94
789.99	214.01
790.32	213.88
790.64	213.86
790.96	214.22
791.28	214.09
791.61	214.08
791.93	214.05
792.25	214.05
792.57	214.35
792.89	214.28
793.21	214.31
793.54	214.26
793.86	214.18
794.18	214.22
