SpectraSuite Data File
++++++++++++++++++++++++++++++++++++
Date: Mon Feb 25 17:15:43 EST 2013
User: group
Dark Spectrum Present: No
Reference Spectrum Present: No
Number of Sampled Component Spectra: 1
Spectrometers: USB2E7196
Integration Time (usec): 104000 (USB2E7196)
Spectra Averaged: 20 (USB2E7196)
Boxcar Smoothing: 10 (USB2E7196)
Correct for Electrical Dark: No (USB2E7196)
Strobe/Lamp Enabled: No (USB2E7196)
Correct for Detector Non-linearity: No (USB2E7196)
Correct for Stray Light: No (USB2E7196)
Number of Pixels in Processed Spectrum: 2048
>>>>>Begin Processed Spectral Data<<<<<
339.09	0.00
339.48	200.15
339.86	201.10
340.24	201.50
340.63	203.50
341.01	210.85
341.39	206.00
341.78	207.60
342.16	208.60
342.54	210.20
342.93	198.82
343.31	208.82
343.69	209.26
344.07	209.70
344.46	210.19
344.84	210.57
345.22	210.63
345.60	210.93
345.99	211.09
346.37	211.25
346.75	211.31
347.13	211.38
347.52	211.54
347.90	211.67
348.28	211.69
348.66	211.67
349.05	211.60
349.43	211.67
349.81	211.70
350.19	211.73
350.57	211.79
350.96	211.83
351.34	211.94
351.72	212.04
352.10	212.15
352.48	212.13
352.87	212.17
353.25	212.18
353.63	212.16
354.01	212.20
354.39	212.28
354.77	212.36
355.15	212.55
355.54	212.51
355.92	212.49
356.30	212.55
356.68	212.88
357.06	212.96
357.44	212.97
357.82	213.04
358.20	213.15
358.58	213.18
358.97	213.26
359.35	213.39
359.73	213.46
360.11	213.50
360.49	213.63
360.87	213.72
361.25	213.80
361.63	213.97
362.01	214.08
362.39	214.03
362.77	214.06
363.15	214.03
363.53	214.02
363.91	214.03
364.29	214.06
364.67	213.70
365.05	213.78
365.43	213.83
365.81	213.89
366.19	214.05
366.57	214.27
366.95	214.32
367.33	214.24
367.71	214.23
368.09	214.32
368.47	214.28
368.85	214.22
369.23	214.25
369.61	214.14
369.99	214.22
370.37	214.22
370.75	214.39
371.13	214.32
371.51	214.30
371.89	214.31
372.27	214.32
372.65	214.38
373.03	214.26
373.41	214.20
373.78	214.14
374.16	213.87
374.54	213.74
374.92	213.59
375.30	213.57
375.68	213.45
376.06	213.44
376.44	213.35
376.82	213.32
377.19	213.23
377.57	213.17
377.95	212.94
378.33	212.91
378.71	212.63
379.09	212.62
379.47	212.65
379.84	212.56
380.22	212.45
380.60	212.34
380.98	212.29
381.36	212.20
381.73	212.09
382.11	212.18
382.49	212.04
382.87	212.02
383.25	211.97
383.62	212.39
384.00	212.20
384.38	212.21
384.76	212.26
385.13	212.37
385.51	212.37
385.89	212.34
386.27	212.38
386.64	212.43
387.02	212.31
387.40	212.19
387.78	212.20
388.15	212.24
388.53	212.22
388.91	212.12
389.29	212.14
389.66	212.21
390.04	212.10
390.42	212.13
390.79	212.10
391.17	212.04
391.55	211.64
391.92	211.58
392.30	211.55
392.68	211.42
393.05	211.41
393.43	211.38
393.81	211.38
394.18	211.30
394.56	211.25
394.94	211.45
395.31	211.46
395.69	211.58
396.06	211.53
396.44	211.48
396.82	211.50
397.19	211.65
397.57	211.57
397.95	211.65
398.32	211.63
398.70	211.73
399.07	211.87
399.45	211.90
399.82	211.96
400.20	211.97
400.58	211.97
400.95	211.86
401.33	211.98
401.70	212.29
402.08	212.36
402.45	212.43
402.83	212.47
403.20	212.52
403.58	212.51
403.95	212.72
404.33	212.91
404.71	213.10
405.08	213.36
405.46	213.47
405.83	213.63
406.21	213.79
406.58	213.83
406.96	213.91
407.33	214.09
407.70	214.32
408.08	214.80
408.45	215.07
408.83	215.31
409.20	215.44
409.58	215.40
409.95	215.70
410.33	215.99
410.70	216.16
411.08	216.58
411.45	216.94
411.82	217.21
412.20	217.67
412.57	218.24
412.95	218.38
413.32	218.89
413.69	219.33
414.07	219.84
414.44	220.45
414.82	221.07
415.19	221.75
415.56	222.50
415.94	222.96
416.31	223.84
416.68	224.70
417.06	225.65
417.43	226.72
417.81	227.67
418.18	228.76
418.55	229.86
418.93	230.92
419.30	232.10
419.67	233.45
420.04	234.73
420.42	236.00
420.79	237.73
421.16	239.32
421.54	241.07
421.91	242.73
422.28	244.47
422.66	246.36
423.03	248.41
423.40	250.23
423.77	252.29
424.15	254.32
424.52	256.48
424.89	258.83
425.26	260.99
425.64	263.16
426.01	265.43
426.38	267.77
426.75	270.37
427.13	273.02
427.50	275.62
427.87	278.34
428.24	281.14
428.61	283.71
428.99	286.75
429.36	289.82
429.73	293.00
430.10	296.20
430.47	299.41
430.85	302.54
431.22	306.05
431.59	309.88
431.96	313.41
432.33	317.32
432.70	321.11
433.08	325.50
433.45	329.70
433.82	333.93
434.19	338.65
434.56	343.20
434.93	347.51
435.30	351.85
435.68	356.67
436.05	361.26
436.42	365.95
436.79	370.22
437.16	374.94
437.53	379.76
437.90	384.50
438.27	389.14
438.64	394.01
439.01	398.57
439.38	402.42
439.75	406.35
440.13	410.80
440.50	415.10
440.87	418.56
441.24	422.06
441.61	425.92
441.98	428.75
442.35	431.95
442.72	435.40
443.09	438.81
443.46	440.73
443.83	442.07
444.20	443.18
444.57	444.80
444.94	445.45
445.31	446.27
445.68	447.19
446.05	447.45
446.42	446.79
446.79	446.21
447.16	445.37
447.53	444.95
447.90	443.08
448.27	440.99
448.64	438.40
449.01	436.58
449.37	433.32
449.74	430.19
450.11	426.69
450.48	422.48
450.85	418.07
451.22	414.55
451.59	411.11
451.96	407.80
452.33	403.44
452.70	399.42
453.07	394.70
453.43	389.81
453.80	385.28
454.17	381.05
454.54	376.88
454.91	372.69
455.28	368.23
455.65	364.08
456.02	360.49
456.38	357.08
456.75	352.87
457.12	349.25
457.49	345.69
457.86	342.03
458.23	339.16
458.59	336.04
458.96	332.76
459.33	329.93
459.70	327.07
460.07	324.90
460.43	322.39
460.80	319.97
461.17	317.88
461.54	315.73
461.91	313.60
462.27	311.40
462.64	309.57
463.01	307.57
463.38	305.90
463.74	303.56
464.11	301.80
464.48	300.22
464.85	298.67
465.21	297.60
465.58	296.30
465.95	294.59
466.32	293.35
466.68	292.08
467.05	290.91
467.42	289.65
467.78	288.21
468.15	286.90
468.52	286.07
468.88	284.77
469.25	283.69
469.62	282.90
469.98	282.04
470.35	281.22
470.72	280.45
471.08	279.41
471.45	278.73
471.82	278.20
472.18	277.53
472.55	277.00
472.92	276.36
473.28	275.86
473.65	275.47
474.02	274.89
474.38	274.63
474.75	274.29
475.11	274.04
475.48	273.84
475.85	273.69
476.21	273.40
476.58	273.33
476.94	273.26
477.31	273.13
477.67	273.07
478.04	273.05
478.41	273.14
478.77	273.62
479.14	273.78
479.50	273.90
479.87	274.19
480.23	274.50
480.60	274.70
480.96	275.08
481.33	275.69
481.69	276.32
482.06	276.76
482.42	277.29
482.79	277.84
483.15	278.54
483.52	279.40
483.88	280.23
484.25	280.98
484.61	281.90
484.98	282.82
485.34	283.96
485.71	285.12
486.07	286.40
486.44	287.37
486.80	288.66
487.17	290.07
487.53	291.64
487.90	293.29
488.26	295.18
488.62	296.99
488.99	298.71
489.35	300.67
489.72	302.71
490.08	304.90
490.44	307.17
490.81	309.66
491.17	312.16
491.54	314.87
491.90	317.76
492.26	320.75
492.63	323.99
492.99	327.20
493.36	330.62
493.72	334.19
494.08	337.96
494.45	342.01
494.81	346.19
495.17	350.37
495.54	354.92
495.90	359.59
496.26	364.45
496.63	369.59
496.99	374.89
497.35	380.41
497.72	386.26
498.08	392.20
498.44	398.39
498.80	405.01
499.17	411.78
499.53	418.77
499.89	426.09
500.26	433.41
500.62	441.07
500.98	449.23
501.34	457.45
501.71	466.06
502.07	474.75
502.43	483.75
502.79	492.93
503.16	502.39
503.52	512.24
503.88	522.45
504.24	532.86
504.60	543.46
504.97	554.55
505.33	565.68
505.69	577.58
506.05	589.61
506.41	601.74
506.78	614.09
507.14	626.66
507.50	639.65
507.86	653.05
508.22	666.68
508.59	680.31
508.95	694.80
509.31	709.40
509.67	724.41
510.03	739.63
510.39	755.29
510.75	771.14
511.12	786.99
511.48	803.20
511.84	819.69
512.20	836.24
512.56	853.25
512.92	870.55
513.28	887.94
513.64	905.40
514.00	923.17
514.37	941.05
514.73	959.53
515.09	978.09
515.45	996.62
515.81	1015.30
516.17	1034.04
516.53	1052.76
516.89	1071.64
517.25	1090.63
517.61	1109.64
517.97	1128.82
518.33	1148.05
518.69	1167.37
519.05	1186.75
519.41	1206.46
519.77	1226.68
520.13	1246.01
520.49	1265.43
520.85	1284.89
521.21	1304.78
521.57	1324.71
521.93	1344.30
522.29	1364.18
522.65	1383.89
523.01	1403.49
523.37	1422.57
523.73	1442.08
524.09	1461.50
524.45	1481.16
524.81	1500.69
525.17	1520.53
525.53	1539.76
525.89	1559.12
526.25	1578.30
526.61	1597.00
526.97	1615.68
527.33	1634.13
527.68	1653.27
528.04	1671.38
528.40	1689.02
528.76	1706.78
529.12	1724.95
529.48	1743.59
529.84	1761.44
530.20	1778.95
530.56	1796.56
530.91	1814.87
531.27	1832.96
531.63	1850.11
531.99	1866.82
532.35	1883.13
532.71	1899.28
533.07	1916.16
533.42	1931.92
533.78	1948.14
534.14	1964.40
534.50	1978.85
534.86	1993.99
535.21	2008.19
535.57	2023.57
535.93	2038.20
536.29	2052.41
536.65	2066.57
537.00	2079.40
537.36	2092.41
537.72	2105.01
538.08	2117.58
538.44	2129.96
538.79	2142.06
539.15	2154.26
539.51	2166.38
539.87	2178.77
540.22	2190.44
540.58	2201.99
540.94	2213.49
541.29	2223.55
541.65	2232.68
542.01	2243.33
542.37	2252.91
542.72	2263.05
543.08	2272.02
543.44	2281.94
543.79	2290.10
544.15	2297.77
544.51	2306.30
544.87	2314.60
545.22	2322.20
545.58	2329.18
545.94	2335.39
546.29	2341.01
546.65	2346.34
547.01	2351.52
547.36	2356.51
547.72	2361.35
548.07	2365.33
548.43	2368.88
548.79	2372.42
549.14	2376.01
549.50	2379.38
549.86	2382.25
550.21	2384.57
550.57	2387.56
550.92	2388.72
551.28	2390.84
551.64	2392.70
551.99	2394.87
552.35	2395.68
552.70	2397.35
553.06	2398.58
553.41	2399.70
553.77	2400.79
554.13	2401.54
554.48	2402.35
554.84	2402.80
555.19	2402.51
555.55	2401.78
555.90	2401.21
556.26	2400.52
556.61	2399.96
556.97	2398.54
557.32	2397.58
557.68	2395.82
558.03	2393.64
558.39	2392.12
558.74	2390.99
559.10	2389.82
559.45	2387.71
559.81	2386.01
560.16	2383.19
560.52	2381.19
560.87	2378.72
561.23	2375.44
561.58	2373.28
561.94	2369.98
562.29	2366.28
562.64	2363.30
563.00	2360.66
563.35	2358.25
563.71	2356.36
564.06	2353.68
564.42	2351.44
564.77	2348.86
565.12	2346.47
565.48	2343.95
565.83	2341.34
566.19	2338.81
566.54	2334.30
566.89	2330.05
567.25	2326.79
567.60	2323.35
567.96	2319.37
568.31	2315.55
568.66	2311.83
569.02	2307.08
569.37	2302.07
569.72	2297.85
570.08	2293.05
570.43	2288.02
570.78	2282.58
571.14	2276.69
571.49	2271.30
571.84	2265.80
572.20	2259.41
572.55	2253.73
572.90	2246.88
573.26	2240.22
573.61	2233.04
573.96	2226.90
574.31	2220.09
574.67	2212.13
575.02	2204.42
575.37	2197.12
575.72	2189.40
576.08	2182.50
576.43	2174.84
576.78	2168.07
577.13	2161.09
577.49	2154.05
577.84	2146.87
578.19	2140.18
578.54	2133.57
578.90	2126.95
579.25	2119.40
579.60	2111.94
579.95	2104.19
580.30	2097.49
580.66	2091.20
581.01	2083.85
581.36	2076.07
581.71	2068.83
582.06	2062.09
582.42	2055.49
582.77	2047.52
583.12	2040.32
583.47	2033.46
583.82	2027.17
584.17	2019.99
584.53	2012.78
584.88	2005.72
585.23	1998.34
585.58	1991.00
585.93	1983.36
586.28	1976.61
586.63	1969.48
586.98	1962.91
587.34	1956.37
587.69	1949.28
588.04	1941.75
588.39	1934.92
588.74	1927.81
589.09	1921.35
589.44	1914.41
589.79	1907.64
590.14	1901.70
590.49	1894.89
590.84	1887.51
591.19	1880.81
591.54	1873.93
591.89	1866.13
592.25	1858.91
592.60	1851.45
592.95	1843.79
593.30	1835.63
593.65	1827.28
594.00	1820.05
594.35	1813.80
594.70	1806.44
595.05	1799.80
595.40	1792.73
595.75	1785.19
596.10	1778.70
596.45	1771.67
596.80	1764.96
597.15	1758.34
597.50	1750.98
597.85	1744.34
598.19	1737.27
598.54	1730.22
598.89	1723.79
599.24	1718.37
599.59	1711.82
599.94	1706.33
600.29	1700.10
600.64	1694.63
600.99	1688.18
601.34	1682.02
601.69	1674.37
602.04	1667.74
602.39	1660.88
602.74	1654.73
603.08	1649.23
603.43	1643.46
603.78	1637.04
604.13	1630.61
604.48	1624.01
604.83	1618.63
605.18	1613.18
605.53	1607.16
605.87	1600.70
606.22	1594.67
606.57	1588.04
606.92	1581.78
607.27	1575.07
607.62	1568.92
607.96	1563.02
608.31	1557.46
608.66	1550.96
609.01	1544.53
609.36	1537.77
609.70	1530.89
610.05	1523.69
610.40	1516.38
610.75	1509.04
611.10	1502.72
611.44	1494.95
611.79	1487.65
612.14	1479.81
612.49	1471.62
612.83	1464.36
613.18	1456.82
613.53	1449.00
613.88	1441.01
614.22	1433.94
614.57	1426.32
614.92	1418.74
615.27	1410.83
615.61	1402.96
615.96	1395.57
616.31	1388.80
616.65	1382.02
617.00	1375.11
617.35	1368.03
617.70	1360.74
618.04	1353.14
618.39	1344.97
618.74	1338.06
619.08	1330.38
619.43	1323.05
619.78	1316.22
620.12	1308.98
620.47	1302.12
620.82	1294.57
621.16	1287.22
621.51	1279.44
621.85	1272.34
622.20	1264.75
622.55	1257.45
622.89	1250.17
623.24	1243.00
623.59	1235.13
623.93	1227.86
624.28	1220.79
624.62	1213.80
624.97	1206.80
625.32	1199.87
625.66	1193.32
626.01	1186.67
626.35	1180.35
626.70	1173.70
627.04	1167.34
627.39	1161.13
627.73	1154.55
628.08	1148.62
628.43	1142.04
628.77	1135.59
629.12	1128.92
629.46	1123.36
629.81	1117.15
630.15	1110.71
630.50	1104.22
630.84	1097.93
631.19	1091.71
631.53	1085.30
631.88	1078.67
632.22	1071.98
632.57	1066.12
632.91	1059.76
633.26	1053.50
633.60	1047.28
633.95	1041.45
634.29	1034.97
634.64	1028.70
634.98	1022.15
635.32	1016.03
635.67	1010.40
636.01	1004.74
636.36	998.77
636.70	992.71
637.05	986.93
637.39	981.44
637.73	976.20
638.08	971.09
638.42	965.67
638.77	960.21
639.11	954.65
639.45	949.24
639.80	943.36
640.14	937.18
640.49	931.47
640.83	925.85
641.17	920.25
641.52	914.56
641.86	908.60
642.20	903.30
642.55	897.30
642.89	891.71
643.23	885.72
643.58	880.35
643.92	874.40
644.26	868.52
644.61	862.84
644.95	856.90
645.29	851.09
645.64	845.10
645.98	839.45
646.32	834.17
646.66	828.72
647.01	823.39
647.35	818.65
647.69	813.15
648.04	807.90
648.38	802.29
648.72	796.99
649.06	791.83
649.41	786.40
649.75	781.03
650.09	775.78
650.43	770.64
650.78	765.22
651.12	759.83
651.46	754.85
651.80	749.73
652.14	744.76
652.49	739.71
652.83	734.65
653.17	729.25
653.51	724.05
653.85	719.15
654.20	714.12
654.54	708.91
654.88	703.95
655.22	698.88
655.56	693.92
655.90	688.89
656.25	683.78
656.59	678.92
656.93	674.46
657.27	669.74
657.61	664.85
657.95	660.31
658.29	655.96
658.64	651.40
658.98	646.77
659.32	641.90
659.66	637.35
660.00	632.66
660.34	628.17
660.68	623.51
661.02	619.07
661.36	614.70
661.70	610.46
662.05	606.31
662.39	602.49
662.73	598.62
663.07	594.87
663.41	591.09
663.75	587.12
664.09	582.98
664.43	578.86
664.77	575.00
665.11	571.01
665.45	567.15
665.79	563.37
666.13	559.69
666.47	556.02
666.81	552.24
667.15	548.80
667.49	545.70
667.83	542.52
668.17	539.00
668.51	535.63
668.85	532.45
669.19	529.37
669.53	525.85
669.87	522.29
670.21	518.84
670.55	515.56
670.89	512.74
671.23	509.80
671.57	506.80
671.91	503.78
672.25	500.82
672.58	497.84
672.92	494.80
673.26	491.75
673.60	489.12
673.94	486.28
674.28	483.29
674.62	480.35
674.96	477.53
675.30	474.85
675.64	472.16
675.97	469.32
676.31	466.62
676.65	464.03
676.99	461.75
677.33	459.02
677.67	456.40
678.01	453.60
678.34	450.98
678.68	448.48
679.02	445.90
679.36	443.43
679.70	440.91
680.04	438.44
680.37	436.11
680.71	433.54
681.05	431.23
681.39	429.02
681.73	426.59
682.06	424.28
682.40	422.10
682.74	419.71
683.08	417.49
683.42	415.04
683.75	412.82
684.09	410.39
684.43	408.24
684.77	405.98
685.10	403.79
685.44	401.51
685.78	399.27
686.12	397.32
686.45	395.22
686.79	393.18
687.13	391.30
687.46	389.34
687.80	387.49
688.14	385.41
688.48	383.44
688.81	381.49
689.15	379.40
689.49	377.39
689.82	375.45
690.16	373.31
690.50	371.32
690.83	369.35
691.17	367.30
691.51	365.42
691.84	363.69
692.18	361.92
692.52	360.19
692.85	358.73
693.19	357.06
693.52	355.32
693.86	353.55
694.20	351.80
694.53	350.05
694.87	348.28
695.21	346.68
695.54	344.99
695.88	343.28
696.21	341.73
696.55	340.21
696.88	338.73
697.22	337.22
697.56	335.82
697.89	334.30
698.23	332.99
698.56	331.58
698.90	330.24
699.23	328.73
699.57	327.35
699.90	325.64
700.24	324.14
700.58	322.81
700.91	321.55
701.25	320.40
701.58	319.09
701.92	317.73
702.25	316.40
702.59	315.13
702.92	313.97
703.26	312.71
703.59	311.44
703.93	310.50
704.26	309.36
704.60	308.14
704.93	306.98
705.26	305.78
705.60	304.70
705.93	303.51
706.27	302.51
706.60	301.61
706.94	300.85
707.27	299.78
707.61	298.77
707.94	297.59
708.27	296.32
708.61	295.29
708.94	294.38
709.28	293.45
709.61	292.42
709.94	291.48
710.28	290.61
710.61	289.63
710.95	288.48
711.28	287.76
711.61	286.87
711.95	286.06
712.28	285.17
712.61	284.36
712.95	283.69
713.28	282.95
713.61	281.99
713.95	280.98
714.28	280.29
714.61	279.33
714.95	278.65
715.28	277.80
715.61	277.02
715.95	276.11
716.28	275.26
716.61	274.56
716.95	273.70
717.28	272.88
717.61	272.24
717.94	271.55
718.28	270.61
718.61	270.02
718.94	269.27
719.27	268.59
719.61	267.80
719.94	266.94
720.27	266.13
720.60	265.49
720.94	264.88
721.27	264.22
721.60	263.74
721.93	263.11
722.27	262.72
722.60	262.16
722.93	261.72
723.26	261.21
723.59	260.67
723.93	260.19
724.26	259.73
724.59	259.20
724.92	258.57
725.25	258.19
725.59	257.62
725.92	257.15
726.25	256.64
726.58	256.21
726.91	255.72
727.24	255.27
727.57	254.76
727.91	254.23
728.24	253.81
728.57	253.30
728.90	252.92
729.23	252.40
729.56	252.16
729.89	251.62
730.22	251.23
730.55	250.77
730.89	250.30
731.22	249.86
731.55	249.32
731.88	248.99
732.21	248.51
732.54	248.09
732.87	247.71
733.20	247.35
733.53	247.02
733.86	246.70
734.19	246.24
734.52	245.94
734.85	245.85
735.18	245.36
735.51	245.09
735.84	244.70
736.17	244.44
736.50	243.85
736.83	243.92
737.16	243.51
737.49	243.12
737.82	242.82
738.15	242.52
738.48	242.28
738.81	241.88
739.14	241.48
739.47	241.14
739.80	240.82
740.13	240.57
740.46	240.19
740.79	239.82
741.12	239.60
741.45	239.26
741.78	238.70
742.11	238.60
742.44	238.23
742.77	238.02
743.10	237.62
743.43	237.37
743.75	236.79
744.08	236.96
744.41	236.68
744.74	236.30
745.07	235.95
745.40	235.71
745.73	235.58
746.06	235.33
746.39	235.04
746.71	234.75
747.04	234.43
747.37	234.18
747.70	234.05
748.03	233.73
748.36	233.46
748.68	233.28
749.01	232.88
749.34	232.67
749.67	232.45
750.00	232.23
750.33	232.23
750.65	232.02
750.98	231.35
751.31	231.11
751.64	230.97
751.97	231.03
752.29	230.77
752.62	230.40
752.95	230.22
753.28	229.96
753.60	229.79
753.93	229.68
754.26	229.45
754.59	229.07
754.91	228.89
755.24	228.74
755.57	228.50
755.90	228.31
756.22	228.02
756.55	227.73
756.88	227.54
757.20	227.10
757.53	226.70
757.86	226.53
758.19	226.34
758.51	226.16
758.84	225.73
759.17	225.46
759.49	225.32
759.82	225.32
760.15	225.26
760.47	224.99
760.80	224.68
761.13	224.57
761.45	224.44
761.78	224.24
762.11	224.04
762.43	223.83
762.76	223.65
763.08	223.62
763.41	223.45
763.74	223.29
764.06	223.11
764.39	223.07
764.71	222.90
765.04	222.88
765.37	222.73
765.69	222.63
766.02	222.55
766.34	222.38
766.67	222.17
767.00	222.05
767.32	222.07
767.65	222.20
767.97	222.00
768.30	221.84
768.62	221.71
768.95	221.51
769.27	221.44
769.60	221.38
769.92	221.18
770.25	220.97
770.57	220.86
770.90	220.74
771.22	220.64
771.55	220.51
771.87	220.37
772.20	220.20
772.52	220.34
772.85	220.73
773.17	220.67
773.50	220.48
773.82	220.34
774.15	220.13
774.47	219.80
774.80	219.78
775.12	219.72
775.45	219.66
775.77	219.72
776.09	219.69
776.42	219.55
776.74	219.56
777.07	219.55
777.39	219.45
777.72	219.38
778.04	219.30
778.36	219.23
778.69	219.11
779.01	219.06
779.33	218.75
779.66	218.18
779.98	218.14
780.31	218.14
780.63	218.24
780.95	218.24
781.28	218.17
781.60	218.03
781.92	217.97
782.25	217.92
782.57	217.79
782.89	217.66
783.22	217.55
783.54	217.42
783.86	217.42
784.19	217.38
784.51	217.40
784.83	217.24
785.16	217.22
785.48	217.21
785.80	217.22
786.12	217.18
786.45	217.11
786.77	217.08
