SpectraSuite Data File
++++++++++++++++++++++++++++++++++++
Date: Mon Feb 25 17:03:56 EST 2013
User: group
Dark Spectrum Present: No
Reference Spectrum Present: No
Number of Sampled Component Spectra: 1
Spectrometers: USB2E7196
Integration Time (usec): 104000 (USB2E7196)
Spectra Averaged: 20 (USB2E7196)
Boxcar Smoothing: 10 (USB2E7196)
Correct for Electrical Dark: No (USB2E7196)
Strobe/Lamp Enabled: No (USB2E7196)
Correct for Detector Non-linearity: No (USB2E7196)
Correct for Stray Light: No (USB2E7196)
Number of Pixels in Processed Spectrum: 2048
>>>>>Begin Processed Spectral Data<<<<<
339.09	0.00
339.48	197.70
339.86	199.70
340.24	201.75
340.63	203.35
341.01	209.85
341.39	205.45
341.78	205.55
342.16	208.30
342.54	208.25
342.93	198.29
343.31	208.26
343.69	208.81
344.07	209.31
344.46	209.75
344.84	210.07
345.22	210.09
345.60	210.32
345.99	210.56
346.37	210.65
346.75	210.78
347.13	210.90
347.52	210.96
347.90	211.10
348.28	211.07
348.66	211.15
349.05	211.06
349.43	211.13
349.81	211.10
350.19	211.11
350.57	211.22
350.96	211.23
351.34	211.35
351.72	211.46
352.10	211.55
352.48	211.60
352.87	211.70
353.25	211.72
353.63	211.80
354.01	211.88
354.39	212.02
354.77	212.09
355.15	212.24
355.54	212.29
355.92	212.22
356.30	212.22
356.68	212.53
357.06	212.64
357.44	212.67
357.82	212.76
358.20	212.82
358.58	212.85
358.97	212.94
359.35	213.05
359.73	213.17
360.11	213.25
360.49	213.32
360.87	213.35
361.25	213.46
361.63	213.58
362.01	213.68
362.39	213.66
362.77	213.72
363.15	213.65
363.53	213.66
363.91	213.69
364.29	213.73
364.67	213.36
365.05	213.34
365.43	213.35
365.81	213.35
366.19	213.55
366.57	213.71
366.95	213.55
367.33	213.50
367.71	213.48
368.09	213.45
368.47	213.38
368.85	213.38
369.23	213.42
369.61	213.34
369.99	213.32
370.37	213.40
370.75	213.44
371.13	213.43
371.51	213.39
371.89	213.39
372.27	213.38
372.65	213.42
373.03	213.36
373.41	213.27
373.78	213.29
374.16	213.05
374.54	212.80
374.92	212.87
375.30	212.77
375.68	212.65
376.06	212.65
376.44	212.62
376.82	212.56
377.19	212.52
377.57	212.40
377.95	212.24
378.33	212.06
378.71	211.85
379.09	211.81
379.47	211.72
379.84	211.61
380.22	211.55
380.60	211.39
380.98	211.35
381.36	211.32
381.73	211.19
382.11	211.17
382.49	211.16
382.87	211.00
383.25	210.94
383.62	211.26
384.00	211.05
384.38	211.01
384.76	211.06
385.13	211.15
385.51	211.16
385.89	211.07
386.27	211.06
386.64	211.10
387.02	211.03
387.40	210.95
387.78	210.97
388.15	210.88
388.53	210.87
388.91	210.81
389.29	210.75
389.66	210.79
390.04	210.78
390.42	210.76
390.79	210.82
391.17	210.85
391.55	210.47
391.92	210.52
392.30	210.49
392.68	210.35
393.05	210.21
393.43	210.21
393.81	210.26
394.18	210.24
394.56	210.22
394.94	210.28
395.31	210.29
395.69	210.41
396.06	210.53
396.44	210.55
396.82	210.54
397.19	210.72
397.57	210.65
397.95	210.75
398.32	210.70
398.70	210.75
399.07	210.80
399.45	210.78
399.82	210.77
400.20	210.80
400.58	210.85
400.95	210.78
401.33	210.91
401.70	211.20
402.08	211.26
402.45	211.36
402.83	211.45
403.20	211.58
403.58	211.52
403.95	211.64
404.33	211.71
404.71	211.82
405.08	212.17
405.46	212.32
405.83	212.29
406.21	212.49
406.58	212.62
406.96	212.72
407.33	213.00
407.70	213.24
408.08	213.70
408.45	213.89
408.83	214.26
409.20	214.35
409.58	214.34
409.95	214.68
410.33	214.95
410.70	215.20
411.08	215.60
411.45	215.99
411.82	216.28
412.20	216.75
412.57	217.44
412.95	217.46
413.32	217.95
413.69	218.51
414.07	218.96
414.44	219.53
414.82	220.29
415.19	221.00
415.56	221.78
415.94	222.42
416.31	223.38
416.68	224.20
417.06	225.32
417.43	226.40
417.81	227.50
418.18	228.67
418.55	229.98
418.93	231.29
419.30	232.59
419.67	234.17
420.04	235.79
420.42	237.27
420.79	239.44
421.16	241.36
421.54	243.44
421.91	245.58
422.28	247.74
422.66	249.91
423.03	252.36
423.40	254.64
423.77	257.07
424.15	259.54
424.52	262.19
424.89	264.97
425.26	267.73
425.64	270.36
426.01	273.25
426.38	276.30
426.75	279.46
427.13	282.68
427.50	285.93
427.87	289.34
428.24	292.85
428.61	296.05
428.99	299.85
429.36	303.85
429.73	307.83
430.10	311.72
430.47	315.75
430.85	319.81
431.22	324.27
431.59	329.21
431.96	333.71
432.33	338.71
432.70	343.64
433.08	349.41
433.45	354.85
433.82	360.25
434.19	366.19
434.56	372.07
434.93	377.79
435.30	383.51
435.68	389.81
436.05	396.03
436.42	402.33
436.79	408.05
437.16	414.17
437.53	420.75
437.90	427.42
438.27	433.91
438.64	440.45
439.01	446.54
439.38	451.86
439.75	457.42
440.13	463.60
440.50	469.44
440.87	474.17
441.24	479.18
441.61	484.58
441.98	488.76
442.35	493.50
442.72	498.32
443.09	503.10
443.46	506.03
443.83	508.27
444.20	510.14
444.57	512.62
444.94	514.10
445.31	515.51
445.68	517.12
446.05	517.92
446.42	517.80
446.79	517.58
447.16	517.16
447.53	517.00
447.90	514.94
448.27	513.03
448.64	510.13
449.01	508.11
449.37	504.41
449.74	500.62
450.11	496.37
450.48	491.42
450.85	486.28
451.22	481.86
451.59	477.75
451.96	473.74
452.33	468.35
452.70	463.42
453.07	457.38
453.43	450.93
453.80	445.09
454.17	439.36
454.54	434.00
454.91	428.30
455.28	422.55
455.65	417.36
456.02	412.44
456.38	407.98
456.75	402.37
457.12	397.70
457.49	393.16
457.86	388.39
458.23	384.62
458.59	380.38
458.96	376.23
459.33	372.34
459.70	368.55
460.07	365.51
460.43	361.90
460.80	358.73
461.17	356.02
461.54	353.00
461.91	350.25
462.27	347.29
462.64	344.81
463.01	342.08
463.38	339.58
463.74	336.45
464.11	334.08
464.48	332.13
464.85	329.91
465.21	328.25
465.58	326.49
465.95	324.17
466.32	322.31
466.68	320.43
467.05	318.54
467.42	316.66
467.78	314.73
468.15	313.05
468.52	311.76
468.88	309.90
469.25	308.32
469.62	307.01
469.98	305.70
470.35	304.33
470.72	303.05
471.08	301.53
471.45	300.48
471.82	299.45
472.18	298.15
472.55	297.20
472.92	296.01
473.28	294.91
473.65	294.08
474.02	293.15
474.38	292.45
474.75	291.80
475.11	291.12
475.48	290.51
475.85	289.92
476.21	289.24
476.58	288.82
476.94	288.42
477.31	287.97
477.67	287.57
478.04	287.35
478.41	287.20
478.77	287.36
479.14	287.08
479.50	286.78
479.87	286.66
480.23	286.50
480.60	286.31
480.96	286.32
481.33	286.41
481.69	286.46
482.06	286.45
482.42	286.50
482.79	286.48
483.15	286.69
483.52	286.90
483.88	286.98
484.25	287.09
484.61	287.25
484.98	287.44
485.34	287.80
485.71	288.09
486.07	288.34
486.44	288.38
486.80	288.79
487.17	289.27
487.53	289.85
487.90	290.54
488.26	291.28
488.62	292.04
488.99	292.54
489.35	293.28
489.72	294.06
490.08	294.72
490.44	295.46
490.81	296.27
491.17	297.09
491.54	298.11
491.90	299.11
492.26	300.19
492.63	301.24
492.99	302.33
493.36	303.41
493.72	304.60
494.08	305.75
494.45	306.95
494.81	308.26
495.17	309.39
495.54	310.67
495.90	311.89
496.26	312.96
496.63	314.36
496.99	315.57
497.35	316.87
497.72	318.39
498.08	319.87
498.44	321.28
498.80	322.82
499.17	324.30
499.53	325.80
499.89	327.24
500.26	328.72
500.62	329.93
500.98	331.42
501.34	332.85
501.71	334.37
502.07	335.70
502.43	336.94
502.79	338.22
503.16	339.29
503.52	340.58
503.88	341.88
504.24	343.07
504.60	344.31
504.97	345.54
505.33	346.68
505.69	347.94
506.05	348.97
506.41	349.98
506.78	350.87
507.14	351.65
507.50	352.67
507.86	353.52
508.22	354.57
508.59	355.39
508.95	356.13
509.31	356.92
509.67	357.75
510.03	358.47
510.39	359.19
510.75	359.94
511.12	360.65
511.48	361.20
511.84	361.73
512.20	362.17
512.56	362.63
512.92	363.11
513.28	363.42
513.64	363.76
514.00	364.02
514.37	364.36
514.73	364.86
515.09	364.97
515.45	365.19
515.81	365.24
516.17	365.24
516.53	365.44
516.89	365.43
517.25	365.45
517.61	365.59
517.97	365.64
518.33	365.70
518.69	365.79
519.05	365.95
519.41	366.07
519.77	366.52
520.13	366.52
520.49	366.49
520.85	366.46
521.21	366.81
521.57	367.05
521.93	367.18
522.29	367.33
522.65	367.54
523.01	367.87
523.37	368.17
523.73	368.63
524.09	368.83
524.45	369.14
524.81	369.55
525.17	370.08
525.53	370.75
525.89	371.28
526.25	371.76
526.61	372.26
526.97	372.80
527.33	373.36
527.68	374.49
528.04	375.32
528.40	376.10
528.76	376.81
529.12	377.75
529.48	378.83
529.84	379.80
530.20	380.93
530.56	381.98
530.91	383.34
531.27	384.59
531.63	386.14
531.99	387.51
532.35	388.99
532.71	390.41
533.07	391.91
533.42	393.81
533.78	395.35
534.14	396.99
534.50	398.60
534.86	400.30
535.21	401.71
535.57	403.60
535.93	405.55
536.29	407.63
536.65	409.59
537.00	411.46
537.36	413.52
537.72	415.55
538.08	417.76
538.44	419.75
538.79	421.96
539.15	424.04
539.51	426.23
539.87	428.47
540.22	430.81
540.58	433.19
540.94	435.38
541.29	437.80
541.65	440.15
542.01	442.86
542.37	445.23
542.72	447.83
543.08	450.20
543.44	452.94
543.79	455.25
544.15	457.78
544.51	460.56
544.87	463.24
545.22	465.95
545.58	468.49
545.94	471.09
546.29	473.81
546.65	476.46
547.01	479.12
547.36	481.84
547.72	484.44
548.07	487.13
548.43	489.63
548.79	492.28
549.14	494.95
549.50	497.62
549.86	500.23
550.21	502.94
550.57	505.81
550.92	508.24
551.28	511.07
551.64	513.77
551.99	516.32
552.35	518.84
552.70	521.32
553.06	523.96
553.41	526.65
553.77	529.28
554.13	531.76
554.48	534.54
554.84	537.13
555.19	539.57
555.55	542.04
555.90	544.46
556.26	547.02
556.61	549.41
556.97	551.54
557.32	553.93
557.68	555.97
558.03	558.22
558.39	560.52
558.74	562.71
559.10	564.79
559.45	567.09
559.81	569.45
560.16	571.69
560.52	573.88
560.87	576.16
561.23	578.07
561.58	580.42
561.94	582.34
562.29	584.26
562.64	586.49
563.00	588.44
563.35	590.63
563.71	592.66
564.06	594.80
564.42	596.89
564.77	598.98
565.12	601.05
565.48	603.18
565.83	605.19
566.19	607.05
566.54	608.95
566.89	610.70
567.25	612.59
567.60	614.58
567.96	616.61
568.31	618.28
568.66	619.96
569.02	621.31
569.37	622.68
569.72	624.15
570.08	625.38
570.43	626.62
570.78	627.62
571.14	628.48
571.49	629.47
571.84	630.51
572.20	631.41
572.55	632.47
572.90	632.92
573.26	633.50
573.61	634.12
573.96	634.83
574.31	635.25
574.67	635.42
575.02	635.45
575.37	635.43
575.72	635.43
576.08	635.70
576.43	635.80
576.78	636.20
577.13	636.35
577.49	636.52
577.84	636.60
578.19	637.04
578.54	637.48
578.90	637.65
579.25	637.88
579.60	637.92
579.95	637.72
580.30	637.95
580.66	638.15
581.01	638.07
581.36	637.95
581.71	637.96
582.06	638.06
582.42	638.16
582.77	637.95
583.12	638.02
583.47	637.99
583.82	638.00
584.17	637.78
584.53	637.78
584.88	637.55
585.23	637.52
585.58	637.10
585.93	636.84
586.28	636.75
586.63	636.47
586.98	636.27
587.34	636.31
587.69	635.88
588.04	635.54
588.39	635.45
588.74	634.98
589.09	634.75
589.44	634.29
589.79	634.02
590.14	633.75
590.49	633.14
590.84	632.58
591.19	632.35
591.54	631.82
591.89	630.91
592.25	630.60
592.60	629.79
592.95	629.19
593.30	628.29
593.65	627.42
594.00	626.61
594.35	626.71
594.70	625.76
595.05	625.08
595.40	624.18
595.75	623.12
596.10	622.55
596.45	621.49
596.80	620.79
597.15	619.98
597.50	618.99
597.85	618.35
598.19	617.46
598.54	616.46
598.89	615.61
599.24	615.08
599.59	614.03
599.94	613.32
600.29	612.40
600.64	611.57
600.99	610.65
601.34	609.82
601.69	607.96
602.04	606.94
602.39	606.07
602.74	605.35
603.08	604.75
603.43	604.19
603.78	603.57
604.13	602.66
604.48	601.79
604.83	601.24
605.18	600.54
605.53	599.73
605.87	598.75
606.22	598.01
606.57	597.07
606.92	596.09
607.27	595.20
607.62	594.26
607.96	593.43
608.31	592.56
608.66	591.53
609.01	590.57
609.36	589.58
609.70	588.39
610.05	587.10
610.40	585.80
610.75	584.21
611.10	583.21
611.44	581.77
611.79	580.19
612.14	578.61
612.49	576.86
612.83	575.45
613.18	573.93
613.53	572.46
613.88	570.92
614.22	569.51
614.57	567.81
614.92	566.31
615.27	564.78
615.61	563.23
615.96	561.64
616.31	560.19
616.65	558.88
617.00	557.39
617.35	555.87
617.70	554.30
618.04	552.61
618.39	550.64
618.74	549.23
619.08	547.67
619.43	546.03
619.78	544.62
620.12	543.08
620.47	541.64
620.82	539.80
621.16	538.10
621.51	536.46
621.85	534.99
622.20	533.31
622.55	531.65
622.89	530.00
623.24	528.47
623.59	526.72
623.93	525.02
624.28	523.52
624.62	522.28
624.97	520.78
625.32	519.22
625.66	517.78
626.01	516.09
626.35	514.52
626.70	513.04
627.04	511.63
627.39	509.83
627.73	508.30
628.08	506.98
628.43	505.43
628.77	503.81
629.12	502.20
629.46	500.84
629.81	499.21
630.15	497.60
630.50	495.87
630.84	494.20
631.19	492.51
631.53	490.85
631.88	488.78
632.22	486.94
632.57	485.54
632.91	483.90
633.26	482.26
633.60	480.72
633.95	479.17
634.29	477.41
634.64	476.15
634.98	474.43
635.32	473.03
635.67	471.57
636.01	470.15
636.36	468.52
636.70	466.98
637.05	465.38
637.39	463.81
637.73	462.36
638.08	461.25
638.42	459.93
638.77	458.41
639.11	457.09
639.45	455.74
639.80	454.09
640.14	452.50
640.49	451.02
640.83	449.46
641.17	447.99
641.52	446.55
641.86	444.72
642.20	443.24
642.55	441.30
642.89	439.71
643.23	438.22
643.58	436.97
643.92	435.27
644.26	433.81
644.61	432.37
644.95	430.91
645.29	429.16
645.64	427.42
645.98	425.88
646.32	424.25
646.66	422.56
647.01	420.99
647.35	419.53
647.69	417.96
648.04	416.36
648.38	414.72
648.72	413.19
649.06	411.77
649.41	410.18
649.75	408.73
650.09	407.19
650.43	405.55
650.78	403.85
651.12	402.39
651.46	400.92
651.80	399.57
652.14	397.98
652.49	396.50
652.83	395.11
653.17	393.57
653.51	392.10
653.85	390.75
654.20	389.40
654.54	387.83
654.88	386.30
655.22	385.11
655.56	383.60
655.90	382.02
656.25	380.57
656.59	379.18
656.93	377.77
657.27	376.54
657.61	375.00
657.95	373.51
658.29	372.11
658.64	370.74
658.98	369.19
659.32	367.78
659.66	366.37
660.00	364.93
660.34	363.46
660.68	362.02
661.02	360.60
661.36	359.16
661.70	357.89
662.05	356.67
662.39	355.39
662.73	354.24
663.07	353.16
663.41	351.92
663.75	350.60
664.09	349.35
664.43	347.91
664.77	346.81
665.11	345.71
665.45	344.50
665.79	343.35
666.13	342.15
666.47	341.04
666.81	339.93
667.15	338.75
667.49	337.83
667.83	336.81
668.17	335.78
668.51	334.72
668.85	333.72
669.19	332.75
669.53	331.42
669.87	330.28
670.21	329.12
670.55	328.05
670.89	327.24
671.23	326.23
671.57	325.23
671.91	324.24
672.25	323.25
672.58	322.36
672.92	321.30
673.26	320.38
673.60	319.40
673.94	318.40
674.28	317.50
674.62	316.56
674.96	315.65
675.30	314.73
675.64	313.79
675.97	312.88
676.31	311.97
676.65	311.17
676.99	310.40
677.33	309.44
677.67	308.66
678.01	307.67
678.34	306.88
678.68	306.16
679.02	305.30
679.36	304.30
679.70	303.32
680.04	302.53
680.37	301.61
680.71	300.77
681.05	299.98
681.39	299.09
681.73	298.20
682.06	297.37
682.40	296.55
682.74	295.84
683.08	295.20
683.42	294.28
683.75	293.44
684.09	292.60
684.43	291.86
684.77	291.01
685.10	290.19
685.44	289.41
685.78	288.52
686.12	287.79
686.45	287.16
686.79	286.48
687.13	285.73
687.46	285.11
687.80	284.46
688.14	283.67
688.48	283.04
688.81	282.37
689.15	281.71
689.49	280.99
689.82	280.31
690.16	279.38
690.50	278.66
690.83	278.05
691.17	277.29
691.51	276.59
691.84	275.94
692.18	275.31
692.52	274.60
692.85	274.06
693.19	273.50
693.52	272.86
693.86	272.22
694.20	271.68
694.53	271.08
694.87	270.42
695.21	269.79
695.54	269.15
695.88	268.48
696.21	267.80
696.55	267.25
696.88	266.60
697.22	266.03
697.56	265.63
697.89	265.01
698.23	264.49
698.56	263.86
698.90	263.33
699.23	262.75
699.57	262.23
699.90	261.63
700.24	261.00
700.58	260.40
700.91	259.86
701.25	259.49
701.58	258.97
701.92	258.56
702.25	258.11
702.59	257.66
702.92	257.16
703.26	256.73
703.59	256.32
703.93	256.12
704.26	255.65
704.60	255.18
704.93	254.70
705.26	254.19
705.60	253.88
705.93	253.43
706.27	253.07
706.60	252.81
706.94	252.61
707.27	252.16
707.61	251.81
707.94	251.39
708.27	250.75
708.61	250.18
708.94	249.67
709.28	249.21
709.61	248.74
709.94	248.45
710.28	248.09
710.61	247.63
710.95	247.01
711.28	246.89
711.61	246.48
711.95	246.22
712.28	245.92
712.61	245.56
712.95	245.38
713.28	245.20
713.61	244.70
713.95	244.13
714.28	243.91
714.61	243.60
714.95	243.25
715.28	242.86
715.61	242.64
715.95	242.44
716.28	242.09
716.61	241.87
716.95	241.47
717.28	241.12
717.61	240.89
717.94	240.62
718.28	240.08
718.61	239.74
718.94	239.42
719.27	239.11
719.61	238.77
719.94	238.45
720.27	237.95
720.60	237.67
720.94	237.47
721.27	237.06
721.60	236.83
721.93	236.59
722.27	236.55
722.60	236.31
722.93	235.94
723.26	235.75
723.59	235.42
723.93	235.27
724.26	235.08
724.59	234.68
724.92	234.47
725.25	234.35
725.59	234.15
725.92	233.85
726.25	233.67
726.58	233.58
726.91	233.23
727.24	233.13
727.57	232.90
727.91	232.58
728.24	232.50
728.57	232.27
728.90	232.10
729.23	231.76
729.56	231.73
729.89	231.52
730.22	231.35
730.55	231.19
730.89	230.93
731.22	230.66
731.55	230.59
731.88	230.31
732.21	230.06
732.54	229.82
732.87	229.70
733.20	229.44
733.53	229.24
733.86	229.18
734.19	228.92
734.52	228.74
734.85	228.78
735.18	228.56
735.51	228.40
735.84	228.29
736.17	228.23
736.50	227.83
736.83	228.05
737.16	227.85
737.49	227.68
737.82	227.50
738.15	227.41
738.48	227.22
738.81	227.10
739.14	226.91
739.47	226.78
739.80	226.64
740.13	226.54
740.46	226.24
740.79	225.96
741.12	225.81
741.45	225.68
741.78	225.30
742.11	225.21
742.44	225.07
742.77	224.92
743.10	224.71
743.43	224.62
743.75	224.16
744.08	224.50
744.41	224.28
744.74	224.16
745.07	223.95
745.40	223.90
745.73	223.89
746.06	223.80
746.39	223.74
746.71	223.58
747.04	223.46
747.37	223.41
747.70	223.37
748.03	223.30
748.36	223.26
748.68	223.22
749.01	223.04
749.34	222.85
749.67	222.74
750.00	222.62
750.33	222.79
750.65	222.76
750.98	222.20
751.31	222.09
751.64	222.03
751.97	222.14
752.29	221.98
752.62	221.71
752.95	221.51
753.28	221.31
753.60	221.24
753.93	221.19
754.26	221.16
754.59	220.98
754.91	220.82
755.24	220.70
755.57	220.64
755.90	220.54
756.22	220.49
756.55	220.29
756.88	220.15
757.20	219.81
757.53	219.52
757.86	219.40
758.19	219.35
758.51	219.19
758.84	218.93
759.17	218.76
759.49	218.68
759.82	218.84
760.15	218.78
760.47	218.68
760.80	218.52
761.13	218.31
761.45	218.18
761.78	218.10
762.11	218.01
762.43	217.85
762.76	217.74
763.08	217.60
763.41	217.65
763.74	217.59
764.06	217.47
764.39	217.51
764.71	217.44
765.04	217.38
765.37	217.36
765.69	217.29
766.02	217.22
766.34	217.14
766.67	216.87
767.00	216.92
767.32	217.04
767.65	217.11
767.97	217.14
768.30	217.20
768.62	217.13
768.95	217.04
769.27	217.02
769.60	217.04
769.92	216.97
770.25	216.77
770.57	216.70
770.90	216.61
771.22	216.51
771.55	216.53
771.87	216.51
772.20	216.41
772.52	216.66
772.85	217.06
773.17	217.09
773.50	217.01
773.82	216.85
774.15	216.57
774.47	216.41
774.80	216.34
775.12	216.21
775.45	216.16
775.77	216.17
776.09	216.09
776.42	216.06
776.74	216.11
777.07	216.08
777.39	216.05
777.72	215.96
778.04	216.00
778.36	215.91
778.69	215.84
779.01	215.86
779.33	215.55
779.66	215.13
779.98	215.04
780.31	215.15
780.63	215.28
780.95	215.38
781.28	215.29
781.60	215.24
781.92	215.21
782.25	215.16
782.57	215.07
782.89	215.06
783.22	215.02
783.54	214.88
783.86	214.93
784.19	214.91
784.51	215.02
784.83	214.89
785.16	214.84
785.48	214.85
785.80	214.84
786.12	214.82
786.45	214.79
786.77	214.76
787.09	214.64
787.42	214.51
787.74	214.49
788.06	214.54
788.38	214.46
788.71	214.44
789.03	214.41
789.35	214.45
789.67	214.43
789.99	214.42
790.32	214.48
790.64	214.43
790.96	214.70
791.28	214.57
791.61	214.56
791.93	214.51
792.25	214.51
792.57	214.66
792.89	214.64
793.21	214.60
793.54	214.50
793.86	214.47
794.18	214.48
