SpectraSuite Data File
++++++++++++++++++++++++++++++++++++
Date: Mon Feb 25 17:00:54 EST 2013
User: group
Dark Spectrum Present: No
Reference Spectrum Present: No
Number of Sampled Component Spectra: 1
Spectrometers: USB2E7196
Integration Time (usec): 104000 (USB2E7196)
Spectra Averaged: 20 (USB2E7196)
Boxcar Smoothing: 10 (USB2E7196)
Correct for Electrical Dark: No (USB2E7196)
Strobe/Lamp Enabled: No (USB2E7196)
Correct for Detector Non-linearity: No (USB2E7196)
Correct for Stray Light: No (USB2E7196)
Number of Pixels in Processed Spectrum: 2048
>>>>>Begin Processed Spectral Data<<<<<
339.09	0.00
339.48	197.25
339.86	199.15
340.24	200.75
340.63	203.10
341.01	209.60
341.39	206.10
341.78	206.00
342.16	208.85
342.54	208.70
342.93	198.11
343.31	208.13
343.69	208.76
344.07	209.27
344.46	209.68
344.84	210.06
345.22	210.15
345.60	210.38
345.99	210.65
346.37	210.78
346.75	210.85
347.13	211.00
347.52	211.06
347.90	211.25
348.28	211.25
348.66	211.34
349.05	211.19
349.43	211.31
349.81	211.42
350.19	211.43
350.57	211.49
350.96	211.53
351.34	211.60
351.72	211.65
352.10	211.76
352.48	211.87
352.87	211.92
353.25	212.00
353.63	212.04
354.01	212.03
354.39	212.12
354.77	212.23
355.15	212.35
355.54	212.45
355.92	212.44
356.30	212.50
356.68	212.76
357.06	212.80
357.44	212.75
357.82	212.74
358.20	212.75
358.58	212.79
358.97	212.87
359.35	213.01
359.73	213.13
360.11	213.15
360.49	213.22
360.87	213.19
361.25	213.19
361.63	213.36
362.01	213.48
362.39	213.45
362.77	213.49
363.15	213.54
363.53	213.51
363.91	213.48
364.29	213.59
364.67	213.28
365.05	213.36
365.43	213.50
365.81	213.52
366.19	213.70
366.57	213.83
366.95	213.80
367.33	213.72
367.71	213.73
368.09	213.80
368.47	213.74
368.85	213.79
369.23	213.88
369.61	213.75
369.99	213.82
370.37	213.87
370.75	214.07
371.13	213.90
371.51	213.81
371.89	213.81
372.27	213.81
372.65	213.85
373.03	213.86
373.41	213.71
373.78	213.77
374.16	213.52
374.54	213.44
374.92	213.37
375.30	213.30
375.68	213.15
376.06	213.06
376.44	213.02
376.82	212.96
377.19	212.83
377.57	212.76
377.95	212.51
378.33	212.34
378.71	211.98
379.09	212.00
379.47	212.00
379.84	211.87
380.22	211.66
380.60	211.49
380.98	211.35
381.36	211.31
381.73	211.19
382.11	211.20
382.49	211.20
382.87	211.11
383.25	211.08
383.62	211.50
384.00	211.38
384.38	211.35
384.76	211.39
385.13	211.55
385.51	211.47
385.89	211.47
386.27	211.48
386.64	211.60
387.02	211.48
387.40	211.46
387.78	211.52
388.15	211.55
388.53	211.54
388.91	211.49
389.29	211.49
389.66	211.46
390.04	211.38
390.42	211.29
390.79	211.33
391.17	211.36
391.55	210.93
391.92	210.96
392.30	211.05
392.68	211.03
393.05	210.92
393.43	211.01
393.81	211.03
394.18	210.96
394.56	210.89
394.94	210.96
395.31	210.93
395.69	210.95
396.06	210.99
396.44	211.01
396.82	211.04
397.19	211.19
397.57	211.19
397.95	211.32
398.32	211.30
398.70	211.35
399.07	211.37
399.45	211.39
399.82	211.37
400.20	211.35
400.58	211.35
400.95	211.24
401.33	211.32
401.70	211.65
402.08	211.84
402.45	211.90
402.83	212.15
403.20	212.24
403.58	212.35
403.95	212.52
404.33	212.71
404.71	212.88
405.08	213.19
405.46	213.32
405.83	213.49
406.21	213.63
406.58	213.80
406.96	213.90
407.33	214.13
407.70	214.44
408.08	214.98
408.45	215.33
408.83	215.76
409.20	216.07
409.58	216.20
409.95	216.63
410.33	217.11
410.70	217.46
411.08	217.95
411.45	218.44
411.82	218.97
412.20	219.63
412.57	220.44
412.95	220.74
413.32	221.64
413.69	222.33
414.07	223.21
414.44	224.14
414.82	225.20
415.19	226.33
415.56	227.48
415.94	228.50
416.31	229.84
416.68	231.15
417.06	232.66
417.43	234.18
417.81	235.78
418.18	237.46
418.55	239.25
418.93	241.29
419.30	243.35
419.67	245.46
420.04	247.63
420.42	249.84
420.79	252.78
421.16	255.35
421.54	258.37
421.91	261.29
422.28	264.30
422.66	267.48
423.03	270.71
423.40	274.00
423.77	277.56
424.15	281.12
424.52	284.90
424.89	289.08
425.26	293.06
425.64	296.86
426.01	301.06
426.38	305.44
426.75	309.94
427.13	314.56
427.50	319.52
427.87	324.64
428.24	329.90
428.61	334.67
428.99	340.17
429.36	345.96
429.73	351.72
430.10	357.44
430.47	363.35
430.85	369.46
431.22	376.11
431.59	383.10
431.96	389.75
432.33	397.20
432.70	404.26
433.08	412.60
433.45	420.55
433.82	428.52
434.19	437.35
434.56	446.17
434.93	454.57
435.30	462.90
435.68	472.25
436.05	481.42
436.42	490.73
436.79	499.18
437.16	508.18
437.53	517.85
437.90	527.60
438.27	537.11
438.64	546.84
439.01	555.91
439.38	564.04
439.75	572.32
440.13	581.23
440.50	589.87
440.87	597.00
441.24	604.33
441.61	612.56
441.98	618.83
442.35	625.88
442.72	633.00
443.09	640.02
443.46	644.36
443.83	647.40
444.20	650.13
444.57	653.98
444.94	656.40
445.31	658.77
445.68	660.99
446.05	662.42
446.42	662.37
446.79	662.01
447.16	661.62
447.53	661.28
447.90	658.69
448.27	656.07
448.64	652.02
449.01	649.23
449.37	643.60
449.74	638.16
450.11	631.57
450.48	624.38
450.85	616.83
451.22	610.50
451.59	604.60
451.96	598.94
452.33	590.96
452.70	583.63
453.07	574.79
453.43	565.87
453.80	557.35
454.17	549.10
454.54	541.26
454.91	532.75
455.28	524.44
455.65	516.66
456.02	509.06
456.38	502.40
456.75	494.27
457.12	487.43
457.49	480.74
457.86	474.10
458.23	468.47
458.59	462.39
458.96	456.18
459.33	450.59
459.70	444.91
460.07	440.64
460.43	435.60
460.80	430.83
461.17	426.65
461.54	422.11
461.91	417.84
462.27	413.57
462.64	409.90
463.01	405.79
463.38	401.92
463.74	397.70
464.11	394.24
464.48	391.30
464.85	387.96
465.21	385.41
465.58	382.73
465.95	379.47
466.32	376.69
466.68	374.08
467.05	371.48
467.42	368.86
467.78	366.00
468.15	363.25
468.52	361.34
468.88	358.66
469.25	356.46
469.62	354.56
469.98	352.54
470.35	350.67
470.72	348.92
471.08	346.94
471.45	345.35
471.82	343.77
472.18	341.91
472.55	340.55
472.92	338.91
473.28	337.46
473.65	335.99
474.02	334.65
474.38	333.38
474.75	332.32
475.11	331.19
475.48	330.38
475.85	329.63
476.21	328.76
476.58	328.16
476.94	327.60
477.31	327.00
477.67	326.48
478.04	325.93
478.41	325.65
478.77	325.66
479.14	325.23
479.50	324.94
479.87	324.90
480.23	324.81
480.60	324.65
480.96	324.49
481.33	324.83
481.69	325.03
482.06	325.14
482.42	325.15
482.79	325.27
483.15	325.45
483.52	325.96
483.88	326.35
484.25	326.71
484.61	327.01
484.98	327.50
485.34	328.12
485.71	328.82
486.07	329.44
486.44	329.93
486.80	330.77
487.17	331.64
487.53	332.61
487.90	333.64
488.26	334.85
488.62	336.15
488.99	337.17
489.35	338.32
489.72	339.58
490.08	340.92
490.44	342.32
490.81	343.78
491.17	345.17
491.54	346.64
491.90	348.19
492.26	349.94
492.63	351.74
492.99	353.44
493.36	355.39
493.72	357.35
494.08	359.19
494.45	361.33
494.81	363.46
495.17	365.55
495.54	367.87
495.90	370.01
496.26	372.25
496.63	374.52
496.99	376.92
497.35	379.29
497.72	381.82
498.08	384.30
498.44	386.87
498.80	389.47
499.17	392.05
499.53	394.74
499.89	397.48
500.26	400.10
500.62	402.59
500.98	405.24
501.34	407.85
501.71	410.65
502.07	413.01
502.43	415.47
502.79	417.85
503.16	420.16
503.52	422.51
503.88	424.85
504.24	427.35
504.60	429.70
504.97	432.19
505.33	434.35
505.69	436.86
506.05	439.10
506.41	441.18
506.78	443.21
507.14	444.99
507.50	446.80
507.86	448.60
508.22	450.49
508.59	452.18
508.95	453.86
509.31	455.46
509.67	457.25
510.03	458.78
510.39	460.50
510.75	462.03
511.12	463.43
511.48	464.68
511.84	465.79
512.20	466.94
512.56	468.10
512.92	469.21
513.28	470.12
513.64	470.99
514.00	471.97
514.37	472.84
514.73	473.90
515.09	474.95
515.45	475.64
515.81	476.33
516.17	476.85
516.53	477.41
516.89	477.78
517.25	478.05
517.61	478.57
517.97	478.81
518.33	478.99
518.69	479.37
519.05	479.65
519.41	479.96
519.77	480.34
520.13	480.37
520.49	480.39
520.85	480.47
521.21	480.71
521.57	480.62
521.93	480.55
522.29	480.48
522.65	480.20
523.01	480.26
523.37	480.23
523.73	480.37
524.09	480.40
524.45	480.53
524.81	480.74
525.17	480.91
525.53	481.16
525.89	481.47
526.25	481.82
526.61	481.96
526.97	482.23
527.33	482.37
527.68	483.02
528.04	483.51
528.40	483.68
528.76	484.07
529.12	484.71
529.48	485.46
529.84	486.10
530.20	486.89
530.56	487.69
530.91	488.63
531.27	489.63
531.63	490.51
531.99	491.47
532.35	492.46
532.71	493.42
533.07	494.45
533.42	495.99
533.78	497.09
534.14	498.50
534.50	499.69
534.86	501.24
535.21	502.30
535.57	503.81
535.93	505.37
536.29	507.00
536.65	508.62
537.00	510.17
537.36	511.64
537.72	513.23
538.08	514.86
538.44	516.36
538.79	517.90
539.15	519.77
539.51	521.65
539.87	523.65
540.22	525.52
540.58	527.70
540.94	529.53
541.29	531.44
541.65	533.41
542.01	535.65
542.37	537.87
542.72	540.21
543.08	542.48
543.44	544.96
543.79	547.17
544.15	549.55
544.51	552.27
544.87	554.99
545.22	557.44
545.58	560.11
545.94	562.74
546.29	565.33
546.65	567.84
547.01	570.38
547.36	572.98
547.72	575.75
548.07	578.12
548.43	580.48
548.79	582.97
549.14	585.72
549.50	588.28
549.86	590.68
550.21	593.36
550.57	596.18
550.92	598.73
551.28	601.40
551.64	604.10
551.99	606.59
552.35	609.21
552.70	611.82
553.06	614.42
553.41	617.08
553.77	619.92
554.13	622.67
554.48	625.33
554.84	628.12
555.19	630.58
555.55	633.46
555.90	636.05
556.26	638.69
556.61	641.03
556.97	643.40
557.32	645.74
557.68	647.96
558.03	650.14
558.39	652.39
558.74	654.70
559.10	656.90
559.45	659.25
559.81	661.67
560.16	663.80
560.52	665.99
560.87	668.20
561.23	670.19
561.58	672.45
561.94	674.55
562.29	676.44
562.64	678.75
563.00	680.61
563.35	682.74
563.71	685.08
564.06	687.37
564.42	689.90
564.77	692.42
565.12	694.77
565.48	697.30
565.83	699.51
566.19	701.75
566.54	703.68
566.89	705.59
567.25	707.64
567.60	709.97
567.96	712.22
568.31	714.45
568.66	716.34
569.02	717.92
569.37	719.50
569.72	721.18
570.08	722.60
570.43	724.14
570.78	725.27
571.14	726.25
571.49	727.29
571.84	728.25
572.20	728.94
572.55	729.83
572.90	730.12
573.26	730.79
573.61	731.25
573.96	732.06
574.31	732.37
574.67	732.40
575.02	732.53
575.37	732.48
575.72	732.24
576.08	732.34
576.43	732.16
576.78	732.23
577.13	732.19
577.49	732.15
577.84	732.00
578.19	732.33
578.54	732.83
578.90	733.06
579.25	732.98
579.60	732.93
579.95	732.63
580.30	732.64
580.66	732.64
581.01	732.37
581.36	732.00
581.71	731.66
582.06	731.65
582.42	731.23
582.77	730.78
583.12	730.46
583.47	730.05
583.82	729.94
584.17	729.63
584.53	729.24
584.88	728.76
585.23	728.45
585.58	727.86
585.93	726.92
586.28	726.52
586.63	726.02
586.98	725.44
587.34	725.14
587.69	724.52
588.04	723.90
588.39	723.45
588.74	722.56
589.09	722.20
589.44	721.21
589.79	720.65
590.14	720.00
590.49	719.20
590.84	718.47
591.19	717.79
591.54	716.97
591.89	715.75
592.25	715.04
592.60	713.75
592.95	712.54
593.30	711.31
593.65	709.58
594.00	707.99
594.35	707.74
594.70	706.33
595.05	705.08
595.40	703.63
595.75	702.06
596.10	700.98
596.45	699.56
596.80	698.52
597.15	697.26
597.50	695.86
597.85	694.72
598.19	693.23
598.54	691.87
598.89	690.38
599.24	689.52
599.59	688.04
599.94	686.97
600.29	685.94
600.64	684.74
600.99	683.63
601.34	682.45
601.69	679.99
602.04	678.41
602.39	677.08
602.74	675.86
603.08	674.74
603.43	673.64
603.78	672.39
604.13	670.96
604.48	669.67
604.83	668.72
605.18	667.38
605.53	666.07
605.87	664.50
606.22	663.18
606.57	661.44
606.92	660.06
607.27	658.34
607.62	656.62
607.96	655.17
608.31	653.80
608.66	652.45
609.01	650.97
609.36	649.50
609.70	647.91
610.05	646.10
610.40	644.35
610.75	642.30
611.10	640.64
611.44	638.65
611.79	636.79
612.14	634.58
612.49	632.49
612.83	630.61
613.18	628.70
613.53	626.65
613.88	624.71
614.22	622.72
614.57	620.73
614.92	618.83
615.27	616.88
615.61	614.83
615.96	612.62
616.31	610.70
616.65	608.97
617.00	606.93
617.35	604.97
617.70	602.86
618.04	600.80
618.39	598.51
618.74	596.65
619.08	594.50
619.43	592.48
619.78	590.61
620.12	588.60
620.47	586.62
620.82	584.54
621.16	582.28
621.51	580.30
621.85	578.36
622.20	576.33
622.55	574.00
622.89	571.89
623.24	569.95
623.59	567.80
623.93	565.60
624.28	563.62
624.62	562.05
624.97	560.16
625.32	558.10
625.66	556.21
626.01	554.08
626.35	552.14
626.70	550.09
627.04	548.23
627.39	546.25
627.73	544.35
628.08	542.60
628.43	540.65
628.77	538.54
629.12	536.60
629.46	534.60
629.81	532.82
630.15	530.75
630.50	528.75
630.84	526.73
631.19	524.68
631.53	522.73
631.88	520.23
632.22	518.15
632.57	516.48
632.91	514.66
633.26	512.85
633.60	510.92
633.95	509.07
634.29	506.90
634.64	505.14
634.98	503.14
635.32	501.39
635.67	499.81
636.01	498.06
636.36	496.12
636.70	494.41
637.05	492.62
637.39	491.05
637.73	489.41
638.08	488.06
638.42	486.50
638.77	484.76
639.11	483.13
639.45	481.42
639.80	479.44
640.14	477.40
640.49	475.68
640.83	473.93
641.17	472.25
641.52	470.53
641.86	468.69
642.20	467.10
642.55	465.00
642.89	463.20
643.23	461.41
643.58	459.97
643.92	458.11
644.26	456.35
644.61	454.53
644.95	452.64
645.29	450.63
645.64	448.68
645.98	446.90
646.32	445.17
646.66	443.23
647.01	441.53
647.35	439.87
647.69	437.93
648.04	436.27
648.38	434.46
648.72	432.74
649.06	430.95
649.41	429.13
649.75	427.49
650.09	425.79
650.43	424.10
650.78	422.14
651.12	420.39
651.46	418.82
651.80	417.24
652.14	415.69
652.49	414.08
652.83	412.45
653.17	410.69
653.51	409.01
653.85	407.68
654.20	406.07
654.54	404.41
654.88	402.86
655.22	401.23
655.56	399.49
655.90	397.78
656.25	396.13
656.59	394.41
656.93	392.94
657.27	391.36
657.61	389.62
657.95	388.13
658.29	386.68
658.64	385.20
658.98	383.55
659.32	381.80
659.66	380.12
660.00	378.54
660.34	376.95
660.68	375.39
661.02	373.75
661.36	372.24
661.70	370.80
662.05	369.32
662.39	367.92
662.73	366.69
663.07	365.62
663.41	364.26
663.75	362.85
664.09	361.46
664.43	359.92
664.77	358.55
665.11	357.20
665.45	355.80
665.79	354.41
666.13	353.10
666.47	351.81
666.81	350.61
667.15	349.38
667.49	348.25
667.83	347.10
668.17	345.86
668.51	344.68
668.85	343.60
669.19	342.60
669.53	341.40
669.87	340.09
670.21	338.74
670.55	337.60
670.89	336.66
671.23	335.49
671.57	334.51
671.91	333.47
672.25	332.34
672.58	331.35
672.92	330.05
673.26	329.00
673.60	328.06
673.94	326.97
674.28	326.00
674.62	325.04
674.96	324.04
675.30	323.06
675.64	322.00
675.97	320.94
676.31	319.93
676.65	318.87
676.99	318.17
677.33	317.14
677.67	316.23
678.01	315.15
678.34	314.28
678.68	313.44
679.02	312.45
679.36	311.49
679.70	310.51
680.04	309.77
680.37	308.83
680.71	307.86
681.05	307.09
681.39	306.11
681.73	305.18
682.06	304.28
682.40	303.48
682.74	302.75
683.08	301.94
683.42	301.02
683.75	300.17
684.09	299.19
684.43	298.37
684.77	297.47
685.10	296.66
685.44	295.74
685.78	294.82
686.12	294.13
686.45	293.39
686.79	292.50
687.13	291.74
687.46	291.01
687.80	290.36
688.14	289.51
688.48	288.85
688.81	288.07
689.15	287.39
689.49	286.50
689.82	285.77
690.16	284.91
690.50	284.12
690.83	283.33
691.17	282.45
691.51	281.68
691.84	280.95
692.18	280.17
692.52	279.53
692.85	278.95
693.19	278.36
693.52	277.65
693.86	276.99
694.20	276.26
694.53	275.57
694.87	274.82
695.21	274.11
695.54	273.43
695.88	272.74
696.21	271.97
696.55	271.39
696.88	270.65
697.22	270.03
697.56	269.45
697.89	268.87
698.23	268.36
698.56	267.81
698.90	267.30
699.23	266.67
699.57	266.04
699.90	265.39
700.24	264.67
700.58	264.11
700.91	263.57
701.25	263.25
701.58	262.75
701.92	262.32
702.25	261.87
702.59	261.27
702.92	260.79
703.26	260.34
703.59	259.86
703.93	259.77
704.26	259.34
704.60	258.90
704.93	258.36
705.26	257.86
705.60	257.35
705.93	256.83
706.27	256.48
706.60	256.13
706.94	255.85
707.27	255.33
707.61	254.94
707.94	254.49
708.27	253.78
708.61	253.18
708.94	252.71
709.28	252.21
709.61	251.80
709.94	251.37
710.28	250.98
710.61	250.51
710.95	249.72
711.28	249.53
711.61	249.10
711.95	248.85
712.28	248.42
712.61	248.04
712.95	247.84
713.28	247.65
713.61	247.18
713.95	246.67
714.28	246.33
714.61	245.89
714.95	245.45
715.28	245.08
715.61	244.83
715.95	244.41
716.28	244.00
716.61	243.70
716.95	243.27
717.28	242.86
717.61	242.54
717.94	242.25
718.28	241.79
718.61	241.39
718.94	240.99
719.27	240.74
719.61	240.52
719.94	240.03
720.27	239.57
720.60	239.23
720.94	238.94
721.27	238.66
721.60	238.41
721.93	238.20
722.27	238.09
722.60	237.86
722.93	237.63
723.26	237.41
723.59	237.01
723.93	236.78
724.26	236.53
724.59	236.31
724.92	236.02
725.25	235.75
725.59	235.51
725.92	235.37
726.25	235.08
726.58	234.80
726.91	234.59
727.24	234.40
727.57	234.24
727.91	233.96
728.24	233.86
728.57	233.56
728.90	233.33
729.23	232.98
729.56	232.88
729.89	232.62
730.22	232.43
730.55	232.31
730.89	232.16
731.22	231.98
731.55	231.79
731.88	231.55
732.21	231.25
732.54	231.06
732.87	230.73
733.20	230.47
733.53	230.30
733.86	230.15
734.19	229.83
734.52	229.65
734.85	229.69
735.18	229.44
735.51	229.42
735.84	229.28
736.17	229.17
736.50	228.91
736.83	229.08
737.16	228.95
737.49	228.81
737.82	228.58
738.15	228.47
738.48	228.29
738.81	228.14
739.14	228.00
739.47	227.82
739.80	227.65
740.13	227.65
740.46	227.38
740.79	227.23
741.12	227.15
741.45	226.91
741.78	226.48
742.11	226.44
742.44	226.15
742.77	226.04
743.10	225.83
743.43	225.51
743.75	225.10
744.08	225.39
744.41	225.07
744.74	224.95
745.07	224.72
745.40	224.54
745.73	224.60
746.06	224.48
746.39	224.34
746.71	224.19
747.04	223.99
747.37	223.95
747.70	223.85
748.03	223.71
748.36	223.70
748.68	223.66
749.01	223.32
749.34	223.30
749.67	223.19
750.00	223.11
750.33	223.29
750.65	223.19
750.98	222.59
751.31	222.54
751.64	222.44
751.97	222.51
752.29	222.43
752.62	222.19
752.95	222.06
753.28	221.93
753.60	221.88
753.93	221.84
754.26	221.74
754.59	221.46
754.91	221.36
755.24	221.18
755.57	221.13
755.90	221.02
756.22	220.86
756.55	220.70
756.88	220.55
757.20	220.15
757.53	219.96
757.86	219.86
758.19	219.82
758.51	219.75
758.84	219.55
759.17	219.48
759.49	219.35
759.82	219.39
760.15	219.44
760.47	219.35
760.80	219.23
761.13	219.17
761.45	219.10
761.78	219.03
762.11	219.00
762.43	218.83
762.76	218.84
763.08	218.79
763.41	218.80
763.74	218.83
764.06	218.81
764.39	218.77
764.71	218.76
765.04	218.70
765.37	218.59
765.69	218.42
766.02	218.31
766.34	218.17
766.67	217.96
767.00	217.92
767.32	218.10
767.65	218.21
767.97	218.16
768.30	218.12
768.62	218.03
768.95	217.98
769.27	217.90
769.60	217.84
769.92	217.67
770.25	217.52
770.57	217.34
770.90	217.26
771.22	217.25
771.55	217.18
771.87	217.14
772.20	217.07
772.52	217.34
772.85	217.72
773.17	217.77
773.50	217.71
773.82	217.55
774.15	217.23
774.47	216.96
774.80	216.86
775.12	216.87
775.45	216.76
775.77	216.64
776.09	216.63
776.42	216.51
776.74	216.58
777.07	216.51
777.39	216.51
777.72	216.45
778.04	216.37
778.36	216.28
778.69	216.21
779.01	216.22
779.33	215.90
779.66	215.46
779.98	215.32
780.31	215.31
780.63	215.38
780.95	215.42
781.28	215.34
781.60	215.30
781.92	215.21
782.25	215.21
782.57	215.15
782.89	215.07
783.22	215.08
783.54	214.92
783.86	214.88
784.19	214.80
784.51	214.95
784.83	214.82
785.16	214.78
785.48	214.71
785.80	214.60
786.12	214.60
786.45	214.55
786.77	214.58
787.09	214.57
787.42	214.40
787.74	214.45
788.06	214.35
788.38	214.27
788.71	214.25
789.03	214.25
789.35	214.37
789.67	214.32
789.99	214.29
790.32	214.28
790.64	214.32
790.96	214.63
791.28	214.46
791.61	214.46
791.93	214.43
792.25	214.43
792.57	214.68
792.89	214.52
793.21	214.55
793.54	214.47
793.86	214.35
794.18	214.33
