SpectraSuite Data File
++++++++++++++++++++++++++++++++++++
Date: Mon Feb 25 17:20:08 EST 2013
User: group
Dark Spectrum Present: No
Reference Spectrum Present: No
Number of Sampled Component Spectra: 1
Spectrometers: USB2E7196
Integration Time (usec): 104000 (USB2E7196)
Spectra Averaged: 20 (USB2E7196)
Boxcar Smoothing: 10 (USB2E7196)
Correct for Electrical Dark: No (USB2E7196)
Strobe/Lamp Enabled: No (USB2E7196)
Correct for Detector Non-linearity: No (USB2E7196)
Correct for Stray Light: No (USB2E7196)
Number of Pixels in Processed Spectrum: 2048
>>>>>Begin Processed Spectral Data<<<<<
339.09	0.00
339.48	198.10
339.86	200.70
340.24	201.80
340.63	204.25
341.01	209.95
341.39	206.20
341.78	208.60
342.16	210.50
342.54	209.30
342.93	199.07
343.31	209.15
343.69	209.81
344.07	210.33
344.46	210.89
344.84	211.31
345.22	211.44
345.60	211.82
345.99	211.97
346.37	212.12
346.75	212.31
347.13	212.43
347.52	212.51
347.90	212.79
348.28	212.78
348.66	212.85
349.05	212.84
349.43	212.98
349.81	213.06
350.19	213.15
350.57	213.24
350.96	213.33
351.34	213.39
351.72	213.49
352.10	213.62
352.48	213.62
352.87	213.66
353.25	213.66
353.63	213.60
354.01	213.64
354.39	213.70
354.77	213.70
355.15	213.88
355.54	213.91
355.92	213.84
356.30	213.98
356.68	214.22
357.06	214.20
357.44	214.18
357.82	214.16
358.20	214.18
358.58	214.25
358.97	214.30
359.35	214.37
359.73	214.43
360.11	214.39
360.49	214.38
360.87	214.38
361.25	214.50
361.63	214.69
362.01	214.80
362.39	214.78
362.77	214.84
363.15	214.75
363.53	214.78
363.91	214.76
364.29	214.69
364.67	214.40
365.05	214.42
365.43	214.51
365.81	214.59
366.19	214.73
366.57	214.75
366.95	214.74
367.33	214.71
367.71	214.73
368.09	214.77
368.47	214.84
368.85	214.78
369.23	214.81
369.61	214.63
369.99	214.71
370.37	214.74
370.75	214.89
371.13	214.85
371.51	214.75
371.89	214.76
372.27	214.78
372.65	214.72
373.03	214.73
373.41	214.74
373.78	214.65
374.16	214.43
374.54	214.34
374.92	214.21
375.30	214.15
375.68	213.92
376.06	213.93
376.44	213.79
376.82	213.82
377.19	213.79
377.57	213.72
377.95	213.49
378.33	213.40
378.71	213.23
379.09	213.27
379.47	213.30
379.84	213.24
380.22	213.20
380.60	213.19
380.98	213.14
381.36	212.96
381.73	212.94
382.11	213.01
382.49	213.00
382.87	212.96
383.25	212.95
383.62	213.40
384.00	213.35
384.38	213.33
384.76	213.34
385.13	213.43
385.51	213.39
385.89	213.43
386.27	213.43
386.64	213.33
387.02	213.17
387.40	213.09
387.78	213.06
388.15	213.03
388.53	212.98
388.91	212.97
389.29	212.93
389.66	212.91
390.04	212.82
390.42	212.93
390.79	212.96
391.17	212.97
391.55	212.57
391.92	212.57
392.30	212.60
392.68	212.53
393.05	212.46
393.43	212.57
393.81	212.55
394.18	212.47
394.56	212.55
394.94	212.70
395.31	212.77
395.69	212.93
396.06	213.00
396.44	213.02
396.82	213.01
397.19	213.33
397.57	213.35
397.95	213.48
398.32	213.35
398.70	213.46
399.07	213.56
399.45	213.60
399.82	213.64
400.20	213.63
400.58	213.68
400.95	213.61
401.33	213.73
401.70	214.04
402.08	214.18
402.45	214.22
402.83	214.35
403.20	214.46
403.58	214.49
403.95	214.65
404.33	214.89
404.71	215.11
405.08	215.46
405.46	215.60
405.83	215.76
406.21	215.96
406.58	216.15
406.96	216.32
407.33	216.62
407.70	216.90
408.08	217.57
408.45	218.01
408.83	218.44
409.20	218.78
409.58	218.95
409.95	219.44
410.33	220.02
410.70	220.42
411.08	221.00
411.45	221.56
411.82	222.14
412.20	222.75
412.57	223.54
412.95	223.85
413.32	224.70
413.69	225.49
414.07	226.39
414.44	227.29
414.82	228.21
415.19	229.27
415.56	230.45
415.94	231.38
416.31	232.60
416.68	233.87
417.06	235.33
417.43	236.84
417.81	238.42
418.18	240.02
418.55	241.75
418.93	243.50
419.30	245.42
419.67	247.39
420.04	249.43
420.42	251.58
420.79	254.27
421.16	256.75
421.54	259.50
421.91	262.20
422.28	264.95
422.66	268.03
423.03	271.17
423.40	274.16
423.77	277.39
424.15	280.64
424.52	284.06
424.89	287.82
425.26	291.35
425.64	294.75
426.01	298.56
426.38	302.58
426.75	306.68
427.13	310.83
427.50	315.07
427.87	319.65
428.24	324.15
428.61	328.39
428.99	333.30
429.36	338.33
429.73	343.43
430.10	348.51
430.47	353.63
430.85	358.90
431.22	364.58
431.59	370.76
431.96	376.54
432.33	382.93
432.70	389.05
433.08	396.30
433.45	403.13
433.82	409.86
434.19	417.35
434.56	424.67
434.93	431.70
435.30	438.87
435.68	446.62
436.05	454.30
436.42	461.87
436.79	468.66
437.16	476.12
437.53	483.98
437.90	491.94
438.27	499.69
438.64	507.50
439.01	514.81
439.38	521.21
439.75	527.66
440.13	534.84
440.50	541.60
440.87	547.19
441.24	552.94
441.61	559.16
441.98	563.67
442.35	569.18
442.72	574.78
443.09	580.10
443.46	583.23
443.83	585.34
444.20	587.22
444.57	590.04
444.94	591.38
445.31	592.73
445.68	593.97
446.05	594.47
446.42	593.65
446.79	592.67
447.16	591.51
447.53	590.62
447.90	587.50
448.27	584.54
448.64	580.35
449.01	577.30
449.37	572.15
449.74	567.09
450.11	561.00
450.48	554.31
450.85	547.45
451.22	541.68
451.59	536.18
451.96	530.75
452.33	523.60
452.70	517.14
453.07	509.43
453.43	501.56
453.80	494.12
454.17	487.10
454.54	480.54
454.91	473.56
455.28	466.49
455.65	460.04
456.02	453.76
456.38	448.22
456.75	441.35
457.12	435.63
457.49	430.08
457.86	424.56
458.23	420.01
458.59	414.96
458.96	409.85
459.33	405.16
459.70	400.66
460.07	397.11
460.43	392.98
460.80	389.21
461.17	385.95
461.54	382.45
461.91	379.13
462.27	375.56
462.64	372.57
463.01	369.38
463.38	366.39
463.74	363.11
464.11	360.39
464.48	358.14
464.85	355.57
465.21	353.67
465.58	351.65
465.95	349.04
466.32	346.94
466.68	344.88
467.05	342.93
467.42	340.90
467.78	338.73
468.15	336.80
468.52	335.30
468.88	333.32
469.25	331.61
469.62	330.33
469.98	328.87
470.35	327.60
470.72	326.42
471.08	325.04
471.45	323.94
471.82	322.87
472.18	321.62
472.55	320.88
472.92	319.88
473.28	318.98
473.65	318.15
474.02	317.47
474.38	317.05
474.75	316.64
475.11	316.21
475.48	316.10
475.85	315.80
476.21	315.65
476.58	315.62
476.94	315.63
477.31	315.61
477.67	315.62
478.04	315.77
478.41	316.03
478.77	316.71
479.14	316.96
479.50	317.44
479.87	318.00
480.23	318.60
480.60	319.18
480.96	319.87
481.33	320.94
481.69	321.84
482.06	322.64
482.42	323.73
482.79	324.86
483.15	326.00
483.52	327.57
483.88	328.93
484.25	330.53
484.61	332.18
484.98	333.80
485.34	335.90
485.71	337.99
486.07	340.30
486.44	342.35
486.80	344.87
487.17	347.53
487.53	350.42
487.90	353.48
488.26	356.78
488.62	360.34
488.99	363.63
489.35	367.31
489.72	371.20
490.08	375.23
490.44	379.55
490.81	383.95
491.17	388.51
491.54	393.55
491.90	398.57
492.26	404.20
492.63	409.93
492.99	415.94
493.36	422.15
493.72	428.82
494.08	435.78
494.45	443.13
494.81	450.85
495.17	458.70
495.54	466.90
495.90	475.40
496.26	484.18
496.63	493.52
496.99	503.22
497.35	513.44
497.72	523.84
498.08	534.69
498.44	546.18
498.80	558.22
499.17	570.64
499.53	583.39
499.89	596.63
500.26	610.32
500.62	624.08
500.98	638.83
501.34	653.96
501.71	669.54
502.07	685.51
502.43	701.97
502.79	718.86
503.16	736.37
503.52	754.76
503.88	773.47
504.24	792.59
504.60	812.13
504.97	832.31
505.33	852.90
505.69	875.00
506.05	897.12
506.41	919.45
506.78	942.10
507.14	965.52
507.50	989.47
507.86	1013.98
508.22	1039.32
508.59	1064.63
508.95	1090.64
509.31	1117.11
509.67	1144.20
510.03	1171.72
510.39	1200.19
510.75	1228.99
511.12	1257.95
511.48	1287.34
511.84	1317.25
512.20	1347.52
512.56	1378.35
512.92	1409.87
513.28	1440.90
513.64	1472.14
514.00	1503.89
514.37	1536.09
514.73	1568.69
515.09	1601.14
515.45	1633.79
515.81	1666.44
516.17	1699.50
516.53	1733.01
516.89	1766.36
517.25	1799.59
517.61	1833.10
517.97	1866.44
518.33	1899.64
518.69	1932.84
519.05	1966.40
519.41	2000.32
519.77	2034.35
520.13	2067.81
520.49	2101.36
520.85	2135.04
521.21	2168.98
521.57	2202.88
521.93	2236.01
522.29	2270.03
522.65	2304.24
523.01	2338.15
523.37	2371.21
523.73	2404.76
524.09	2437.28
524.45	2470.67
524.81	2503.93
525.17	2537.46
525.53	2570.65
525.89	2603.83
526.25	2636.55
526.61	2667.82
526.97	2699.17
527.33	2730.62
527.68	2762.05
528.04	2792.47
528.40	2822.02
528.76	2851.76
529.12	2882.17
529.48	2913.05
529.84	2942.66
530.20	2971.57
530.56	3000.50
530.91	3030.74
531.27	3059.92
531.63	3088.63
531.99	3116.33
532.35	3143.32
532.71	3169.46
533.07	3196.40
533.42	3221.30
533.78	3247.44
534.14	3273.29
534.50	3296.95
534.86	3321.42
535.21	3344.85
535.57	3369.16
535.93	3392.38
536.29	3415.19
536.65	3437.61
537.00	3458.47
537.36	3478.62
537.72	3498.42
538.08	3518.09
538.44	3537.35
538.79	3556.67
539.15	3576.03
539.51	3595.31
539.87	3614.70
540.22	3633.10
540.58	3651.40
540.94	3670.03
541.29	3685.55
541.65	3700.87
542.01	3717.25
542.37	3732.17
542.72	3747.62
543.08	3761.14
543.44	3776.54
543.79	3789.10
544.15	3800.90
544.51	3813.92
544.87	3827.12
545.22	3838.70
545.58	3849.25
545.94	3858.14
546.29	3866.04
546.65	3873.54
547.01	3880.70
547.36	3887.53
547.72	3894.22
548.07	3899.35
548.43	3903.88
548.79	3908.47
549.14	3913.24
549.50	3917.77
549.86	3921.22
550.21	3923.95
550.57	3928.29
550.92	3929.59
551.28	3932.00
551.64	3934.23
551.99	3936.66
552.35	3937.49
552.70	3938.75
553.06	3940.15
553.41	3941.20
553.77	3942.16
554.13	3942.70
554.48	3943.11
554.84	3943.45
555.19	3942.81
555.55	3941.22
555.90	3939.50
556.26	3937.92
556.61	3936.19
556.97	3933.05
557.32	3931.13
557.68	3927.76
558.03	3923.39
558.39	3920.17
558.74	3918.23
559.10	3915.34
559.45	3910.78
559.81	3907.61
560.16	3903.47
560.52	3899.56
560.87	3895.26
561.23	3889.63
561.58	3884.74
561.94	3878.50
562.29	3871.70
562.64	3866.15
563.00	3860.87
563.35	3856.29
563.71	3852.65
564.06	3847.69
564.42	3843.86
564.77	3839.06
565.12	3834.73
565.48	3829.75
565.83	3824.42
566.19	3819.01
566.54	3811.87
566.89	3804.89
567.25	3797.93
567.60	3791.75
567.96	3784.36
568.31	3777.90
568.66	3770.93
569.02	3762.95
569.37	3754.86
569.72	3747.69
570.08	3739.18
570.43	3730.25
570.78	3721.13
571.14	3710.99
571.49	3701.15
571.84	3691.84
572.20	3680.77
572.55	3670.53
572.90	3659.44
573.26	3647.87
573.61	3635.95
573.96	3625.15
574.31	3613.12
574.67	3600.08
575.02	3586.58
575.37	3574.19
575.72	3560.29
576.08	3548.60
576.43	3535.86
576.78	3523.95
577.13	3512.46
577.49	3500.46
577.84	3488.52
578.19	3477.08
578.54	3465.98
578.90	3455.44
579.25	3442.28
579.60	3429.51
579.95	3416.25
580.30	3404.63
580.66	3393.38
581.01	3380.27
581.36	3367.00
581.71	3354.48
582.06	3342.73
582.42	3330.50
582.77	3316.89
583.12	3304.67
583.47	3292.19
583.82	3280.29
584.17	3267.69
584.53	3254.46
584.88	3241.91
585.23	3229.39
585.58	3216.13
585.93	3202.53
586.28	3189.29
586.63	3177.16
586.98	3165.32
587.34	3153.89
587.69	3140.91
588.04	3128.10
588.39	3116.45
588.74	3103.79
589.09	3092.25
589.44	3079.36
589.79	3067.82
590.14	3056.80
590.49	3044.67
590.84	3032.46
591.19	3021.41
591.54	3009.15
591.89	2995.41
592.25	2982.46
592.60	2969.51
592.95	2956.25
593.30	2942.53
593.65	2928.67
594.00	2915.62
594.35	2903.95
594.70	2891.28
595.05	2879.18
595.40	2867.10
595.75	2853.66
596.10	2841.87
596.45	2829.98
596.80	2818.84
597.15	2807.66
597.50	2795.14
597.85	2783.57
598.19	2771.04
598.54	2758.70
598.89	2747.52
599.24	2737.90
599.59	2727.05
599.94	2716.99
600.29	2706.57
600.64	2696.09
600.99	2684.65
601.34	2673.95
601.69	2661.58
602.04	2649.44
602.39	2638.05
602.74	2626.85
603.08	2617.24
603.43	2607.45
603.78	2596.27
604.13	2585.22
604.48	2574.01
604.83	2565.00
605.18	2555.97
605.53	2545.98
605.87	2534.92
606.22	2524.52
606.57	2513.08
606.92	2502.20
607.27	2490.72
607.62	2479.47
607.96	2469.35
608.31	2460.19
608.66	2448.96
609.01	2437.94
609.36	2426.95
609.70	2415.05
610.05	2403.10
610.40	2391.29
610.75	2378.92
611.10	2368.10
611.44	2355.04
611.79	2342.14
612.14	2328.59
612.49	2314.33
612.83	2301.95
613.18	2289.01
613.53	2276.28
613.88	2263.04
614.22	2250.81
614.57	2237.76
614.92	2225.25
615.27	2212.07
615.61	2198.79
615.96	2186.58
616.31	2175.16
616.65	2164.29
617.00	2152.96
617.35	2141.38
617.70	2129.09
618.04	2116.40
618.39	2102.51
618.74	2091.07
619.08	2078.79
619.43	2066.95
619.78	2055.79
620.12	2043.98
620.47	2032.49
620.82	2019.99
621.16	2007.68
621.51	1995.12
621.85	1983.77
622.20	1971.70
622.55	1959.90
622.89	1947.58
623.24	1935.31
623.59	1922.46
623.93	1909.80
624.28	1898.12
624.62	1886.68
624.97	1875.00
625.32	1863.92
625.66	1853.60
626.01	1842.38
626.35	1831.96
626.70	1820.84
627.04	1809.86
627.39	1798.86
627.73	1787.85
628.08	1777.68
628.43	1766.75
628.77	1755.88
629.12	1744.46
629.46	1734.71
629.81	1724.10
630.15	1714.10
630.50	1703.82
630.84	1693.56
631.19	1682.99
631.53	1672.38
631.88	1661.05
632.22	1650.11
632.57	1639.94
632.91	1629.24
633.26	1618.94
633.60	1608.11
633.95	1598.01
634.29	1587.34
634.64	1577.26
634.98	1566.98
635.32	1556.95
635.67	1548.06
636.01	1538.65
636.36	1528.76
636.70	1518.85
637.05	1509.12
637.39	1499.36
637.73	1490.04
638.08	1481.20
638.42	1472.41
638.77	1463.16
639.11	1453.94
639.45	1444.78
639.80	1434.71
640.14	1424.84
640.49	1415.02
640.83	1405.50
641.17	1396.04
641.52	1386.76
641.86	1376.65
642.20	1367.22
642.55	1356.93
642.89	1346.81
643.23	1336.68
643.58	1327.94
643.92	1317.60
644.26	1308.06
644.61	1298.73
644.95	1288.83
645.29	1278.95
645.64	1269.04
645.98	1259.50
646.32	1250.32
646.66	1240.88
647.01	1232.06
647.35	1223.36
647.69	1213.84
648.04	1205.10
648.38	1196.04
648.72	1186.90
649.06	1178.12
649.41	1169.19
649.75	1160.49
650.09	1151.91
650.43	1143.20
650.78	1133.56
651.12	1124.66
651.46	1115.97
651.80	1107.39
652.14	1098.89
652.49	1089.94
652.83	1081.21
653.17	1071.84
653.51	1062.92
653.85	1054.47
654.20	1045.75
654.54	1037.05
654.88	1028.90
655.22	1020.24
655.56	1011.39
655.90	1002.76
656.25	994.21
656.59	985.87
656.93	977.75
657.27	969.55
657.61	961.13
657.95	953.50
658.29	945.98
658.64	938.35
658.98	930.26
659.32	922.09
659.66	914.53
660.00	906.83
660.34	899.22
660.68	891.58
661.02	883.91
661.36	876.76
661.70	869.49
662.05	862.44
662.39	855.76
662.73	848.96
663.07	842.43
663.41	835.76
663.75	828.80
664.09	821.76
664.43	814.84
664.77	808.48
665.11	801.75
665.45	795.35
665.79	788.82
666.13	782.48
666.47	776.29
666.81	770.12
667.15	763.98
667.49	758.58
667.83	752.98
668.17	747.10
668.51	741.31
668.85	735.96
669.19	730.41
669.53	724.58
669.87	719.08
670.21	713.45
670.55	707.97
670.89	703.18
671.23	698.41
671.57	693.29
671.91	688.13
672.25	682.94
672.58	677.74
672.92	672.68
673.26	667.89
673.60	663.05
673.94	658.21
674.28	653.42
674.62	648.76
674.96	643.97
675.30	639.53
675.64	634.86
675.97	630.02
676.31	625.62
676.65	621.19
676.99	616.83
677.33	612.41
677.67	608.15
678.01	603.50
678.34	599.14
678.68	594.92
679.02	590.70
679.36	586.72
679.70	582.65
680.04	578.31
680.37	574.07
680.71	570.06
681.05	566.13
681.39	562.11
681.73	558.04
682.06	554.34
682.40	550.62
682.74	546.82
683.08	543.11
683.42	539.03
683.75	535.35
684.09	531.66
684.43	527.98
684.77	524.18
685.10	520.54
685.44	516.73
685.78	513.09
686.12	509.72
686.45	506.21
686.79	502.74
687.13	499.71
687.46	496.34
687.80	493.19
688.14	489.71
688.48	486.55
688.81	483.21
689.15	479.99
689.49	476.58
689.82	473.43
690.16	469.98
690.50	466.83
690.83	463.54
691.17	460.35
691.51	457.19
691.84	454.32
692.18	451.46
692.52	448.75
692.85	446.27
693.19	443.47
693.52	440.63
693.86	437.65
694.20	434.82
694.53	432.20
694.87	429.34
695.21	426.62
695.54	423.82
695.88	421.02
696.21	418.20
696.55	415.82
696.88	413.22
697.22	410.80
697.56	408.40
697.89	405.98
698.23	403.46
698.56	401.16
698.90	398.91
699.23	396.50
699.57	394.06
699.90	391.52
700.24	389.11
700.58	386.83
700.91	384.70
701.25	382.77
701.58	380.67
701.92	378.53
702.25	376.50
702.59	374.56
702.92	372.65
703.26	370.67
703.59	368.55
703.93	366.87
704.26	365.08
704.60	363.27
704.93	361.45
705.26	359.69
705.60	357.87
705.93	355.87
706.27	354.16
706.60	352.55
706.94	350.89
707.27	349.13
707.61	347.30
707.94	345.57
708.27	343.54
708.61	341.81
708.94	340.19
709.28	338.50
709.61	336.83
709.94	335.41
710.28	333.96
710.61	332.59
710.95	330.86
711.28	329.48
711.61	327.93
711.95	326.58
712.28	325.17
712.61	323.79
712.95	322.57
713.28	321.33
713.61	319.92
713.95	318.59
714.28	317.33
714.61	316.11
714.95	314.98
715.28	313.66
715.61	312.27
715.95	311.05
716.28	309.87
716.61	308.59
716.95	307.25
717.28	305.99
717.61	304.71
717.94	303.58
718.28	302.21
718.61	301.15
718.94	299.97
719.27	298.85
719.61	297.84
719.94	296.76
720.27	295.49
720.60	294.48
720.94	293.35
721.27	292.39
721.60	291.48
721.93	290.43
722.27	289.63
722.60	288.87
722.93	287.97
723.26	287.22
723.59	286.43
723.93	285.61
724.26	284.80
724.59	284.01
724.92	283.17
725.25	282.47
725.59	281.72
725.92	280.98
726.25	280.30
726.58	279.50
726.91	278.68
727.24	278.04
727.57	277.25
727.91	276.53
728.24	275.83
728.57	275.02
728.90	274.29
729.23	273.48
729.56	272.92
729.89	272.28
730.22	271.47
730.55	270.80
730.89	270.09
731.22	269.43
731.55	268.73
731.88	268.04
732.21	267.33
732.54	266.57
732.87	265.94
733.20	265.24
733.53	264.63
733.86	264.09
734.19	263.38
734.52	262.83
734.85	262.60
735.18	262.00
735.51	261.58
735.84	261.09
736.17	260.67
736.50	259.89
736.83	259.73
737.16	259.22
737.49	258.64
737.82	258.16
738.15	257.66
738.48	257.21
738.81	256.68
739.14	256.14
739.47	255.72
739.80	255.25
740.13	254.75
740.46	254.15
740.79	253.57
741.12	253.11
741.45	252.60
741.78	251.91
742.11	251.56
742.44	250.98
742.77	250.54
743.10	249.99
743.43	249.61
743.75	248.75
744.08	248.81
744.41	248.39
744.74	247.94
745.07	247.48
745.40	247.06
745.73	246.79
746.06	246.42
746.39	246.00
746.71	245.56
747.04	245.14
747.37	244.82
747.70	244.57
748.03	244.19
748.36	243.85
748.68	243.42
749.01	242.97
749.34	242.74
749.67	242.40
750.00	242.17
750.33	242.06
750.65	241.78
750.98	240.96
751.31	240.65
751.64	240.35
751.97	240.27
752.29	239.95
752.62	239.50
752.95	239.10
753.28	238.70
753.60	238.38
753.93	238.21
754.26	237.88
754.59	237.46
754.91	237.08
755.24	236.82
755.57	236.50
755.90	236.18
756.22	235.77
756.55	235.42
756.88	235.05
757.20	234.39
757.53	233.92
757.86	233.58
758.19	233.35
758.51	232.98
758.84	232.49
759.17	232.12
759.49	231.83
759.82	231.76
760.15	231.59
760.47	231.24
760.80	230.90
761.13	230.71
761.45	230.45
761.78	230.27
762.11	229.96
762.43	229.69
762.76	229.48
763.08	229.29
763.41	229.10
763.74	228.85
764.06	228.70
764.39	228.59
764.71	228.40
765.04	228.14
765.37	227.94
765.69	227.73
766.02	227.57
766.34	227.37
766.67	227.04
767.00	226.87
767.32	226.93
767.65	226.90
767.97	226.65
768.30	226.45
768.62	226.31
768.95	226.16
769.27	226.08
769.60	225.98
769.92	225.79
770.25	225.66
770.57	225.42
770.90	225.23
771.22	224.98
771.55	224.87
771.87	224.70
772.20	224.57
772.52	224.67
772.85	224.93
773.17	224.83
773.50	224.70
773.82	224.52
774.15	224.22
774.47	223.95
774.80	223.83
775.12	223.72
775.45	223.53
775.77	223.41
776.09	223.28
776.42	223.09
776.74	223.09
777.07	222.92
777.39	222.80
777.72	222.68
778.04	222.65
778.36	222.47
778.69	222.46
779.01	222.36
779.33	222.01
779.66	221.60
779.98	221.46
780.31	221.38
780.63	221.49
780.95	221.41
781.28	221.20
781.60	221.06
781.92	220.96
782.25	220.90
782.57	220.81
782.89	220.66
783.22	220.52
783.54	220.32
783.86	220.24
784.19	220.24
784.51	220.27
784.83	220.14
785.16	220.03
