SpectraSuite Data File
++++++++++++++++++++++++++++++++++++
Date: Mon Feb 25 17:04:31 EST 2013
User: group
Dark Spectrum Present: No
Reference Spectrum Present: No
Number of Sampled Component Spectra: 1
Spectrometers: USB2E7196
Integration Time (usec): 104000 (USB2E7196)
Spectra Averaged: 20 (USB2E7196)
Boxcar Smoothing: 10 (USB2E7196)
Correct for Electrical Dark: No (USB2E7196)
Strobe/Lamp Enabled: No (USB2E7196)
Correct for Detector Non-linearity: No (USB2E7196)
Correct for Stray Light: No (USB2E7196)
Number of Pixels in Processed Spectrum: 2048
>>>>>Begin Processed Spectral Data<<<<<
339.09	0.00
339.48	196.95
339.86	199.05
340.24	202.00
340.63	202.30
341.01	209.75
341.39	205.30
341.78	206.90
342.16	208.15
342.54	208.00
342.93	198.03
343.31	208.00
343.69	208.56
344.07	209.09
344.46	209.56
344.84	209.89
345.22	209.88
345.60	210.10
345.99	210.24
346.37	210.32
346.75	210.42
347.13	210.40
347.52	210.36
347.90	210.57
348.28	210.48
348.66	210.58
349.05	210.47
349.43	210.49
349.81	210.53
350.19	210.57
350.57	210.65
350.96	210.69
351.34	210.77
351.72	210.92
352.10	210.99
352.48	210.96
352.87	211.08
353.25	211.21
353.63	211.24
354.01	211.35
354.39	211.43
354.77	211.48
355.15	211.66
355.54	211.73
355.92	211.68
356.30	211.85
356.68	212.09
357.06	212.19
357.44	212.20
357.82	212.19
358.20	212.30
358.58	212.31
358.97	212.34
359.35	212.55
359.73	212.65
360.11	212.71
360.49	212.75
360.87	212.82
361.25	212.83
361.63	213.02
362.01	213.13
362.39	213.24
362.77	213.35
363.15	213.33
363.53	213.40
363.91	213.42
364.29	213.43
364.67	213.05
365.05	213.09
365.43	213.24
365.81	213.34
366.19	213.49
366.57	213.69
366.95	213.70
367.33	213.54
367.71	213.49
368.09	213.56
368.47	213.62
368.85	213.57
369.23	213.68
369.61	213.59
369.99	213.61
370.37	213.62
370.75	213.77
371.13	213.80
371.51	213.71
371.89	213.70
372.27	213.58
372.65	213.70
373.03	213.65
373.41	213.53
373.78	213.46
374.16	213.21
374.54	213.02
374.92	212.95
375.30	212.94
375.68	212.88
376.06	212.86
376.44	212.74
376.82	212.73
377.19	212.60
377.57	212.53
377.95	212.35
378.33	212.25
378.71	212.02
379.09	211.99
379.47	212.03
379.84	211.91
380.22	211.86
380.60	211.72
380.98	211.63
381.36	211.57
381.73	211.49
382.11	211.55
382.49	211.53
382.87	211.42
383.25	211.34
383.62	211.68
384.00	211.51
384.38	211.49
384.76	211.51
385.13	211.60
385.51	211.50
385.89	211.39
386.27	211.34
386.64	211.30
387.02	211.18
387.40	211.05
387.78	211.08
388.15	211.10
388.53	211.07
388.91	211.06
389.29	211.00
389.66	211.01
390.04	210.86
390.42	210.82
390.79	210.86
391.17	210.84
391.55	210.43
391.92	210.42
392.30	210.39
392.68	210.29
393.05	210.25
393.43	210.25
393.81	210.27
394.18	210.19
394.56	210.19
394.94	210.28
395.31	210.27
395.69	210.35
396.06	210.38
396.44	210.38
396.82	210.38
397.19	210.61
397.57	210.57
397.95	210.67
398.32	210.57
398.70	210.55
399.07	210.63
399.45	210.63
399.82	210.68
400.20	210.69
400.58	210.69
400.95	210.62
401.33	210.74
401.70	211.02
402.08	211.11
402.45	211.07
402.83	211.13
403.20	211.27
403.58	211.24
403.95	211.33
404.33	211.45
404.71	211.56
405.08	211.78
405.46	211.89
405.83	211.99
406.21	212.17
406.58	212.35
406.96	212.46
407.33	212.69
407.70	212.88
408.08	213.34
408.45	213.60
408.83	213.87
409.20	214.03
409.58	214.07
409.95	214.38
410.33	214.75
410.70	214.91
411.08	215.16
411.45	215.55
411.82	215.86
412.20	216.28
412.57	216.86
412.95	216.98
413.32	217.51
413.69	218.00
414.07	218.53
414.44	219.15
414.82	219.85
415.19	220.56
415.56	221.27
415.94	221.87
416.31	222.78
416.68	223.69
417.06	224.73
417.43	225.74
417.81	226.86
418.18	228.01
418.55	229.24
418.93	230.62
419.30	231.96
419.67	233.45
420.04	234.92
420.42	236.33
420.79	238.39
421.16	240.23
421.54	242.26
421.91	244.18
422.28	246.05
422.66	248.05
423.03	250.24
423.40	252.37
423.77	254.61
424.15	256.85
424.52	259.22
424.89	261.90
425.26	264.40
425.64	266.75
426.01	269.48
426.38	272.30
426.75	275.20
427.13	278.13
427.50	281.15
427.87	284.40
428.24	287.64
428.61	290.54
428.99	293.97
429.36	297.39
429.73	301.01
430.10	304.81
430.47	308.66
430.85	312.40
431.22	316.55
431.59	321.07
431.96	325.32
432.33	329.96
432.70	334.48
433.08	339.89
433.45	344.97
433.82	349.90
434.19	355.42
434.56	360.87
434.93	366.20
435.30	371.43
435.68	377.23
436.05	382.96
436.42	388.64
436.79	393.99
437.16	399.79
437.53	405.93
437.90	411.87
438.27	417.83
438.64	423.93
439.01	429.76
439.38	434.76
439.75	439.82
440.13	445.51
440.50	451.00
440.87	455.38
441.24	460.03
441.61	465.12
441.98	469.04
442.35	473.49
442.72	477.90
443.09	482.41
443.46	485.30
443.83	487.40
444.20	489.22
444.57	491.48
444.94	493.04
445.31	494.43
445.68	496.07
446.05	496.74
446.42	496.49
446.79	496.18
447.16	495.76
447.53	495.56
447.90	493.62
448.27	491.59
448.64	488.89
449.01	486.93
449.37	483.27
449.74	479.77
450.11	475.70
450.48	471.02
450.85	466.10
451.22	461.90
451.59	457.99
451.96	454.20
452.33	449.13
452.70	444.40
453.07	438.76
453.43	432.70
453.80	427.30
454.17	422.19
454.54	417.15
454.91	411.85
455.28	406.55
455.65	401.66
456.02	397.23
456.38	393.10
456.75	387.90
457.12	383.63
457.49	379.43
457.86	375.15
458.23	371.67
458.59	367.78
458.96	363.81
459.33	360.25
459.70	356.77
460.07	353.94
460.43	350.66
460.80	347.69
461.17	345.17
461.54	342.45
461.91	339.80
462.27	337.05
462.64	334.70
463.01	332.19
463.38	329.91
463.74	326.95
464.11	324.66
464.48	322.87
464.85	320.83
465.21	319.25
465.58	317.47
465.95	315.40
466.32	313.70
466.68	311.99
467.05	310.29
467.42	308.55
467.78	306.75
468.15	305.17
468.52	303.86
468.88	302.14
469.25	300.57
469.62	299.37
469.98	298.05
470.35	296.88
470.72	295.69
471.08	294.40
471.45	293.41
471.82	292.45
472.18	291.23
472.55	290.31
472.92	289.11
473.28	288.14
473.65	287.17
474.02	286.31
474.38	285.71
474.75	285.17
475.11	284.50
475.48	283.95
475.85	283.33
476.21	282.87
476.58	282.49
476.94	282.13
477.31	281.67
477.67	281.35
478.04	281.03
478.41	280.80
478.77	280.85
479.14	280.58
479.50	280.42
479.87	280.28
480.23	280.19
480.60	280.03
480.96	279.94
481.33	280.12
481.69	280.09
482.06	280.03
482.42	280.00
482.79	280.09
483.15	280.28
483.52	280.65
483.88	280.70
484.25	280.75
484.61	280.95
484.98	281.21
485.34	281.56
485.71	282.01
486.07	282.38
486.44	282.45
486.80	282.85
487.17	283.23
487.53	283.81
487.90	284.39
488.26	285.15
488.62	285.86
488.99	286.44
489.35	287.12
489.72	287.77
490.08	288.45
490.44	289.15
490.81	289.97
491.17	290.55
491.54	291.44
491.90	292.48
492.26	293.51
492.63	294.43
492.99	295.38
493.36	296.32
493.72	297.41
494.08	298.51
494.45	299.70
494.81	300.94
495.17	302.03
495.54	303.27
495.90	304.42
496.26	305.59
496.63	306.75
496.99	307.98
497.35	309.32
497.72	310.66
498.08	311.96
498.44	313.28
498.80	314.76
499.17	316.08
499.53	317.31
499.89	318.67
500.26	319.99
500.62	321.27
500.98	322.61
501.34	323.89
501.71	325.35
502.07	326.54
502.43	327.81
502.79	329.16
503.16	330.36
503.52	331.54
503.88	332.73
504.24	333.98
504.60	335.21
504.97	336.43
505.33	337.48
505.69	338.80
506.05	339.75
506.41	340.85
506.78	341.88
507.14	343.01
507.50	343.88
507.86	344.93
508.22	345.87
508.59	346.73
508.95	347.71
509.31	348.67
509.67	349.48
510.03	350.27
510.39	351.02
510.75	351.82
511.12	352.58
511.48	353.25
511.84	353.94
512.20	354.58
512.56	355.18
512.92	355.90
513.28	356.37
513.64	357.10
514.00	357.67
514.37	358.22
514.73	358.63
515.09	359.25
515.45	359.65
515.81	360.06
516.17	360.45
516.53	360.71
516.89	360.83
517.25	361.34
517.61	361.86
517.97	362.23
518.33	362.54
518.69	362.95
519.05	363.49
519.41	363.91
519.77	364.60
520.13	364.98
520.49	365.40
520.85	365.77
521.21	366.23
521.57	366.65
521.93	366.99
522.29	367.57
522.65	368.03
523.01	368.70
523.37	369.20
523.73	369.82
524.09	370.55
524.45	371.22
524.81	371.86
525.17	372.53
525.53	373.37
525.89	374.24
526.25	375.20
526.61	375.94
526.97	376.83
527.33	377.73
527.68	379.10
528.04	380.15
528.40	381.40
528.76	382.52
529.12	383.84
529.48	385.40
529.84	386.64
530.20	388.09
530.56	389.59
530.91	391.32
531.27	392.88
531.63	394.49
531.99	396.30
532.35	398.09
532.71	399.74
533.07	401.54
533.42	403.75
533.78	405.50
534.14	407.52
534.50	409.30
534.86	411.21
535.21	412.79
535.57	414.91
535.93	416.79
536.29	419.03
536.65	421.10
537.00	423.05
537.36	425.32
537.72	427.46
538.08	429.72
538.44	431.84
538.79	434.20
539.15	436.48
539.51	438.82
539.87	441.21
540.22	443.74
540.58	446.19
540.94	448.30
541.29	450.84
541.65	453.19
542.01	455.92
542.37	458.51
542.72	461.24
543.08	463.68
543.44	466.63
543.79	469.13
544.15	471.71
544.51	474.54
544.87	477.44
545.22	480.20
545.58	482.83
545.94	485.60
546.29	488.32
546.65	490.99
547.01	493.65
547.36	496.38
547.72	499.05
548.07	501.88
548.43	504.55
548.79	507.05
549.14	509.82
549.50	512.66
549.86	515.12
550.21	517.74
550.57	520.57
550.92	522.98
551.28	525.62
551.64	528.38
551.99	530.94
552.35	533.32
552.70	535.78
553.06	538.32
553.41	540.78
553.77	543.53
554.13	546.10
554.48	548.63
554.84	551.17
555.19	553.67
555.55	556.15
555.90	558.35
556.26	560.82
556.61	563.10
556.97	565.16
557.32	567.47
557.68	569.60
558.03	571.85
558.39	574.00
558.74	576.25
559.10	578.40
559.45	580.65
559.81	582.80
560.16	584.86
560.52	586.91
560.87	588.95
561.23	590.70
561.58	593.02
561.94	594.89
562.29	596.61
562.64	598.46
563.00	600.13
563.35	602.25
563.71	604.27
564.06	606.22
564.42	608.18
564.77	610.08
565.12	612.22
565.48	614.11
565.83	616.13
566.19	617.88
566.54	619.36
566.89	620.96
567.25	622.74
567.60	624.52
567.96	626.24
568.31	627.95
568.66	629.43
569.02	630.36
569.37	631.53
569.72	633.03
570.08	634.18
570.43	635.25
570.78	636.13
571.14	636.82
571.49	637.55
571.84	638.42
572.20	639.03
572.55	639.50
572.90	639.91
573.26	640.28
573.61	640.69
573.96	641.20
574.31	641.37
574.67	641.47
575.02	641.33
575.37	641.28
575.72	641.29
576.08	641.59
576.43	641.77
576.78	642.06
577.13	642.07
577.49	642.13
577.84	642.19
578.19	642.39
578.54	642.85
578.90	643.13
579.25	643.18
579.60	643.24
579.95	643.12
580.30	643.26
580.66	643.22
581.01	643.22
581.36	643.01
581.71	642.95
582.06	642.97
582.42	643.03
582.77	643.00
583.12	642.87
583.47	642.62
583.82	642.53
584.17	642.26
584.53	642.26
584.88	642.07
585.23	642.11
585.58	641.80
585.93	641.31
586.28	641.05
586.63	640.71
586.98	640.58
587.34	640.68
587.69	640.13
588.04	639.81
588.39	639.39
588.74	639.00
589.09	638.80
589.44	638.05
589.79	637.71
590.14	637.38
590.49	636.79
590.84	636.12
591.19	635.64
591.54	635.15
591.89	634.06
592.25	633.70
592.60	632.70
592.95	631.98
593.30	631.19
593.65	630.25
594.00	629.35
594.35	629.31
594.70	628.18
595.05	627.45
595.40	626.51
595.75	625.45
596.10	624.75
596.45	623.82
596.80	623.39
597.15	622.72
597.50	621.61
597.85	620.85
598.19	619.97
598.54	619.18
598.89	618.27
599.24	617.71
599.59	616.70
599.94	616.14
600.29	615.23
600.64	614.39
600.99	613.50
601.34	612.80
601.69	611.00
602.04	610.04
602.39	609.18
602.74	608.48
603.08	607.87
603.43	607.18
603.78	606.44
604.13	605.45
604.48	604.52
604.83	603.95
605.18	603.29
605.53	602.63
605.87	601.58
606.22	600.66
606.57	599.73
606.92	598.59
607.27	597.45
607.62	596.60
607.96	595.60
608.31	594.85
608.66	593.80
609.01	592.80
609.36	591.68
609.70	590.51
610.05	589.18
610.40	587.97
610.75	586.59
611.10	585.40
611.44	583.85
611.79	582.46
612.14	580.95
612.49	579.19
612.83	577.75
613.18	576.29
613.53	574.85
613.88	573.18
614.22	571.77
614.57	570.19
614.92	568.73
615.27	567.37
615.61	565.81
615.96	564.24
616.31	562.79
616.65	561.55
617.00	559.90
617.35	558.40
617.70	556.79
618.04	555.13
618.39	553.25
618.74	551.93
619.08	550.23
619.43	548.59
619.78	547.13
620.12	545.50
620.47	544.14
620.82	542.49
621.16	540.96
621.51	539.50
621.85	537.89
622.20	536.15
622.55	534.43
622.89	532.60
623.24	530.95
623.59	529.21
623.93	527.50
624.28	526.00
624.62	524.76
624.97	523.31
625.32	521.74
625.66	520.22
626.01	518.41
626.35	516.93
626.70	515.25
627.04	513.83
627.39	512.13
627.73	510.54
628.08	509.08
628.43	507.40
628.77	505.59
629.12	503.96
629.46	502.49
629.81	500.92
630.15	499.37
630.50	497.74
630.84	496.02
631.19	494.40
631.53	492.82
631.88	490.80
632.22	488.86
632.57	487.43
632.91	485.98
633.26	484.51
633.60	482.85
633.95	481.40
634.29	479.66
634.64	478.31
634.98	476.58
635.32	475.08
635.67	473.82
636.01	472.40
636.36	470.93
636.70	469.40
637.05	467.77
637.39	466.27
637.73	464.82
638.08	463.66
638.42	462.34
638.77	460.94
639.11	459.52
639.45	458.23
639.80	456.45
640.14	454.78
640.49	453.27
640.83	451.75
641.17	450.22
641.52	448.71
641.86	446.96
642.20	445.44
642.55	443.62
642.89	441.87
643.23	440.18
643.58	438.76
643.92	437.01
644.26	435.44
644.61	433.90
644.95	432.21
645.29	430.43
645.64	428.86
645.98	427.07
646.32	425.59
646.66	423.92
647.01	422.42
647.35	420.90
647.69	419.28
648.04	417.76
648.38	416.15
648.72	414.58
649.06	412.98
649.41	411.49
649.75	410.03
650.09	408.66
650.43	407.29
650.78	405.71
651.12	404.20
651.46	402.75
651.80	401.26
652.14	399.81
652.49	398.44
652.83	396.78
653.17	395.26
653.51	393.68
653.85	392.34
654.20	390.84
654.54	389.27
654.88	387.74
655.22	386.28
655.56	384.77
655.90	383.31
656.25	381.81
656.59	380.30
656.93	378.92
657.27	377.45
657.61	375.87
657.95	374.42
658.29	373.02
658.64	371.75
658.98	370.32
659.32	368.84
659.66	367.34
660.00	365.87
660.34	364.50
660.68	363.12
661.02	361.63
661.36	360.37
661.70	359.04
662.05	357.71
662.39	356.48
662.73	355.32
663.07	354.20
663.41	353.07
663.75	351.80
664.09	350.43
664.43	349.06
664.77	347.90
665.11	346.57
665.45	345.37
665.79	344.14
666.13	342.97
666.47	341.85
666.81	340.74
667.15	339.65
667.49	338.67
667.83	337.53
668.17	336.34
668.51	335.22
668.85	334.24
669.19	333.40
669.53	332.11
669.87	330.84
670.21	329.64
670.55	328.60
670.89	327.70
671.23	326.73
671.57	325.73
671.91	324.70
672.25	323.78
672.58	322.90
672.92	321.77
673.26	320.78
673.60	319.82
673.94	318.79
674.28	317.84
674.62	316.90
674.96	316.10
675.30	315.28
675.64	314.34
675.97	313.37
676.31	312.30
676.65	311.55
676.99	310.89
677.33	309.95
677.67	309.04
678.01	308.04
678.34	307.13
678.68	306.38
679.02	305.44
679.36	304.52
679.70	303.59
680.04	302.78
680.37	301.91
680.71	301.10
681.05	300.33
681.39	299.52
681.73	298.72
682.06	297.89
682.40	297.09
682.74	296.31
683.08	295.74
683.42	294.96
683.75	294.17
684.09	293.30
684.43	292.56
684.77	291.70
685.10	290.87
685.44	290.16
685.78	289.34
686.12	288.55
686.45	287.85
686.79	287.08
687.13	286.43
687.46	285.67
687.80	285.00
688.14	284.31
688.48	283.53
688.81	282.76
689.15	281.98
689.49	281.27
689.82	280.60
690.16	279.64
690.50	278.95
690.83	278.30
691.17	277.58
691.51	276.96
691.84	276.42
692.18	275.82
692.52	275.18
692.85	274.61
693.19	274.26
693.52	273.57
693.86	272.91
694.20	272.19
694.53	271.67
694.87	270.96
695.21	270.26
695.54	269.60
695.88	268.88
696.21	268.27
696.55	267.66
696.88	267.01
697.22	266.49
697.56	265.95
697.89	265.30
698.23	264.80
698.56	264.21
698.90	263.68
699.23	263.08
699.57	262.51
699.90	261.89
700.24	261.17
700.58	260.68
700.91	260.16
701.25	259.93
701.58	259.51
701.92	259.05
702.25	258.62
702.59	258.20
702.92	257.83
703.26	257.33
703.59	256.89
703.93	256.68
704.26	256.17
704.60	255.64
704.93	255.10
705.26	254.49
705.60	254.00
705.93	253.45
706.27	253.08
706.60	252.70
706.94	252.35
707.27	251.84
707.61	251.40
707.94	251.03
708.27	250.43
708.61	249.85
708.94	249.40
709.28	249.01
709.61	248.51
709.94	248.02
710.28	247.66
710.61	247.27
710.95	246.65
711.28	246.56
711.61	246.17
711.95	245.94
712.28	245.66
712.61	245.29
712.95	245.15
713.28	244.90
713.61	244.57
713.95	244.15
714.28	243.85
714.61	243.58
714.95	243.19
715.28	242.79
715.61	242.45
715.95	242.20
716.28	241.80
716.61	241.64
716.95	241.40
717.28	241.13
717.61	240.84
717.94	240.51
718.28	240.04
718.61	239.78
718.94	239.39
719.27	239.10
719.61	238.89
719.94	238.41
720.27	237.97
720.60	237.60
720.94	237.34
721.27	237.15
721.60	236.91
721.93	236.70
722.27	236.55
722.60	236.39
722.93	236.05
723.26	235.89
723.59	235.55
723.93	235.37
724.26	235.14
724.59	234.87
724.92	234.67
725.25	234.55
725.59	234.25
725.92	234.17
726.25	233.88
726.58	233.61
726.91	233.46
727.24	233.34
727.57	233.10
727.91	232.88
728.24	232.73
728.57	232.52
728.90	232.32
729.23	231.99
729.56	231.93
729.89	231.72
730.22	231.48
730.55	231.25
730.89	230.99
731.22	230.77
731.55	230.62
731.88	230.48
732.21	230.14
732.54	229.97
732.87	229.75
733.20	229.65
733.53	229.52
733.86	229.37
734.19	229.08
734.52	229.02
734.85	229.12
735.18	228.90
735.51	228.77
735.84	228.70
736.17	228.62
736.50	228.27
736.83	228.61
737.16	228.40
737.49	228.29
737.82	228.11
738.15	228.00
738.48	227.80
738.81	227.54
739.14	227.35
739.47	227.19
739.80	226.96
740.13	226.83
740.46	226.70
740.79	226.42
741.12	226.37
741.45	226.17
741.78	225.83
742.11	225.64
742.44	225.46
742.77	225.34
743.10	225.20
743.43	225.09
743.75	224.53
744.08	224.88
744.41	224.71
744.74	224.49
745.07	224.26
745.40	224.16
745.73	224.22
746.06	224.09
746.39	224.00
746.71	223.90
747.04	223.68
747.37	223.46
747.70	223.50
748.03	223.31
748.36	223.30
748.68	223.15
749.01	222.97
749.34	222.85
749.67	222.65
750.00	222.62
750.33	222.76
750.65	222.69
750.98	222.16
751.31	222.06
751.64	222.02
751.97	222.12
752.29	222.03
752.62	221.80
752.95	221.66
753.28	221.61
753.60	221.57
753.93	221.54
754.26	221.46
754.59	221.20
754.91	221.05
755.24	220.87
755.57	220.74
755.90	220.59
756.22	220.41
756.55	220.29
756.88	220.04
757.20	219.59
757.53	219.35
757.86	219.27
758.19	219.25
758.51	219.25
758.84	219.01
759.17	218.82
759.49	218.71
759.82	218.85
760.15	218.78
760.47	218.60
760.80	218.47
761.13	218.41
761.45	218.36
761.78	218.34
762.11	218.21
762.43	218.01
762.76	218.00
763.08	218.08
763.41	218.04
763.74	217.96
764.06	217.95
764.39	217.97
764.71	217.84
765.04	217.70
765.37	217.54
765.69	217.42
766.02	217.39
766.34	217.36
766.67	217.16
767.00	217.18
767.32	217.33
767.65	217.48
767.97	217.40
768.30	217.38
768.62	217.31
768.95	217.28
769.27	217.28
769.60	217.30
769.92	217.13
770.25	217.07
770.57	216.97
770.90	216.90
771.22	216.82
771.55	216.82
771.87	216.76
772.20	216.67
772.52	216.96
772.85	217.34
773.17	217.23
773.50	217.10
773.82	216.93
774.15	216.78
774.47	216.54
774.80	216.51
775.12	216.54
775.45	216.50
775.77	216.46
776.09	216.54
776.42	216.47
776.74	216.52
777.07	216.42
777.39	216.44
777.72	216.39
778.04	216.45
778.36	216.32
778.69	216.32
779.01	216.35
779.33	215.98
779.66	215.48
779.98	215.40
780.31	215.41
780.63	215.48
780.95	215.38
781.28	215.28
781.60	215.20
781.92	215.04
782.25	214.97
782.57	214.91
782.89	214.81
783.22	214.77
783.54	214.64
783.86	214.59
784.19	214.55
784.51	214.60
784.83	214.42
785.16	214.43
785.48	214.45
785.80	214.40
786.12	214.38
786.45	214.44
786.77	214.46
787.09	214.40
787.42	214.24
787.74	214.19
788.06	214.25
788.38	214.22
788.71	214.18
789.03	214.15
789.35	214.19
789.67	214.04
789.99	214.04
790.32	214.02
790.64	214.06
790.96	214.32
791.28	214.15
791.61	214.11
791.93	214.07
792.25	214.00
792.57	214.27
792.89	214.16
793.21	214.19
793.54	214.15
793.86	214.07
794.18	214.11
