SpectraSuite Data File
++++++++++++++++++++++++++++++++++++
Date: Mon Feb 25 16:55:38 EST 2013
User: group
Dark Spectrum Present: No
Reference Spectrum Present: No
Number of Sampled Component Spectra: 1
Spectrometers: USB2E7196
Integration Time (usec): 104000 (USB2E7196)
Spectra Averaged: 20 (USB2E7196)
Boxcar Smoothing: 10 (USB2E7196)
Correct for Electrical Dark: No (USB2E7196)
Strobe/Lamp Enabled: No (USB2E7196)
Correct for Detector Non-linearity: No (USB2E7196)
Correct for Stray Light: No (USB2E7196)
Number of Pixels in Processed Spectrum: 2048
>>>>>Begin Processed Spectral Data<<<<<
339.09	0.00
339.48	197.80
339.86	200.45
340.24	200.25
340.63	203.55
341.01	209.00
341.39	206.35
341.78	208.05
342.16	207.70
342.54	208.05
342.93	198.04
343.31	207.99
343.69	208.52
344.07	208.99
344.46	209.52
344.84	209.92
345.22	210.06
345.60	210.28
345.99	210.44
346.37	210.60
346.75	210.72
347.13	210.85
347.52	210.92
347.90	211.02
348.28	211.03
348.66	211.15
349.05	211.03
349.43	211.10
349.81	211.20
350.19	211.27
350.57	211.30
350.96	211.48
351.34	211.67
351.72	211.86
352.10	211.95
352.48	211.99
352.87	211.97
353.25	211.96
353.63	212.04
354.01	212.11
354.39	212.24
354.77	212.38
355.15	212.53
355.54	212.60
355.92	212.64
356.30	212.75
356.68	213.03
357.06	213.19
357.44	213.19
357.82	213.25
358.20	213.34
358.58	213.40
358.97	213.43
359.35	213.53
359.73	213.71
360.11	213.76
360.49	213.78
360.87	213.95
361.25	214.03
361.63	214.14
362.01	214.20
362.39	214.15
362.77	214.17
363.15	214.14
363.53	214.12
363.91	214.19
364.29	214.14
364.67	213.85
365.05	213.85
365.43	213.91
365.81	214.03
366.19	214.16
366.57	214.36
366.95	214.33
367.33	214.20
367.71	214.11
368.09	214.22
368.47	214.24
368.85	214.19
369.23	214.26
369.61	214.16
369.99	214.18
370.37	214.23
370.75	214.38
371.13	214.33
371.51	214.30
371.89	214.30
372.27	214.33
372.65	214.37
373.03	214.33
373.41	214.34
373.78	214.22
374.16	214.01
374.54	213.84
374.92	213.82
375.30	213.86
375.68	213.71
376.06	213.67
376.44	213.67
376.82	213.62
377.19	213.58
377.57	213.48
377.95	213.38
378.33	213.27
378.71	213.04
379.09	213.04
379.47	213.10
379.84	212.94
380.22	212.83
380.60	212.65
380.98	212.58
381.36	212.46
381.73	212.42
382.11	212.51
382.49	212.52
382.87	212.43
383.25	212.33
383.62	212.66
384.00	212.51
384.38	212.49
384.76	212.50
385.13	212.65
385.51	212.67
385.89	212.64
386.27	212.72
386.64	212.68
387.02	212.65
387.40	212.57
387.78	212.62
388.15	212.71
388.53	212.72
388.91	212.72
389.29	212.69
389.66	212.65
390.04	212.48
390.42	212.50
390.79	212.58
391.17	212.57
391.55	212.25
391.92	212.26
392.30	212.32
392.68	212.24
393.05	212.14
393.43	212.15
393.81	212.16
394.18	212.09
394.56	212.15
394.94	212.24
395.31	212.26
395.69	212.39
396.06	212.40
396.44	212.44
396.82	212.51
397.19	212.73
397.57	212.75
397.95	212.94
398.32	212.88
398.70	212.93
399.07	213.05
399.45	213.12
399.82	213.21
400.20	213.23
400.58	213.33
400.95	213.24
401.33	213.41
401.70	213.73
402.08	213.96
402.45	214.15
402.83	214.32
403.20	214.49
403.58	214.62
403.95	214.95
404.33	215.29
404.71	215.53
405.08	215.96
405.46	216.32
405.83	216.60
406.21	216.91
406.58	217.27
406.96	217.70
407.33	218.11
407.70	218.60
408.08	219.35
408.45	219.96
408.83	220.72
409.20	221.32
409.58	221.83
409.95	222.50
410.33	223.32
410.70	224.15
411.08	225.10
411.45	226.00
411.82	226.90
412.20	228.03
412.57	229.40
412.95	230.39
413.32	231.75
413.69	233.29
414.07	234.93
414.44	236.71
414.82	238.52
415.19	240.67
415.56	242.70
415.94	244.78
416.31	247.27
416.68	249.70
417.06	252.58
417.43	255.45
417.81	258.58
418.18	261.75
418.55	265.20
418.93	268.89
419.30	272.76
419.67	276.85
420.04	281.14
420.42	285.54
420.79	290.63
421.16	295.85
421.54	301.11
421.91	306.64
422.28	312.32
422.66	318.38
423.03	324.21
423.40	330.51
423.77	337.30
424.15	344.13
424.52	351.25
424.89	358.90
425.26	366.42
425.64	373.76
426.01	381.69
426.38	389.85
426.75	398.23
427.13	406.98
427.50	416.16
427.87	425.71
428.24	435.35
428.61	444.69
428.99	454.84
429.36	465.89
429.73	476.66
430.10	487.39
430.47	498.52
430.85	510.21
431.22	522.51
431.59	535.40
431.96	547.85
432.33	561.60
432.70	575.21
433.08	591.00
433.45	605.95
433.82	620.78
434.19	637.32
434.56	653.80
434.93	669.80
435.30	685.72
435.68	703.47
436.05	721.04
436.42	738.41
436.79	754.43
437.16	771.69
437.53	790.04
437.90	808.30
438.27	826.42
438.64	845.19
439.01	862.79
439.38	878.68
439.75	893.86
440.13	911.61
440.50	928.08
440.87	941.90
441.24	956.05
441.61	971.99
441.98	984.32
442.35	998.36
442.72	1012.08
443.09	1025.37
443.46	1033.92
443.83	1040.07
444.20	1045.67
444.57	1053.24
444.94	1057.80
445.31	1062.27
445.68	1066.44
446.05	1068.95
446.42	1068.70
446.79	1067.94
447.16	1067.00
447.53	1067.02
447.90	1061.70
448.27	1056.50
448.64	1048.24
449.01	1042.80
449.37	1032.00
449.74	1021.42
450.11	1008.51
450.48	994.65
450.85	980.50
451.22	968.29
451.59	956.67
451.96	945.82
452.33	930.64
452.70	916.87
453.07	900.42
453.43	883.75
453.80	867.70
454.17	852.15
454.54	837.41
454.91	821.49
455.28	805.88
455.65	791.36
456.02	776.40
456.38	764.27
456.75	748.78
457.12	736.08
457.49	723.50
457.86	710.99
458.23	700.38
458.59	688.76
458.96	677.07
459.33	666.63
459.70	655.94
460.07	647.62
460.43	638.04
460.80	628.96
461.17	621.07
461.54	612.60
461.91	604.64
462.27	596.62
462.64	589.89
463.01	582.16
463.38	574.78
463.74	567.72
464.11	561.34
464.48	555.94
464.85	549.76
465.21	545.01
465.58	540.05
465.95	533.96
466.32	529.05
466.68	523.94
467.05	519.10
467.42	514.14
467.78	508.90
468.15	503.84
468.52	500.18
468.88	495.35
469.25	491.08
469.62	487.74
469.98	483.99
470.35	480.43
470.72	477.24
471.08	473.70
471.45	470.77
471.82	467.58
472.18	464.00
472.55	461.49
472.92	458.56
473.28	456.13
473.65	453.73
474.02	451.19
474.38	449.27
474.75	447.51
475.11	445.62
475.48	444.35
475.85	443.12
476.21	441.74
476.58	440.87
476.94	440.28
477.31	439.17
477.67	438.30
478.04	437.71
478.41	437.23
478.77	437.11
479.14	436.58
479.50	436.46
479.87	436.69
480.23	436.86
480.60	436.89
480.96	436.88
481.33	437.55
481.69	438.25
482.06	438.73
482.42	439.13
482.79	439.87
483.15	440.80
483.52	442.15
483.88	443.39
484.25	444.44
484.61	445.62
484.98	447.04
485.34	448.82
485.71	450.57
486.07	452.57
486.44	454.39
486.80	456.57
487.17	458.97
487.53	461.56
487.90	464.24
488.26	467.15
488.62	470.46
488.99	473.47
489.35	476.78
489.72	480.27
490.08	484.02
490.44	487.73
490.81	491.62
491.17	495.37
491.54	499.71
491.90	504.10
492.26	508.86
492.63	513.62
492.99	518.43
493.36	523.56
493.72	529.03
494.08	534.64
494.45	540.64
494.81	546.68
495.17	552.73
495.54	559.17
495.90	565.75
496.26	572.30
496.63	579.02
496.99	585.92
497.35	593.27
497.72	600.70
498.08	608.32
498.44	616.21
498.80	624.53
499.17	632.70
499.53	641.05
499.89	649.45
500.26	658.09
500.62	666.70
500.98	675.76
501.34	684.65
501.71	693.83
502.07	702.77
502.43	711.86
502.79	720.99
503.16	730.42
503.52	739.93
503.88	749.60
504.24	759.33
504.60	769.15
504.97	778.95
505.33	788.51
505.69	799.04
506.05	808.95
506.41	818.85
506.78	828.61
507.14	838.42
507.50	848.49
507.86	858.56
508.22	868.69
508.59	878.47
508.95	888.52
509.31	898.44
509.67	908.75
510.03	918.90
510.39	929.42
510.75	939.42
511.12	949.38
511.48	959.16
511.84	969.16
512.20	978.87
512.56	988.85
512.92	998.85
513.28	1008.19
513.64	1017.88
514.00	1027.13
514.37	1036.53
514.73	1046.27
515.09	1055.53
515.45	1064.76
515.81	1073.82
516.17	1082.84
516.53	1091.42
516.89	1099.92
517.25	1108.17
517.61	1116.40
517.97	1124.25
518.33	1131.88
518.69	1139.72
519.05	1147.66
519.41	1155.33
519.77	1163.11
520.13	1170.12
520.49	1177.38
520.85	1184.46
521.21	1191.50
521.57	1198.92
521.93	1205.37
522.29	1211.99
522.65	1218.77
523.01	1224.97
523.37	1231.07
523.73	1237.31
524.09	1243.21
524.45	1249.23
524.81	1255.10
525.17	1261.22
525.53	1266.94
525.89	1272.70
526.25	1278.31
526.61	1283.05
526.97	1288.09
527.33	1293.04
527.68	1298.52
528.04	1303.23
528.40	1307.48
528.76	1311.81
529.12	1316.23
529.48	1321.52
529.84	1325.90
530.20	1329.83
530.56	1334.29
530.91	1338.96
531.27	1343.15
531.63	1347.77
531.99	1351.98
532.35	1355.85
532.71	1359.20
533.07	1363.55
533.42	1367.38
533.78	1371.02
534.14	1375.12
534.50	1378.18
534.86	1381.82
535.21	1384.48
535.57	1388.20
535.93	1391.63
536.29	1394.76
536.65	1397.75
537.00	1400.00
537.36	1402.55
537.72	1405.30
538.08	1407.82
538.44	1410.26
538.79	1412.79
539.15	1415.15
539.51	1417.54
539.87	1420.39
540.22	1422.99
540.58	1425.54
540.94	1428.06
541.29	1429.90
541.65	1431.38
542.01	1433.67
542.37	1435.55
542.72	1437.37
543.08	1438.62
543.44	1440.71
543.79	1441.80
544.15	1442.90
544.51	1444.83
544.87	1446.87
545.22	1448.19
545.58	1449.14
545.94	1449.90
546.29	1450.33
546.65	1450.33
547.01	1450.61
547.36	1450.76
547.72	1451.17
548.07	1450.76
548.43	1450.40
548.79	1450.13
549.14	1450.19
549.50	1450.05
549.86	1449.48
550.21	1449.31
550.57	1449.60
550.92	1448.88
551.28	1448.78
551.64	1448.75
551.99	1448.33
552.35	1447.40
552.70	1446.93
553.06	1446.71
553.41	1446.27
553.77	1446.16
554.13	1446.36
554.48	1446.48
554.84	1446.47
555.19	1445.90
555.55	1445.56
555.90	1445.03
556.26	1444.97
556.61	1444.41
556.97	1443.61
557.32	1443.00
557.68	1442.23
558.03	1440.91
558.39	1439.88
558.74	1439.34
559.10	1438.33
559.45	1437.20
559.81	1436.46
560.16	1435.00
560.52	1433.98
560.87	1433.03
561.23	1431.59
561.58	1430.63
561.94	1428.92
562.29	1426.87
562.64	1425.80
563.00	1424.56
563.35	1423.60
563.71	1422.64
564.06	1421.78
564.42	1421.07
564.77	1420.60
565.12	1420.06
565.48	1419.63
565.83	1419.03
566.19	1418.49
566.54	1417.42
566.89	1416.30
567.25	1415.60
567.60	1414.93
567.96	1414.18
568.31	1413.66
568.66	1412.87
569.02	1411.05
569.37	1409.47
569.72	1408.54
570.08	1407.13
570.43	1405.52
570.78	1403.82
571.14	1401.81
571.49	1399.84
571.84	1397.88
572.20	1395.35
572.55	1393.03
572.90	1390.12
573.26	1387.33
573.61	1384.27
573.96	1381.67
574.31	1378.92
574.67	1375.62
575.02	1372.37
575.37	1368.87
575.72	1364.71
576.08	1361.38
576.43	1358.10
576.78	1354.93
577.13	1351.57
577.49	1348.12
577.84	1344.52
578.19	1341.21
578.54	1338.29
578.90	1335.31
579.25	1331.90
579.60	1328.09
579.95	1324.23
580.30	1320.79
580.66	1317.48
581.01	1313.65
581.36	1309.71
581.71	1305.72
582.06	1302.09
582.42	1298.44
582.77	1294.15
583.12	1290.36
583.47	1286.55
583.82	1282.85
584.17	1279.02
584.53	1275.32
584.88	1271.09
585.23	1267.08
585.58	1262.93
585.93	1258.70
586.28	1254.47
586.63	1250.42
586.98	1246.81
587.34	1243.20
587.69	1238.93
588.04	1235.04
588.39	1231.24
588.74	1227.11
589.09	1223.30
589.44	1218.61
589.79	1214.56
590.14	1210.94
590.49	1207.00
590.84	1202.64
591.19	1198.93
591.54	1194.97
591.89	1190.03
592.25	1186.24
592.60	1181.79
592.95	1177.25
593.30	1172.57
593.65	1167.80
594.00	1163.17
594.35	1159.67
594.70	1154.74
595.05	1150.65
595.40	1145.74
595.75	1141.04
596.10	1136.81
596.45	1132.67
596.80	1128.83
597.15	1124.82
597.50	1120.33
597.85	1116.14
598.19	1111.87
598.54	1107.45
598.89	1103.10
599.24	1099.46
599.59	1094.97
599.94	1091.19
600.29	1087.14
600.64	1082.83
600.99	1078.47
601.34	1074.50
601.69	1069.14
602.04	1064.98
602.39	1060.63
602.74	1056.60
603.08	1052.87
603.43	1049.00
603.78	1044.60
604.13	1040.40
604.48	1036.17
604.83	1032.40
605.18	1028.46
605.53	1024.30
605.87	1019.73
606.22	1015.63
606.57	1011.31
606.92	1006.67
607.27	1001.97
607.62	997.51
607.96	993.27
608.31	989.39
608.66	984.67
609.01	980.22
609.36	975.68
609.70	971.10
610.05	966.46
610.40	961.60
610.75	956.68
611.10	952.36
611.44	947.24
611.79	942.08
612.14	937.15
612.49	931.94
612.83	927.07
613.18	922.39
613.53	917.46
613.88	912.43
614.22	907.76
614.57	903.05
614.92	898.45
615.27	893.71
615.61	888.80
615.96	884.45
616.31	879.97
616.65	875.96
617.00	871.52
617.35	867.08
617.70	862.54
618.04	857.85
618.39	852.73
618.74	848.49
619.08	844.03
619.43	839.66
619.78	835.55
620.12	831.46
620.47	827.15
620.82	822.59
621.16	817.89
621.51	813.73
621.85	809.43
622.20	805.00
622.55	800.57
622.89	796.12
623.24	791.64
623.59	787.19
623.93	782.63
624.28	778.46
624.62	774.57
624.97	770.34
625.32	766.24
625.66	762.41
626.01	758.25
626.35	754.27
626.70	749.99
627.04	745.94
627.39	741.86
627.73	738.00
628.08	734.52
628.43	730.77
628.77	726.72
629.12	722.67
629.46	718.96
629.81	715.18
630.15	711.62
630.50	707.79
630.84	703.95
631.19	700.15
631.53	696.42
631.88	692.30
632.22	688.55
632.57	684.99
632.91	681.34
633.26	677.72
633.60	674.08
633.95	670.62
634.29	666.98
634.64	663.49
634.98	659.61
635.32	656.05
635.67	652.94
636.01	649.70
636.36	646.35
636.70	643.13
637.05	639.97
637.39	636.73
637.73	633.75
638.08	630.90
638.42	627.86
638.77	624.81
639.11	621.65
639.45	618.61
639.80	615.31
640.14	612.06
640.49	608.87
640.83	605.71
641.17	602.51
641.52	599.44
641.86	596.27
642.20	593.45
642.55	589.95
642.89	586.60
643.23	583.35
643.58	580.59
643.92	577.39
644.26	574.25
644.61	571.21
644.95	568.00
645.29	564.71
645.64	561.61
645.98	558.51
646.32	555.77
646.66	552.77
647.01	549.98
647.35	547.13
647.69	544.21
648.04	541.35
648.38	538.48
648.72	535.58
649.06	532.70
649.41	529.75
649.75	527.12
650.09	524.56
650.43	521.85
650.78	518.88
651.12	516.02
651.46	513.32
651.80	510.60
652.14	507.93
652.49	505.38
652.83	502.60
653.17	499.76
653.51	496.91
653.85	494.36
654.20	491.68
654.54	489.00
654.88	486.41
655.22	483.98
655.56	481.35
655.90	478.69
656.25	475.94
656.59	473.40
656.93	470.88
657.27	468.44
657.61	465.74
657.95	463.26
658.29	460.86
658.64	458.49
658.98	455.96
659.32	453.44
659.66	450.95
660.00	448.57
660.34	446.25
660.68	443.86
661.02	441.29
661.36	439.07
661.70	436.85
662.05	434.61
662.39	432.47
662.73	430.56
663.07	428.61
663.41	426.75
663.75	424.70
664.09	422.59
664.43	420.25
664.77	418.42
665.11	416.50
665.45	414.49
665.79	412.53
666.13	410.56
666.47	408.58
666.81	406.70
667.15	404.72
667.49	402.84
667.83	401.08
668.17	399.39
668.51	397.68
668.85	395.94
669.19	394.30
669.53	392.43
669.87	390.50
670.21	388.65
670.55	386.82
670.89	385.35
671.23	383.73
671.57	382.11
671.91	380.49
672.25	378.78
672.58	377.26
672.92	375.67
673.26	374.15
673.60	372.81
673.94	371.21
674.28	369.72
674.62	368.29
674.96	366.84
675.30	365.40
675.64	363.75
675.97	362.35
676.31	360.85
676.65	359.58
676.99	358.24
677.33	356.83
677.67	355.44
678.01	353.79
678.34	352.39
678.68	351.19
679.02	349.79
679.36	348.49
679.70	347.14
680.04	345.70
680.37	344.35
680.71	342.93
681.05	341.78
681.39	340.61
681.73	339.26
682.06	338.07
682.40	336.93
682.74	335.80
683.08	334.67
683.42	333.37
683.75	332.16
684.09	330.83
684.43	329.64
684.77	328.31
685.10	327.13
685.44	325.90
685.78	324.66
686.12	323.56
686.45	322.32
686.79	321.15
687.13	320.22
687.46	319.12
687.80	318.11
688.14	316.99
688.48	315.97
688.81	315.00
689.15	313.93
689.49	312.75
689.82	311.71
690.16	310.36
690.50	309.24
690.83	307.95
691.17	306.85
691.51	305.77
691.84	304.89
692.18	303.94
692.52	303.09
692.85	302.19
693.19	301.30
693.52	300.43
693.86	299.39
694.20	298.35
694.53	297.40
694.87	296.38
695.21	295.32
695.54	294.33
695.88	293.31
696.21	292.28
696.55	291.38
696.88	290.46
697.22	289.64
697.56	289.00
697.89	288.25
698.23	287.53
698.56	286.59
698.90	285.83
699.23	284.95
699.57	284.06
699.90	283.05
700.24	282.09
700.58	281.34
700.91	280.76
701.25	280.16
701.58	279.54
701.92	278.81
702.25	278.14
702.59	277.30
702.92	276.60
703.26	275.86
703.59	275.18
703.93	274.71
704.26	274.11
704.60	273.39
704.93	272.76
705.26	271.96
705.60	271.50
705.93	270.80
706.27	270.29
706.60	269.84
706.94	269.47
707.27	268.90
707.61	268.25
707.94	267.46
708.27	266.62
708.61	265.88
708.94	265.32
709.28	264.76
709.61	264.25
709.94	263.69
710.28	263.16
710.61	262.65
710.95	261.83
711.28	261.47
711.61	260.78
711.95	260.26
712.28	259.86
712.61	259.32
712.95	258.95
713.28	258.52
713.61	257.89
713.95	257.27
714.28	256.85
714.61	256.33
714.95	255.85
715.28	255.36
715.61	254.96
715.95	254.48
716.28	253.95
716.61	253.46
716.95	252.97
717.28	252.55
717.61	252.00
717.94	251.66
718.28	251.05
718.61	250.69
718.94	250.26
719.27	249.78
719.61	249.36
719.94	248.82
720.27	248.27
720.60	247.85
720.94	247.49
721.27	247.04
721.60	246.79
721.93	246.47
722.27	246.25
722.60	245.94
722.93	245.56
723.26	245.28
723.59	244.95
723.93	244.64
724.26	244.31
724.59	244.03
724.92	243.63
725.25	243.32
725.59	243.01
725.92	242.74
726.25	242.47
726.58	242.24
726.91	241.99
727.24	241.68
727.57	241.32
727.91	240.87
728.24	240.66
728.57	240.32
728.90	240.03
729.23	239.68
729.56	239.43
729.89	239.15
730.22	238.79
730.55	238.55
730.89	238.30
731.22	237.96
731.55	237.60
731.88	237.32
732.21	236.98
732.54	236.74
732.87	236.41
733.20	236.15
733.53	235.81
733.86	235.46
734.19	235.15
734.52	234.99
734.85	235.02
735.18	234.70
735.51	234.50
735.84	234.23
736.17	234.06
736.50	233.67
736.83	233.81
737.16	233.66
737.49	233.39
737.82	233.11
738.15	232.94
738.48	232.80
738.81	232.60
739.14	232.40
739.47	232.14
739.80	231.95
740.13	231.74
740.46	231.47
740.79	231.22
741.12	231.01
741.45	230.81
741.78	230.40
742.11	230.33
742.44	230.06
742.77	229.97
743.10	229.72
743.43	229.54
743.75	229.03
744.08	229.22
744.41	228.97
744.74	228.83
745.07	228.62
745.40	228.53
745.73	228.46
746.06	228.26
746.39	228.14
746.71	227.89
747.04	227.69
747.37	227.55
747.70	227.49
748.03	227.36
748.36	227.19
748.68	227.09
749.01	226.80
749.34	226.65
749.67	226.47
750.00	226.40
750.33	226.51
750.65	226.37
750.98	225.77
751.31	225.67
751.64	225.45
751.97	225.41
752.29	225.17
752.62	224.89
752.95	224.73
753.28	224.51
753.60	224.32
753.93	224.20
754.26	224.06
754.59	223.81
754.91	223.59
755.24	223.40
755.57	223.22
755.90	223.10
756.22	222.92
756.55	222.72
756.88	222.46
757.20	222.05
757.53	221.82
757.86	221.63
758.19	221.44
758.51	221.36
758.84	221.10
759.17	220.94
759.49	220.83
759.82	220.92
760.15	220.88
760.47	220.79
760.80	220.64
761.13	220.58
761.45	220.53
761.78	220.55
762.11	220.50
762.43	220.33
762.76	220.23
763.08	220.20
763.41	220.14
763.74	220.05
764.06	220.03
764.39	220.00
764.71	219.90
765.04	219.83
765.37	219.79
765.69	219.74
766.02	219.73
766.34	219.58
766.67	219.27
767.00	219.19
767.32	219.31
767.65	219.42
767.97	219.27
768.30	219.12
768.62	219.01
768.95	218.87
769.27	218.88
769.60	218.82
769.92	218.64
770.25	218.52
770.57	218.32
770.90	218.18
771.22	218.01
771.55	218.03
771.87	217.99
772.20	217.85
772.52	218.06
772.85	218.37
773.17	218.32
773.50	218.37
773.82	218.37
774.15	218.14
774.47	217.85
774.80	217.81
775.12	217.83
775.45	217.72
775.77	217.70
776.09	217.72
776.42	217.71
776.74	217.83
777.07	217.76
777.39	217.83
777.72	217.72
778.04	217.78
778.36	217.74
778.69	217.70
779.01	217.63
779.33	217.19
779.66	216.78
779.98	216.74
780.31	216.63
780.63	216.67
780.95	216.69
781.28	216.77
781.60	216.65
781.92	216.51
782.25	216.50
782.57	216.46
782.89	216.35
783.22	216.23
783.54	216.08
783.86	216.13
784.19	216.06
784.51	216.22
784.83	216.11
785.16	216.08
785.48	216.08
785.80	216.10
786.12	216.15
786.45	216.05
786.77	216.01
787.09	215.87
787.42	215.70
787.74	215.67
788.06	215.60
