SpectraSuite Data File
++++++++++++++++++++++++++++++++++++
Date: Mon Feb 25 16:57:26 EST 2013
User: group
Dark Spectrum Present: No
Reference Spectrum Present: No
Number of Sampled Component Spectra: 1
Spectrometers: USB2E7196
Integration Time (usec): 104000 (USB2E7196)
Spectra Averaged: 20 (USB2E7196)
Boxcar Smoothing: 10 (USB2E7196)
Correct for Electrical Dark: No (USB2E7196)
Strobe/Lamp Enabled: No (USB2E7196)
Correct for Detector Non-linearity: No (USB2E7196)
Correct for Stray Light: No (USB2E7196)
Number of Pixels in Processed Spectrum: 2048
>>>>>Begin Processed Spectral Data<<<<<
339.09	0.00
339.48	199.00
339.86	200.40
340.24	201.65
340.63	203.75
341.01	209.25
341.39	205.15
341.78	207.70
342.16	209.20
342.54	208.20
342.93	198.32
343.31	208.35
343.69	208.92
344.07	209.33
344.46	209.72
344.84	210.14
345.22	210.16
345.60	210.40
345.99	210.57
346.37	210.65
346.75	210.75
347.13	210.92
347.52	211.02
347.90	211.11
348.28	211.16
348.66	211.20
349.05	211.18
349.43	211.25
349.81	211.32
350.19	211.41
350.57	211.49
350.96	211.55
351.34	211.62
351.72	211.64
352.10	211.78
352.48	211.89
352.87	211.85
353.25	212.01
353.63	212.06
354.01	212.10
354.39	212.25
354.77	212.33
355.15	212.47
355.54	212.52
355.92	212.52
356.30	212.53
356.68	212.90
357.06	212.97
357.44	213.03
357.82	213.08
358.20	213.13
358.58	213.15
358.97	213.19
359.35	213.32
359.73	213.47
360.11	213.50
360.49	213.54
360.87	213.64
361.25	213.68
361.63	213.84
362.01	213.91
362.39	213.90
362.77	213.95
363.15	213.90
363.53	213.89
363.91	213.89
364.29	213.92
364.67	213.58
365.05	213.57
365.43	213.62
365.81	213.61
366.19	213.80
366.57	213.86
366.95	213.82
367.33	213.68
367.71	213.63
368.09	213.73
368.47	213.76
368.85	213.68
369.23	213.75
369.61	213.70
369.99	213.84
370.37	213.87
370.75	214.06
371.13	213.99
371.51	213.92
371.89	213.94
372.27	213.89
372.65	213.93
373.03	213.96
373.41	213.86
373.78	213.85
374.16	213.59
374.54	213.48
374.92	213.47
375.30	213.47
375.68	213.44
376.06	213.41
376.44	213.31
376.82	213.38
377.19	213.32
377.57	213.21
377.95	212.98
378.33	212.88
378.71	212.66
379.09	212.63
379.47	212.70
379.84	212.60
380.22	212.58
380.60	212.41
380.98	212.38
381.36	212.35
381.73	212.24
382.11	212.30
382.49	212.25
382.87	212.14
383.25	212.12
383.62	212.44
384.00	212.22
384.38	212.17
384.76	212.18
385.13	212.24
385.51	212.27
385.89	212.26
386.27	212.23
386.64	212.24
387.02	212.19
387.40	212.07
387.78	212.08
388.15	212.08
388.53	212.04
388.91	211.94
389.29	211.88
389.66	211.96
390.04	211.90
390.42	212.01
390.79	212.02
391.17	212.01
391.55	211.56
391.92	211.63
392.30	211.70
392.68	211.58
393.05	211.59
393.43	211.55
393.81	211.57
394.18	211.53
394.56	211.42
394.94	211.54
395.31	211.55
395.69	211.65
396.06	211.70
396.44	211.79
396.82	211.83
397.19	212.08
397.57	212.00
397.95	212.09
398.32	211.98
398.70	212.06
399.07	212.14
399.45	212.26
399.82	212.31
400.20	212.30
400.58	212.38
400.95	212.34
401.33	212.47
401.70	212.79
402.08	212.83
402.45	213.10
402.83	213.28
403.20	213.42
403.58	213.50
403.95	213.71
404.33	213.92
404.71	214.11
405.08	214.44
405.46	214.71
405.83	215.02
406.21	215.33
406.58	215.64
406.96	215.97
407.33	216.34
407.70	216.79
408.08	217.53
408.45	218.10
408.83	218.63
409.20	219.15
409.58	219.52
409.95	220.28
410.33	220.90
410.70	221.54
411.08	222.34
411.45	223.27
411.82	224.04
412.20	225.10
412.57	226.32
412.95	227.11
413.32	228.33
413.69	229.51
414.07	230.85
414.44	232.30
414.82	233.93
415.19	235.69
415.56	237.38
415.94	239.14
416.31	241.16
416.68	243.23
417.06	245.60
417.43	248.01
417.81	250.57
418.18	253.22
418.55	256.11
418.93	259.24
419.30	262.34
419.67	265.81
420.04	269.22
420.42	272.91
420.79	277.21
421.16	281.57
421.54	286.01
421.91	290.57
422.28	295.39
422.66	300.41
423.03	305.49
423.40	310.78
423.77	316.21
424.15	321.92
424.52	327.83
424.89	334.37
425.26	340.62
425.64	346.71
426.01	353.45
426.38	360.44
426.75	367.39
427.13	374.70
427.50	382.24
427.87	390.41
428.24	398.40
428.61	406.10
428.99	414.54
429.36	423.83
429.73	432.84
430.10	441.88
430.47	451.13
430.85	460.68
431.22	470.95
431.59	481.87
431.96	492.24
432.33	503.77
432.70	514.90
433.08	528.02
433.45	540.47
433.82	552.94
434.19	566.70
434.56	580.46
434.93	593.75
435.30	607.07
435.68	621.78
436.05	636.40
436.42	650.94
436.79	664.16
437.16	678.59
437.53	693.98
437.90	709.13
438.27	724.09
438.64	739.70
439.01	754.18
439.38	767.40
439.75	780.26
440.13	794.77
440.50	808.68
440.87	820.25
441.24	832.21
441.61	845.34
441.98	855.26
442.35	866.75
442.72	878.10
443.09	889.30
443.46	896.30
443.83	901.49
444.20	906.21
444.57	912.70
444.94	916.18
445.31	920.12
445.68	923.63
446.05	926.03
446.42	925.76
446.79	925.33
447.16	924.45
447.53	924.13
447.90	920.00
448.27	915.53
448.64	908.85
449.01	904.15
449.37	895.08
449.74	886.52
450.11	875.88
450.48	864.43
450.85	852.61
451.22	842.59
451.59	832.81
451.96	823.58
452.33	810.94
452.70	799.58
453.07	785.53
453.43	771.54
453.80	758.00
454.17	745.03
454.54	732.69
454.91	719.51
455.28	706.67
455.65	694.52
456.02	682.36
456.38	672.00
456.75	659.10
457.12	648.37
457.49	637.79
457.86	627.55
458.23	618.77
458.59	609.00
458.96	599.16
459.33	590.66
459.70	581.89
460.07	574.89
460.43	566.88
460.80	559.32
461.17	552.78
461.54	545.80
461.91	539.19
462.27	532.47
462.64	526.76
463.01	520.27
463.38	514.06
463.74	507.90
464.11	502.62
464.48	498.08
464.85	493.03
465.21	489.15
465.58	484.92
465.95	479.86
466.32	475.59
466.68	471.49
467.05	467.19
467.42	462.90
467.78	458.51
468.15	454.44
468.52	451.44
468.88	447.39
469.25	443.78
469.62	440.89
469.98	437.81
470.35	434.92
470.72	432.18
471.08	429.25
471.45	426.58
471.82	423.85
472.18	420.87
472.55	418.73
472.92	416.25
473.28	414.20
473.65	412.02
474.02	409.94
474.38	408.10
474.75	406.67
475.11	405.15
475.48	403.96
475.85	402.85
476.21	401.65
476.58	400.77
476.94	400.11
477.31	399.38
477.67	398.57
478.04	397.93
478.41	397.73
478.77	397.68
479.14	397.34
479.50	397.27
479.87	397.41
480.23	397.52
480.60	397.55
480.96	397.56
481.33	398.09
481.69	398.62
482.06	399.04
482.42	399.33
482.79	399.87
483.15	400.55
483.52	401.52
483.88	402.32
484.25	403.21
484.61	404.17
484.98	405.08
485.34	406.35
485.71	407.74
486.07	409.08
486.44	410.28
486.80	412.00
487.17	413.64
487.53	415.62
487.90	417.70
488.26	419.93
488.62	422.37
488.99	424.62
489.35	426.93
489.72	429.69
490.08	432.54
490.44	435.39
490.81	438.49
491.17	441.45
491.54	444.73
491.90	448.08
492.26	451.54
492.63	455.19
492.99	458.89
493.36	462.78
493.72	466.85
494.08	471.02
494.45	475.31
494.81	479.95
495.17	484.59
495.54	489.48
495.90	494.24
496.26	499.02
496.63	504.14
496.99	509.44
497.35	514.72
497.72	520.30
498.08	525.90
498.44	531.51
498.80	537.55
499.17	543.45
499.53	549.46
499.89	555.66
500.26	561.76
500.62	567.97
500.98	574.36
501.34	580.61
501.71	587.28
502.07	593.92
502.43	600.42
502.79	606.92
503.16	613.39
503.52	620.10
503.88	626.66
504.24	633.48
504.60	640.32
504.97	647.18
505.33	653.73
505.69	660.80
506.05	667.80
506.41	674.60
506.78	681.19
507.14	687.67
507.50	694.16
507.86	700.87
508.22	707.52
508.59	713.89
508.95	720.54
509.31	727.03
509.67	733.43
510.03	740.04
510.39	746.70
510.75	753.28
511.12	759.75
511.48	766.30
511.84	772.58
512.20	778.64
512.56	784.74
512.92	791.01
513.28	796.79
513.64	802.49
514.00	808.00
514.37	813.87
514.73	819.73
515.09	825.62
515.45	831.17
515.81	836.67
516.17	841.99
516.53	847.36
516.89	852.37
517.25	857.26
517.61	862.02
517.97	866.42
518.33	870.55
518.69	874.81
519.05	879.10
519.41	883.25
519.77	887.77
520.13	891.65
520.49	895.38
520.85	899.41
521.21	903.47
521.57	907.44
521.93	911.08
522.29	915.01
522.65	918.49
523.01	921.99
523.37	925.13
523.73	928.58
524.09	931.56
524.45	934.77
524.81	938.14
525.17	941.30
525.53	944.46
525.89	947.93
526.25	950.91
526.61	953.62
526.97	956.52
527.33	958.97
527.68	962.07
528.04	964.83
528.40	967.14
528.76	969.80
529.12	972.35
529.48	975.31
529.84	977.52
530.20	980.04
530.56	982.53
530.91	985.55
531.27	988.35
531.63	991.11
531.99	993.65
532.35	995.97
532.71	998.27
533.07	1001.17
533.42	1003.74
533.78	1006.38
534.14	1009.01
534.50	1011.14
534.86	1013.59
535.21	1015.67
535.57	1018.33
535.93	1020.78
536.29	1023.06
536.65	1025.51
537.00	1027.30
537.36	1029.40
537.72	1031.40
538.08	1033.50
538.44	1035.33
538.79	1037.53
539.15	1039.46
539.51	1041.50
539.87	1043.87
540.22	1046.19
540.58	1048.49
540.94	1050.60
541.29	1052.43
541.65	1054.10
542.01	1056.24
542.37	1058.38
542.72	1060.41
543.08	1061.94
543.44	1064.04
543.79	1065.31
544.15	1066.82
544.51	1069.07
544.87	1071.45
545.22	1073.41
545.58	1075.33
545.94	1076.94
546.29	1078.22
546.65	1079.73
547.01	1080.96
547.36	1082.34
547.72	1083.50
548.07	1084.46
548.43	1085.31
548.79	1086.49
549.14	1087.91
549.50	1089.16
549.86	1090.03
550.21	1091.07
550.57	1092.56
550.92	1093.41
551.28	1094.79
551.64	1095.98
551.99	1096.90
552.35	1097.61
552.70	1098.58
553.06	1099.51
553.41	1100.60
553.77	1101.75
554.13	1102.82
554.48	1104.28
554.84	1105.36
555.19	1106.54
555.55	1107.57
555.90	1108.39
556.26	1109.26
556.61	1109.91
556.97	1110.59
557.32	1111.71
557.68	1112.26
558.03	1112.86
558.39	1113.27
558.74	1113.90
559.10	1114.66
559.45	1115.42
559.81	1116.26
560.16	1116.60
560.52	1117.19
560.87	1117.63
561.23	1117.81
561.58	1118.34
561.94	1118.43
562.29	1118.30
562.64	1118.58
563.00	1118.87
563.35	1119.64
563.71	1120.51
564.06	1121.08
564.42	1121.76
564.77	1122.31
565.12	1123.10
565.48	1123.77
565.83	1124.49
566.19	1125.40
566.54	1125.54
566.89	1125.56
567.25	1126.12
567.60	1126.67
567.96	1127.31
568.31	1127.96
568.66	1128.23
569.02	1128.17
569.37	1128.01
569.72	1128.48
570.08	1128.18
570.43	1127.95
570.78	1127.39
571.14	1126.50
571.49	1125.86
571.84	1125.41
572.20	1124.41
572.55	1123.59
572.90	1122.04
573.26	1121.05
573.61	1119.65
573.96	1118.74
574.31	1117.21
574.67	1115.32
575.02	1113.51
575.37	1111.36
575.72	1109.16
576.08	1107.55
576.43	1105.79
576.78	1104.25
577.13	1102.22
577.49	1100.69
577.84	1098.78
578.19	1097.10
578.54	1095.82
578.90	1094.61
579.25	1092.32
579.60	1090.23
579.95	1087.75
580.30	1086.09
580.66	1084.34
581.01	1081.99
581.36	1079.38
581.71	1077.22
582.06	1075.09
582.42	1072.86
582.77	1070.38
583.12	1067.97
583.47	1065.58
583.82	1063.30
584.17	1060.70
584.53	1058.46
584.88	1055.79
585.23	1053.19
585.58	1050.36
585.93	1047.50
586.28	1044.51
586.63	1042.10
586.98	1039.54
587.34	1037.52
587.69	1034.65
588.04	1031.80
588.39	1029.17
588.74	1026.39
589.09	1023.99
589.44	1020.96
589.79	1018.48
590.14	1016.07
590.49	1013.32
590.84	1010.43
591.19	1007.93
591.54	1005.33
591.89	1002.15
592.25	999.59
592.60	996.52
592.95	993.41
593.30	989.95
593.65	986.69
594.00	983.16
594.35	981.00
594.70	977.46
595.05	974.51
595.40	971.31
595.75	968.02
596.10	964.98
596.45	961.63
596.80	958.95
597.15	955.78
597.50	952.32
597.85	949.43
598.19	946.24
598.54	942.87
598.89	939.70
599.24	936.82
599.59	933.33
599.94	930.34
600.29	927.37
600.64	924.34
600.99	921.23
601.34	918.39
601.69	914.15
602.04	910.80
602.39	907.62
602.74	904.48
603.08	901.60
603.43	898.95
603.78	895.86
604.13	892.52
604.48	889.40
604.83	886.73
605.18	883.81
605.53	880.63
605.87	877.33
606.22	874.16
606.57	870.80
606.92	867.55
607.27	864.02
607.62	860.76
607.96	857.58
608.31	854.47
608.66	851.05
609.01	847.83
609.36	844.56
609.70	841.11
610.05	837.33
610.40	833.79
610.75	829.88
611.10	826.73
611.44	822.83
611.79	819.05
612.14	815.18
612.49	811.03
612.83	807.49
613.18	803.65
613.53	799.79
613.88	795.94
614.22	792.19
614.57	788.67
614.92	785.02
615.27	781.27
615.61	777.48
615.96	774.01
616.31	770.67
616.65	767.49
617.00	763.97
617.35	760.53
617.70	756.87
618.04	753.28
618.39	749.14
618.74	745.71
619.08	742.27
619.43	738.82
619.78	735.80
620.12	732.30
620.47	728.94
620.82	725.43
621.16	721.70
621.51	718.35
621.85	715.05
622.20	711.60
622.55	708.08
622.89	704.64
623.24	701.12
623.59	697.39
623.93	693.77
624.28	690.42
624.62	687.50
624.97	684.16
625.32	680.76
625.66	677.77
626.01	674.33
626.35	671.00
626.70	667.60
627.04	664.20
627.39	660.96
627.73	657.74
628.08	654.85
628.43	651.92
628.77	648.71
629.12	645.27
629.46	642.15
629.81	639.05
630.15	635.97
630.50	632.80
630.84	629.67
631.19	626.74
631.53	623.69
631.88	620.19
632.22	617.10
632.57	614.43
632.91	611.33
633.26	608.57
633.60	605.40
633.95	602.56
634.29	599.38
634.64	596.52
634.98	593.49
635.32	590.55
635.67	587.81
636.01	584.90
636.36	582.16
636.70	579.48
637.05	576.89
637.39	574.20
637.73	571.83
638.08	569.45
638.42	566.83
638.77	564.27
639.11	561.85
639.45	559.38
639.80	556.51
640.14	553.76
640.49	551.05
640.83	548.52
641.17	545.97
641.52	543.49
641.86	540.95
642.20	538.57
642.55	535.66
642.89	532.99
643.23	530.50
643.58	528.40
643.92	525.86
644.26	523.22
644.61	520.65
644.95	517.95
645.29	515.23
645.64	512.68
645.98	510.06
646.32	507.54
646.66	504.88
647.01	502.48
647.35	500.23
647.69	497.77
648.04	495.52
648.38	493.04
648.72	490.76
649.06	488.17
649.41	485.80
649.75	483.55
650.09	481.34
650.43	478.99
650.78	476.20
651.12	473.64
651.46	471.44
651.80	469.28
652.14	466.94
652.49	464.83
652.83	462.52
653.17	460.17
653.51	457.93
653.85	455.85
654.20	453.69
654.54	451.42
654.88	449.30
655.22	447.09
655.56	444.86
655.90	442.58
656.25	440.38
656.59	438.10
656.93	436.07
657.27	433.94
657.61	431.66
657.95	429.71
658.29	427.75
658.64	425.81
658.98	423.75
659.32	421.58
659.66	419.57
660.00	417.49
660.34	415.36
660.68	413.23
661.02	411.18
661.36	409.14
661.70	407.16
662.05	405.26
662.39	403.44
662.73	401.72
663.07	400.06
663.41	398.38
663.75	396.61
664.09	394.92
664.43	393.12
664.77	391.53
665.11	389.68
665.45	388.03
665.79	386.35
666.13	384.56
666.47	383.10
666.81	381.43
667.15	379.82
667.49	378.45
667.83	376.95
668.17	375.43
668.51	373.88
668.85	372.49
669.19	371.09
669.53	369.35
669.87	367.79
670.21	366.21
670.55	364.77
670.89	363.53
671.23	362.07
671.57	360.75
671.91	359.39
672.25	358.03
672.58	356.69
672.92	355.17
673.26	353.95
673.60	352.55
673.94	351.28
674.28	350.06
674.62	348.84
674.96	347.63
675.30	346.31
675.64	345.09
675.97	343.77
676.31	342.52
676.65	341.49
676.99	340.55
677.33	339.31
677.67	338.12
678.01	336.87
678.34	335.74
678.68	334.52
679.02	333.29
679.36	332.22
679.70	331.03
680.04	329.90
680.37	328.59
680.71	327.48
681.05	326.25
681.39	325.05
681.73	323.90
682.06	322.78
682.40	321.79
682.74	320.80
683.08	319.93
683.42	318.88
683.75	317.84
684.09	316.55
684.43	315.60
684.77	314.57
685.10	313.53
685.44	312.41
685.78	311.40
686.12	310.50
686.45	309.51
686.79	308.46
687.13	307.66
687.46	306.85
687.80	305.88
688.14	304.95
688.48	304.14
688.81	303.19
689.15	302.35
689.49	301.36
689.82	300.45
690.16	299.36
690.50	298.32
690.83	297.40
691.17	296.45
691.51	295.45
691.84	294.51
692.18	293.59
692.52	292.77
692.85	291.94
693.19	291.25
693.52	290.34
693.86	289.51
694.20	288.61
694.53	287.75
694.87	287.03
695.21	286.23
695.54	285.33
695.88	284.43
696.21	283.59
696.55	282.79
696.88	281.93
697.22	281.11
697.56	280.44
697.89	279.64
698.23	279.00
698.56	278.24
698.90	277.58
699.23	276.91
699.57	276.25
699.90	275.48
700.24	274.55
700.58	273.90
700.91	273.29
701.25	272.87
701.58	272.26
701.92	271.57
702.25	270.89
702.59	270.22
702.92	269.80
703.26	269.09
703.59	268.52
703.93	268.25
704.26	267.71
704.60	267.07
704.93	266.40
705.26	265.74
705.60	265.28
705.93	264.58
706.27	264.07
706.60	263.63
706.94	263.33
707.27	262.71
707.61	262.08
707.94	261.51
708.27	260.66
708.61	260.10
708.94	259.63
709.28	259.20
709.61	258.75
709.94	258.15
710.28	257.74
710.61	257.28
710.95	256.53
711.28	256.32
711.61	255.92
711.95	255.65
712.28	255.25
712.61	254.77
712.95	254.58
713.28	254.21
713.61	253.62
713.95	252.97
714.28	252.71
714.61	252.36
714.95	251.89
715.28	251.41
715.61	250.94
715.95	250.53
716.28	250.07
716.61	249.67
716.95	249.15
717.28	248.77
717.61	248.31
717.94	247.87
718.28	247.31
718.61	246.96
718.94	246.48
719.27	246.06
719.61	245.75
719.94	245.38
720.27	244.87
720.60	244.55
720.94	244.28
721.27	243.92
721.60	243.71
721.93	243.42
722.27	243.24
722.60	242.98
722.93	242.65
723.26	242.36
723.59	241.99
723.93	241.85
724.26	241.56
724.59	241.26
724.92	241.06
725.25	240.80
725.59	240.50
725.92	240.35
726.25	240.08
726.58	239.78
726.91	239.39
727.24	239.14
727.57	238.80
727.91	238.47
728.24	238.22
728.57	237.86
728.90	237.67
729.23	237.35
729.56	237.27
729.89	236.99
730.22	236.71
730.55	236.45
730.89	236.17
731.22	235.88
731.55	235.65
731.88	235.30
732.21	234.94
732.54	234.64
732.87	234.30
733.20	234.12
733.53	233.90
733.86	233.76
734.19	233.53
734.52	233.32
734.85	233.31
735.18	233.01
735.51	232.82
735.84	232.58
736.17	232.47
736.50	231.98
736.83	232.18
737.16	231.90
737.49	231.65
737.82	231.37
738.15	231.32
738.48	231.09
738.81	230.95
739.14	230.76
739.47	230.60
739.80	230.36
740.13	230.15
740.46	229.93
740.79	229.61
741.12	229.43
741.45	229.23
741.78	228.79
742.11	228.68
742.44	228.51
742.77	228.36
743.10	228.13
743.43	228.11
743.75	227.52
744.08	227.82
744.41	227.78
744.74	227.60
745.07	227.28
745.40	227.15
745.73	227.11
746.06	226.94
746.39	226.74
746.71	226.58
747.04	226.39
747.37	226.22
747.70	226.13
748.03	225.97
748.36	225.86
748.68	225.78
749.01	225.51
749.34	225.33
749.67	225.15
750.00	225.05
750.33	225.07
750.65	224.95
750.98	224.40
751.31	224.18
751.64	224.06
751.97	224.15
752.29	224.01
752.62	223.70
752.95	223.56
753.28	223.41
753.60	223.24
753.93	223.22
754.26	223.01
754.59	222.79
754.91	222.60
755.24	222.43
755.57	222.28
755.90	222.19
756.22	221.98
756.55	221.85
756.88	221.62
757.20	221.31
757.53	221.16
757.86	221.04
758.19	220.91
758.51	220.75
758.84	220.47
759.17	220.31
759.49	220.21
759.82	220.24
760.15	220.23
760.47	220.20
760.80	219.93
761.13	219.97
761.45	219.87
761.78	219.84
762.11	219.73
762.43	219.64
762.76	219.57
763.08	219.51
763.41	219.45
763.74	219.40
764.06	219.21
764.39	219.16
764.71	219.06
765.04	218.98
765.37	218.97
765.69	218.84
766.02	218.77
766.34	218.70
766.67	218.50
767.00	218.45
767.32	218.49
767.65	218.73
767.97	218.69
768.30	218.57
768.62	218.50
768.95	218.46
769.27	218.30
769.60	218.35
769.92	218.40
770.25	218.28
770.57	218.14
770.90	218.16
771.22	218.01
771.55	217.92
771.87	217.81
772.20	217.65
772.52	217.89
772.85	218.22
773.17	218.18
773.50	218.12
773.82	217.97
774.15	217.74
774.47	217.39
774.80	217.25
775.12	217.29
775.45	217.21
775.77	217.19
776.09	217.22
776.42	217.09
776.74	217.07
777.07	216.97
777.39	216.95
777.72	216.84
778.04	216.81
778.36	216.77
778.69	216.80
779.01	216.86
779.33	216.48
779.66	216.05
779.98	215.95
780.31	215.94
780.63	216.02
780.95	216.09
781.28	216.01
781.60	215.90
781.92	215.80
782.25	215.67
782.57	215.61
782.89	215.55
783.22	215.48
783.54	215.34
783.86	215.35
784.19	215.28
784.51	215.34
784.83	215.30
785.16	215.25
785.48	215.28
785.80	215.24
786.12	215.28
786.45	215.24
786.77	215.27
787.09	215.21
787.42	215.07
787.74	215.04
788.06	215.07
788.38	215.00
788.71	214.95
789.03	214.97
789.35	214.95
789.67	214.84
789.99	214.83
790.32	214.79
790.64	214.77
