SpectraSuite Data File
++++++++++++++++++++++++++++++++++++
Date: Mon Feb 25 17:07:35 EST 2013
User: group
Dark Spectrum Present: No
Reference Spectrum Present: No
Number of Sampled Component Spectra: 1
Spectrometers: USB2E7196
Integration Time (usec): 104000 (USB2E7196)
Spectra Averaged: 20 (USB2E7196)
Boxcar Smoothing: 10 (USB2E7196)
Correct for Electrical Dark: No (USB2E7196)
Strobe/Lamp Enabled: No (USB2E7196)
Correct for Detector Non-linearity: No (USB2E7196)
Correct for Stray Light: No (USB2E7196)
Number of Pixels in Processed Spectrum: 2048
>>>>>Begin Processed Spectral Data<<<<<
339.09	0.00
339.48	198.60
339.86	200.80
340.24	201.60
340.63	202.60
341.01	210.20
341.39	206.20
341.78	208.65
342.16	210.75
342.54	208.95
342.93	199.23
343.31	209.27
343.69	209.86
344.07	210.34
344.46	210.79
344.84	211.24
345.22	211.31
345.60	211.55
345.99	211.72
346.37	211.77
346.75	211.91
347.13	211.99
347.52	211.97
347.90	212.17
348.28	212.19
348.66	212.27
349.05	212.14
349.43	212.18
349.81	212.17
350.19	212.18
350.57	212.25
350.96	212.22
351.34	212.33
351.72	212.36
352.10	212.35
352.48	212.43
352.87	212.45
353.25	212.50
353.63	212.47
354.01	212.51
354.39	212.51
354.77	212.47
355.15	212.70
355.54	212.77
355.92	212.68
356.30	212.67
356.68	212.90
357.06	212.94
357.44	212.89
357.82	212.95
358.20	212.93
358.58	212.91
358.97	212.93
359.35	212.99
359.73	213.08
360.11	213.14
360.49	213.10
360.87	213.07
361.25	213.11
361.63	213.25
362.01	213.21
362.39	213.21
362.77	213.28
363.15	213.10
363.53	213.04
363.91	213.02
364.29	213.02
364.67	212.61
365.05	212.56
365.43	212.61
365.81	212.60
366.19	212.85
366.57	212.93
366.95	212.86
367.33	212.72
367.71	212.66
368.09	212.68
368.47	212.69
368.85	212.68
369.23	212.71
369.61	212.57
369.99	212.69
370.37	212.76
370.75	212.91
371.13	212.87
371.51	212.83
371.89	212.85
372.27	212.79
372.65	212.75
373.03	212.71
373.41	212.61
373.78	212.53
374.16	212.24
374.54	212.10
374.92	212.03
375.30	211.99
375.68	211.95
376.06	212.02
376.44	211.97
376.82	211.95
377.19	211.85
377.57	211.80
377.95	211.60
378.33	211.45
378.71	211.10
379.09	211.07
379.47	211.06
379.84	210.96
380.22	210.93
380.60	210.88
380.98	210.82
381.36	210.77
381.73	210.72
382.11	210.75
382.49	210.78
382.87	210.74
383.25	210.76
383.62	211.08
384.00	210.85
384.38	210.88
384.76	210.93
385.13	211.04
385.51	211.06
385.89	211.03
386.27	211.09
386.64	211.17
387.02	211.10
387.40	211.00
387.78	210.95
388.15	210.94
388.53	210.94
388.91	210.92
389.29	210.90
389.66	210.91
390.04	210.80
390.42	210.78
390.79	210.80
391.17	210.74
391.55	210.40
391.92	210.42
392.30	210.37
392.68	210.34
393.05	210.29
393.43	210.25
393.81	210.28
394.18	210.19
394.56	210.24
394.94	210.34
395.31	210.36
395.69	210.48
396.06	210.50
396.44	210.54
396.82	210.53
397.19	210.76
397.57	210.77
397.95	210.85
398.32	210.82
398.70	210.85
399.07	210.91
399.45	210.85
399.82	210.89
400.20	210.88
400.58	210.86
400.95	210.73
401.33	210.85
401.70	211.11
402.08	211.17
402.45	211.24
402.83	211.38
403.20	211.40
403.58	211.39
403.95	211.57
404.33	211.64
404.71	211.70
405.08	211.91
405.46	211.98
405.83	212.18
406.21	212.22
406.58	212.34
406.96	212.39
407.33	212.55
407.70	212.74
408.08	213.12
408.45	213.25
408.83	213.46
409.20	213.50
409.58	213.48
409.95	213.72
410.33	213.90
410.70	213.95
411.08	214.22
411.45	214.50
411.82	214.69
412.20	215.09
412.57	215.59
412.95	215.58
413.32	216.03
413.69	216.34
414.07	216.73
414.44	217.22
414.82	217.74
415.19	218.31
415.56	218.80
415.94	219.22
416.31	219.96
416.68	220.70
417.06	221.62
417.43	222.42
417.81	223.28
418.18	224.11
418.55	225.08
418.93	226.13
419.30	227.18
419.67	228.24
420.04	229.25
420.42	230.37
420.79	231.96
421.16	233.24
421.54	234.75
421.91	236.24
422.28	237.71
422.66	239.30
423.03	241.08
423.40	242.73
423.77	244.50
424.15	246.20
424.52	248.00
424.89	249.91
425.26	251.83
425.64	253.57
426.01	255.59
426.38	257.69
426.75	259.83
427.13	262.04
427.50	264.36
427.87	266.84
428.24	269.23
428.61	271.40
428.99	274.08
429.36	276.82
429.73	279.61
430.10	282.43
430.47	285.25
430.85	288.00
431.22	291.20
431.59	294.65
431.96	297.88
432.33	301.35
432.70	304.79
433.08	308.66
433.45	312.44
433.82	316.30
434.19	320.50
434.56	324.69
434.93	328.62
435.30	332.53
435.68	336.88
436.05	341.06
436.42	345.39
436.79	349.38
437.16	353.59
437.53	358.01
437.90	362.39
438.27	366.86
438.64	371.37
439.01	375.61
439.38	379.15
439.75	382.78
440.13	387.01
440.50	390.85
440.87	394.21
441.24	397.61
441.61	401.29
441.98	404.00
442.35	407.12
442.72	410.37
443.09	413.78
443.46	415.73
443.83	417.23
444.20	418.40
444.57	419.92
444.94	420.75
445.31	421.75
445.68	422.84
446.05	423.15
446.42	422.87
446.79	422.42
447.16	422.02
447.53	421.85
447.90	420.33
448.27	418.88
448.64	416.69
449.01	415.21
449.37	412.51
449.74	409.84
450.11	406.81
450.48	403.25
450.85	399.28
451.22	396.11
451.59	393.15
451.96	390.30
452.33	386.60
452.70	383.23
453.07	378.95
453.43	374.55
453.80	370.54
454.17	366.62
454.54	363.04
454.91	359.11
455.28	355.18
455.65	351.52
456.02	348.42
456.38	345.28
456.75	341.46
457.12	338.18
457.49	335.06
457.86	331.74
458.23	329.22
458.59	326.51
458.96	323.65
459.33	321.00
459.70	318.46
460.07	316.34
460.43	313.90
460.80	311.75
461.17	309.75
461.54	307.80
461.91	305.90
462.27	303.87
462.64	302.24
463.01	300.35
463.38	298.65
463.74	296.35
464.11	294.73
464.48	293.34
464.85	291.79
465.21	290.72
465.58	289.56
465.95	287.94
466.32	286.62
466.68	285.35
467.05	284.18
467.42	282.90
467.78	281.62
468.15	280.36
468.52	279.52
468.88	278.30
469.25	277.16
469.62	276.39
469.98	275.35
470.35	274.45
470.72	273.65
471.08	272.62
471.45	271.90
471.82	271.30
472.18	270.46
472.55	269.86
472.92	269.02
473.28	268.27
473.65	267.64
474.02	267.05
474.38	266.61
474.75	266.20
475.11	265.73
475.48	265.32
475.85	265.00
476.21	264.63
476.58	264.35
476.94	264.05
477.31	263.76
477.67	263.58
478.04	263.24
478.41	263.01
478.77	263.20
479.14	263.00
479.50	262.84
479.87	262.80
480.23	262.64
480.60	262.50
480.96	262.42
481.33	262.62
481.69	262.68
482.06	262.67
482.42	262.70
482.79	262.71
483.15	262.80
483.52	263.06
483.88	263.18
484.25	263.38
484.61	263.62
484.98	263.74
485.34	264.06
485.71	264.52
486.07	264.82
486.44	264.88
486.80	265.32
487.17	265.75
487.53	266.36
487.90	266.98
488.26	267.73
488.62	268.52
488.99	268.91
489.35	269.53
489.72	270.29
490.08	270.87
490.44	271.63
490.81	272.42
491.17	273.01
491.54	273.89
491.90	274.80
492.26	275.77
492.63	276.72
492.99	277.62
493.36	278.57
493.72	279.75
494.08	280.87
494.45	282.00
494.81	283.12
495.17	284.16
495.54	285.41
495.90	286.50
496.26	287.69
496.63	289.09
496.99	290.42
497.35	291.75
497.72	293.32
498.08	294.86
498.44	296.39
498.80	298.11
499.17	299.64
499.53	301.22
499.89	303.00
500.26	304.69
500.62	306.45
500.98	308.30
501.34	309.97
501.71	311.88
502.07	313.84
502.43	315.70
502.79	317.55
503.16	319.53
503.52	321.52
503.88	323.46
504.24	325.50
504.60	327.57
504.97	329.79
505.33	331.80
505.69	334.10
506.05	336.23
506.41	338.37
506.78	340.60
507.14	342.69
507.50	344.84
507.86	347.15
508.22	349.44
508.59	351.62
508.95	354.12
509.31	356.68
509.67	358.88
510.03	361.35
510.39	363.81
510.75	366.25
511.12	368.72
511.48	371.31
511.84	373.77
512.20	376.34
512.56	378.85
512.92	381.57
513.28	384.20
513.64	386.87
514.00	389.69
514.37	392.53
514.73	395.41
515.09	398.20
515.45	400.93
515.81	403.68
516.17	406.43
516.53	409.05
516.89	411.55
517.25	414.43
517.61	417.34
517.97	420.18
518.33	423.07
518.69	426.13
519.05	429.11
519.41	432.23
519.77	435.45
520.13	438.42
520.49	441.39
520.85	444.30
521.21	447.48
521.57	450.52
521.93	453.43
522.29	456.67
522.65	459.85
523.01	463.14
523.37	466.33
523.73	469.68
524.09	473.19
524.45	476.60
524.81	480.08
525.17	483.55
525.53	487.20
525.89	490.71
526.25	494.14
526.61	497.53
526.97	500.91
527.33	504.36
527.68	508.30
528.04	511.86
528.40	515.49
528.76	519.14
529.12	522.74
529.48	526.67
529.84	530.25
530.20	534.06
530.56	537.84
530.91	541.79
531.27	545.81
531.63	549.73
531.99	553.62
532.35	557.30
532.71	561.03
533.07	564.75
533.42	568.91
533.78	572.82
534.14	576.68
534.50	580.51
534.86	584.53
535.21	588.03
535.57	592.04
535.93	595.78
536.29	599.65
536.65	603.50
537.00	607.05
537.36	610.85
537.72	614.52
538.08	618.28
538.44	621.87
538.79	625.38
539.15	628.78
539.51	632.40
539.87	636.33
540.22	640.12
540.58	643.90
540.94	647.14
541.29	650.66
541.65	654.05
542.01	657.66
542.37	660.94
542.72	664.36
543.08	667.63
543.44	671.31
543.79	674.48
544.15	677.93
544.51	681.68
544.87	685.14
545.22	688.45
545.58	691.58
545.94	694.67
546.29	697.71
546.65	700.84
547.01	703.78
547.36	706.63
547.72	709.59
548.07	712.36
548.43	715.13
548.79	717.70
549.14	720.49
549.50	723.10
549.86	725.67
550.21	728.26
550.57	730.72
550.92	732.85
551.28	735.25
551.64	737.47
551.99	739.58
552.35	741.66
552.70	743.58
553.06	745.70
553.41	747.97
553.77	750.17
554.13	752.00
554.48	754.13
554.84	756.14
555.19	757.70
555.55	759.61
555.90	761.14
556.26	762.80
556.61	764.36
556.97	765.64
557.32	767.03
557.68	768.26
558.03	769.78
558.39	771.15
558.74	772.77
559.10	774.11
559.45	775.46
559.81	776.93
560.16	778.14
560.52	779.26
560.87	780.39
561.23	781.43
561.58	782.86
561.94	783.75
562.29	784.58
562.64	785.72
563.00	786.63
563.35	787.91
563.71	789.08
564.06	790.34
564.42	791.64
564.77	792.77
565.12	794.02
565.48	795.24
565.83	796.33
566.19	797.03
566.54	797.54
566.89	798.05
567.25	798.70
567.60	799.62
567.96	800.53
568.31	801.18
568.66	801.68
569.02	802.00
569.37	802.13
569.72	802.62
570.08	802.91
570.43	802.85
570.78	802.87
571.14	802.79
571.49	802.30
571.84	802.26
572.20	801.89
572.55	801.74
572.90	801.18
573.26	800.63
573.61	800.14
573.96	799.87
574.31	799.26
574.67	798.32
575.02	797.32
575.37	796.27
575.72	795.16
576.08	794.34
576.43	793.30
576.78	792.52
577.13	791.66
577.49	790.72
577.84	789.95
578.19	789.23
578.54	788.57
578.90	788.20
579.25	787.23
579.60	786.14
579.95	784.82
580.30	783.71
580.66	783.06
581.01	782.13
581.36	780.92
581.71	779.82
582.06	779.30
582.42	778.35
582.77	777.52
583.12	776.58
583.47	775.68
583.82	774.91
584.17	774.06
584.53	773.15
584.88	772.24
585.23	771.26
585.58	770.10
585.93	769.00
586.28	767.77
586.63	766.69
586.98	765.87
587.34	765.05
587.69	764.04
588.04	762.79
588.39	761.81
588.74	760.73
589.09	759.80
589.44	758.28
589.79	757.30
590.14	756.14
590.49	754.89
590.84	753.55
591.19	752.47
591.54	751.25
591.89	749.60
592.25	748.32
592.60	747.00
592.95	745.48
593.30	743.67
593.65	742.02
594.00	740.39
594.35	739.80
594.70	738.28
595.05	736.92
595.40	735.30
595.75	733.45
596.10	732.13
596.45	730.64
596.80	729.23
597.15	727.80
597.50	726.27
597.85	725.10
598.19	723.62
598.54	721.86
598.89	720.63
599.24	719.52
599.59	718.15
599.94	716.96
600.29	715.71
600.64	714.48
600.99	713.14
601.34	711.99
601.69	709.60
602.04	708.04
602.39	706.48
602.74	705.17
603.08	704.30
603.43	703.34
603.78	701.94
604.13	700.58
604.48	699.15
604.83	697.92
605.18	696.59
605.53	695.41
605.87	694.15
606.22	692.72
606.57	691.10
606.92	689.36
607.27	687.50
607.62	685.99
607.96	684.75
608.31	683.60
608.66	681.96
609.01	680.61
609.36	679.15
609.70	677.50
610.05	675.63
610.40	673.67
610.75	671.60
611.10	670.12
611.44	668.09
611.79	666.19
612.14	664.05
612.49	661.79
612.83	659.65
613.18	657.40
613.53	655.17
613.88	652.94
614.22	651.11
614.57	649.25
614.92	647.16
615.27	645.00
615.61	642.62
615.96	640.59
616.31	638.59
616.65	636.72
617.00	634.75
617.35	632.80
617.70	630.61
618.04	628.35
618.39	625.85
618.74	623.95
619.08	621.88
619.43	619.76
619.78	617.68
620.12	615.61
620.47	613.79
620.82	611.58
621.16	609.47
621.51	607.33
621.85	605.21
622.20	603.01
622.55	600.68
622.89	598.50
623.24	596.25
623.59	593.91
623.93	591.63
624.28	589.53
624.62	587.73
624.97	585.71
625.32	583.63
625.66	581.68
626.01	579.54
626.35	577.48
626.70	575.40
627.04	573.68
627.39	571.64
627.73	569.55
628.08	567.80
628.43	565.67
628.77	563.57
629.12	561.41
629.46	559.54
629.81	557.65
630.15	555.54
630.50	553.50
630.84	551.35
631.19	549.28
631.53	547.12
631.88	544.63
632.22	542.41
632.57	540.56
632.91	538.37
633.26	536.30
633.60	534.25
633.95	532.35
634.29	530.15
634.64	528.23
634.98	526.01
635.32	523.82
635.67	522.03
636.01	520.09
636.36	518.03
636.70	516.11
637.05	514.15
637.39	512.41
637.73	510.66
638.08	509.00
638.42	507.14
638.77	505.44
639.11	503.71
639.45	501.84
639.80	499.66
640.14	497.77
640.49	495.88
640.83	493.90
641.17	491.96
641.52	490.08
641.86	488.16
642.20	486.48
642.55	484.45
642.89	482.43
643.23	480.39
643.58	478.79
643.92	476.66
644.26	474.82
644.61	472.85
644.95	470.75
645.29	468.80
645.64	466.82
645.98	464.77
646.32	462.92
646.66	460.90
647.01	459.09
647.35	457.37
647.69	455.43
648.04	453.56
648.38	451.70
648.72	449.74
649.06	447.78
649.41	445.75
649.75	443.91
650.09	442.19
650.43	440.38
650.78	438.18
651.12	436.31
651.46	434.37
651.80	432.55
652.14	430.90
652.49	429.08
652.83	427.30
653.17	425.35
653.51	423.50
653.85	421.95
654.20	420.26
654.54	418.33
654.88	416.58
655.22	414.92
655.56	413.10
655.90	411.33
656.25	409.48
656.59	407.79
656.93	406.08
657.27	404.41
657.61	402.55
657.95	400.97
658.29	399.39
658.64	397.85
658.98	396.10
659.32	394.25
659.66	392.52
660.00	390.77
660.34	389.13
660.68	387.33
661.02	385.60
661.36	383.83
661.70	382.23
662.05	380.70
662.39	379.09
662.73	377.65
663.07	376.22
663.41	374.78
663.75	373.16
664.09	371.59
664.43	369.97
664.77	368.62
665.11	367.07
665.45	365.59
665.79	364.15
666.13	362.70
666.47	361.30
666.81	359.96
667.15	358.54
667.49	357.35
667.83	356.15
668.17	354.88
668.51	353.62
668.85	352.43
669.19	351.25
669.53	349.89
669.87	348.52
670.21	347.22
670.55	346.07
670.89	345.10
671.23	343.99
671.57	342.80
671.91	341.63
672.25	340.42
672.58	339.40
672.92	338.06
673.26	336.99
673.60	335.86
673.94	334.61
674.28	333.46
674.62	332.37
674.96	331.15
675.30	329.94
675.64	328.91
675.97	327.81
676.31	326.65
676.65	325.67
676.99	324.72
677.33	323.61
677.67	322.48
678.01	321.39
678.34	320.41
678.68	319.44
679.02	318.35
679.36	317.45
679.70	316.31
680.04	315.35
680.37	314.34
680.71	313.27
681.05	312.36
681.39	311.46
681.73	310.43
682.06	309.52
682.40	308.63
682.74	307.59
683.08	306.71
683.42	305.71
683.75	304.81
684.09	303.87
684.43	303.05
684.77	302.13
685.10	301.08
685.44	300.08
685.78	299.20
686.12	298.35
686.45	297.50
686.79	296.61
687.13	295.85
687.46	294.99
687.80	294.31
688.14	293.54
688.48	292.72
688.81	291.86
689.15	291.18
689.49	290.28
689.82	289.53
690.16	288.57
690.50	287.75
690.83	286.81
691.17	285.92
691.51	285.08
691.84	284.28
692.18	283.55
692.52	282.85
692.85	282.08
693.19	281.48
693.52	280.67
693.86	279.85
694.20	279.16
694.53	278.43
694.87	277.68
695.21	276.82
695.54	276.10
695.88	275.40
696.21	274.52
696.55	273.99
696.88	273.31
697.22	272.65
697.56	272.15
697.89	271.50
698.23	270.87
698.56	270.18
698.90	269.60
699.23	268.92
699.57	268.26
699.90	267.56
700.24	266.79
700.58	266.24
700.91	265.73
701.25	265.21
701.58	264.70
701.92	264.04
702.25	263.52
702.59	262.92
702.92	262.30
703.26	261.78
703.59	261.11
703.93	260.84
704.26	260.33
704.60	259.70
704.93	259.19
705.26	258.66
705.60	258.19
705.93	257.60
706.27	257.26
706.60	256.81
706.94	256.53
707.27	256.03
707.61	255.45
707.94	254.96
708.27	254.28
708.61	253.74
708.94	253.35
709.28	252.85
709.61	252.40
709.94	252.09
710.28	251.64
710.61	251.26
710.95	250.51
711.28	250.29
711.61	249.85
711.95	249.51
712.28	249.03
712.61	248.60
712.95	248.43
713.28	248.14
713.61	247.76
713.95	247.28
714.28	246.97
714.61	246.66
714.95	246.27
715.28	245.86
715.61	245.51
715.95	245.20
716.28	244.80
716.61	244.49
716.95	244.04
717.28	243.73
717.61	243.38
717.94	243.15
718.28	242.55
718.61	242.18
718.94	241.86
719.27	241.51
719.61	241.24
719.94	240.85
720.27	240.31
720.60	239.93
720.94	239.68
721.27	239.32
721.60	239.09
721.93	238.82
722.27	238.77
722.60	238.48
722.93	238.22
723.26	237.95
723.59	237.65
723.93	237.41
724.26	237.12
724.59	236.80
724.92	236.51
725.25	236.37
725.59	236.15
725.92	235.92
726.25	235.70
726.58	235.46
726.91	235.17
727.24	235.01
727.57	234.81
727.91	234.43
728.24	234.25
728.57	233.97
728.90	233.72
729.23	233.31
729.56	233.28
729.89	232.99
730.22	232.84
730.55	232.59
730.89	232.39
731.22	232.21
731.55	232.09
731.88	231.80
732.21	231.59
732.54	231.38
732.87	231.16
733.20	231.01
733.53	230.82
733.86	230.65
734.19	230.40
734.52	230.29
734.85	230.39
735.18	230.15
735.51	230.01
735.84	229.89
736.17	229.80
736.50	229.39
736.83	229.63
737.16	229.41
737.49	229.29
737.82	229.06
738.15	228.90
738.48	228.69
738.81	228.59
739.14	228.32
739.47	228.15
739.80	227.97
740.13	227.82
740.46	227.59
740.79	227.31
741.12	227.11
741.45	226.88
741.78	226.55
742.11	226.44
742.44	226.22
742.77	226.11
743.10	225.93
743.43	225.79
743.75	225.20
744.08	225.54
744.41	225.32
744.74	225.18
745.07	224.99
745.40	224.93
745.73	224.96
746.06	224.86
746.39	224.68
746.71	224.55
747.04	224.33
747.37	224.18
747.70	224.22
748.03	224.16
748.36	224.02
748.68	223.83
749.01	223.65
749.34	223.60
749.67	223.44
750.00	223.31
750.33	223.43
750.65	223.38
750.98	222.74
751.31	222.66
751.64	222.58
751.97	222.60
752.29	222.39
752.62	222.07
752.95	221.94
753.28	221.85
753.60	221.68
753.93	221.70
754.26	221.61
754.59	221.38
754.91	221.17
755.24	221.09
755.57	220.99
755.90	220.87
756.22	220.66
756.55	220.45
756.88	220.29
757.20	219.92
757.53	219.69
757.86	219.67
758.19	219.58
758.51	219.48
758.84	219.31
759.17	219.14
759.49	219.07
759.82	219.16
760.15	219.06
760.47	218.92
760.80	218.78
761.13	218.70
761.45	218.51
761.78	218.44
762.11	218.34
762.43	218.21
762.76	218.16
763.08	218.13
763.41	218.16
763.74	218.11
764.06	218.01
764.39	218.04
764.71	217.92
765.04	217.83
765.37	217.68
765.69	217.52
766.02	217.52
766.34	217.41
766.67	217.17
767.00	217.24
767.32	217.39
767.65	217.51
767.97	217.45
768.30	217.50
768.62	217.41
768.95	217.30
769.27	217.23
769.60	217.21
769.92	217.07
770.25	216.95
770.57	216.75
770.90	216.67
771.22	216.52
771.55	216.52
771.87	216.52
772.20	216.46
772.52	216.76
772.85	217.11
773.17	217.05
773.50	217.02
773.82	216.89
774.15	216.67
774.47	216.42
774.80	216.28
775.12	216.16
775.45	216.13
775.77	216.14
776.09	216.13
776.42	216.00
776.74	216.11
777.07	216.03
777.39	216.08
777.72	216.09
778.04	216.07
778.36	215.96
778.69	215.90
779.01	215.90
779.33	215.55
779.66	215.14
779.98	215.05
780.31	214.94
780.63	215.06
780.95	215.07
781.28	214.99
781.60	215.01
781.92	215.01
782.25	215.03
782.57	215.00
782.89	214.96
783.22	214.85
783.54	214.75
783.86	214.79
784.19	214.77
784.51	214.88
784.83	214.83
785.16	214.76
785.48	214.78
785.80	214.80
786.12	214.69
786.45	214.65
786.77	214.72
787.09	214.75
787.42	214.55
787.74	214.60
788.06	214.62
788.38	214.57
788.71	214.50
789.03	214.46
789.35	214.41
789.67	214.35
789.99	214.51
790.32	214.37
790.64	214.35
790.96	214.55
791.28	214.38
791.61	214.39
791.93	214.45
792.25	214.37
792.57	214.58
792.89	214.59
793.21	214.56
793.54	214.48
793.86	214.41
794.18	214.38
