SpectraSuite Data File
++++++++++++++++++++++++++++++++++++
Date: Mon Feb 25 16:58:19 EST 2013
User: group
Dark Spectrum Present: No
Reference Spectrum Present: No
Number of Sampled Component Spectra: 1
Spectrometers: USB2E7196
Integration Time (usec): 104000 (USB2E7196)
Spectra Averaged: 20 (USB2E7196)
Boxcar Smoothing: 10 (USB2E7196)
Correct for Electrical Dark: No (USB2E7196)
Strobe/Lamp Enabled: No (USB2E7196)
Correct for Detector Non-linearity: No (USB2E7196)
Correct for Stray Light: No (USB2E7196)
Number of Pixels in Processed Spectrum: 2048
>>>>>Begin Processed Spectral Data<<<<<
339.09	0.00
339.48	198.65
339.86	200.60
340.24	201.05
340.63	201.75
341.01	209.00
341.39	206.70
341.78	207.85
342.16	208.75
342.54	210.35
342.93	198.50
343.31	208.50
343.69	209.08
344.07	209.50
344.46	210.05
344.84	210.56
345.22	210.66
345.60	210.91
345.99	211.08
346.37	211.16
346.75	211.23
347.13	211.36
347.52	211.42
347.90	211.55
348.28	211.64
348.66	211.76
349.05	211.65
349.43	211.75
349.81	211.76
350.19	211.79
350.57	211.86
350.96	211.88
351.34	211.99
351.72	212.10
352.10	212.20
352.48	212.12
352.87	212.11
353.25	212.20
353.63	212.22
354.01	212.30
354.39	212.40
354.77	212.41
355.15	212.44
355.54	212.56
355.92	212.42
356.30	212.44
356.68	212.69
357.06	212.83
357.44	212.79
357.82	212.86
358.20	212.86
358.58	212.89
358.97	212.98
359.35	213.17
359.73	213.15
360.11	213.17
360.49	213.29
360.87	213.25
361.25	213.25
361.63	213.37
362.01	213.42
362.39	213.39
362.77	213.42
363.15	213.47
363.53	213.38
363.91	213.42
364.29	213.48
364.67	213.17
365.05	213.06
365.43	213.21
365.81	213.30
366.19	213.55
366.57	213.60
366.95	213.50
367.33	213.38
367.71	213.38
368.09	213.43
368.47	213.36
368.85	213.43
369.23	213.45
369.61	213.28
369.99	213.33
370.37	213.38
370.75	213.55
371.13	213.46
371.51	213.40
371.89	213.42
372.27	213.40
372.65	213.38
373.03	213.36
373.41	213.27
373.78	213.15
374.16	212.91
374.54	212.80
374.92	212.74
375.30	212.67
375.68	212.63
376.06	212.65
376.44	212.62
376.82	212.59
377.19	212.59
377.57	212.54
377.95	212.41
378.33	212.38
378.71	212.15
379.09	212.13
379.47	212.18
379.84	212.10
380.22	212.03
380.60	211.90
380.98	211.90
381.36	211.83
381.73	211.74
382.11	211.76
382.49	211.73
382.87	211.76
383.25	211.65
383.62	212.05
384.00	211.93
384.38	211.92
384.76	211.90
385.13	212.01
385.51	212.07
385.89	211.98
386.27	211.93
386.64	212.01
387.02	211.96
387.40	211.90
387.78	211.91
388.15	211.88
388.53	211.83
388.91	211.78
389.29	211.75
389.66	211.84
390.04	211.78
390.42	211.86
390.79	211.88
391.17	211.94
391.55	211.51
391.92	211.55
392.30	211.56
392.68	211.49
393.05	211.44
393.43	211.40
393.81	211.45
394.18	211.39
394.56	211.36
394.94	211.46
395.31	211.47
395.69	211.55
396.06	211.65
396.44	211.75
396.82	211.82
397.19	211.93
397.57	211.89
397.95	212.00
398.32	211.95
398.70	211.99
399.07	212.15
399.45	212.24
399.82	212.22
400.20	212.20
400.58	212.34
400.95	212.29
401.33	212.50
401.70	212.79
402.08	212.93
402.45	212.98
402.83	213.12
403.20	213.23
403.58	213.35
403.95	213.48
404.33	213.67
404.71	213.84
405.08	214.24
405.46	214.49
405.83	214.70
406.21	214.94
406.58	215.25
406.96	215.45
407.33	215.75
407.70	216.13
408.08	216.82
408.45	217.17
408.83	217.65
409.20	218.03
409.58	218.36
409.95	218.87
410.33	219.54
410.70	220.05
411.08	220.75
411.45	221.46
411.82	222.21
412.20	223.11
412.57	224.18
412.95	224.81
413.32	225.93
413.69	227.01
414.07	228.23
414.44	229.42
414.82	230.77
415.19	232.33
415.56	233.95
415.94	235.43
416.31	237.42
416.68	239.32
417.06	241.48
417.43	243.54
417.81	245.90
418.18	248.26
418.55	250.84
418.93	253.63
419.30	256.49
419.67	259.40
420.04	262.57
420.42	265.73
420.79	269.65
421.16	273.34
421.54	277.37
421.91	281.36
422.28	285.70
422.66	290.17
423.03	294.63
423.40	299.23
423.77	304.27
424.15	309.29
424.52	314.55
424.89	320.22
425.26	325.78
425.64	331.15
426.01	337.01
426.38	343.25
426.75	349.41
427.13	355.99
427.50	362.82
427.87	369.86
428.24	376.86
428.61	383.66
428.99	391.18
429.36	399.32
429.73	407.43
430.10	415.40
430.47	423.79
430.85	432.29
431.22	441.31
431.59	450.99
431.96	460.14
432.33	470.19
432.70	480.28
433.08	491.97
433.45	502.98
433.82	513.92
434.19	526.14
434.56	538.26
434.93	549.95
435.30	561.68
435.68	574.69
436.05	587.82
436.42	600.60
436.79	612.44
437.16	625.23
437.53	638.68
437.90	652.09
438.27	665.28
438.64	678.91
439.01	691.85
439.38	703.30
439.75	714.66
440.13	727.64
440.50	739.56
440.87	749.73
441.24	760.26
441.61	771.99
441.98	780.77
442.35	791.05
442.72	801.14
443.09	811.07
443.46	817.37
443.83	821.89
444.20	826.01
444.57	831.54
444.94	834.70
445.31	838.00
445.68	841.03
446.05	842.96
446.42	842.89
446.79	842.17
447.16	841.44
447.53	841.15
447.90	837.30
448.27	833.45
448.64	827.49
449.01	823.50
449.37	815.44
449.74	807.89
450.11	798.51
450.48	788.22
450.85	777.81
451.22	768.83
451.59	760.26
451.96	752.13
452.33	740.97
452.70	730.79
453.07	718.61
453.43	706.42
453.80	694.51
454.17	683.08
454.54	672.42
454.91	660.67
455.28	649.31
455.65	638.57
456.02	627.96
456.38	618.75
456.75	607.32
457.12	597.92
457.49	588.53
457.86	579.36
458.23	571.55
458.59	562.84
458.96	554.20
459.33	546.53
459.70	538.66
460.07	532.45
460.43	525.39
460.80	518.69
461.17	512.71
461.54	506.54
461.91	500.75
462.27	494.80
462.64	489.84
463.01	484.08
463.38	478.80
463.74	473.40
464.11	468.75
464.48	464.46
464.85	460.02
465.21	456.48
465.58	452.77
465.95	448.28
466.32	444.52
466.68	440.74
467.05	436.95
467.42	433.30
467.78	429.48
468.15	425.80
468.52	423.03
468.88	419.41
469.25	416.24
469.62	413.51
469.98	410.71
470.35	408.17
470.72	405.82
471.08	402.99
471.45	400.69
471.82	398.28
472.18	395.92
472.55	393.95
472.92	391.71
473.28	389.72
473.65	387.92
474.02	386.04
474.38	384.61
474.75	383.40
475.11	381.91
475.48	380.84
475.85	379.89
476.21	378.90
476.58	378.10
476.94	377.41
477.31	376.75
477.67	376.12
478.04	375.53
478.41	375.14
478.77	375.21
479.14	374.69
479.50	374.68
479.87	374.71
480.23	374.70
480.60	374.65
480.96	374.63
481.33	374.99
481.69	375.33
482.06	375.58
482.42	375.69
482.79	376.10
483.15	376.64
483.52	377.39
483.88	378.05
484.25	378.77
484.61	379.60
484.98	380.27
485.34	381.21
485.71	382.37
486.07	383.49
486.44	384.35
486.80	385.72
487.17	387.00
487.53	388.57
487.90	390.35
488.26	392.28
488.62	394.21
488.99	395.99
489.35	397.90
489.72	400.11
490.08	402.43
490.44	404.90
490.81	407.33
491.17	409.71
491.54	412.35
491.90	415.12
492.26	417.79
492.63	420.86
492.99	423.86
493.36	427.02
493.72	430.29
494.08	433.72
494.45	437.37
494.81	441.11
495.17	444.74
495.54	448.66
495.90	452.55
496.26	456.55
496.63	460.86
496.99	465.11
497.35	469.30
497.72	473.87
498.08	478.27
498.44	482.72
498.80	487.68
499.17	492.56
499.53	497.45
499.89	502.74
500.26	507.60
500.62	512.37
500.98	517.44
501.34	522.48
501.71	527.61
502.07	532.65
502.43	537.73
502.79	542.68
503.16	547.68
503.52	552.80
503.88	557.99
504.24	562.92
504.60	568.06
504.97	573.45
505.33	578.43
505.69	583.79
506.05	589.11
506.41	594.16
506.78	598.93
507.14	603.58
507.50	608.22
507.86	613.06
508.22	618.05
508.59	622.59
508.95	627.41
509.31	632.04
509.67	636.64
510.03	641.25
510.39	646.10
510.75	650.77
511.12	655.11
511.48	659.38
511.84	663.93
512.20	668.22
512.56	672.40
512.92	676.62
513.28	680.63
513.64	684.46
514.00	688.06
514.37	691.98
514.73	696.03
515.09	699.79
515.45	703.42
515.81	707.08
516.17	710.55
516.53	713.97
516.89	717.13
517.25	720.34
517.61	723.50
517.97	726.19
518.33	728.80
518.69	731.71
519.05	734.52
519.41	737.08
519.77	739.86
520.13	742.30
520.49	744.51
520.85	746.75
521.21	749.34
521.57	751.80
521.93	753.71
522.29	755.90
522.65	757.91
523.01	760.00
523.37	761.76
523.73	763.78
524.09	765.54
524.45	767.53
524.81	769.35
525.17	771.30
525.53	773.46
525.89	775.44
526.25	777.11
526.61	778.64
526.97	780.28
527.33	781.85
527.68	783.77
528.04	785.77
528.40	787.38
528.76	788.93
529.12	790.61
529.48	792.82
529.84	794.35
530.20	796.19
530.56	797.93
530.91	800.07
531.27	801.92
531.63	803.76
531.99	805.77
532.35	807.55
532.71	809.20
533.07	811.08
533.42	813.38
533.78	815.56
534.14	817.83
534.50	819.60
534.86	821.88
535.21	823.54
535.57	825.46
535.93	827.52
536.29	829.62
536.65	831.72
537.00	833.25
537.36	835.22
537.72	837.04
538.08	839.08
538.44	840.88
538.79	843.09
539.15	845.09
539.51	847.30
539.87	849.48
540.22	851.73
540.58	853.86
540.94	855.79
541.29	857.70
541.65	859.20
542.01	861.56
542.37	863.27
542.72	865.27
543.08	867.24
543.44	869.55
543.79	871.19
544.15	873.39
544.51	876.01
544.87	878.38
545.22	880.43
545.58	882.49
545.94	884.35
546.29	886.01
546.65	887.90
547.01	889.41
547.36	891.40
547.72	893.19
548.07	894.99
548.43	896.46
548.79	898.04
549.14	900.12
549.50	901.86
549.86	903.72
550.21	905.69
550.57	907.70
550.92	909.20
551.28	911.24
551.64	912.76
551.99	914.26
552.35	915.99
552.70	917.90
553.06	919.83
553.41	921.84
553.77	923.97
554.13	925.96
554.48	927.99
554.84	929.95
555.19	931.78
555.55	933.83
555.90	935.48
556.26	937.20
556.61	938.82
556.97	940.14
557.32	941.64
557.68	943.06
558.03	944.28
558.39	945.87
558.74	947.34
559.10	948.79
559.45	950.30
559.81	951.63
560.16	952.73
560.52	953.87
560.87	955.10
561.23	955.98
561.58	957.30
561.94	958.45
562.29	959.31
562.64	960.42
563.00	961.36
563.35	962.74
563.71	964.44
564.06	965.75
564.42	967.33
564.77	968.97
565.12	970.52
565.48	972.19
565.83	973.21
566.19	974.61
566.54	975.69
566.89	976.76
567.25	978.11
567.60	979.60
567.96	980.89
568.31	982.13
568.66	983.39
569.02	983.90
569.37	984.57
569.72	985.27
570.08	986.04
570.43	986.54
570.78	986.84
571.14	986.71
571.49	986.93
571.84	987.08
572.20	986.69
572.55	986.57
572.90	986.15
573.26	986.09
573.61	985.60
573.96	985.36
574.31	984.57
574.67	983.64
575.02	982.40
575.37	981.48
575.72	980.19
576.08	979.20
576.43	978.16
576.78	977.06
577.13	976.15
577.49	975.10
577.84	973.73
578.19	972.92
578.54	972.28
578.90	971.55
579.25	970.10
579.60	968.86
579.95	967.03
580.30	965.72
580.66	964.46
581.01	962.99
581.36	961.45
581.71	960.20
582.06	958.78
582.42	957.63
582.77	955.84
583.12	954.38
583.47	952.83
583.82	951.37
584.17	949.67
584.53	948.12
584.88	946.20
585.23	944.79
585.58	942.67
585.93	940.60
586.28	938.62
586.63	937.00
586.98	935.38
587.34	933.99
587.69	931.94
588.04	930.03
588.39	928.20
588.74	925.82
589.09	923.94
589.44	921.72
589.79	919.69
590.14	917.95
590.49	915.98
590.84	913.80
591.19	912.12
591.54	910.16
591.89	907.56
592.25	905.62
592.60	903.27
592.95	900.93
593.30	898.40
593.65	895.65
594.00	892.93
594.35	891.48
594.70	889.06
595.05	886.78
595.40	884.27
595.75	881.51
596.10	879.40
596.45	877.01
596.80	874.92
597.15	872.64
597.50	869.80
597.85	867.41
598.19	864.71
598.54	861.96
598.89	859.67
599.24	857.71
599.59	854.90
599.94	852.44
600.29	850.15
600.64	847.69
600.99	845.33
601.34	843.28
601.69	839.68
602.04	836.82
602.39	834.29
602.74	831.85
603.08	829.76
603.43	827.45
603.78	824.73
604.13	822.10
604.48	819.44
604.83	817.30
605.18	814.95
605.53	812.40
605.87	809.54
606.22	806.68
606.57	803.67
606.92	801.09
607.27	798.39
607.62	795.63
607.96	793.25
608.31	790.72
608.66	787.77
609.01	785.00
609.36	782.25
609.70	779.40
610.05	776.47
610.40	773.54
610.75	770.39
611.10	767.71
611.44	764.35
611.79	761.10
612.14	758.01
612.49	754.31
612.83	751.43
613.18	748.32
613.53	745.24
613.88	742.08
614.22	739.00
614.57	735.82
614.92	732.74
615.27	729.45
615.61	726.30
615.96	723.36
616.31	720.45
616.65	717.93
617.00	714.80
617.35	711.67
617.70	708.36
618.04	705.12
618.39	701.71
618.74	698.82
619.08	695.80
619.43	692.77
619.78	690.30
620.12	687.32
620.47	684.46
620.82	681.32
621.16	678.20
621.51	675.21
621.85	672.20
622.20	669.16
622.55	666.00
622.89	662.79
623.24	659.86
623.59	656.61
623.93	653.38
624.28	650.46
624.62	647.89
624.97	645.15
625.32	642.34
625.66	639.65
626.01	636.84
626.35	634.18
626.70	631.10
627.04	628.14
627.39	625.21
627.73	622.65
628.08	620.16
628.43	617.48
628.77	614.69
629.12	611.98
629.46	609.37
629.81	606.75
630.15	603.98
630.50	601.25
630.84	598.46
631.19	595.56
631.53	592.77
631.88	589.61
632.22	586.66
632.57	584.23
632.91	581.43
633.26	578.82
633.60	576.05
633.95	573.50
634.29	570.78
634.64	568.35
634.98	565.43
635.32	562.82
635.67	560.51
636.01	558.09
636.36	555.46
636.70	553.17
637.05	550.77
637.39	548.64
637.73	546.17
638.08	544.13
638.42	541.96
638.77	539.81
639.11	537.61
639.45	535.48
639.80	532.86
640.14	530.49
640.49	528.00
640.83	525.67
641.17	523.49
641.52	521.15
641.86	518.63
642.20	516.52
642.55	514.04
642.89	511.43
643.23	508.96
643.58	506.87
643.92	504.28
644.26	502.10
644.61	499.88
644.95	497.58
645.29	495.30
645.64	493.03
645.98	490.74
646.32	488.60
646.66	486.22
647.01	484.10
647.35	481.99
647.69	479.82
648.04	477.77
648.38	475.48
648.72	473.37
649.06	471.24
649.41	468.96
649.75	466.92
650.09	465.04
650.43	462.96
650.78	460.74
651.12	458.54
651.46	456.24
651.80	454.17
652.14	452.08
652.49	449.94
652.83	447.84
653.17	445.67
653.51	443.46
653.85	441.65
654.20	439.60
654.54	437.54
654.88	435.44
655.22	433.46
655.56	431.42
655.90	429.45
656.25	427.47
656.59	425.45
656.93	423.38
657.27	421.41
657.61	419.34
657.95	417.31
658.29	415.36
658.64	413.64
658.98	411.48
659.32	409.46
659.66	407.60
660.00	405.71
660.34	403.85
660.68	401.91
661.02	399.87
661.36	398.06
661.70	396.23
662.05	394.51
662.39	392.77
662.73	391.25
663.07	389.77
663.41	388.15
663.75	386.60
664.09	385.00
664.43	383.29
664.77	381.71
665.11	380.10
665.45	378.59
665.79	376.97
666.13	375.51
666.47	374.05
666.81	372.52
667.15	370.86
667.49	369.44
667.83	368.14
668.17	366.65
668.51	365.35
668.85	364.06
669.19	362.82
669.53	361.25
669.87	359.59
670.21	358.00
670.55	356.63
670.89	355.39
671.23	354.10
671.57	352.84
671.91	351.63
672.25	350.41
672.58	349.31
672.92	348.02
673.26	346.87
673.60	345.62
673.94	344.37
674.28	343.33
674.62	342.15
674.96	340.89
675.30	339.78
675.64	338.55
675.97	337.30
676.31	336.11
676.65	335.04
676.99	334.23
677.33	333.01
677.67	331.83
678.01	330.50
678.34	329.35
678.68	328.25
679.02	327.01
679.36	325.92
679.70	324.76
680.04	323.62
680.37	322.48
680.71	321.34
681.05	320.31
681.39	319.24
681.73	318.17
682.06	317.25
682.40	316.26
682.74	315.20
683.08	314.32
683.42	313.26
683.75	312.27
684.09	311.01
684.43	310.02
684.77	309.07
685.10	308.17
685.44	307.25
685.78	306.24
686.12	305.44
686.45	304.50
686.79	303.53
687.13	302.73
687.46	301.81
687.80	301.07
688.14	300.13
688.48	299.35
688.81	298.46
689.15	297.64
689.49	296.71
689.82	295.90
690.16	294.90
690.50	294.02
690.83	293.18
691.17	292.34
691.51	291.55
691.84	290.71
692.18	289.88
692.52	289.11
692.85	288.39
693.19	287.76
693.52	287.03
693.86	286.25
694.20	285.45
694.53	284.70
694.87	283.89
695.21	283.09
695.54	282.22
695.88	281.40
696.21	280.44
696.55	279.80
696.88	279.01
697.22	278.28
697.56	277.62
697.89	276.88
698.23	276.23
698.56	275.52
698.90	274.93
699.23	274.22
699.57	273.52
699.90	272.82
700.24	271.96
700.58	271.30
700.91	270.71
701.25	270.35
701.58	269.76
701.92	269.12
702.25	268.58
702.59	267.89
702.92	267.33
703.26	266.81
703.59	266.16
703.93	265.97
704.26	265.45
704.60	264.88
704.93	264.30
705.26	263.69
705.60	263.26
705.93	262.61
706.27	262.24
706.60	261.82
706.94	261.41
707.27	260.87
707.61	260.25
707.94	259.68
708.27	258.78
708.61	258.25
708.94	257.84
709.28	257.30
709.61	256.82
709.94	256.39
710.28	255.98
710.61	255.47
710.95	254.54
711.28	254.29
711.61	253.84
711.95	253.46
712.28	253.01
712.61	252.51
712.95	252.23
713.28	251.94
713.61	251.36
713.95	250.90
714.28	250.60
714.61	250.19
714.95	249.83
715.28	249.42
715.61	248.99
715.95	248.55
716.28	248.15
716.61	247.85
716.95	247.47
717.28	247.01
717.61	246.75
717.94	246.47
718.28	245.95
718.61	245.54
718.94	245.15
719.27	244.75
719.61	244.40
719.94	243.99
720.27	243.37
720.60	243.06
720.94	242.68
721.27	242.28
721.60	242.00
721.93	241.68
722.27	241.57
722.60	241.31
722.93	240.92
723.26	240.67
723.59	240.28
723.93	239.93
724.26	239.61
724.59	239.25
724.92	239.03
725.25	238.73
725.59	238.53
725.92	238.35
726.25	238.10
726.58	237.84
726.91	237.52
727.24	237.35
727.57	237.06
727.91	236.77
728.24	236.58
728.57	236.23
728.90	235.99
729.23	235.58
729.56	235.46
729.89	235.31
730.22	235.02
730.55	234.78
730.89	234.67
731.22	234.51
731.55	234.32
731.88	234.09
732.21	233.83
732.54	233.54
732.87	233.25
733.20	233.18
733.53	233.01
733.86	232.82
734.19	232.51
734.52	232.38
734.85	232.43
735.18	232.13
735.51	232.19
735.84	231.97
736.17	231.83
736.50	231.43
736.83	231.57
737.16	231.37
737.49	231.21
737.82	230.85
738.15	230.66
738.48	230.48
738.81	230.23
739.14	230.02
739.47	229.80
739.80	229.60
740.13	229.37
740.46	229.14
740.79	228.88
741.12	228.76
741.45	228.52
741.78	228.14
742.11	228.12
742.44	227.80
742.77	227.71
743.10	227.52
743.43	227.38
743.75	226.84
744.08	227.13
744.41	226.90
744.74	226.79
745.07	226.61
745.40	226.43
745.73	226.45
746.06	226.31
746.39	226.19
746.71	226.03
747.04	225.82
747.37	225.61
747.70	225.63
748.03	225.48
748.36	225.44
748.68	225.27
749.01	225.03
749.34	224.92
749.67	224.81
750.00	224.71
750.33	224.83
750.65	224.74
750.98	224.23
751.31	224.15
751.64	224.02
751.97	224.09
752.29	223.95
752.62	223.61
752.95	223.39
753.28	223.25
753.60	223.17
753.93	223.10
754.26	223.05
754.59	222.75
754.91	222.64
755.24	222.48
755.57	222.35
755.90	222.21
756.22	222.15
756.55	221.98
756.88	221.83
757.20	221.50
757.53	221.30
757.86	221.18
758.19	221.03
758.51	220.98
758.84	220.69
759.17	220.55
759.49	220.58
759.82	220.75
760.15	220.70
760.47	220.52
760.80	220.34
761.13	220.28
761.45	220.17
761.78	220.05
762.11	219.92
762.43	219.79
762.76	219.67
763.08	219.49
763.41	219.31
763.74	219.27
764.06	219.16
764.39	219.12
764.71	219.03
765.04	218.99
765.37	218.85
765.69	218.71
766.02	218.67
766.34	218.50
766.67	218.30
767.00	218.28
767.32	218.41
767.65	218.52
767.97	218.40
768.30	218.37
768.62	218.28
768.95	218.20
769.27	218.13
769.60	218.13
769.92	218.00
770.25	217.88
770.57	217.70
770.90	217.55
771.22	217.45
771.55	217.30
771.87	217.20
772.20	217.10
772.52	217.38
772.85	217.73
773.17	217.73
773.50	217.61
773.82	217.46
774.15	217.26
774.47	217.11
774.80	216.99
775.12	216.95
775.45	216.92
775.77	216.88
776.09	216.86
776.42	216.80
776.74	216.90
777.07	216.90
777.39	216.95
777.72	216.87
778.04	216.81
778.36	216.85
778.69	216.83
779.01	216.78
779.33	216.44
779.66	215.97
779.98	215.84
780.31	215.83
780.63	215.95
780.95	215.93
781.28	215.83
781.60	215.81
781.92	215.71
782.25	215.69
782.57	215.64
782.89	215.62
783.22	215.56
783.54	215.48
783.86	215.45
784.19	215.32
784.51	215.48
784.83	215.40
785.16	215.32
785.48	215.27
785.80	215.27
786.12	215.25
786.45	215.24
786.77	215.21
787.09	215.19
787.42	214.95
787.74	214.90
788.06	214.91
788.38	214.86
788.71	214.84
789.03	214.82
789.35	214.83
789.67	214.75
789.99	214.70
790.32	214.57
790.64	214.60
790.96	214.90
791.28	214.74
791.61	214.68
791.93	214.66
792.25	214.61
792.57	214.85
792.89	214.72
793.21	214.70
793.54	214.64
793.86	214.57
794.18	214.65
