SpectraSuite Data File
++++++++++++++++++++++++++++++++++++
Date: Mon Feb 25 17:18:46 EST 2013
User: group
Dark Spectrum Present: No
Reference Spectrum Present: No
Number of Sampled Component Spectra: 1
Spectrometers: USB2E7196
Integration Time (usec): 104000 (USB2E7196)
Spectra Averaged: 20 (USB2E7196)
Boxcar Smoothing: 10 (USB2E7196)
Correct for Electrical Dark: No (USB2E7196)
Strobe/Lamp Enabled: No (USB2E7196)
Correct for Detector Non-linearity: No (USB2E7196)
Correct for Stray Light: No (USB2E7196)
Number of Pixels in Processed Spectrum: 2048
>>>>>Begin Processed Spectral Data<<<<<
339.09	0.00
339.48	198.10
339.86	200.60
340.24	202.85
340.63	203.60
341.01	209.75
341.39	207.25
341.78	208.10
342.16	208.70
342.54	209.60
342.93	198.65
343.31	208.66
343.69	209.21
344.07	209.69
344.46	210.11
344.84	210.54
345.22	210.68
345.60	210.88
345.99	211.06
346.37	211.30
346.75	211.38
347.13	211.55
347.52	211.63
347.90	211.83
348.28	211.88
348.66	211.94
349.05	211.88
349.43	212.03
349.81	212.17
350.19	212.24
350.57	212.28
350.96	212.37
351.34	212.51
351.72	212.63
352.10	212.69
352.48	212.73
352.87	212.74
353.25	212.75
353.63	212.75
354.01	212.80
354.39	212.77
354.77	212.83
355.15	212.92
355.54	212.90
355.92	212.77
356.30	212.81
356.68	213.16
357.06	213.26
357.44	213.21
357.82	213.28
358.20	213.43
358.58	213.49
358.97	213.59
359.35	213.67
359.73	213.82
360.11	213.87
360.49	213.93
360.87	214.00
361.25	214.06
361.63	214.26
362.01	214.32
362.39	214.31
362.77	214.41
363.15	214.30
363.53	214.38
363.91	214.44
364.29	214.42
364.67	214.07
365.05	214.08
365.43	214.19
365.81	214.20
366.19	214.28
366.57	214.35
366.95	214.28
367.33	214.20
367.71	214.20
368.09	214.27
368.47	214.30
368.85	214.22
369.23	214.28
369.61	214.12
369.99	214.28
370.37	214.35
370.75	214.45
371.13	214.51
371.51	214.43
371.89	214.45
372.27	214.51
372.65	214.57
373.03	214.57
373.41	214.41
373.78	214.37
374.16	214.15
374.54	214.05
374.92	213.99
375.30	214.04
375.68	213.91
376.06	213.86
376.44	213.75
376.82	213.83
377.19	213.79
377.57	213.73
377.95	213.51
378.33	213.43
378.71	213.19
379.09	213.15
379.47	213.12
379.84	213.00
380.22	212.88
380.60	212.80
380.98	212.78
381.36	212.81
381.73	212.70
382.11	212.77
382.49	212.76
382.87	212.67
383.25	212.50
383.62	212.82
384.00	212.75
384.38	212.74
384.76	212.76
385.13	212.85
385.51	212.94
385.89	212.92
386.27	212.86
386.64	212.92
387.02	212.88
387.40	212.90
387.78	212.93
388.15	212.98
388.53	212.91
388.91	212.82
389.29	212.76
389.66	212.80
390.04	212.72
390.42	212.75
390.79	212.82
391.17	212.86
391.55	212.50
391.92	212.54
392.30	212.61
392.68	212.50
393.05	212.43
393.43	212.38
393.81	212.43
394.18	212.48
394.56	212.47
394.94	212.53
395.31	212.51
395.69	212.64
396.06	212.63
396.44	212.70
396.82	212.75
397.19	213.01
397.57	213.08
397.95	213.14
398.32	213.12
398.70	213.20
399.07	213.30
399.45	213.34
399.82	213.33
400.20	213.30
400.58	213.36
400.95	213.30
401.33	213.42
401.70	213.67
402.08	213.78
402.45	213.81
402.83	213.98
403.20	214.11
403.58	214.17
403.95	214.34
404.33	214.44
404.71	214.55
405.08	214.77
405.46	214.92
405.83	215.22
406.21	215.37
406.58	215.53
406.96	215.74
407.33	216.00
407.70	216.27
408.08	216.81
408.45	217.18
408.83	217.55
409.20	217.88
409.58	218.00
409.95	218.38
410.33	218.85
410.70	219.13
411.08	219.54
411.45	220.02
411.82	220.49
412.20	221.06
412.57	221.82
412.95	222.12
413.32	222.80
413.69	223.40
414.07	224.10
414.44	224.89
414.82	225.71
415.19	226.65
415.56	227.64
415.94	228.41
416.31	229.50
416.68	230.62
417.06	231.86
417.43	233.19
417.81	234.51
418.18	236.01
418.55	237.53
418.93	239.13
419.30	240.76
419.67	242.45
420.04	244.22
420.42	246.09
420.79	248.56
421.16	250.67
421.54	253.05
421.91	255.37
422.28	257.79
422.66	260.33
423.03	262.99
423.40	265.65
423.77	268.46
424.15	271.28
424.52	274.29
424.89	277.45
425.26	280.52
425.64	283.46
426.01	286.67
426.38	290.11
426.75	293.67
427.13	297.30
427.50	301.09
427.87	305.01
428.24	308.91
428.61	312.44
428.99	316.68
429.36	320.97
429.73	325.42
430.10	329.75
430.47	334.25
430.85	338.84
431.22	343.65
431.59	348.97
431.96	353.76
432.33	359.19
432.70	364.47
433.08	370.55
433.45	376.41
433.82	382.18
434.19	388.62
434.56	394.90
434.93	400.93
435.30	406.92
435.68	413.55
436.05	420.04
436.42	426.58
436.79	432.36
437.16	438.70
437.53	445.41
437.90	452.15
438.27	458.76
438.64	465.45
439.01	471.68
439.38	477.07
439.75	482.64
440.13	488.80
440.50	494.74
440.87	499.55
441.24	504.51
441.61	510.02
441.98	513.96
442.35	518.45
442.72	523.07
443.09	527.69
443.46	530.37
443.83	532.20
444.20	533.68
444.57	536.04
444.94	537.19
445.31	538.16
445.68	539.40
446.05	539.87
446.42	539.18
446.79	538.34
447.16	537.55
447.53	536.75
447.90	534.08
448.27	531.35
448.64	527.68
449.01	525.03
449.37	520.36
449.74	515.85
450.11	510.98
450.48	505.28
450.85	499.46
451.22	494.60
451.59	489.88
451.96	485.41
452.33	479.29
452.70	473.71
453.07	467.30
453.43	460.53
453.80	454.21
454.17	448.14
454.54	442.42
454.91	436.19
455.28	430.35
455.65	424.81
456.02	419.57
456.38	414.84
456.75	408.93
457.12	404.10
457.49	399.40
457.86	394.50
458.23	390.64
458.59	386.20
458.96	381.74
459.33	377.76
459.70	373.80
460.07	370.77
460.43	367.15
460.80	363.90
461.17	360.91
461.54	357.73
461.91	354.80
462.27	351.91
462.64	349.38
463.01	346.61
463.38	344.00
463.74	341.05
464.11	338.74
464.48	336.70
464.85	334.42
465.21	332.76
465.58	330.90
465.95	328.69
466.32	326.95
466.68	325.08
467.05	323.31
467.42	321.54
467.78	319.75
468.15	318.15
468.52	316.94
468.88	315.20
469.25	313.61
469.62	312.50
469.98	311.23
470.35	310.07
470.72	308.95
471.08	307.74
471.45	306.85
471.82	306.05
472.18	305.07
472.55	304.39
472.92	303.49
473.28	302.81
473.65	302.12
474.02	301.47
474.38	301.11
474.75	300.77
475.11	300.42
475.48	300.14
475.85	299.88
476.21	299.70
476.58	299.75
476.94	299.93
477.31	299.95
477.67	299.98
478.04	300.10
478.41	300.27
478.77	300.86
479.14	301.04
479.50	301.30
479.87	301.87
480.23	302.46
480.60	302.94
480.96	303.39
481.33	304.24
481.69	305.01
482.06	305.74
482.42	306.54
482.79	307.46
483.15	308.43
483.52	309.81
483.88	310.96
484.25	312.15
484.61	313.50
484.98	314.87
485.34	316.60
485.71	318.40
486.07	320.31
486.44	321.97
486.80	323.97
487.17	326.16
487.53	328.60
487.90	331.10
488.26	333.91
488.62	336.91
488.99	339.75
489.35	342.81
489.72	346.07
490.08	349.49
490.44	353.11
490.81	357.03
491.17	360.88
491.54	365.05
491.90	369.49
492.26	374.06
492.63	379.00
492.99	383.91
493.36	389.15
493.72	394.79
494.08	400.51
494.45	406.78
494.81	413.36
495.17	419.85
495.54	426.83
495.90	433.93
496.26	441.40
496.63	449.28
496.99	457.45
497.35	466.01
497.72	474.94
498.08	484.04
498.44	493.68
498.80	503.93
499.17	514.25
499.53	524.96
499.89	536.16
500.26	547.46
500.62	559.40
500.98	571.96
501.34	584.68
501.71	598.11
502.07	611.64
502.43	625.46
502.79	639.86
503.16	654.76
503.52	670.11
503.88	685.81
504.24	701.94
504.60	718.52
504.97	735.76
505.33	753.30
505.69	771.80
506.05	790.49
506.41	809.20
506.78	828.53
507.14	848.18
507.50	868.58
507.86	889.37
508.22	910.52
508.59	931.86
508.95	953.87
509.31	976.05
509.67	999.02
510.03	1022.50
510.39	1046.72
510.75	1071.00
511.12	1095.75
511.48	1120.73
511.84	1146.08
512.20	1171.75
512.56	1198.08
512.92	1224.53
513.28	1251.30
513.64	1278.05
514.00	1305.43
514.37	1332.70
514.73	1360.69
515.09	1388.45
515.45	1416.55
515.81	1444.78
516.17	1473.10
516.53	1501.84
516.89	1530.73
517.25	1559.46
517.61	1588.11
517.97	1616.68
518.33	1645.32
518.69	1674.08
519.05	1703.55
519.41	1732.68
519.77	1762.31
520.13	1791.16
520.49	1819.86
520.85	1849.00
521.21	1878.45
521.57	1907.94
521.93	1936.82
522.29	1966.58
522.65	1995.96
523.01	2025.07
523.37	2053.41
523.73	2082.28
524.09	2110.98
524.45	2139.46
524.81	2168.37
525.17	2197.32
525.53	2225.85
525.89	2254.25
526.25	2282.07
526.61	2308.95
526.97	2336.43
527.33	2363.62
527.68	2391.11
528.04	2417.83
528.40	2443.56
528.76	2469.34
529.12	2495.30
529.48	2522.40
529.84	2547.72
530.20	2573.15
530.56	2598.52
530.91	2624.99
531.27	2650.64
531.63	2675.21
531.99	2699.78
532.35	2723.10
532.71	2746.12
533.07	2770.02
533.42	2792.69
533.78	2816.23
534.14	2838.71
534.50	2859.67
534.86	2881.38
535.21	2901.43
535.57	2923.46
535.93	2943.78
536.29	2964.14
536.65	2983.89
537.00	3002.05
537.36	3019.82
537.72	3037.30
538.08	3054.85
538.44	3071.80
538.79	3088.98
539.15	3105.97
539.51	3122.88
539.87	3140.16
540.22	3156.42
540.58	3172.54
540.94	3188.30
541.29	3202.20
541.65	3216.01
542.01	3230.48
542.37	3243.60
542.72	3257.38
543.08	3269.06
543.44	3282.85
543.79	3293.91
544.15	3304.56
544.51	3316.64
544.87	3328.81
545.22	3339.45
545.58	3348.96
545.94	3357.32
546.29	3364.44
546.65	3371.27
547.01	3377.97
547.36	3384.27
547.72	3390.42
548.07	3395.03
548.43	3399.45
548.79	3403.70
549.14	3408.16
549.50	3412.59
549.86	3415.85
550.21	3418.47
550.57	3422.49
550.92	3423.65
551.28	3425.63
551.64	3427.99
551.99	3429.88
552.35	3430.51
552.70	3431.75
553.06	3432.88
553.41	3433.77
553.77	3434.96
554.13	3435.48
554.48	3435.67
554.84	3436.11
555.19	3435.25
555.55	3433.79
555.90	3432.67
556.26	3431.33
556.61	3429.30
556.97	3426.62
557.32	3424.68
557.68	3421.80
558.03	3418.22
558.39	3415.77
558.74	3414.19
559.10	3411.60
559.45	3407.70
559.81	3404.86
560.16	3400.44
560.52	3397.21
560.87	3393.66
561.23	3388.90
561.58	3385.03
561.94	3379.91
562.29	3373.72
562.64	3369.59
563.00	3365.57
563.35	3361.57
563.71	3358.19
564.06	3354.58
564.42	3350.67
564.77	3346.76
565.12	3343.16
565.48	3338.50
565.83	3333.84
566.19	3329.28
566.54	3322.90
566.89	3316.74
567.25	3310.89
567.60	3305.76
567.96	3299.26
568.31	3293.28
568.66	3286.83
569.02	3279.92
569.37	3272.83
569.72	3266.45
570.08	3258.67
570.43	3251.29
570.78	3243.13
571.14	3234.11
571.49	3225.28
571.84	3217.48
572.20	3207.77
572.55	3199.05
572.90	3189.41
573.26	3179.52
573.61	3168.68
573.96	3159.01
574.31	3148.57
574.67	3137.46
575.02	3126.35
575.37	3115.28
575.72	3103.45
576.08	3093.44
576.43	3082.31
576.78	3072.03
577.13	3062.15
577.49	3051.75
577.84	3040.96
578.19	3031.17
578.54	3021.94
578.90	3012.63
579.25	3001.19
579.60	2990.14
579.95	2978.44
580.30	2968.32
580.66	2958.42
581.01	2947.64
581.36	2936.29
581.71	2925.62
582.06	2915.25
582.42	2904.70
582.77	2893.55
583.12	2882.89
583.47	2872.35
583.82	2862.38
584.17	2851.57
584.53	2840.57
584.88	2829.85
585.23	2818.63
585.58	2807.20
585.93	2795.33
586.28	2784.33
586.63	2773.64
586.98	2763.04
587.34	2753.11
587.69	2742.00
588.04	2730.89
588.39	2720.69
588.74	2709.87
589.09	2699.98
589.44	2688.85
589.79	2678.84
590.14	2669.15
590.49	2658.54
590.84	2647.73
591.19	2637.78
591.54	2627.50
591.89	2615.24
592.25	2604.32
592.60	2593.18
592.95	2581.61
593.30	2569.65
593.65	2557.51
594.00	2546.48
594.35	2536.94
594.70	2525.75
595.05	2515.34
595.40	2504.38
595.75	2492.68
596.10	2482.94
596.45	2472.59
596.80	2463.38
597.15	2453.26
597.50	2442.39
597.85	2432.75
598.19	2422.05
598.54	2411.62
598.89	2401.73
599.24	2393.50
599.59	2384.49
599.94	2376.06
600.29	2367.25
600.64	2358.69
600.99	2349.20
601.34	2339.97
601.69	2329.20
602.04	2319.28
602.39	2309.58
602.74	2300.27
603.08	2292.44
603.43	2283.70
603.78	2274.07
604.13	2264.34
604.48	2255.14
604.83	2247.47
605.18	2239.33
605.53	2230.28
605.87	2220.96
606.22	2212.00
606.57	2202.38
606.92	2192.45
607.27	2182.21
607.62	2172.54
607.96	2163.43
608.31	2154.95
608.66	2145.07
609.01	2135.39
609.36	2125.75
609.70	2115.64
610.05	2105.21
610.40	2094.70
610.75	2084.18
611.10	2074.74
611.44	2063.10
611.79	2051.86
612.14	2040.33
612.49	2028.44
612.83	2017.85
613.18	2006.27
613.53	1995.04
613.88	1983.44
614.22	1972.85
614.57	1962.05
614.92	1951.06
615.27	1939.69
615.61	1928.48
615.96	1918.00
616.31	1908.18
616.65	1898.62
617.00	1888.77
617.35	1878.92
617.70	1868.24
618.04	1856.95
618.39	1845.36
618.74	1835.64
619.08	1825.09
619.43	1814.47
619.78	1804.56
620.12	1794.48
620.47	1784.93
620.82	1774.10
621.16	1763.41
621.51	1752.68
621.85	1742.40
622.20	1732.02
622.55	1721.59
622.89	1711.03
623.24	1700.17
623.59	1689.07
623.93	1678.51
624.28	1668.19
624.62	1658.04
624.97	1647.92
625.32	1638.42
625.66	1628.97
626.01	1619.39
626.35	1610.07
626.70	1600.43
627.04	1591.15
627.39	1581.42
627.73	1571.58
628.08	1562.82
628.43	1553.40
628.77	1543.99
629.12	1534.25
629.46	1525.55
629.81	1516.47
630.15	1507.11
630.50	1498.17
630.84	1488.92
631.19	1479.40
631.53	1470.21
631.88	1460.60
632.22	1450.93
632.57	1442.05
632.91	1433.04
633.26	1423.77
633.60	1414.81
633.95	1406.10
634.29	1396.55
634.64	1388.14
634.98	1379.09
635.32	1370.12
635.67	1362.14
636.01	1353.72
636.36	1345.13
636.70	1336.36
637.05	1327.83
637.39	1319.95
637.73	1312.03
638.08	1304.73
638.42	1297.30
638.77	1289.24
639.11	1281.20
639.45	1273.37
639.80	1264.70
640.14	1256.04
640.49	1247.93
640.83	1239.47
641.17	1231.17
641.52	1222.99
641.86	1214.25
642.20	1206.40
642.55	1197.97
642.89	1189.27
643.23	1180.68
643.58	1172.95
643.92	1164.29
644.26	1156.15
644.61	1147.80
644.95	1139.42
645.29	1130.80
645.64	1122.15
645.98	1113.99
646.32	1106.41
646.66	1098.23
647.01	1090.61
647.35	1083.25
647.69	1074.94
648.04	1067.17
648.38	1059.44
648.72	1051.68
649.06	1043.96
649.41	1036.05
649.75	1028.33
650.09	1020.84
650.43	1013.41
650.78	1005.54
651.12	997.91
651.46	990.29
651.80	982.92
652.14	975.62
652.49	968.24
652.83	960.75
653.17	952.86
653.51	944.83
653.85	937.78
654.20	930.60
654.54	922.88
654.88	915.83
655.22	908.43
655.56	901.02
655.90	893.73
656.25	886.40
656.59	879.33
656.93	872.43
657.27	865.59
657.61	858.14
657.95	851.39
658.29	844.89
658.64	838.46
658.98	831.55
659.32	824.47
659.66	817.94
660.00	811.32
660.34	804.65
660.68	798.22
661.02	791.49
661.36	785.18
661.70	779.02
662.05	772.99
662.39	767.20
662.73	761.41
663.07	755.84
663.41	750.32
663.75	744.52
664.09	738.51
664.43	732.73
664.77	727.48
665.11	721.59
665.45	716.11
665.79	710.69
666.13	705.31
666.47	699.95
666.81	694.44
667.15	689.11
667.49	684.21
667.83	679.32
668.17	674.38
668.51	669.43
668.85	664.67
669.19	660.02
669.53	655.10
669.87	650.13
670.21	645.25
670.55	640.36
670.89	636.06
671.23	632.01
671.57	627.50
671.91	622.99
672.25	618.76
672.58	614.28
672.92	610.00
673.26	605.89
673.60	601.93
673.94	597.80
674.28	593.75
674.62	589.90
674.96	585.87
675.30	582.01
675.64	578.01
675.97	574.14
676.31	570.23
676.65	566.47
676.99	563.08
677.33	559.34
677.67	555.52
678.01	551.43
678.34	547.56
678.68	543.97
679.02	540.38
679.36	536.87
679.70	533.36
680.04	529.73
680.37	526.13
680.71	522.64
681.05	519.36
681.39	515.94
681.73	512.51
682.06	509.26
682.40	506.05
682.74	502.76
683.08	499.35
683.42	495.95
683.75	492.95
684.09	489.58
684.43	486.38
684.77	483.30
685.10	480.35
685.44	477.09
685.78	474.02
686.12	471.09
686.45	468.10
686.79	465.25
687.13	462.50
687.46	459.68
687.80	456.88
688.14	453.93
688.48	451.14
688.81	448.24
689.15	445.29
689.49	442.45
689.82	439.63
690.16	436.71
690.50	433.85
690.83	430.90
691.17	427.94
691.51	425.20
691.84	422.65
692.18	420.01
692.52	417.65
692.85	415.33
693.19	412.99
693.52	410.55
693.86	407.99
694.20	405.41
694.53	403.11
694.87	400.54
695.21	398.21
695.54	395.87
695.88	393.53
696.21	391.27
696.55	389.07
696.88	386.87
697.22	384.83
697.56	382.85
697.89	380.80
698.23	378.83
698.56	376.84
698.90	374.90
699.23	372.96
699.57	370.90
699.90	368.79
700.24	366.65
700.58	364.65
700.91	362.87
701.25	361.28
701.58	359.37
701.92	357.61
702.25	355.76
702.59	353.98
702.92	352.24
703.26	350.51
703.59	348.80
703.93	347.46
704.26	345.86
704.60	344.23
704.93	342.54
705.26	340.87
705.60	339.33
705.93	337.70
706.27	336.15
706.60	334.71
706.94	333.36
707.27	331.87
707.61	330.40
707.94	328.81
708.27	326.95
708.61	325.48
708.94	324.11
709.28	322.71
709.61	321.39
709.94	320.14
710.28	318.88
710.61	317.52
710.95	315.88
711.28	314.79
711.61	313.49
711.95	312.38
712.28	311.23
712.61	310.05
712.95	308.99
713.28	307.95
713.61	306.76
713.95	305.49
714.28	304.43
714.61	303.36
714.95	302.37
715.28	301.40
715.61	300.30
715.95	299.20
716.28	298.20
716.61	297.09
716.95	296.00
717.28	295.01
717.61	294.05
717.94	293.05
718.28	291.82
718.61	290.86
718.94	289.81
719.27	288.81
719.61	287.98
719.94	286.95
720.27	285.86
720.60	284.89
720.94	284.00
721.27	283.13
721.60	282.21
721.93	281.31
722.27	280.62
722.60	279.85
722.93	279.05
723.26	278.32
723.59	277.53
723.93	276.86
724.26	276.04
724.59	275.21
724.92	274.57
725.25	273.93
725.59	273.23
725.92	272.59
726.25	271.95
726.58	271.18
726.91	270.57
727.24	269.91
727.57	269.29
727.91	268.62
728.24	267.98
728.57	267.42
728.90	266.89
729.23	266.10
729.56	265.59
729.89	264.94
730.22	264.27
730.55	263.63
730.89	262.95
731.22	262.44
731.55	261.91
731.88	261.28
732.21	260.71
732.54	260.04
732.87	259.55
733.20	258.95
733.53	258.42
733.86	257.88
734.19	257.36
734.52	256.98
734.85	256.70
735.18	256.22
735.51	255.80
735.84	255.34
736.17	254.98
736.50	254.36
736.83	254.35
737.16	253.93
737.49	253.58
737.82	253.09
738.15	252.58
738.48	252.15
738.81	251.69
739.14	251.20
739.47	250.88
739.80	250.38
740.13	250.03
740.46	249.58
740.79	249.10
741.12	248.61
741.45	248.05
741.78	247.43
742.11	247.14
742.44	246.62
742.77	246.22
743.10	245.71
743.43	245.38
743.75	244.68
744.08	244.69
744.41	244.26
744.74	243.91
745.07	243.45
745.40	243.15
745.73	243.00
746.06	242.63
746.39	242.23
746.71	241.86
747.04	241.50
747.37	241.06
747.70	240.83
748.03	240.57
748.36	240.31
748.68	240.06
749.01	239.50
749.34	239.18
749.67	238.92
750.00	238.69
750.33	238.56
750.65	238.22
750.98	237.45
751.31	237.15
751.64	236.85
751.97	236.81
752.29	236.45
752.62	235.93
752.95	235.62
753.28	235.32
753.60	235.00
753.93	234.82
754.26	234.64
754.59	234.28
754.91	233.92
755.24	233.54
755.57	233.21
755.90	232.99
756.22	232.72
756.55	232.40
756.88	232.09
757.20	231.61
757.53	231.22
757.86	230.96
758.19	230.78
758.51	230.59
758.84	230.11
759.17	229.84
759.49	229.71
759.82	229.63
760.15	229.48
760.47	229.26
760.80	228.91
761.13	228.76
761.45	228.51
761.78	228.30
762.11	228.21
762.43	228.01
762.76	227.81
763.08	227.67
763.41	227.35
763.74	227.18
764.06	227.05
764.39	226.89
764.71	226.75
765.04	226.47
765.37	226.25
765.69	226.14
766.02	226.01
766.34	225.72
766.67	225.40
767.00	225.25
767.32	225.26
767.65	225.34
767.97	225.12
768.30	225.04
768.62	224.93
768.95	224.74
769.27	224.63
769.60	224.56
769.92	224.31
770.25	224.21
770.57	223.98
770.90	223.84
771.22	223.69
771.55	223.53
771.87	223.41
772.20	223.30
772.52	223.49
772.85	223.77
773.17	223.71
773.50	223.60
773.82	223.40
774.15	223.17
774.47	222.81
774.80	222.63
775.12	222.48
775.45	222.35
775.77	222.30
776.09	222.16
776.42	222.04
776.74	221.98
777.07	221.88
777.39	221.81
777.72	221.65
778.04	221.51
778.36	221.39
778.69	221.31
779.01	221.26
779.33	220.81
779.66	220.32
779.98	220.20
780.31	220.11
780.63	220.19
780.95	220.19
781.28	220.09
781.60	220.00
781.92	219.91
782.25	219.87
782.57	219.71
782.89	219.62
783.22	219.55
783.54	219.45
783.86	219.44
784.19	219.31
784.51	219.39
784.83	219.30
785.16	219.25
785.48	219.20
785.80	219.09
