SpectraSuite Data File
++++++++++++++++++++++++++++++++++++
Date: Mon Feb 25 17:14:26 EST 2013
User: group
Dark Spectrum Present: No
Reference Spectrum Present: No
Number of Sampled Component Spectra: 1
Spectrometers: USB2E7196
Integration Time (usec): 104000 (USB2E7196)
Spectra Averaged: 20 (USB2E7196)
Boxcar Smoothing: 10 (USB2E7196)
Correct for Electrical Dark: No (USB2E7196)
Strobe/Lamp Enabled: No (USB2E7196)
Correct for Detector Non-linearity: No (USB2E7196)
Correct for Stray Light: No (USB2E7196)
Number of Pixels in Processed Spectrum: 2048
>>>>>Begin Processed Spectral Data<<<<<
339.09	0.00
339.48	200.00
339.86	200.25
340.24	200.55
340.63	203.20
341.01	208.60
341.39	205.05
341.78	208.30
342.16	209.15
342.54	208.25
342.93	198.42
343.31	208.43
343.69	208.85
344.07	209.31
344.46	209.87
344.84	210.26
345.22	210.37
345.60	210.72
345.99	210.91
346.37	211.03
346.75	211.13
347.13	211.16
347.52	211.27
347.90	211.42
348.28	211.53
348.66	211.58
349.05	211.53
349.43	211.56
349.81	211.61
350.19	211.64
350.57	211.74
350.96	211.80
351.34	211.85
351.72	212.02
352.10	212.18
352.48	212.16
352.87	212.25
353.25	212.32
353.63	212.34
354.01	212.33
354.39	212.39
354.77	212.48
355.15	212.66
355.54	212.65
355.92	212.58
356.30	212.61
356.68	212.91
357.06	212.98
357.44	213.05
357.82	213.12
358.20	213.18
358.58	213.23
358.97	213.32
359.35	213.53
359.73	213.66
360.11	213.65
360.49	213.69
360.87	213.69
361.25	213.80
361.63	213.92
362.01	214.04
362.39	214.09
362.77	214.15
363.15	214.14
363.53	214.21
363.91	214.33
364.29	214.35
364.67	213.96
365.05	213.95
365.43	213.98
365.81	214.02
366.19	214.28
366.57	214.34
366.95	214.34
367.33	214.26
367.71	214.22
368.09	214.26
368.47	214.28
368.85	214.26
369.23	214.28
369.61	214.17
369.99	214.19
370.37	214.25
370.75	214.42
371.13	214.38
371.51	214.31
371.89	214.29
372.27	214.28
372.65	214.36
373.03	214.35
373.41	214.30
373.78	214.24
374.16	214.03
374.54	213.96
374.92	213.86
375.30	213.74
375.68	213.59
376.06	213.61
376.44	213.55
376.82	213.50
377.19	213.45
377.57	213.33
377.95	213.20
378.33	213.10
378.71	212.80
379.09	212.71
379.47	212.78
379.84	212.66
380.22	212.55
380.60	212.45
380.98	212.38
381.36	212.35
381.73	212.26
382.11	212.21
382.49	212.13
382.87	212.12
383.25	212.13
383.62	212.52
384.00	212.38
384.38	212.35
384.76	212.36
385.13	212.48
385.51	212.48
385.89	212.35
386.27	212.30
386.64	212.35
387.02	212.34
387.40	212.22
387.78	212.22
388.15	212.23
388.53	212.17
388.91	212.13
389.29	212.08
389.66	212.11
390.04	212.05
390.42	212.12
390.79	212.08
391.17	212.07
391.55	211.66
391.92	211.60
392.30	211.63
392.68	211.56
393.05	211.49
393.43	211.49
393.81	211.58
394.18	211.52
394.56	211.52
394.94	211.60
395.31	211.58
395.69	211.66
396.06	211.70
396.44	211.70
396.82	211.75
397.19	211.86
397.57	211.81
397.95	211.87
398.32	211.74
398.70	211.77
399.07	211.86
399.45	211.85
399.82	211.94
400.20	211.84
400.58	211.86
400.95	211.70
401.33	211.81
401.70	212.03
402.08	212.07
402.45	212.04
402.83	212.07
403.20	212.06
403.58	212.06
403.95	212.15
404.33	212.25
404.71	212.32
405.08	212.60
405.46	212.67
405.83	212.77
406.21	212.94
406.58	213.03
406.96	213.06
407.33	213.21
407.70	213.33
408.08	213.85
408.45	214.05
408.83	214.28
409.20	214.39
409.58	214.45
409.95	214.77
410.33	215.13
410.70	215.32
411.08	215.70
411.45	215.96
411.82	216.11
412.20	216.56
412.57	217.06
412.95	217.16
413.32	217.64
413.69	218.01
414.07	218.40
414.44	218.85
414.82	219.40
415.19	220.05
415.56	220.66
415.94	221.04
416.31	221.81
416.68	222.58
417.06	223.47
417.43	224.26
417.81	225.10
418.18	225.98
418.55	226.94
418.93	227.89
419.30	228.98
419.67	230.28
420.04	231.41
420.42	232.60
420.79	234.21
421.16	235.64
421.54	237.31
421.91	238.86
422.28	240.49
422.66	242.18
423.03	244.04
423.40	245.70
423.77	247.59
424.15	249.49
424.52	251.39
424.89	253.50
425.26	255.46
425.64	257.38
426.01	259.48
426.38	261.73
426.75	264.15
427.13	266.56
427.50	268.95
427.87	271.50
428.24	273.97
428.61	276.19
428.99	278.91
429.36	281.63
429.73	284.45
430.10	287.30
430.47	290.26
430.85	293.04
431.22	296.20
431.59	299.68
431.96	302.77
432.33	306.39
432.70	309.68
433.08	313.71
433.45	317.55
433.82	321.40
434.19	325.62
434.56	329.72
434.93	333.58
435.30	337.41
435.68	341.69
436.05	345.92
436.42	350.06
436.79	353.91
437.16	357.99
437.53	362.40
437.90	366.66
438.27	370.86
438.64	375.20
439.01	379.44
439.38	382.87
439.75	386.39
440.13	390.30
440.50	394.16
440.87	397.27
441.24	400.45
441.61	403.85
441.98	406.30
442.35	409.18
442.72	412.19
443.09	415.28
443.46	416.96
443.83	418.02
444.20	419.08
444.57	420.48
444.94	421.21
445.31	421.85
445.68	422.93
446.05	423.18
446.42	422.75
446.79	422.12
447.16	421.53
447.53	421.11
447.90	419.41
448.27	417.67
448.64	415.32
449.01	413.62
449.37	410.77
449.74	407.96
450.11	404.90
450.48	401.08
450.85	397.08
451.22	393.81
451.59	390.88
451.96	388.00
452.33	384.15
452.70	380.56
453.07	376.36
453.43	371.69
453.80	367.66
454.17	363.80
454.54	359.96
454.91	356.00
455.28	352.05
455.65	348.44
456.02	345.35
456.38	342.28
456.75	338.40
457.12	335.14
457.49	332.07
457.86	328.68
458.23	326.32
458.59	323.55
458.96	320.77
459.33	318.09
459.70	315.50
460.07	313.44
460.43	311.17
460.80	309.07
461.17	307.24
461.54	305.20
461.91	303.19
462.27	301.33
462.64	299.60
463.01	297.81
463.38	296.22
463.74	293.88
464.11	292.29
464.48	290.96
464.85	289.48
465.21	288.45
465.58	287.41
465.95	285.90
466.32	284.78
466.68	283.62
467.05	282.49
467.42	281.32
467.78	280.08
468.15	278.94
468.52	278.08
468.88	276.89
469.25	275.90
469.62	275.20
469.98	274.35
470.35	273.68
470.72	272.94
471.08	271.91
471.45	271.40
471.82	270.86
472.18	270.21
472.55	269.76
472.92	268.99
473.28	268.40
473.65	267.85
474.02	267.40
474.38	267.09
474.75	266.81
475.11	266.51
475.48	266.36
475.85	266.19
476.21	265.98
476.58	265.95
476.94	265.88
477.31	265.80
477.67	265.78
478.04	265.74
478.41	265.87
478.77	266.32
479.14	266.36
479.50	266.48
479.87	266.77
480.23	267.03
480.60	267.36
480.96	267.61
481.33	268.20
481.69	268.48
482.06	268.84
482.42	269.34
482.79	269.86
483.15	270.35
483.52	271.01
483.88	271.62
484.25	272.23
484.61	272.89
484.98	273.67
485.34	274.60
485.71	275.64
486.07	276.55
486.44	277.35
486.80	278.46
487.17	279.70
487.53	281.01
487.90	282.38
488.26	283.94
488.62	285.51
488.99	286.92
489.35	288.70
489.72	290.42
490.08	292.17
490.44	294.00
490.81	296.02
491.17	298.03
491.54	300.32
491.90	302.75
492.26	305.33
492.63	307.99
492.99	310.68
493.36	313.37
493.72	316.46
494.08	319.51
494.45	322.87
494.81	326.25
495.17	329.63
495.54	333.27
495.90	336.98
496.26	340.97
496.63	345.11
496.99	349.54
497.35	354.12
497.72	358.94
498.08	363.87
498.44	369.00
498.80	374.42
499.17	379.92
499.53	385.47
499.89	391.46
500.26	397.52
500.62	403.80
500.98	410.47
501.34	417.20
501.71	424.30
502.07	431.48
502.43	438.82
502.79	446.41
503.16	454.37
503.52	462.35
503.88	470.53
504.24	479.12
504.60	487.68
504.97	496.82
505.33	505.90
505.69	515.68
506.05	525.44
506.41	535.38
506.78	545.44
507.14	555.80
507.50	566.28
507.86	577.16
508.22	588.35
508.59	599.56
508.95	611.06
509.31	622.75
509.67	634.71
510.03	647.06
510.39	659.84
510.75	672.62
511.12	685.67
511.48	698.97
511.84	712.24
512.20	725.78
512.56	739.68
512.92	753.80
513.28	767.91
513.64	782.30
514.00	796.65
514.37	811.26
514.73	826.30
515.09	841.43
515.45	856.48
515.81	871.46
516.17	886.59
516.53	901.99
516.89	917.51
517.25	933.16
517.61	948.87
517.97	964.26
518.33	979.86
518.69	995.68
519.05	1011.62
519.41	1027.84
519.77	1044.29
520.13	1059.91
520.49	1075.62
520.85	1091.66
521.21	1108.08
521.57	1124.62
521.93	1140.49
522.29	1157.00
522.65	1173.39
523.01	1189.65
523.37	1205.85
523.73	1222.28
524.09	1238.50
524.45	1254.63
524.81	1270.75
525.17	1287.17
525.53	1303.62
525.89	1320.03
526.25	1336.13
526.61	1351.54
526.97	1367.09
527.33	1382.56
527.68	1398.36
528.04	1413.92
528.40	1428.58
528.76	1443.38
529.12	1458.56
529.48	1474.47
529.84	1489.28
530.20	1504.22
530.56	1518.89
530.91	1533.98
531.27	1548.80
531.63	1563.42
531.99	1578.00
532.35	1592.26
532.71	1605.74
533.07	1619.64
533.42	1633.20
533.78	1646.83
534.14	1660.61
534.50	1673.12
534.86	1686.12
535.21	1698.59
535.57	1711.76
535.93	1724.36
536.29	1736.27
536.65	1748.49
537.00	1759.59
537.36	1770.69
537.72	1781.31
538.08	1792.11
538.44	1802.81
538.79	1813.28
539.15	1823.50
539.51	1833.79
539.87	1844.00
540.22	1854.20
540.58	1864.41
540.94	1873.85
541.29	1882.44
541.65	1890.67
542.01	1899.74
542.37	1907.95
542.72	1916.51
543.08	1924.04
543.44	1932.35
543.79	1939.76
544.15	1946.50
544.51	1954.14
544.87	1961.80
545.22	1968.48
545.58	1974.66
545.94	1980.07
546.29	1985.16
546.65	1990.04
547.01	1994.48
547.36	1999.06
547.72	2003.32
548.07	2006.75
548.43	2009.97
548.79	2013.57
549.14	2017.13
549.50	2020.28
549.86	2022.95
550.21	2024.89
550.57	2027.58
550.92	2029.13
551.28	2030.63
551.64	2032.08
551.99	2033.67
552.35	2034.42
552.70	2035.55
553.06	2037.01
553.41	2037.99
553.77	2039.15
554.13	2040.18
554.48	2041.24
554.84	2041.92
555.19	2041.76
555.55	2041.58
555.90	2041.26
556.26	2040.86
556.61	2040.14
556.97	2038.97
557.32	2038.37
557.68	2037.68
558.03	2036.12
558.39	2035.01
558.74	2035.04
559.10	2034.51
559.45	2032.80
559.81	2031.83
560.16	2030.16
560.52	2028.88
560.87	2027.40
561.23	2025.42
561.58	2023.67
561.94	2021.09
562.29	2017.91
562.64	2015.98
563.00	2013.93
563.35	2012.25
563.71	2010.71
564.06	2008.96
564.42	2007.34
564.77	2005.52
565.12	2003.72
565.48	2002.00
565.83	2000.07
566.19	1997.70
566.54	1994.44
566.89	1991.46
567.25	1988.41
567.60	1985.86
567.96	1982.86
568.31	1979.88
568.66	1976.50
569.02	1972.88
569.37	1968.93
569.72	1965.92
570.08	1961.85
570.43	1957.57
570.78	1953.16
571.14	1948.41
571.49	1943.88
571.84	1939.73
572.20	1934.42
572.55	1929.60
572.90	1924.10
573.26	1918.55
573.61	1912.80
573.96	1907.68
574.31	1902.02
574.67	1896.04
575.02	1889.83
575.37	1883.44
575.72	1876.92
576.08	1871.44
576.43	1865.14
576.78	1859.51
577.13	1853.78
577.49	1848.38
577.84	1842.62
578.19	1837.37
578.54	1832.19
578.90	1826.92
579.25	1820.93
579.60	1814.78
579.95	1808.50
580.30	1803.04
580.66	1797.84
581.01	1792.02
581.36	1785.83
581.71	1780.23
582.06	1774.42
582.42	1768.55
582.77	1762.47
583.12	1756.73
583.47	1750.97
583.82	1745.62
584.17	1739.71
584.53	1734.21
584.88	1728.26
585.23	1722.56
585.58	1716.45
585.93	1710.11
586.28	1704.50
586.63	1698.71
586.98	1693.40
587.34	1688.07
587.69	1682.15
588.04	1675.93
588.39	1670.27
588.74	1664.17
589.09	1658.63
589.44	1652.70
589.79	1647.50
590.14	1642.17
590.49	1636.55
590.84	1630.59
591.19	1625.30
591.54	1619.86
591.89	1612.90
592.25	1606.98
592.60	1600.87
592.95	1594.50
593.30	1587.95
593.65	1581.23
594.00	1574.83
594.35	1570.04
594.70	1563.84
595.05	1558.15
595.40	1552.34
595.75	1545.84
596.10	1540.44
596.45	1534.60
596.80	1529.48
597.15	1523.94
597.50	1517.75
597.85	1512.15
598.19	1506.36
598.54	1500.45
598.89	1495.11
599.24	1490.51
599.59	1485.03
599.94	1480.05
600.29	1475.13
600.64	1470.29
600.99	1464.25
601.34	1459.34
601.69	1452.84
602.04	1447.42
602.39	1441.87
602.74	1436.74
603.08	1432.30
603.43	1427.75
603.78	1422.51
604.13	1416.89
604.48	1411.53
604.83	1407.34
605.18	1402.94
605.53	1397.91
605.87	1392.40
606.22	1387.44
606.57	1381.90
606.92	1376.79
607.27	1371.41
607.62	1366.02
607.96	1360.90
608.31	1356.60
608.66	1350.90
609.01	1345.24
609.36	1339.62
609.70	1333.73
610.05	1327.87
610.40	1322.04
610.75	1315.88
611.10	1310.60
611.44	1304.19
611.79	1297.54
612.14	1290.78
612.49	1283.80
612.83	1277.42
613.18	1271.12
613.53	1264.52
613.88	1257.81
614.22	1251.55
614.57	1245.02
614.92	1238.66
615.27	1232.15
615.61	1225.45
615.96	1219.37
616.31	1213.59
616.65	1208.14
617.00	1202.30
617.35	1196.30
617.70	1189.82
618.04	1183.18
618.39	1176.07
618.74	1170.43
619.08	1164.46
619.43	1158.41
619.78	1152.64
620.12	1146.85
620.47	1141.00
620.82	1134.56
621.16	1128.41
621.51	1122.10
621.85	1115.96
622.20	1109.63
622.55	1103.66
622.89	1097.51
623.24	1091.60
623.59	1084.95
623.93	1078.70
624.28	1072.69
624.62	1066.83
624.97	1061.21
625.32	1055.75
625.66	1050.39
626.01	1044.58
626.35	1039.21
626.70	1033.67
627.04	1028.25
627.39	1022.80
627.73	1017.27
628.08	1012.10
628.43	1006.52
628.77	1000.99
629.12	995.51
629.46	990.67
629.81	985.26
630.15	979.95
630.50	974.39
630.84	969.02
631.19	963.53
631.53	958.30
631.88	952.56
632.22	946.91
632.57	941.73
632.91	936.28
633.26	930.89
633.60	925.58
633.95	920.62
634.29	915.16
634.64	909.91
634.98	904.45
635.32	899.42
635.67	894.84
636.01	889.97
636.36	884.83
636.70	879.67
637.05	874.73
637.39	870.06
637.73	865.47
638.08	861.38
638.42	856.99
638.77	852.44
639.11	847.76
639.45	843.01
639.80	837.83
640.14	832.83
640.49	828.11
640.83	823.36
641.17	818.43
641.52	813.78
641.86	808.79
642.20	804.25
642.55	799.21
642.89	794.21
643.23	789.37
643.58	785.03
643.92	780.07
644.26	775.30
644.61	770.54
644.95	765.63
645.29	760.70
645.64	755.79
645.98	750.94
646.32	746.45
646.66	741.72
647.01	737.20
647.35	733.06
647.69	728.33
648.04	723.73
648.38	718.91
648.72	714.16
649.06	709.66
649.41	705.03
649.75	700.69
650.09	696.34
650.43	691.90
650.78	687.19
651.12	682.79
651.46	678.43
651.80	674.11
652.14	669.92
652.49	665.45
652.83	660.96
653.17	656.27
653.51	651.98
653.85	647.90
654.20	643.69
654.54	639.09
654.88	634.84
655.22	630.63
655.56	626.40
655.90	622.36
656.25	618.30
656.59	614.34
656.93	610.25
657.27	606.24
657.61	602.05
657.95	598.18
658.29	594.20
658.64	590.38
658.98	586.43
659.32	582.23
659.66	578.47
660.00	574.47
660.34	570.67
660.68	566.73
661.02	562.88
661.36	559.35
661.70	555.92
662.05	552.47
662.39	549.09
662.73	545.92
663.07	542.58
663.41	539.23
663.75	535.77
664.09	532.23
664.43	528.80
664.77	525.53
665.11	522.15
665.45	519.10
665.79	515.90
666.13	512.63
666.47	509.67
666.81	506.53
667.15	503.47
667.49	500.65
667.83	497.85
668.17	494.88
668.51	491.80
668.85	488.97
669.19	486.29
669.53	483.39
669.87	480.35
670.21	477.39
670.55	474.51
670.89	472.01
671.23	469.50
671.57	467.05
671.91	464.58
672.25	461.81
672.58	459.11
672.92	456.39
673.26	454.03
673.60	451.62
673.94	449.23
674.28	446.83
674.62	444.47
674.96	442.05
675.30	439.75
675.64	437.29
675.97	435.04
676.31	432.74
676.65	430.46
676.99	428.53
677.33	426.27
677.67	423.94
678.01	421.55
678.34	419.37
678.68	417.05
679.02	414.71
679.36	412.86
679.70	410.85
680.04	408.82
680.37	406.67
680.71	404.49
681.05	402.55
681.39	400.62
681.73	398.60
682.06	396.62
682.40	394.73
682.74	393.02
683.08	391.00
683.42	388.96
683.75	387.06
684.09	384.92
684.43	383.10
684.77	381.31
685.10	379.37
685.44	377.44
685.78	375.66
686.12	373.97
686.45	372.14
686.79	370.29
687.13	368.57
687.46	366.97
687.80	365.35
688.14	363.49
688.48	361.85
688.81	360.14
689.15	358.45
689.49	356.75
689.82	355.01
690.16	353.25
690.50	351.55
690.83	349.95
691.17	348.33
691.51	346.70
691.84	345.12
692.18	343.72
692.52	342.23
692.85	340.71
693.19	339.35
693.52	337.85
693.86	336.31
694.20	334.81
694.53	333.28
694.87	331.73
695.21	330.27
695.54	328.78
695.88	327.30
696.21	325.86
696.55	324.56
696.88	323.25
697.22	321.89
697.56	320.70
697.89	319.29
698.23	318.06
698.56	316.84
698.90	315.66
699.23	314.39
699.57	313.21
699.90	312.02
700.24	310.70
700.58	309.54
700.91	308.48
701.25	307.67
701.58	306.58
701.92	305.55
702.25	304.44
702.59	303.28
702.92	302.30
703.26	301.31
703.59	300.16
703.93	299.33
704.26	298.33
704.60	297.25
704.93	296.23
705.26	295.20
705.60	294.25
705.93	293.19
706.27	292.32
706.60	291.40
706.94	290.56
707.27	289.56
707.61	288.64
707.94	287.70
708.27	286.51
708.61	285.53
708.94	284.60
709.28	283.77
709.61	282.90
709.94	282.13
710.28	281.28
710.61	280.52
710.95	279.41
711.28	278.85
711.61	277.98
711.95	277.27
712.28	276.48
712.61	275.67
712.95	275.11
713.28	274.55
713.61	273.76
713.95	272.98
714.28	272.33
714.61	271.69
714.95	270.96
715.28	270.23
715.61	269.52
715.95	268.87
716.28	268.19
716.61	267.65
716.95	266.85
717.28	266.21
717.61	265.57
717.94	265.05
718.28	264.19
718.61	263.63
718.94	263.08
719.27	262.54
719.61	262.00
719.94	261.30
720.27	260.57
720.60	260.10
720.94	259.50
721.27	258.98
721.60	258.41
721.93	257.96
722.27	257.54
722.60	257.13
722.93	256.57
723.26	256.10
723.59	255.55
723.93	255.22
724.26	254.74
724.59	254.32
724.92	253.85
725.25	253.53
725.59	253.15
725.92	252.75
726.25	252.30
726.58	251.91
726.91	251.55
727.24	251.17
727.57	250.66
727.91	250.20
728.24	249.83
728.57	249.38
728.90	249.01
729.23	248.60
729.56	248.40
729.89	248.05
730.22	247.68
730.55	247.35
730.89	246.98
731.22	246.59
731.55	246.17
731.88	245.89
732.21	245.50
732.54	245.05
732.87	244.67
733.20	244.27
733.53	243.84
733.86	243.58
734.19	243.19
734.52	242.95
734.85	242.93
735.18	242.49
735.51	242.30
735.84	242.00
736.17	241.69
736.50	241.20
736.83	241.31
737.16	241.03
737.49	240.69
737.82	240.40
738.15	240.11
738.48	239.85
738.81	239.48
739.14	239.06
739.47	238.77
739.80	238.44
740.13	238.28
740.46	237.95
740.79	237.53
741.12	237.20
741.45	236.83
741.78	236.35
742.11	236.26
742.44	235.88
742.77	235.65
743.10	235.36
743.43	235.01
743.75	234.33
744.08	234.46
744.41	234.12
744.74	233.75
745.07	233.48
745.40	233.24
745.73	233.15
746.06	232.95
746.39	232.83
746.71	232.50
747.04	232.11
747.37	231.89
747.70	231.75
748.03	231.53
748.36	231.37
748.68	231.11
749.01	230.77
749.34	230.57
749.67	230.29
750.00	230.11
750.33	230.14
750.65	229.99
750.98	229.38
751.31	229.21
751.64	229.05
751.97	229.01
752.29	228.82
752.62	228.45
752.95	228.28
753.28	227.93
753.60	227.78
753.93	227.76
754.26	227.65
754.59	227.43
754.91	227.20
755.24	227.05
755.57	226.82
755.90	226.66
756.22	226.51
756.55	226.37
756.88	226.10
757.20	225.75
757.53	225.44
757.86	225.23
758.19	225.10
758.51	224.94
758.84	224.60
759.17	224.41
759.49	224.30
759.82	224.25
760.15	224.16
760.47	224.01
760.80	223.71
761.13	223.66
761.45	223.44
761.78	223.37
762.11	223.18
762.43	223.12
762.76	222.97
763.08	222.77
763.41	222.62
763.74	222.50
764.06	222.37
764.39	222.30
764.71	222.20
765.04	222.08
765.37	221.96
765.69	221.83
766.02	221.76
766.34	221.58
766.67	221.36
767.00	221.35
767.32	221.47
767.65	221.58
767.97	221.39
768.30	221.27
768.62	221.08
768.95	220.99
769.27	220.83
769.60	220.83
769.92	220.76
770.25	220.60
770.57	220.46
770.90	220.38
771.22	220.28
771.55	220.21
771.87	220.06
772.20	219.98
772.52	220.18
772.85	220.48
773.17	220.34
773.50	220.23
773.82	220.05
774.15	219.71
774.47	219.45
774.80	219.33
775.12	219.24
775.45	219.22
775.77	219.15
776.09	219.15
776.42	219.00
776.74	219.00
777.07	218.88
777.39	218.78
777.72	218.64
778.04	218.54
778.36	218.40
778.69	218.37
779.01	218.29
779.33	217.97
779.66	217.47
779.98	217.38
780.31	217.31
780.63	217.41
780.95	217.41
781.28	217.38
781.60	217.31
781.92	217.29
782.25	217.16
782.57	217.17
782.89	217.06
783.22	217.02
783.54	216.86
783.86	216.83
784.19	216.79
784.51	216.83
784.83	216.68
785.16	216.59
785.48	216.52
785.80	216.50
786.12	216.40
786.45	216.37
786.77	216.36
787.09	216.28
787.42	216.04
