SpectraSuite Data File
++++++++++++++++++++++++++++++++++++
Date: Mon Feb 25 16:56:40 EST 2013
User: group
Dark Spectrum Present: No
Reference Spectrum Present: No
Number of Sampled Component Spectra: 1
Spectrometers: USB2E7196
Integration Time (usec): 104000 (USB2E7196)
Spectra Averaged: 20 (USB2E7196)
Boxcar Smoothing: 10 (USB2E7196)
Correct for Electrical Dark: No (USB2E7196)
Strobe/Lamp Enabled: No (USB2E7196)
Correct for Detector Non-linearity: No (USB2E7196)
Correct for Stray Light: No (USB2E7196)
Number of Pixels in Processed Spectrum: 2048
>>>>>Begin Processed Spectral Data<<<<<
339.09	0.00
339.48	199.20
339.86	199.70
340.24	201.70
340.63	203.10
341.01	210.05
341.39	206.05
341.78	208.90
342.16	210.45
342.54	208.75
342.93	198.53
343.31	208.47
343.69	209.03
344.07	209.53
344.46	209.98
344.84	210.36
345.22	210.44
345.60	210.68
345.99	210.80
346.37	210.89
346.75	210.97
347.13	211.07
347.52	211.19
347.90	211.39
348.28	211.45
348.66	211.55
349.05	211.50
349.43	211.60
349.81	211.66
350.19	211.74
350.57	211.79
350.96	211.93
351.34	212.10
351.72	212.22
352.10	212.33
352.48	212.34
352.87	212.35
353.25	212.34
353.63	212.50
354.01	212.57
354.39	212.59
354.77	212.75
355.15	212.82
355.54	212.84
355.92	212.73
356.30	212.69
356.68	212.97
357.06	212.97
357.44	212.99
357.82	213.07
358.20	213.15
358.58	213.22
358.97	213.25
359.35	213.32
359.73	213.37
360.11	213.35
360.49	213.40
360.87	213.46
361.25	213.54
361.63	213.59
362.01	213.58
362.39	213.64
362.77	213.64
363.15	213.61
363.53	213.62
363.91	213.66
364.29	213.70
364.67	213.33
365.05	213.35
365.43	213.35
365.81	213.32
366.19	213.43
366.57	213.53
366.95	213.51
367.33	213.46
367.71	213.47
368.09	213.52
368.47	213.54
368.85	213.52
369.23	213.55
369.61	213.43
369.99	213.57
370.37	213.54
370.75	213.67
371.13	213.59
371.51	213.54
371.89	213.53
372.27	213.51
372.65	213.55
373.03	213.54
373.41	213.50
373.78	213.43
374.16	213.23
374.54	213.08
374.92	213.07
375.30	213.09
375.68	212.94
376.06	212.95
376.44	212.90
376.82	212.91
377.19	212.91
377.57	212.84
377.95	212.65
378.33	212.63
378.71	212.39
379.09	212.47
379.47	212.48
379.84	212.42
380.22	212.39
380.60	212.29
380.98	212.27
381.36	212.21
381.73	212.15
382.11	212.21
382.49	212.22
382.87	212.15
383.25	212.05
383.62	212.47
384.00	212.36
384.38	212.30
384.76	212.34
385.13	212.44
385.51	212.43
385.89	212.40
386.27	212.35
386.64	212.41
387.02	212.35
387.40	212.32
387.78	212.39
388.15	212.40
388.53	212.39
388.91	212.34
389.29	212.27
389.66	212.37
390.04	212.34
390.42	212.34
390.79	212.36
391.17	212.36
391.55	211.97
391.92	212.01
392.30	212.06
392.68	211.98
393.05	211.96
393.43	211.97
393.81	211.97
394.18	211.92
394.56	211.86
394.94	212.01
395.31	211.99
395.69	212.05
396.06	212.10
396.44	212.22
396.82	212.29
397.19	212.60
397.57	212.66
397.95	212.73
398.32	212.74
398.70	212.84
399.07	212.97
399.45	213.07
399.82	213.12
400.20	213.13
400.58	213.24
400.95	213.17
401.33	213.36
401.70	213.78
402.08	213.94
402.45	214.10
402.83	214.31
403.20	214.47
403.58	214.69
403.95	214.92
404.33	215.16
404.71	215.32
405.08	215.74
405.46	215.97
405.83	216.22
406.21	216.61
406.58	216.89
406.96	217.28
407.33	217.69
407.70	218.20
408.08	218.99
408.45	219.60
408.83	220.22
409.20	220.79
409.58	221.16
409.95	221.90
410.33	222.78
410.70	223.47
411.08	224.40
411.45	225.27
411.82	226.21
412.20	227.24
412.57	228.68
412.95	229.49
413.32	230.77
413.69	232.21
414.07	233.71
414.44	235.34
414.82	236.99
415.19	238.88
415.56	240.84
415.94	242.85
416.31	245.17
416.68	247.53
417.06	250.18
417.43	252.75
417.81	255.69
418.18	258.61
418.55	261.80
418.93	265.29
419.30	268.87
419.67	272.68
420.04	276.60
420.42	280.67
420.79	285.54
421.16	290.40
421.54	295.36
421.91	300.40
422.28	305.71
422.66	311.41
423.03	316.95
423.40	322.69
423.77	328.90
424.15	335.19
424.52	341.81
424.89	348.92
425.26	355.92
425.64	362.66
426.01	370.02
426.38	377.79
426.75	385.62
427.13	393.80
427.50	402.31
427.87	411.35
428.24	420.28
428.61	428.93
428.99	438.35
429.36	448.64
429.73	458.79
430.10	469.01
430.47	479.36
430.85	490.17
431.22	501.66
431.59	513.89
431.96	525.54
432.33	538.43
432.70	551.00
433.08	565.71
433.45	579.55
433.82	593.60
434.19	609.18
434.56	624.35
434.93	639.00
435.30	653.85
435.68	670.14
436.05	686.49
436.42	702.86
436.79	717.76
437.16	734.05
437.53	751.18
437.90	768.22
438.27	785.07
438.64	802.84
439.01	819.25
439.38	833.77
439.75	848.16
440.13	864.51
440.50	879.98
440.87	893.16
441.24	906.83
441.61	921.40
441.98	932.69
442.35	945.80
442.72	958.87
443.09	971.51
443.46	979.60
443.83	985.38
444.20	990.44
444.57	997.57
444.94	1001.52
445.31	1005.74
445.68	1009.46
446.05	1011.94
446.42	1011.35
446.79	1010.64
447.16	1009.77
447.53	1009.58
447.90	1004.63
448.27	999.89
448.64	992.32
449.01	987.20
449.37	977.17
449.74	967.40
450.11	955.45
450.48	942.42
450.85	929.10
451.22	917.99
451.59	907.26
451.96	896.91
452.33	882.79
452.70	870.06
453.07	854.60
453.43	839.02
453.80	823.95
454.17	809.60
454.54	795.90
454.91	781.32
455.28	766.73
455.65	753.16
456.02	739.34
456.38	727.75
456.75	713.07
457.12	701.22
457.49	689.24
457.86	677.79
458.23	667.85
458.59	656.86
458.96	645.68
459.33	635.88
459.70	626.08
460.07	618.30
460.43	609.36
460.80	600.84
461.17	593.50
461.54	585.65
461.91	578.19
462.27	570.72
462.64	564.31
463.01	557.20
463.38	550.48
463.74	543.71
464.11	537.58
464.48	532.47
464.85	526.73
465.21	522.45
465.58	517.74
465.95	512.11
466.32	507.45
466.68	502.83
467.05	498.17
467.42	493.56
467.78	488.77
468.15	484.19
468.52	480.81
468.88	476.29
469.25	472.29
469.62	469.06
469.98	465.49
470.35	462.06
470.72	459.08
471.08	455.78
471.45	452.94
471.82	450.19
472.18	446.94
472.55	444.65
472.92	441.81
473.28	439.50
473.65	437.29
474.02	434.98
474.38	433.19
474.75	431.63
475.11	429.92
475.48	428.65
475.85	427.41
476.21	426.25
476.58	425.32
476.94	424.79
477.31	423.86
477.67	423.09
478.04	422.59
478.41	422.04
478.77	421.84
479.14	421.52
479.50	421.40
479.87	421.50
480.23	421.63
480.60	421.65
480.96	421.58
481.33	422.17
481.69	422.74
482.06	422.96
482.42	423.22
482.79	423.69
483.15	424.52
483.52	425.70
483.88	426.70
484.25	427.80
484.61	428.80
484.98	429.98
485.34	431.58
485.71	433.29
486.07	435.11
486.44	436.70
486.80	438.54
487.17	440.69
487.53	443.18
487.90	445.63
488.26	448.43
488.62	451.37
488.99	454.07
489.35	457.02
489.72	460.25
490.08	463.75
490.44	467.20
490.81	470.75
491.17	474.17
491.54	478.03
491.90	482.09
492.26	486.37
492.63	490.78
492.99	495.29
493.36	499.78
493.72	504.59
494.08	509.63
494.45	514.82
494.81	520.21
495.17	525.62
495.54	531.35
495.90	537.18
496.26	543.12
496.63	549.32
496.99	555.80
497.35	562.30
497.72	568.95
498.08	575.78
498.44	582.62
498.80	590.02
499.17	597.52
499.53	605.03
499.89	612.53
500.26	620.13
500.62	627.49
500.98	635.62
501.34	643.54
501.71	651.85
502.07	660.15
502.43	668.21
502.79	676.37
503.16	684.68
503.52	692.94
503.88	701.41
504.24	709.82
504.60	718.06
504.97	726.93
505.33	735.43
505.69	744.60
506.05	753.50
506.41	762.31
506.78	770.65
507.14	779.09
507.50	787.75
507.86	796.25
508.22	805.29
508.59	813.59
508.95	822.40
509.31	830.75
509.67	839.35
510.03	848.11
510.39	856.76
510.75	865.42
511.12	874.02
511.48	882.34
511.84	890.82
512.20	899.22
512.56	907.55
512.92	916.15
513.28	924.16
513.64	932.10
514.00	939.80
514.37	947.71
514.73	955.89
515.09	963.76
515.45	971.46
515.81	978.72
516.17	986.24
516.53	993.36
516.89	1000.58
517.25	1007.43
517.61	1014.16
517.97	1020.85
518.33	1027.11
518.69	1033.50
519.05	1039.89
519.41	1046.22
519.77	1052.77
520.13	1058.59
520.49	1064.06
520.85	1069.77
521.21	1075.80
521.57	1081.41
521.93	1086.60
522.29	1092.13
522.65	1097.41
523.01	1102.94
523.37	1107.84
523.73	1113.01
524.09	1117.83
524.45	1122.63
524.81	1127.44
525.17	1132.37
525.53	1137.03
525.89	1141.76
526.25	1146.18
526.61	1150.37
526.97	1154.40
527.33	1158.29
527.68	1162.60
528.04	1166.77
528.40	1170.21
528.76	1173.73
529.12	1177.73
529.48	1181.93
529.84	1185.31
530.20	1188.91
530.56	1192.35
530.91	1196.35
531.27	1199.79
531.63	1203.35
531.99	1206.68
532.35	1209.96
532.71	1213.11
533.07	1216.59
533.42	1219.97
533.78	1223.28
534.14	1226.48
534.50	1229.23
534.86	1232.43
535.21	1234.95
535.57	1238.01
535.93	1241.01
536.29	1243.76
536.65	1246.17
537.00	1248.36
537.36	1250.60
537.72	1252.78
538.08	1255.12
538.44	1257.30
538.79	1259.72
539.15	1262.09
539.51	1264.58
539.87	1267.02
540.22	1269.07
540.58	1271.63
540.94	1273.76
541.29	1275.59
541.65	1276.97
542.01	1279.07
542.37	1280.77
542.72	1282.47
543.08	1283.74
543.44	1285.59
543.79	1286.78
544.15	1288.30
544.51	1290.19
544.87	1291.91
545.22	1293.55
545.58	1294.71
545.94	1295.76
546.29	1296.27
546.65	1296.89
547.01	1297.40
547.36	1297.99
547.72	1298.53
548.07	1298.60
548.43	1298.63
548.79	1298.75
549.14	1299.64
549.50	1299.99
549.86	1300.00
550.21	1300.38
550.57	1301.13
550.92	1301.16
551.28	1301.53
551.64	1301.49
551.99	1301.70
552.35	1301.56
552.70	1301.27
553.06	1301.54
553.41	1301.69
553.77	1302.28
554.13	1302.64
554.48	1303.21
554.84	1303.89
555.19	1304.25
555.55	1304.36
555.90	1304.22
556.26	1304.33
556.61	1304.04
556.97	1303.60
557.32	1303.58
557.68	1303.10
558.03	1302.38
558.39	1301.81
558.74	1301.74
559.10	1301.69
559.45	1300.99
559.81	1300.75
560.16	1300.26
560.52	1299.55
560.87	1299.11
561.23	1298.00
561.58	1297.49
561.94	1296.29
562.29	1294.81
562.64	1294.13
563.00	1293.11
563.35	1292.74
563.71	1292.51
564.06	1292.22
564.42	1292.23
564.77	1292.24
565.12	1292.26
565.48	1292.24
565.83	1291.89
566.19	1291.40
566.54	1290.69
566.89	1290.25
567.25	1289.96
567.60	1289.96
567.96	1289.85
568.31	1289.60
568.66	1289.44
569.02	1288.26
569.37	1287.25
569.72	1286.65
570.08	1285.50
570.43	1284.54
570.78	1283.37
571.14	1281.67
571.49	1279.84
571.84	1278.34
572.20	1276.13
572.55	1274.39
572.90	1271.85
573.26	1269.88
573.61	1267.73
573.96	1265.69
574.31	1263.37
574.67	1260.62
575.02	1257.33
575.37	1254.10
575.72	1250.85
576.08	1247.97
576.43	1245.20
576.78	1242.51
577.13	1239.83
577.49	1237.21
577.84	1234.25
578.19	1231.33
578.54	1229.32
578.90	1227.06
579.25	1224.08
579.60	1220.93
579.95	1217.53
580.30	1214.96
580.66	1212.38
581.01	1209.19
581.36	1205.88
581.71	1202.56
582.06	1199.47
582.42	1196.72
582.77	1193.57
583.12	1190.33
583.47	1186.98
583.82	1183.85
584.17	1180.60
584.53	1177.30
584.88	1173.79
585.23	1170.58
585.58	1166.94
585.93	1163.07
586.28	1159.45
586.63	1155.99
586.98	1152.80
587.34	1149.75
587.69	1146.06
588.04	1142.23
588.39	1138.76
588.74	1135.02
589.09	1131.82
589.44	1128.01
589.79	1124.60
590.14	1121.40
590.49	1117.84
590.84	1114.22
591.19	1111.03
591.54	1107.73
591.89	1103.65
592.25	1100.06
592.60	1096.12
592.95	1092.44
593.30	1087.96
593.65	1083.68
594.00	1079.28
594.35	1076.17
594.70	1071.96
595.05	1068.30
595.40	1064.41
595.75	1060.28
596.10	1056.92
596.45	1052.88
596.80	1049.43
597.15	1045.68
597.50	1041.37
597.85	1037.53
598.19	1033.54
598.54	1029.47
598.89	1025.36
599.24	1022.13
599.59	1018.22
599.94	1014.75
600.29	1011.00
600.64	1007.47
600.99	1003.63
601.34	1000.27
601.69	995.58
602.04	991.48
602.39	987.47
602.74	983.73
603.08	980.33
603.43	976.58
603.78	972.65
604.13	968.59
604.48	964.57
604.83	961.37
605.18	957.98
605.53	954.34
605.87	950.28
606.22	946.78
606.57	942.38
606.92	938.18
607.27	934.13
607.62	930.21
607.96	926.50
608.31	923.01
608.66	919.03
609.01	914.94
609.36	911.11
609.70	907.02
610.05	902.64
610.40	898.44
610.75	893.97
611.10	890.36
611.44	885.84
611.79	881.60
612.14	877.04
612.49	872.40
612.83	868.13
613.18	863.80
613.53	859.20
613.88	854.70
614.22	850.58
614.57	846.24
614.92	842.12
615.27	837.72
615.61	833.29
615.96	829.05
616.31	825.40
616.65	821.76
617.00	817.87
617.35	814.11
617.70	809.76
618.04	805.47
618.39	800.74
618.74	796.95
619.08	792.67
619.43	788.60
619.78	784.90
620.12	781.03
620.47	777.28
620.82	773.23
621.16	769.23
621.51	765.37
621.85	761.42
622.20	757.33
622.55	753.39
622.89	749.28
623.24	745.16
623.59	740.64
623.93	736.38
624.28	732.42
624.62	728.77
624.97	725.02
625.32	721.31
625.66	717.75
626.01	713.81
626.35	710.26
626.70	706.44
627.04	702.54
627.39	698.81
627.73	695.25
628.08	691.99
628.43	688.53
628.77	684.95
629.12	681.18
629.46	677.74
629.81	674.25
630.15	670.91
630.50	667.51
630.84	664.14
631.19	660.93
631.53	657.48
631.88	653.69
632.22	650.23
632.57	647.16
632.91	643.79
633.26	640.74
633.60	637.44
633.95	634.29
634.29	630.95
634.64	627.77
634.98	624.24
635.32	620.90
635.67	618.08
636.01	614.97
636.36	612.00
636.70	608.98
637.05	605.87
637.39	602.93
637.73	600.29
638.08	597.79
638.42	594.77
638.77	591.91
639.11	589.17
639.45	586.41
639.80	583.37
640.14	580.46
640.49	577.40
640.83	574.55
641.17	571.81
641.52	569.06
641.86	565.98
642.20	563.35
642.55	560.29
642.89	557.15
643.23	554.26
643.58	551.72
643.92	548.68
644.26	545.97
644.61	543.27
644.95	540.22
645.29	537.10
645.64	534.28
645.98	531.57
646.32	528.81
646.66	526.04
647.01	523.31
647.35	520.73
647.69	517.99
648.04	515.45
648.38	512.72
648.72	510.10
649.06	507.46
649.41	504.80
649.75	502.28
650.09	499.84
650.43	497.29
650.78	494.49
651.12	492.07
651.46	489.45
651.80	486.90
652.14	484.55
652.49	482.28
652.83	479.81
653.17	477.34
653.51	474.84
653.85	472.57
654.20	470.21
654.54	467.68
654.88	465.40
655.22	462.98
655.56	460.46
655.90	458.00
656.25	455.67
656.59	453.30
656.93	451.10
657.27	448.92
657.61	446.53
657.95	444.27
658.29	442.09
658.64	440.11
658.98	437.77
659.32	435.31
659.66	433.02
660.00	430.82
660.34	428.45
660.68	426.20
661.02	423.86
661.36	421.75
661.70	419.67
662.05	417.50
662.39	415.56
662.73	413.86
663.07	412.12
663.41	410.21
663.75	408.11
664.09	406.02
664.43	404.05
664.77	402.29
665.11	400.42
665.45	398.49
665.79	396.56
666.13	394.79
666.47	393.05
666.81	391.27
667.15	389.41
667.49	387.83
667.83	386.26
668.17	384.59
668.51	382.94
668.85	381.48
669.19	380.21
669.53	378.51
669.87	376.66
670.21	374.95
670.55	373.46
670.89	372.28
671.23	370.91
671.57	369.32
671.91	367.74
672.25	366.35
672.58	365.00
672.92	363.48
673.26	362.16
673.60	360.83
673.94	359.39
674.28	358.14
674.62	356.80
674.96	355.44
675.30	354.17
675.64	352.90
675.97	351.48
676.31	349.94
676.65	348.64
676.99	347.62
677.33	346.23
677.67	344.90
678.01	343.37
678.34	342.06
678.68	340.97
679.02	339.65
679.36	338.35
679.70	337.01
680.04	335.87
680.37	334.58
680.71	333.36
681.05	332.28
681.39	331.06
681.73	329.90
682.06	328.77
682.40	327.65
682.74	326.41
683.08	325.43
683.42	324.25
683.75	323.18
684.09	321.79
684.43	320.77
684.77	319.58
685.10	318.55
685.44	317.40
685.78	316.21
686.12	315.21
686.45	314.18
686.79	313.12
687.13	312.17
687.46	311.16
687.80	310.34
688.14	309.20
688.48	308.32
688.81	307.29
689.15	306.34
689.49	305.30
689.82	304.38
690.16	303.21
690.50	302.24
690.83	301.24
691.17	300.33
691.51	299.40
691.84	298.61
692.18	297.71
692.52	296.87
692.85	296.02
693.19	295.38
693.52	294.50
693.86	293.67
694.20	292.79
694.53	291.96
694.87	290.99
695.21	290.11
695.54	289.21
695.88	288.21
696.21	287.22
696.55	286.52
696.88	285.64
697.22	284.81
697.56	284.17
697.89	283.25
698.23	282.53
698.56	281.75
698.90	281.05
699.23	280.19
699.57	279.51
699.90	278.72
700.24	277.81
700.58	277.14
700.91	276.48
701.25	276.07
701.58	275.38
701.92	274.69
702.25	274.05
702.59	273.33
702.92	272.88
703.26	272.21
703.59	271.38
703.93	271.03
704.26	270.44
704.60	269.82
704.93	269.30
705.26	268.61
705.60	268.03
705.93	267.33
706.27	266.91
706.60	266.33
706.94	265.92
707.27	265.37
707.61	264.70
707.94	264.13
708.27	263.29
708.61	262.65
708.94	262.05
709.28	261.55
709.61	260.96
709.94	260.38
710.28	259.99
710.61	259.57
710.95	258.77
711.28	258.58
711.61	257.97
711.95	257.59
712.28	257.07
712.61	256.58
712.95	256.24
713.28	255.90
713.61	255.45
713.95	254.88
714.28	254.41
714.61	253.95
714.95	253.45
715.28	252.91
715.61	252.50
715.95	252.14
716.28	251.58
716.61	251.24
716.95	250.80
717.28	250.29
717.61	249.92
717.94	249.57
718.28	248.85
718.61	248.46
718.94	247.85
719.27	247.47
719.61	247.06
719.94	246.63
720.27	246.08
720.60	245.64
720.94	245.22
721.27	244.89
721.60	244.65
721.93	244.22
722.27	244.03
722.60	243.78
722.93	243.43
723.26	243.18
723.59	242.80
723.93	242.40
724.26	242.14
724.59	241.70
724.92	241.41
725.25	241.24
725.59	241.00
725.92	240.83
726.25	240.60
726.58	240.36
726.91	239.99
727.24	239.75
727.57	239.41
727.91	239.09
728.24	238.77
728.57	238.40
728.90	238.18
729.23	237.77
729.56	237.63
729.89	237.34
730.22	237.13
730.55	236.88
730.89	236.68
731.22	236.42
731.55	236.25
731.88	235.91
732.21	235.54
732.54	235.07
732.87	234.83
733.20	234.53
733.53	234.32
733.86	234.18
734.19	233.83
734.52	233.76
734.85	233.83
735.18	233.61
735.51	233.49
735.84	233.34
736.17	233.15
736.50	232.77
736.83	232.98
737.16	232.73
737.49	232.58
737.82	232.33
738.15	232.15
738.48	231.94
738.81	231.71
739.14	231.45
739.47	231.41
739.80	231.24
740.13	231.12
740.46	230.83
740.79	230.57
741.12	230.41
741.45	230.07
741.78	229.72
742.11	229.63
742.44	229.44
742.77	229.29
743.10	229.09
743.43	228.91
743.75	228.34
744.08	228.60
744.41	228.32
744.74	228.14
745.07	227.93
745.40	227.78
745.73	227.79
746.06	227.64
746.39	227.45
746.71	227.20
747.04	226.99
747.37	226.82
747.70	226.75
748.03	226.63
748.36	226.56
748.68	226.42
749.01	226.06
749.34	225.89
749.67	225.72
750.00	225.63
750.33	225.72
750.65	225.59
750.98	224.98
751.31	224.88
751.64	224.75
751.97	224.77
752.29	224.57
752.62	224.32
752.95	224.21
753.28	224.05
753.60	223.95
753.93	223.78
754.26	223.72
754.59	223.42
754.91	223.27
755.24	223.08
755.57	222.84
755.90	222.77
756.22	222.59
756.55	222.41
756.88	222.20
757.20	221.77
757.53	221.58
757.86	221.50
758.19	221.44
758.51	221.31
758.84	221.02
759.17	220.88
759.49	220.74
759.82	220.83
760.15	220.75
760.47	220.65
760.80	220.53
761.13	220.48
761.45	220.36
761.78	220.25
762.11	220.21
762.43	220.17
762.76	220.09
763.08	220.07
763.41	220.01
763.74	219.98
764.06	219.95
764.39	219.79
764.71	219.66
765.04	219.43
765.37	219.35
765.69	219.24
766.02	219.25
766.34	219.16
766.67	218.90
767.00	218.92
767.32	218.95
767.65	219.10
767.97	218.90
768.30	218.89
768.62	218.77
768.95	218.59
769.27	218.50
769.60	218.40
769.92	218.26
770.25	218.13
770.57	217.99
770.90	217.88
771.22	217.85
771.55	217.77
771.87	217.79
772.20	217.69
772.52	217.99
772.85	218.30
773.17	218.24
773.50	218.16
773.82	217.98
774.15	217.80
774.47	217.44
774.80	217.40
775.12	217.36
775.45	217.30
775.77	217.29
776.09	217.21
776.42	217.17
776.74	217.16
777.07	217.10
777.39	217.05
777.72	217.02
778.04	217.03
778.36	216.99
778.69	216.98
779.01	217.00
779.33	216.57
779.66	216.06
779.98	215.96
780.31	216.01
780.63	216.13
780.95	216.11
781.28	216.05
781.60	215.97
781.92	215.84
782.25	215.84
782.57	215.79
782.89	215.72
783.22	215.63
783.54	215.48
783.86	215.49
784.19	215.43
784.51	215.51
784.83	215.39
785.16	215.34
785.48	215.24
785.80	215.24
786.12	215.33
786.45	215.34
786.77	215.31
787.09	215.18
787.42	215.00
787.74	214.94
788.06	215.06
788.38	214.95
788.71	214.93
789.03	214.89
