SpectraSuite Data File
++++++++++++++++++++++++++++++++++++
Date: Mon Feb 25 16:57:31 EST 2013
User: group
Dark Spectrum Present: No
Reference Spectrum Present: No
Number of Sampled Component Spectra: 1
Spectrometers: USB2E7196
Integration Time (usec): 104000 (USB2E7196)
Spectra Averaged: 20 (USB2E7196)
Boxcar Smoothing: 10 (USB2E7196)
Correct for Electrical Dark: No (USB2E7196)
Strobe/Lamp Enabled: No (USB2E7196)
Correct for Detector Non-linearity: No (USB2E7196)
Correct for Stray Light: No (USB2E7196)
Number of Pixels in Processed Spectrum: 2048
>>>>>Begin Processed Spectral Data<<<<<
339.09	0.00
339.48	199.70
339.86	201.05
340.24	199.70
340.63	203.45
341.01	210.05
341.39	206.30
341.78	207.65
342.16	208.25
342.54	209.10
342.93	198.41
343.31	208.46
343.69	208.90
344.07	209.32
344.46	209.80
344.84	210.22
345.22	210.28
345.60	210.59
345.99	210.75
346.37	210.94
346.75	211.02
347.13	211.10
347.52	211.15
347.90	211.28
348.28	211.35
348.66	211.37
349.05	211.17
349.43	211.29
349.81	211.35
350.19	211.41
350.57	211.52
350.96	211.65
351.34	211.67
351.72	211.78
352.10	211.90
352.48	212.06
352.87	212.05
353.25	212.09
353.63	212.06
354.01	212.17
354.39	212.14
354.77	212.21
355.15	212.30
355.54	212.35
355.92	212.39
356.30	212.45
356.68	212.70
357.06	212.89
357.44	212.89
357.82	212.92
358.20	213.00
358.58	213.02
358.97	213.09
359.35	213.21
359.73	213.33
360.11	213.32
360.49	213.27
360.87	213.31
361.25	213.36
361.63	213.51
362.01	213.54
362.39	213.63
362.77	213.67
363.15	213.79
363.53	213.82
363.91	213.84
364.29	213.87
364.67	213.56
365.05	213.55
365.43	213.57
365.81	213.67
366.19	213.78
366.57	213.96
366.95	213.96
367.33	213.90
367.71	213.92
368.09	213.93
368.47	213.95
368.85	213.96
369.23	214.07
369.61	213.95
369.99	214.05
370.37	214.08
370.75	214.20
371.13	214.01
371.51	213.92
371.89	213.95
372.27	213.91
372.65	213.90
373.03	213.84
373.41	213.75
373.78	213.70
374.16	213.54
374.54	213.34
374.92	213.23
375.30	213.16
375.68	213.06
376.06	213.07
376.44	213.03
376.82	212.93
377.19	212.83
377.57	212.83
377.95	212.63
378.33	212.59
378.71	212.39
379.09	212.46
379.47	212.53
379.84	212.36
380.22	212.33
380.60	212.35
380.98	212.34
381.36	212.29
381.73	212.14
382.11	212.13
382.49	212.03
382.87	211.99
383.25	211.99
383.62	212.39
384.00	212.27
384.38	212.28
384.76	212.35
385.13	212.37
385.51	212.28
385.89	212.24
386.27	212.15
386.64	212.18
387.02	212.11
387.40	211.98
387.78	212.00
388.15	212.00
388.53	211.86
388.91	211.81
389.29	211.82
389.66	211.93
390.04	211.89
390.42	211.99
390.79	211.99
391.17	211.92
391.55	211.52
391.92	211.54
392.30	211.57
392.68	211.46
393.05	211.45
393.43	211.46
393.81	211.50
394.18	211.51
394.56	211.51
394.94	211.57
395.31	211.62
395.69	211.77
396.06	211.75
396.44	211.85
396.82	211.89
397.19	212.13
397.57	212.03
397.95	212.11
398.32	212.05
398.70	212.11
399.07	212.26
399.45	212.26
399.82	212.30
400.20	212.36
400.58	212.49
400.95	212.45
401.33	212.61
401.70	212.93
402.08	212.99
402.45	213.10
402.83	213.37
403.20	213.50
403.58	213.57
403.95	213.84
404.33	214.05
404.71	214.27
405.08	214.59
405.46	214.87
405.83	215.19
406.21	215.50
406.58	215.87
406.96	216.16
407.33	216.51
407.70	216.95
408.08	217.67
408.45	218.25
408.83	218.82
409.20	219.35
409.58	219.75
409.95	220.45
410.33	221.11
410.70	221.70
411.08	222.52
411.45	223.39
411.82	224.23
412.20	225.24
412.57	226.42
412.95	227.25
413.32	228.49
413.69	229.63
414.07	230.98
414.44	232.43
414.82	233.93
415.19	235.71
415.56	237.50
415.94	239.21
416.31	241.23
416.68	243.35
417.06	245.64
417.43	247.92
417.81	250.58
418.18	253.24
418.55	256.04
418.93	259.05
419.30	262.24
419.67	265.59
420.04	268.95
420.42	272.57
420.79	276.87
421.16	281.09
421.54	285.51
421.91	289.98
422.28	294.67
422.66	299.79
423.03	304.80
423.40	309.95
423.77	315.42
424.15	321.08
424.52	326.85
424.89	333.23
425.26	339.35
425.64	345.16
426.01	351.78
426.38	358.63
426.75	365.62
427.13	372.72
427.50	380.36
427.87	388.39
428.24	396.33
428.61	403.82
428.99	412.07
429.36	421.17
429.73	430.16
430.10	439.01
430.47	448.01
430.85	457.50
431.22	467.73
431.59	478.40
431.96	488.54
432.33	500.05
432.70	511.30
433.08	524.52
433.45	536.77
433.82	548.98
434.19	562.74
434.56	576.21
434.93	589.19
435.30	602.07
435.68	616.68
436.05	631.08
436.42	645.46
436.79	658.82
437.16	673.16
437.53	688.29
437.90	703.55
438.27	718.45
438.64	733.99
439.01	748.33
439.38	761.49
439.75	774.23
440.13	788.57
440.50	802.13
440.87	813.26
441.24	825.25
441.61	838.33
441.98	848.26
442.35	859.64
442.72	871.19
443.09	882.33
443.46	889.22
443.83	894.30
444.20	898.92
444.57	905.08
444.94	908.62
445.31	912.46
445.68	915.91
446.05	918.14
446.42	917.79
446.79	917.35
447.16	916.35
447.53	916.23
447.90	911.86
448.27	907.44
448.64	900.88
449.01	896.49
449.37	887.57
449.74	878.97
450.11	868.57
450.48	857.24
450.85	845.47
451.22	835.67
451.59	826.20
451.96	817.10
452.33	804.76
452.70	793.47
453.07	779.68
453.43	765.73
453.80	752.47
454.17	739.63
454.54	727.40
454.91	714.40
455.28	701.51
455.65	689.80
456.02	677.86
456.38	667.59
456.75	654.61
457.12	644.00
457.49	633.58
457.86	623.32
458.23	614.46
458.59	604.97
458.96	595.10
459.33	586.36
459.70	577.69
460.07	570.63
460.43	562.79
460.80	555.32
461.17	548.91
461.54	541.93
461.91	535.48
462.27	528.77
462.64	523.11
463.01	516.84
463.38	510.66
463.74	504.51
464.11	499.38
464.48	494.77
464.85	489.80
465.21	485.86
465.58	481.76
465.95	476.78
466.32	472.65
466.68	468.59
467.05	464.54
467.42	460.41
467.78	456.15
468.15	451.92
468.52	448.87
468.88	444.85
469.25	441.38
469.62	438.48
469.98	435.39
470.35	432.42
470.72	429.60
471.08	426.61
471.45	424.13
471.82	421.59
472.18	418.86
472.55	416.74
472.92	414.20
473.28	412.09
473.65	409.87
474.02	407.73
474.38	406.08
474.75	404.70
475.11	403.22
475.48	402.13
475.85	401.22
476.21	400.11
476.58	399.19
476.94	398.52
477.31	397.71
477.67	396.90
478.04	396.41
478.41	396.13
478.77	396.11
479.14	395.60
479.50	395.43
479.87	395.42
480.23	395.55
480.60	395.58
480.96	395.59
481.33	396.29
481.69	396.65
482.06	396.99
482.42	397.18
482.79	397.54
483.15	398.13
483.52	398.92
483.88	399.77
484.25	400.66
484.61	401.67
484.98	402.69
485.34	404.09
485.71	405.40
486.07	406.76
486.44	407.80
486.80	409.51
487.17	411.25
487.53	413.31
487.90	415.30
488.26	417.63
488.62	420.03
488.99	422.18
489.35	424.67
489.72	427.29
490.08	430.22
490.44	433.08
490.81	435.99
491.17	438.92
491.54	442.01
491.90	445.29
492.26	448.67
492.63	452.10
492.99	455.67
493.36	459.65
493.72	463.58
494.08	467.82
494.45	472.25
494.81	476.83
495.17	481.16
495.54	485.82
495.90	490.46
496.26	495.10
496.63	500.02
496.99	505.09
497.35	510.31
497.72	515.66
498.08	521.27
498.44	526.91
498.80	532.86
499.17	538.94
499.53	544.79
499.89	550.83
500.26	557.01
500.62	562.98
500.98	569.27
501.34	575.70
501.71	582.23
502.07	588.50
502.43	594.82
502.79	601.32
503.16	607.83
503.52	614.40
503.88	621.00
504.24	627.75
504.60	634.28
504.97	640.88
505.33	647.40
505.69	654.27
506.05	661.10
506.41	667.61
506.78	673.93
507.14	680.44
507.50	686.92
507.86	693.30
508.22	699.81
508.59	705.92
508.95	712.25
509.31	718.36
509.67	724.69
510.03	730.86
510.39	737.27
510.75	743.80
511.12	749.76
511.48	755.80
511.84	761.85
512.20	767.95
512.56	774.00
512.92	779.86
513.28	785.49
513.64	791.09
514.00	796.70
514.37	802.36
514.73	808.06
515.09	813.74
515.45	818.98
515.81	824.41
516.17	829.63
516.53	834.49
516.89	839.35
517.25	844.05
517.61	848.57
517.97	852.97
518.33	856.85
518.69	861.32
519.05	865.70
519.41	869.86
519.77	874.13
520.13	877.94
520.49	881.75
520.85	885.55
521.21	889.32
521.57	892.96
521.93	896.05
522.29	899.56
522.65	902.81
523.01	906.37
523.37	909.51
523.73	912.73
524.09	915.84
524.45	918.99
524.81	922.12
525.17	925.55
525.53	928.45
525.89	931.55
526.25	934.39
526.61	936.99
526.97	939.43
527.33	942.11
527.68	945.08
528.04	947.83
528.40	950.17
528.76	952.50
529.12	955.10
529.48	958.14
529.84	960.63
530.20	963.09
530.56	965.44
530.91	968.35
531.27	971.05
531.63	973.54
531.99	975.98
532.35	978.59
532.71	980.77
533.07	983.41
533.42	986.16
533.78	988.94
534.14	991.66
534.50	993.89
534.86	996.32
535.21	998.22
535.57	1000.55
535.93	1002.86
536.29	1005.30
536.65	1007.47
537.00	1009.36
537.36	1011.35
537.72	1013.19
538.08	1015.09
538.44	1016.72
538.79	1018.87
539.15	1021.26
539.51	1023.49
539.87	1025.69
540.22	1027.84
540.58	1030.20
540.94	1032.11
541.29	1033.81
541.65	1035.40
542.01	1037.72
542.37	1039.64
542.72	1041.67
543.08	1043.47
543.44	1045.75
543.79	1047.32
544.15	1049.09
544.51	1051.39
544.87	1053.41
545.22	1055.42
545.58	1057.45
545.94	1059.17
546.29	1060.40
546.65	1061.74
547.01	1063.15
547.36	1064.31
547.72	1065.80
548.07	1066.85
548.43	1067.86
548.79	1068.99
549.14	1070.33
549.50	1071.58
549.86	1072.54
550.21	1073.79
550.57	1075.35
550.92	1076.22
551.28	1077.35
551.64	1078.40
551.99	1079.45
552.35	1080.43
552.70	1081.40
553.06	1082.61
553.41	1083.58
553.77	1085.16
554.13	1086.20
554.48	1087.52
554.84	1089.15
555.19	1090.33
555.55	1091.45
555.90	1092.42
556.26	1093.30
556.61	1094.22
556.97	1094.81
557.32	1095.75
557.68	1096.52
558.03	1097.03
558.39	1097.60
558.74	1098.51
559.10	1099.51
559.45	1100.01
559.81	1100.74
560.16	1101.19
560.52	1101.73
560.87	1102.42
561.23	1102.46
561.58	1103.20
561.94	1103.39
562.29	1102.90
562.64	1103.04
563.00	1103.51
563.35	1104.00
563.71	1104.96
564.06	1105.65
564.42	1106.63
564.77	1107.45
565.12	1108.35
565.48	1109.12
565.83	1109.80
566.19	1110.87
566.54	1110.96
566.89	1111.34
567.25	1111.99
567.60	1112.87
567.96	1113.50
568.31	1114.15
568.66	1114.67
569.02	1114.56
569.37	1114.57
569.72	1115.17
570.08	1115.04
570.43	1114.67
570.78	1114.54
571.14	1114.09
571.49	1113.51
571.84	1112.89
572.20	1112.00
572.55	1111.22
572.90	1110.06
573.26	1109.15
573.61	1107.67
573.96	1106.88
574.31	1105.60
574.67	1104.05
575.02	1102.21
575.37	1100.27
575.72	1098.21
576.08	1096.60
576.43	1094.94
576.78	1093.28
577.13	1091.60
577.49	1090.04
577.84	1088.46
578.19	1086.85
578.54	1085.35
578.90	1084.10
579.25	1082.22
579.60	1080.10
579.95	1077.73
580.30	1075.80
580.66	1073.90
581.01	1071.74
581.36	1069.26
581.71	1067.02
582.06	1064.86
582.42	1062.70
582.77	1060.47
583.12	1057.90
583.47	1055.52
583.82	1053.20
584.17	1050.93
584.53	1048.57
584.88	1046.16
585.23	1043.56
585.58	1041.09
585.93	1038.39
586.28	1035.62
586.63	1033.07
586.98	1030.73
587.34	1028.54
587.69	1025.95
588.04	1023.34
588.39	1020.65
588.74	1017.84
589.09	1015.45
589.44	1012.40
589.79	1009.86
590.14	1007.42
590.49	1005.09
590.84	1002.35
591.19	1000.08
591.54	997.37
591.89	994.17
592.25	991.52
592.60	988.57
592.95	985.37
593.30	981.85
593.65	978.25
594.00	974.88
594.35	972.86
594.70	969.60
595.05	966.79
595.40	963.79
595.75	960.65
596.10	957.84
596.45	954.83
596.80	952.29
597.15	949.49
597.50	946.05
597.85	943.03
598.19	939.85
598.54	936.59
598.89	933.52
599.24	930.96
599.59	927.69
599.94	924.65
600.29	921.73
600.64	918.85
600.99	915.94
601.34	913.17
601.69	908.80
602.04	905.48
602.39	902.06
602.74	898.77
603.08	895.97
603.43	893.25
603.78	889.98
604.13	886.66
604.48	883.40
604.83	880.86
605.18	878.01
605.53	874.80
605.87	871.41
606.22	868.26
606.57	864.71
606.92	861.30
607.27	858.09
607.62	854.73
607.96	851.77
608.31	848.76
608.66	845.38
609.01	842.18
609.36	838.90
609.70	835.43
610.05	831.93
610.40	828.48
610.75	824.70
611.10	821.48
611.44	817.55
611.79	813.91
612.14	810.03
612.49	806.07
612.83	802.79
613.18	799.26
613.53	795.45
613.88	791.64
614.22	788.15
614.57	784.57
614.92	780.81
615.27	777.01
615.61	773.48
615.96	769.92
616.31	766.56
616.65	763.44
617.00	760.12
617.35	756.69
617.70	753.05
618.04	749.49
618.39	745.43
618.74	742.20
619.08	738.46
619.43	735.02
619.78	731.67
620.12	728.18
620.47	724.77
620.82	721.26
621.16	717.82
621.51	714.34
621.85	710.86
622.20	707.51
622.55	703.99
622.89	700.28
623.24	696.82
623.59	693.16
623.93	689.40
624.28	685.99
624.62	682.93
624.97	679.56
625.32	676.11
625.66	673.12
626.01	669.75
626.35	666.71
626.70	663.30
627.04	660.10
627.39	656.91
627.73	653.73
628.08	650.84
628.43	647.75
628.77	644.59
629.12	641.34
629.46	638.30
629.81	635.26
630.15	632.34
630.50	629.30
630.84	626.20
631.19	623.24
631.53	620.34
631.88	617.02
632.22	613.83
632.57	611.18
632.91	608.36
633.26	605.48
633.60	602.53
633.95	599.82
634.29	596.90
634.64	593.95
634.98	590.91
635.32	588.00
635.67	585.40
636.01	582.70
636.36	580.05
636.70	577.45
637.05	574.76
637.39	572.05
637.73	569.56
638.08	567.45
638.42	565.17
638.77	562.61
639.11	560.03
639.45	557.59
639.80	554.82
640.14	552.01
640.49	549.34
640.83	546.85
641.17	544.16
641.52	541.54
641.86	538.92
642.20	536.66
642.55	533.91
642.89	531.20
643.23	528.59
643.58	526.17
643.92	523.56
644.26	521.09
644.61	518.65
644.95	516.06
645.29	513.40
645.64	510.75
645.98	508.10
646.32	505.62
646.66	503.10
647.01	500.75
647.35	498.44
647.69	496.03
648.04	493.64
648.38	491.32
648.72	489.10
649.06	486.66
649.41	484.14
649.75	481.85
650.09	479.70
650.43	477.52
650.78	475.08
651.12	472.68
651.46	470.41
651.80	468.19
652.14	466.00
652.49	463.70
652.83	461.44
653.17	459.14
653.51	456.91
653.85	454.97
654.20	452.76
654.54	450.49
654.88	448.40
655.22	446.26
655.56	443.96
655.90	441.62
656.25	439.36
656.59	437.13
656.93	435.22
657.27	433.06
657.61	430.83
657.95	428.84
658.29	426.87
658.64	424.95
658.98	422.86
659.32	420.70
659.66	418.73
660.00	416.64
660.34	414.51
660.68	412.55
661.02	410.23
661.36	408.32
661.70	406.46
662.05	404.57
662.39	402.71
662.73	401.18
663.07	399.56
663.41	398.02
663.75	396.35
664.09	394.55
664.43	392.80
664.77	391.07
665.11	389.31
665.45	387.72
665.79	386.07
666.13	384.30
666.47	382.64
666.81	380.98
667.15	379.51
667.49	378.21
667.83	376.80
668.17	375.31
668.51	373.88
668.85	372.43
669.19	371.16
669.53	369.58
669.87	368.01
670.21	366.50
670.55	364.95
670.89	363.72
671.23	362.35
671.57	360.93
671.91	359.62
672.25	358.25
672.58	356.76
672.92	355.27
673.26	354.08
673.60	352.83
673.94	351.50
674.28	350.00
674.62	348.66
674.96	347.27
675.30	346.04
675.64	344.76
675.97	343.47
676.31	342.19
676.65	341.05
676.99	339.94
677.33	338.66
677.67	337.44
678.01	336.02
678.34	334.80
678.68	333.69
679.02	332.37
679.36	331.18
679.70	330.10
680.04	328.98
680.37	327.80
680.71	326.62
681.05	325.52
681.39	324.50
681.73	323.35
682.06	322.33
682.40	321.40
682.74	320.26
683.08	319.29
683.42	318.09
683.75	317.01
684.09	315.73
684.43	314.69
684.77	313.66
685.10	312.66
685.44	311.59
685.78	310.47
686.12	309.55
686.45	308.57
686.79	307.48
687.13	306.57
687.46	305.61
687.80	304.75
688.14	303.66
688.48	302.85
688.81	301.94
689.15	301.04
689.49	300.01
689.82	299.17
690.16	298.12
690.50	297.17
690.83	296.21
691.17	295.30
691.51	294.39
691.84	293.52
692.18	292.66
692.52	291.86
692.85	291.16
693.19	290.38
693.52	289.53
693.86	288.71
694.20	287.85
694.53	287.05
694.87	286.19
695.21	285.47
695.54	284.56
695.88	283.70
696.21	282.73
696.55	282.04
696.88	281.21
697.22	280.45
697.56	279.88
697.89	279.14
698.23	278.48
698.56	277.80
698.90	277.18
699.23	276.43
699.57	275.75
699.90	274.93
700.24	274.24
700.58	273.58
700.91	273.05
701.25	272.67
701.58	272.10
701.92	271.50
702.25	270.86
702.59	270.20
702.92	269.67
703.26	269.13
703.59	268.45
703.93	268.16
704.26	267.62
704.60	266.89
704.93	266.28
705.26	265.64
705.60	265.11
705.93	264.49
706.27	263.99
706.60	263.51
706.94	263.22
707.27	262.72
707.61	262.14
707.94	261.54
708.27	260.74
708.61	260.05
708.94	259.49
709.28	258.97
709.61	258.48
709.94	258.01
710.28	257.53
710.61	257.13
710.95	256.25
711.28	256.00
711.61	255.58
711.95	255.20
712.28	254.80
712.61	254.38
712.95	254.15
713.28	253.91
713.61	253.35
713.95	252.71
714.28	252.29
714.61	251.87
714.95	251.44
715.28	250.94
715.61	250.60
715.95	250.17
716.28	249.73
716.61	249.31
716.95	248.83
717.28	248.50
717.61	248.08
717.94	247.79
718.28	247.14
718.61	246.78
718.94	246.37
719.27	246.01
719.61	245.62
719.94	245.10
720.27	244.49
720.60	244.22
720.94	243.90
721.27	243.57
721.60	243.44
721.93	243.17
722.27	243.09
722.60	242.88
722.93	242.61
723.26	242.35
723.59	242.03
723.93	241.80
724.26	241.44
724.59	241.13
724.92	240.92
725.25	240.81
725.59	240.55
725.92	240.35
726.25	240.01
726.58	239.80
726.91	239.51
727.24	239.30
727.57	238.94
727.91	238.57
728.24	238.28
728.57	237.77
728.90	237.52
729.23	237.08
729.56	236.93
729.89	236.63
730.22	236.36
730.55	236.13
730.89	235.81
731.22	235.56
731.55	235.27
731.88	235.04
732.21	234.65
732.54	234.35
732.87	234.06
733.20	233.89
733.53	233.70
733.86	233.47
734.19	233.18
734.52	233.00
734.85	233.09
735.18	232.78
735.51	232.76
735.84	232.54
736.17	232.44
736.50	232.04
736.83	232.20
737.16	232.02
737.49	231.86
737.82	231.68
738.15	231.56
738.48	231.39
738.81	231.13
739.14	230.91
739.47	230.68
739.80	230.51
740.13	230.34
740.46	230.01
740.79	229.74
741.12	229.61
741.45	229.40
741.78	229.04
742.11	229.03
742.44	228.64
742.77	228.47
743.10	228.26
743.43	228.09
743.75	227.61
744.08	227.88
744.41	227.64
744.74	227.41
745.07	227.20
745.40	227.05
745.73	227.02
746.06	226.84
746.39	226.80
746.71	226.59
747.04	226.32
747.37	226.12
747.70	226.10
748.03	225.99
748.36	225.90
748.68	225.67
749.01	225.33
749.34	225.31
749.67	225.17
750.00	224.99
750.33	225.07
750.65	224.90
750.98	224.36
751.31	224.23
751.64	224.14
751.97	224.19
752.29	224.14
752.62	223.82
752.95	223.74
753.28	223.48
753.60	223.31
753.93	223.31
754.26	223.22
754.59	222.99
754.91	222.79
755.24	222.66
755.57	222.56
755.90	222.49
756.22	222.32
756.55	222.11
756.88	221.93
757.20	221.63
757.53	221.38
757.86	221.29
758.19	221.14
758.51	221.05
758.84	220.74
759.17	220.50
759.49	220.42
759.82	220.43
760.15	220.38
760.47	220.35
760.80	220.15
761.13	220.16
761.45	220.04
761.78	219.94
762.11	219.80
762.43	219.70
762.76	219.62
763.08	219.60
763.41	219.60
763.74	219.51
764.06	219.42
764.39	219.44
764.71	219.30
765.04	219.21
765.37	219.08
765.69	218.95
766.02	218.89
766.34	218.86
766.67	218.68
767.00	218.72
767.32	218.77
767.65	218.91
767.97	218.79
768.30	218.80
768.62	218.73
768.95	218.64
769.27	218.55
769.60	218.58
769.92	218.49
770.25	218.39
770.57	218.32
770.90	218.25
771.22	218.16
771.55	218.18
771.87	218.17
772.20	218.14
772.52	218.38
772.85	218.75
773.17	218.65
773.50	218.56
773.82	218.40
774.15	218.22
774.47	217.92
774.80	217.80
775.12	217.73
775.45	217.61
775.77	217.58
776.09	217.51
776.42	217.38
776.74	217.42
777.07	217.30
777.39	217.33
777.72	217.18
778.04	217.12
778.36	216.94
778.69	216.93
779.01	216.85
779.33	216.45
779.66	215.97
779.98	215.93
780.31	215.86
780.63	215.92
780.95	215.92
781.28	215.94
781.60	215.87
781.92	215.76
782.25	215.75
782.57	215.68
782.89	215.57
783.22	215.48
783.54	215.34
783.86	215.30
784.19	215.13
784.51	215.26
784.83	215.21
785.16	215.17
785.48	215.12
785.80	215.06
786.12	215.12
786.45	215.13
786.77	215.11
787.09	215.13
787.42	215.01
787.74	214.91
788.06	214.92
788.38	214.92
788.71	214.85
789.03	214.84
789.35	214.90
789.67	214.87
789.99	214.86
790.32	214.80
790.64	214.81
790.96	215.12
