SpectraSuite Data File
++++++++++++++++++++++++++++++++++++
Date: Mon Feb 25 17:13:05 EST 2013
User: group
Dark Spectrum Present: No
Reference Spectrum Present: No
Number of Sampled Component Spectra: 1
Spectrometers: USB2E7196
Integration Time (usec): 104000 (USB2E7196)
Spectra Averaged: 20 (USB2E7196)
Boxcar Smoothing: 10 (USB2E7196)
Correct for Electrical Dark: No (USB2E7196)
Strobe/Lamp Enabled: No (USB2E7196)
Correct for Detector Non-linearity: No (USB2E7196)
Correct for Stray Light: No (USB2E7196)
Number of Pixels in Processed Spectrum: 2048
>>>>>Begin Processed Spectral Data<<<<<
339.09	0.00
339.48	198.75
339.86	199.90
340.24	201.60
340.63	203.60
341.01	210.35
341.39	206.00
341.78	207.40
342.16	208.90
342.54	209.00
342.93	198.73
343.31	208.79
343.69	209.35
344.07	209.90
344.46	210.41
344.84	210.80
345.22	210.88
345.60	211.16
345.99	211.35
346.37	211.48
346.75	211.63
347.13	211.68
347.52	211.83
347.90	212.08
348.28	212.08
348.66	212.10
349.05	212.02
349.43	212.14
349.81	212.11
350.19	212.06
350.57	212.13
350.96	212.23
351.34	212.26
351.72	212.27
352.10	212.32
352.48	212.30
352.87	212.36
353.25	212.41
353.63	212.43
354.01	212.47
354.39	212.51
354.77	212.51
355.15	212.68
355.54	212.66
355.92	212.51
356.30	212.58
356.68	212.87
357.06	213.04
357.44	212.94
357.82	213.06
358.20	213.22
358.58	213.27
358.97	213.31
359.35	213.45
359.73	213.70
360.11	213.67
360.49	213.78
360.87	213.71
361.25	213.75
361.63	213.89
362.01	213.94
362.39	213.96
362.77	213.98
363.15	213.97
363.53	213.93
363.91	213.98
364.29	213.99
364.67	213.68
365.05	213.59
365.43	213.70
365.81	213.65
366.19	213.72
366.57	213.77
366.95	213.74
367.33	213.60
367.71	213.54
368.09	213.67
368.47	213.63
368.85	213.65
369.23	213.68
369.61	213.55
369.99	213.63
370.37	213.62
370.75	213.78
371.13	213.69
371.51	213.63
371.89	213.70
372.27	213.67
372.65	213.63
373.03	213.57
373.41	213.48
373.78	213.46
374.16	213.26
374.54	213.18
374.92	213.08
375.30	213.08
375.68	213.02
376.06	212.88
376.44	212.83
376.82	212.79
377.19	212.74
377.57	212.66
377.95	212.53
378.33	212.48
378.71	212.22
379.09	212.24
379.47	212.30
379.84	212.18
380.22	212.09
380.60	211.99
380.98	211.91
381.36	211.83
381.73	211.72
382.11	211.74
382.49	211.72
382.87	211.73
383.25	211.68
383.62	211.93
384.00	211.85
384.38	211.79
384.76	211.81
385.13	211.90
385.51	211.93
385.89	211.86
386.27	211.82
386.64	211.86
387.02	211.77
387.40	211.61
387.78	211.48
388.15	211.48
388.53	211.45
388.91	211.53
389.29	211.54
389.66	211.59
390.04	211.50
390.42	211.46
390.79	211.41
391.17	211.37
391.55	211.04
391.92	211.06
392.30	211.04
392.68	211.00
393.05	210.95
393.43	210.90
393.81	210.87
394.18	210.80
394.56	210.75
394.94	210.87
395.31	210.86
395.69	211.03
396.06	211.10
396.44	211.11
396.82	210.99
397.19	211.19
397.57	211.16
397.95	211.18
398.32	211.12
398.70	211.18
399.07	211.31
399.45	211.29
399.82	211.26
400.20	211.30
400.58	211.25
400.95	211.13
401.33	211.21
401.70	211.50
402.08	211.72
402.45	211.77
402.83	211.76
403.20	211.91
403.58	211.96
403.95	212.10
404.33	212.26
404.71	212.41
405.08	212.57
405.46	212.68
405.83	212.80
406.21	212.91
406.58	213.02
406.96	213.01
407.33	213.15
407.70	213.35
408.08	213.75
408.45	214.03
408.83	214.26
409.20	214.39
409.58	214.38
409.95	214.50
410.33	214.73
410.70	214.82
411.08	215.06
411.45	215.39
411.82	215.54
412.20	215.87
412.57	216.35
412.95	216.39
413.32	216.77
413.69	217.15
414.07	217.62
414.44	218.00
414.82	218.54
415.19	219.07
415.56	219.64
415.94	220.00
416.31	220.67
416.68	221.27
417.06	222.10
417.43	222.90
417.81	223.74
418.18	224.62
418.55	225.60
418.93	226.55
419.30	227.43
419.67	228.46
420.04	229.45
420.42	230.46
420.79	232.08
421.16	233.44
421.54	234.91
421.91	236.27
422.28	237.77
422.66	239.38
423.03	241.08
423.40	242.58
423.77	244.23
424.15	245.82
424.52	247.60
424.89	249.52
425.26	251.22
425.64	252.94
426.01	254.82
426.38	256.74
426.75	258.78
427.13	260.88
427.50	263.11
427.87	265.41
428.24	267.72
428.61	269.61
428.99	272.06
429.36	274.50
429.73	277.07
430.10	279.65
430.47	282.27
430.85	284.87
431.22	287.80
431.59	291.10
431.96	293.99
432.33	297.25
432.70	300.34
433.08	304.02
433.45	307.45
433.82	310.95
434.19	314.80
434.56	318.55
434.93	322.06
435.30	325.66
435.68	329.61
436.05	333.56
436.42	337.46
436.79	340.97
437.16	344.86
437.53	348.83
437.90	352.78
438.27	356.65
438.64	360.60
439.01	364.32
439.38	367.53
439.75	370.76
440.13	374.40
440.50	377.76
440.87	380.60
441.24	383.50
441.61	386.67
441.98	389.08
442.35	391.70
442.72	394.64
443.09	397.39
443.46	398.91
443.83	399.96
444.20	400.80
444.57	402.06
444.94	402.62
445.31	403.35
445.68	404.40
446.05	404.59
446.42	404.26
446.79	403.88
447.16	403.30
447.53	402.99
447.90	401.42
448.27	399.87
448.64	397.78
449.01	396.28
449.37	393.61
449.74	391.05
450.11	388.37
450.48	384.98
450.85	381.44
451.22	378.50
451.59	375.72
451.96	373.12
452.33	369.64
452.70	366.39
453.07	362.58
453.43	358.25
453.80	354.53
454.17	350.90
454.54	347.35
454.91	343.62
455.28	340.01
455.65	336.70
456.02	333.95
456.38	331.15
456.75	327.64
457.12	324.77
457.49	321.90
457.86	318.83
458.23	316.50
458.59	313.83
458.96	311.33
459.33	308.94
459.70	306.72
460.07	304.87
460.43	302.81
460.80	300.78
461.17	299.15
461.54	297.42
461.91	295.74
462.27	293.99
462.64	292.50
463.01	290.90
463.38	289.43
463.74	287.35
464.11	285.85
464.48	284.74
464.85	283.40
465.21	282.41
465.58	281.36
465.95	279.88
466.32	278.87
466.68	277.69
467.05	276.57
467.42	275.44
467.78	274.24
468.15	273.23
468.52	272.55
468.88	271.40
469.25	270.37
469.62	269.71
469.98	268.89
470.35	268.17
470.72	267.43
471.08	266.60
471.45	266.04
471.82	265.60
472.18	264.89
472.55	264.46
472.92	263.78
473.28	263.25
473.65	262.87
474.02	262.45
474.38	262.17
474.75	261.88
475.11	261.52
475.48	261.37
475.85	261.13
476.21	260.81
476.58	260.73
476.94	260.69
477.31	260.48
477.67	260.43
478.04	260.38
478.41	260.50
478.77	260.92
479.14	260.85
479.50	260.84
479.87	261.08
480.23	261.23
480.60	261.35
480.96	261.53
481.33	261.95
481.69	262.23
482.06	262.54
482.42	262.95
482.79	263.26
483.15	263.65
483.52	264.19
483.88	264.59
484.25	265.08
484.61	265.59
484.98	266.09
485.34	266.84
485.71	267.63
486.07	268.27
486.44	268.72
486.80	269.68
487.17	270.59
487.53	271.55
487.90	272.63
488.26	273.93
488.62	275.15
488.99	276.28
489.35	277.65
489.72	279.07
490.08	280.49
490.44	282.09
490.81	283.66
491.17	285.30
491.54	287.19
491.90	289.06
492.26	291.00
492.63	293.10
492.99	295.23
493.36	297.45
493.72	300.01
494.08	302.49
494.45	305.10
494.81	307.95
495.17	310.67
495.54	313.61
495.90	316.65
496.26	319.94
496.63	323.22
496.99	326.62
497.35	330.19
497.72	333.91
498.08	337.72
498.44	341.72
498.80	345.90
499.17	350.23
499.53	354.62
499.89	359.32
500.26	364.09
500.62	368.98
500.98	374.11
501.34	379.30
501.71	384.81
502.07	390.38
502.43	396.00
502.79	401.94
503.16	408.00
503.52	414.20
503.88	420.46
504.24	427.09
504.60	433.91
504.97	441.01
505.33	448.18
505.69	455.80
506.05	463.44
506.41	471.24
506.78	479.15
507.14	487.20
507.50	495.51
507.86	504.04
508.22	512.56
508.59	521.37
508.95	530.39
509.31	539.52
509.67	548.86
510.03	558.53
510.39	568.30
510.75	578.10
511.12	588.15
511.48	598.30
511.84	608.56
512.20	618.83
512.56	629.32
512.92	640.16
513.28	650.96
513.64	662.16
514.00	673.20
514.37	684.46
514.73	696.33
515.09	707.89
515.45	719.37
515.81	731.18
516.17	742.96
516.53	754.66
516.89	766.66
517.25	778.65
517.61	790.82
517.97	802.98
518.33	815.28
518.69	827.59
519.05	840.16
519.41	852.92
519.77	865.95
520.13	878.45
520.49	890.77
520.85	903.46
521.21	916.14
521.57	929.14
521.93	941.39
522.29	953.97
522.65	966.53
523.01	979.25
523.37	991.67
523.73	1004.55
524.09	1017.44
524.45	1030.11
524.81	1042.87
525.17	1055.67
525.53	1068.75
525.89	1081.56
526.25	1094.05
526.61	1106.45
526.97	1118.75
527.33	1130.96
527.68	1144.00
528.04	1156.12
528.40	1168.00
528.76	1179.99
529.12	1192.27
529.48	1205.05
529.84	1216.85
530.20	1229.01
530.56	1241.06
530.91	1253.68
531.27	1265.65
531.63	1277.37
531.99	1289.28
532.35	1300.59
532.71	1311.71
533.07	1322.84
533.42	1334.15
533.78	1345.43
534.14	1356.12
534.50	1366.47
534.86	1377.15
535.21	1386.52
535.57	1397.45
535.93	1407.48
536.29	1417.63
536.65	1427.14
537.00	1436.33
537.36	1445.55
537.72	1454.51
538.08	1463.70
538.44	1472.20
538.79	1480.80
539.15	1489.46
539.51	1497.63
539.87	1506.45
540.22	1514.79
540.58	1523.17
540.94	1530.98
541.29	1538.54
541.65	1545.91
542.01	1553.39
542.37	1560.45
542.72	1567.79
543.08	1574.17
543.44	1581.31
543.79	1587.19
544.15	1593.02
544.51	1599.45
544.87	1605.82
545.22	1611.48
545.58	1616.37
545.94	1621.47
546.29	1625.83
546.65	1629.99
547.01	1634.16
547.36	1638.34
547.72	1642.23
548.07	1645.29
548.43	1648.35
548.79	1651.09
549.14	1654.20
549.50	1657.16
549.86	1659.16
550.21	1661.70
550.57	1664.11
550.92	1665.69
551.28	1667.55
551.64	1669.61
551.99	1671.42
552.35	1672.60
552.70	1674.08
553.06	1675.60
553.41	1676.75
553.77	1678.16
554.13	1679.12
554.48	1680.33
554.84	1681.37
555.19	1681.83
555.55	1682.22
555.90	1682.36
556.26	1682.60
556.61	1682.37
556.97	1681.58
557.32	1681.77
557.68	1680.90
558.03	1680.49
558.39	1680.19
558.74	1680.00
559.10	1679.55
559.45	1678.58
559.81	1678.36
560.16	1677.15
560.52	1676.73
560.87	1675.64
561.23	1674.12
561.58	1673.52
561.94	1671.85
562.29	1669.41
562.64	1668.08
563.00	1666.75
563.35	1665.74
563.71	1665.02
564.06	1663.95
564.42	1663.34
564.77	1662.26
565.12	1661.18
565.48	1659.95
565.83	1658.41
566.19	1656.90
566.54	1654.58
566.89	1652.41
567.25	1650.19
567.60	1648.34
567.96	1645.85
568.31	1644.04
568.66	1641.75
569.02	1638.75
569.37	1635.92
569.72	1633.51
570.08	1630.50
570.43	1627.45
570.78	1624.03
571.14	1620.32
571.49	1616.94
571.84	1613.33
572.20	1609.09
572.55	1605.81
572.90	1601.46
573.26	1597.42
573.61	1593.20
573.96	1589.49
574.31	1585.00
574.67	1580.23
575.02	1575.41
575.37	1570.48
575.72	1565.18
576.08	1560.83
576.43	1555.97
576.78	1551.55
577.13	1547.44
577.49	1542.70
577.84	1538.23
578.19	1534.05
578.54	1530.18
578.90	1526.38
579.25	1521.90
579.60	1517.44
579.95	1512.38
580.30	1508.30
580.66	1504.32
581.01	1499.57
581.36	1494.58
581.71	1490.29
582.06	1485.88
582.42	1481.75
582.77	1477.19
583.12	1472.80
583.47	1468.52
583.82	1464.44
584.17	1459.98
584.53	1455.42
584.88	1451.13
585.23	1446.48
585.58	1441.72
585.93	1436.41
586.28	1431.62
586.63	1427.09
586.98	1422.90
587.34	1418.87
587.69	1414.29
588.04	1409.35
588.39	1405.08
588.74	1400.49
589.09	1396.42
589.44	1391.60
589.79	1387.25
590.14	1383.16
590.49	1378.66
590.84	1373.99
591.19	1370.00
591.54	1365.67
591.89	1360.32
592.25	1355.95
592.60	1351.36
592.95	1346.43
593.30	1341.52
593.65	1336.09
594.00	1331.21
594.35	1327.42
594.70	1322.47
595.05	1317.76
595.40	1313.08
595.75	1307.93
596.10	1303.60
596.45	1298.76
596.80	1294.84
597.15	1290.59
597.50	1285.99
597.85	1281.76
598.19	1277.14
598.54	1272.31
598.89	1268.14
599.24	1264.72
599.59	1260.43
599.94	1256.47
600.29	1252.47
600.64	1248.40
600.99	1244.22
601.34	1240.31
601.69	1235.18
602.04	1230.68
602.39	1226.36
602.74	1222.26
603.08	1218.96
603.43	1215.37
603.78	1211.40
604.13	1207.36
604.48	1202.97
604.83	1199.44
605.18	1195.79
605.53	1191.91
605.87	1187.87
606.22	1183.77
606.57	1179.42
606.92	1175.07
607.27	1170.65
607.62	1166.35
607.96	1162.70
608.31	1159.01
608.66	1154.42
609.01	1150.00
609.36	1145.79
609.70	1141.00
610.05	1136.38
610.40	1131.70
610.75	1126.75
611.10	1122.35
611.44	1116.97
611.79	1111.83
612.14	1106.52
612.49	1101.16
612.83	1096.16
613.18	1090.78
613.53	1085.54
613.88	1080.10
614.22	1075.16
614.57	1069.84
614.92	1064.82
615.27	1059.30
615.61	1054.02
615.96	1049.11
616.31	1044.29
616.65	1039.83
617.00	1035.27
617.35	1030.32
617.70	1025.08
618.04	1019.74
618.39	1013.87
618.74	1009.00
619.08	1003.97
619.43	998.84
619.78	993.86
620.12	988.78
620.47	984.13
620.82	978.82
621.16	973.65
621.51	968.66
621.85	963.95
622.20	958.87
622.55	953.72
622.89	948.65
623.24	943.75
623.59	938.52
623.93	933.18
624.28	928.31
624.62	923.73
624.97	919.17
625.32	914.58
625.66	910.33
626.01	905.72
626.35	901.49
626.70	896.90
627.04	892.59
627.39	888.18
627.73	883.75
628.08	879.58
628.43	874.95
628.77	870.51
629.12	865.83
629.46	861.90
629.81	857.86
630.15	853.52
630.50	848.95
630.84	844.48
631.19	840.20
631.53	835.76
631.88	830.92
632.22	825.95
632.57	821.68
632.91	817.30
633.26	812.93
633.60	808.51
633.95	804.28
634.29	799.77
634.64	795.60
634.98	791.18
635.32	787.15
635.67	783.41
636.01	779.23
636.36	775.24
636.70	771.07
637.05	767.05
637.39	763.07
637.73	759.38
638.08	755.98
638.42	752.22
638.77	748.49
639.11	744.78
639.45	740.98
639.80	736.75
640.14	732.59
640.49	728.65
640.83	724.66
641.17	720.94
641.52	716.99
641.86	712.97
642.20	709.17
642.55	704.82
642.89	700.78
643.23	696.66
643.58	693.00
643.92	688.78
644.26	684.79
644.61	680.87
644.95	676.83
645.29	672.65
645.64	668.69
645.98	664.65
646.32	661.01
646.66	657.28
647.01	653.61
647.35	650.26
647.69	646.39
648.04	642.70
648.38	638.73
648.72	635.08
649.06	631.35
649.41	627.52
649.75	623.97
650.09	620.51
650.43	616.89
650.78	613.01
651.12	609.32
651.46	605.69
651.80	602.35
652.14	598.86
652.49	595.35
652.83	591.60
653.17	587.82
653.51	583.99
653.85	580.61
654.20	577.04
654.54	573.21
654.88	569.67
655.22	566.18
655.56	562.68
655.90	559.01
656.25	555.50
656.59	552.08
656.93	548.66
657.27	545.31
657.61	541.73
657.95	538.49
658.29	535.33
658.64	532.18
658.98	528.68
659.32	525.25
659.66	521.95
660.00	518.73
660.34	515.66
660.68	512.44
661.02	509.35
661.36	506.33
661.70	503.38
662.05	500.60
662.39	497.83
662.73	495.15
663.07	492.59
663.41	489.83
663.75	487.00
664.09	484.10
664.43	481.02
664.77	478.39
665.11	475.44
665.45	472.63
665.79	470.05
666.13	467.46
666.47	464.77
666.81	462.25
667.15	459.64
667.49	457.17
667.83	454.85
668.17	452.23
668.51	449.94
668.85	447.53
669.19	445.23
669.53	442.75
669.87	440.18
670.21	437.69
670.55	435.27
670.89	433.28
671.23	431.32
671.57	429.27
671.91	427.14
672.25	425.11
672.58	423.00
672.92	420.66
673.26	418.59
673.60	416.67
673.94	414.52
674.28	412.65
674.62	410.73
674.96	408.73
675.30	406.86
675.64	404.90
675.97	402.91
676.31	401.11
676.65	399.24
676.99	397.49
677.33	395.56
677.67	393.70
678.01	391.62
678.34	389.70
678.68	387.91
679.02	385.97
679.36	384.19
679.70	382.46
680.04	380.69
680.37	378.86
680.71	377.06
681.05	375.49
681.39	373.71
681.73	371.96
682.06	370.35
682.40	368.77
682.74	367.19
683.08	365.67
683.42	363.80
683.75	362.06
684.09	360.37
684.43	358.84
684.77	357.19
685.10	355.61
685.44	353.99
685.78	352.41
686.12	351.09
686.45	349.61
686.79	347.98
687.13	346.66
687.46	345.19
687.80	343.83
688.14	342.21
688.48	340.79
688.81	339.32
689.15	337.86
689.49	336.37
689.82	334.87
690.16	333.33
690.50	331.89
690.83	330.57
691.17	329.18
691.51	327.81
691.84	326.65
692.18	325.32
692.52	324.08
692.85	322.91
693.19	321.83
693.52	320.56
693.86	319.33
694.20	318.00
694.53	316.88
694.87	315.65
695.21	314.48
695.54	313.20
695.88	312.07
696.21	310.80
696.55	309.64
696.88	308.56
697.22	307.39
697.56	306.46
697.89	305.28
698.23	304.28
698.56	303.16
698.90	302.13
699.23	301.05
699.57	300.03
699.90	298.88
700.24	297.65
700.58	296.55
700.91	295.66
701.25	294.90
701.58	293.97
701.92	293.01
702.25	292.12
702.59	291.19
702.92	290.24
703.26	289.34
703.59	288.45
703.93	287.84
704.26	286.99
704.60	286.05
704.93	285.14
705.26	284.22
705.60	283.44
705.93	282.52
706.27	281.87
706.60	281.07
706.94	280.49
707.27	279.68
707.61	278.94
707.94	278.16
708.27	277.14
708.61	276.27
708.94	275.61
709.28	274.78
709.61	274.06
709.94	273.41
710.28	272.73
710.61	272.04
710.95	270.99
711.28	270.50
711.61	269.78
711.95	269.37
712.28	268.70
712.61	268.03
712.95	267.53
713.28	266.99
713.61	266.30
713.95	265.58
714.28	264.83
714.61	264.25
714.95	263.62
715.28	262.98
715.61	262.38
715.95	261.74
716.28	261.17
716.61	260.63
716.95	259.94
717.28	259.36
717.61	258.84
717.94	258.32
718.28	257.60
718.61	257.06
718.94	256.40
719.27	255.90
719.61	255.41
719.94	254.83
720.27	254.14
720.60	253.64
720.94	253.02
721.27	252.63
721.60	252.25
721.93	251.80
722.27	251.46
722.60	251.13
722.93	250.59
723.26	250.28
723.59	249.81
723.93	249.46
724.26	249.11
724.59	248.68
724.92	248.30
725.25	248.02
725.59	247.68
725.92	247.40
726.25	247.01
726.58	246.69
726.91	246.39
727.24	246.08
727.57	245.76
727.91	245.39
728.24	245.03
728.57	244.62
728.90	244.37
729.23	243.95
729.56	243.70
729.89	243.39
730.22	242.98
730.55	242.65
730.89	242.32
731.22	241.95
731.55	241.55
731.88	241.23
732.21	240.82
732.54	240.49
732.87	240.14
733.20	239.87
733.53	239.49
733.86	239.22
734.19	238.84
734.52	238.54
734.85	238.55
735.18	238.32
735.51	238.15
735.84	237.84
736.17	237.63
736.50	237.20
736.83	237.35
737.16	237.06
737.49	236.84
737.82	236.52
738.15	236.32
738.48	236.09
738.81	235.83
739.14	235.59
739.47	235.31
739.80	235.04
740.13	234.79
740.46	234.52
740.79	234.23
741.12	234.02
741.45	233.72
741.78	233.28
742.11	233.08
742.44	232.79
742.77	232.54
743.10	232.27
743.43	232.02
743.75	231.39
744.08	231.53
744.41	231.15
744.74	231.03
745.07	230.78
745.40	230.62
745.73	230.61
746.06	230.43
746.39	230.26
746.71	230.06
747.04	229.80
747.37	229.58
747.70	229.37
748.03	229.19
748.36	229.10
748.68	228.92
749.01	228.65
749.34	228.40
749.67	228.22
750.00	228.07
750.33	228.10
750.65	228.00
750.98	227.53
751.31	227.40
751.64	227.16
751.97	227.15
752.29	227.02
752.62	226.61
752.95	226.42
753.28	226.19
753.60	225.99
753.93	225.87
754.26	225.74
754.59	225.52
754.91	225.35
755.24	225.11
755.57	224.87
755.90	224.78
756.22	224.58
756.55	224.41
756.88	224.26
757.20	223.94
757.53	223.65
757.86	223.43
758.19	223.32
758.51	223.20
758.84	222.90
759.17	222.67
759.49	222.59
759.82	222.60
760.15	222.53
760.47	222.35
760.80	222.12
761.13	222.06
761.45	221.89
761.78	221.74
762.11	221.65
762.43	221.56
762.76	221.46
763.08	221.46
763.41	221.38
763.74	221.30
764.06	221.21
764.39	221.23
764.71	221.20
765.04	221.13
765.37	221.00
765.69	220.85
766.02	220.79
766.34	220.66
766.67	220.40
767.00	220.36
767.32	220.54
767.65	220.82
767.97	220.73
768.30	220.66
768.62	220.63
768.95	220.55
769.27	220.51
769.60	220.46
769.92	220.31
770.25	220.19
770.57	220.06
770.90	219.93
771.22	219.74
771.55	219.65
771.87	219.56
772.20	219.47
772.52	219.75
772.85	220.03
773.17	219.89
773.50	219.80
773.82	219.66
774.15	219.38
774.47	219.04
774.80	218.92
775.12	218.88
775.45	218.81
775.77	218.71
776.09	218.63
776.42	218.51
776.74	218.56
777.07	218.45
777.39	218.40
777.72	218.30
778.04	218.29
778.36	218.20
778.69	218.16
779.01	218.12
779.33	217.77
779.66	217.28
779.98	217.31
780.31	217.31
780.63	217.45
780.95	217.45
781.28	217.40
781.60	217.29
781.92	217.24
782.25	217.13
782.57	217.12
782.89	217.03
783.22	216.96
783.54	216.80
783.86	216.74
784.19	216.62
784.51	216.72
784.83	216.66
785.16	216.64
785.48	216.57
785.80	216.50
786.12	216.48
786.45	216.52
786.77	216.48
787.09	216.43
787.42	216.20
787.74	216.15
788.06	216.06
788.38	216.06
