SpectraSuite Data File
++++++++++++++++++++++++++++++++++++
Date: Mon Feb 25 16:55:50 EST 2013
User: group
Dark Spectrum Present: No
Reference Spectrum Present: No
Number of Sampled Component Spectra: 1
Spectrometers: USB2E7196
Integration Time (usec): 104000 (USB2E7196)
Spectra Averaged: 20 (USB2E7196)
Boxcar Smoothing: 10 (USB2E7196)
Correct for Electrical Dark: No (USB2E7196)
Strobe/Lamp Enabled: No (USB2E7196)
Correct for Detector Non-linearity: No (USB2E7196)
Correct for Stray Light: No (USB2E7196)
Number of Pixels in Processed Spectrum: 2048
>>>>>Begin Processed Spectral Data<<<<<
339.09	0.00
339.48	198.75
339.86	199.65
340.24	200.50
340.63	201.35
341.01	210.25
341.39	206.25
341.78	207.90
342.16	208.55
342.54	209.80
342.93	198.10
343.31	208.10
343.69	208.56
344.07	209.02
344.46	209.55
344.84	210.04
345.22	210.05
345.60	210.27
345.99	210.48
346.37	210.61
346.75	210.69
347.13	210.75
347.52	210.84
347.90	211.03
348.28	211.11
348.66	211.21
349.05	211.12
349.43	211.20
349.81	211.27
350.19	211.35
350.57	211.42
350.96	211.57
351.34	211.65
351.72	211.80
352.10	211.91
352.48	211.94
352.87	211.96
353.25	212.04
353.63	212.10
354.01	212.13
354.39	212.24
354.77	212.29
355.15	212.47
355.54	212.49
355.92	212.43
356.30	212.45
356.68	212.76
357.06	212.86
357.44	212.85
357.82	212.94
358.20	213.05
358.58	213.04
358.97	213.10
359.35	213.26
359.73	213.43
360.11	213.53
360.49	213.57
360.87	213.66
361.25	213.80
361.63	214.00
362.01	214.06
362.39	214.11
362.77	214.15
363.15	214.17
363.53	214.25
363.91	214.33
364.29	214.48
364.67	214.13
365.05	214.19
365.43	214.28
365.81	214.34
366.19	214.48
366.57	214.71
366.95	214.71
367.33	214.65
367.71	214.66
368.09	214.67
368.47	214.67
368.85	214.60
369.23	214.60
369.61	214.50
369.99	214.61
370.37	214.56
370.75	214.74
371.13	214.70
371.51	214.60
371.89	214.64
372.27	214.50
372.65	214.51
373.03	214.50
373.41	214.45
373.78	214.35
374.16	214.15
374.54	213.99
374.92	213.95
375.30	213.95
375.68	213.78
376.06	213.76
376.44	213.74
376.82	213.74
377.19	213.69
377.57	213.59
377.95	213.43
378.33	213.43
378.71	213.19
379.09	213.15
379.47	213.15
379.84	212.95
380.22	212.97
380.60	212.84
380.98	212.74
381.36	212.72
381.73	212.68
382.11	212.71
382.49	212.66
382.87	212.60
383.25	212.54
383.62	212.91
384.00	212.83
384.38	212.83
384.76	212.85
385.13	212.95
385.51	212.96
385.89	212.88
386.27	212.74
386.64	212.77
387.02	212.75
387.40	212.69
387.78	212.74
388.15	212.66
388.53	212.73
388.91	212.71
389.29	212.63
389.66	212.57
390.04	212.50
390.42	212.54
390.79	212.50
391.17	212.51
391.55	212.12
391.92	212.13
392.30	212.10
392.68	212.03
393.05	212.00
393.43	212.04
393.81	212.12
394.18	212.15
394.56	212.16
394.94	212.23
395.31	212.24
395.69	212.39
396.06	212.55
396.44	212.55
396.82	212.64
397.19	212.92
397.57	213.00
397.95	213.10
398.32	213.05
398.70	213.13
399.07	213.19
399.45	213.28
399.82	213.39
400.20	213.45
400.58	213.55
400.95	213.51
401.33	213.63
401.70	213.88
402.08	214.02
402.45	214.13
402.83	214.29
403.20	214.55
403.58	214.70
403.95	214.85
404.33	215.14
404.71	215.32
405.08	215.64
405.46	215.92
405.83	216.25
406.21	216.61
406.58	217.05
406.96	217.50
407.33	217.93
407.70	218.43
408.08	219.22
408.45	219.87
408.83	220.59
409.20	221.18
409.58	221.73
409.95	222.52
410.33	223.41
410.70	224.19
411.08	225.06
411.45	226.03
411.82	227.08
412.20	228.26
412.57	229.67
412.95	230.74
413.32	232.14
413.69	233.55
414.07	235.07
414.44	236.77
414.82	238.59
415.19	240.57
415.56	242.65
415.94	244.78
416.31	247.29
416.68	249.72
417.06	252.57
417.43	255.25
417.81	258.37
418.18	261.54
418.55	265.01
418.93	268.63
419.30	272.45
419.67	276.47
420.04	280.64
420.42	285.09
420.79	290.16
421.16	295.39
421.54	300.74
421.91	306.26
422.28	312.03
422.66	318.02
423.03	324.00
423.40	330.09
423.77	336.75
424.15	343.57
424.52	350.62
424.89	358.31
425.26	365.97
425.64	373.09
426.01	381.06
426.38	389.36
426.75	397.83
427.13	406.58
427.50	415.79
427.87	425.35
428.24	434.78
428.61	444.10
428.99	454.13
429.36	465.20
429.73	476.13
430.10	486.81
430.47	497.84
430.85	509.41
431.22	521.85
431.59	534.70
431.96	547.00
432.33	560.81
432.70	574.38
433.08	590.27
433.45	605.24
433.82	620.12
434.19	636.79
434.56	653.20
434.93	669.02
435.30	684.81
435.68	702.49
436.05	720.05
436.42	737.37
436.79	753.40
437.16	770.75
437.53	789.22
437.90	807.49
438.27	825.70
438.64	844.47
439.01	861.96
439.38	877.97
439.75	893.44
440.13	911.11
440.50	927.54
440.87	941.23
441.24	955.75
441.61	971.61
441.98	983.35
442.35	997.21
442.72	1011.18
443.09	1024.79
443.46	1033.45
443.83	1039.80
444.20	1045.53
444.57	1053.16
444.94	1057.34
445.31	1061.60
445.68	1065.72
446.05	1068.36
446.42	1068.14
446.79	1067.44
447.16	1066.51
447.53	1066.24
447.90	1060.95
448.27	1055.70
448.64	1047.46
449.01	1041.95
449.37	1031.11
449.74	1021.02
450.11	1008.27
450.48	994.35
450.85	979.85
451.22	967.68
451.59	956.03
451.96	944.92
452.33	929.73
452.70	916.23
453.07	899.68
453.43	883.01
453.80	866.76
454.17	851.17
454.54	836.49
454.91	820.40
455.28	804.94
455.65	790.33
456.02	775.55
456.38	763.42
456.75	747.78
457.12	734.90
457.49	722.10
457.86	709.85
458.23	699.15
458.59	687.68
458.96	675.85
459.33	665.47
459.70	654.84
460.07	646.55
460.43	636.99
460.80	627.98
461.17	620.09
461.54	611.77
461.91	603.97
462.27	595.86
462.64	589.23
463.01	581.58
463.38	574.29
463.74	567.17
464.11	560.67
464.48	555.12
464.85	548.96
465.21	544.35
465.58	539.16
465.95	533.25
466.32	528.13
466.68	523.23
467.05	518.20
467.42	513.38
467.78	508.25
468.15	503.26
468.52	499.63
468.88	494.92
469.25	490.69
469.62	487.21
469.98	483.60
470.35	480.08
470.72	476.70
471.08	473.17
471.45	470.12
471.82	467.01
472.18	463.63
472.55	461.34
472.92	458.33
473.28	455.87
473.65	453.38
474.02	451.04
474.38	449.00
474.75	447.35
475.11	445.40
475.48	444.01
475.85	442.67
476.21	441.36
476.58	440.29
476.94	439.52
477.31	438.51
477.67	437.64
478.04	436.96
478.41	436.52
478.77	436.41
479.14	436.07
479.50	435.93
479.87	436.03
480.23	436.12
480.60	436.22
480.96	436.37
481.33	437.02
481.69	437.68
482.06	438.21
482.42	438.55
482.79	439.19
483.15	440.07
483.52	441.46
483.88	442.50
484.25	443.66
484.61	444.96
484.98	446.31
485.34	448.10
485.71	449.99
486.07	452.00
486.44	453.77
486.80	455.88
487.17	458.31
487.53	461.02
487.90	463.66
488.26	466.65
488.62	469.83
488.99	472.86
489.35	475.97
489.72	479.59
490.08	483.45
490.44	487.32
490.81	491.33
491.17	495.10
491.54	499.47
491.90	503.82
492.26	508.46
492.63	513.33
492.99	518.06
493.36	523.14
493.72	528.54
494.08	534.13
494.45	540.04
494.81	546.05
495.17	552.11
495.54	558.59
495.90	565.05
496.26	571.59
496.63	578.30
496.99	585.39
497.35	592.48
497.72	599.75
498.08	607.25
498.44	614.79
498.80	623.14
499.17	631.44
499.53	639.81
499.89	648.51
500.26	656.85
500.62	665.50
500.98	674.31
501.34	683.25
501.71	692.45
502.07	701.66
502.43	710.91
502.79	720.11
503.16	729.47
503.52	738.92
503.88	748.39
504.24	757.98
504.60	767.54
504.97	777.41
505.33	787.08
505.69	797.51
506.05	807.82
506.41	817.71
506.78	827.40
507.14	837.29
507.50	846.93
507.86	857.08
508.22	867.07
508.59	876.81
508.95	886.88
509.31	896.55
509.67	906.27
510.03	916.34
510.39	926.68
510.75	936.67
511.12	946.49
511.48	956.47
511.84	966.40
512.20	976.13
512.56	985.84
512.92	995.85
513.28	1005.10
513.64	1014.46
514.00	1023.49
514.37	1032.66
514.73	1042.12
515.09	1051.54
515.45	1060.53
515.81	1069.66
516.17	1078.59
516.53	1087.31
516.89	1096.12
517.25	1104.48
517.61	1112.60
517.97	1120.42
518.33	1128.02
518.69	1136.06
519.05	1143.76
519.41	1151.60
519.77	1159.38
520.13	1166.44
520.49	1173.26
520.85	1180.42
521.21	1187.34
521.57	1194.58
521.93	1201.20
522.29	1208.06
522.65	1214.56
523.01	1221.00
523.37	1226.89
523.73	1233.19
524.09	1239.14
524.45	1245.13
524.81	1251.25
525.17	1257.27
525.53	1263.01
525.89	1268.72
526.25	1274.24
526.61	1279.04
526.97	1284.02
527.33	1288.94
527.68	1294.39
528.04	1299.41
528.40	1303.71
528.76	1308.42
529.12	1312.97
529.48	1317.81
529.84	1321.81
530.20	1325.88
530.56	1330.27
530.91	1335.06
531.27	1339.49
531.63	1343.40
531.99	1347.30
532.35	1351.02
532.71	1354.72
533.07	1358.80
533.42	1362.82
533.78	1366.30
534.14	1370.33
534.50	1373.41
534.86	1377.43
535.21	1380.26
535.57	1383.80
535.93	1387.17
536.29	1390.05
536.65	1393.07
537.00	1395.80
537.36	1398.27
537.72	1400.75
538.08	1402.84
538.44	1405.17
538.79	1407.57
539.15	1410.07
539.51	1412.54
539.87	1415.13
540.22	1417.27
540.58	1420.05
540.94	1422.26
541.29	1424.18
541.65	1425.82
542.01	1428.05
542.37	1429.31
542.72	1430.93
543.08	1432.22
543.44	1434.15
543.79	1435.29
544.15	1436.51
544.51	1438.05
544.87	1440.00
545.22	1441.58
545.58	1443.14
545.94	1443.83
546.29	1444.12
546.65	1444.61
547.01	1444.90
547.36	1445.12
547.72	1445.63
548.07	1445.27
548.43	1445.06
548.79	1444.79
549.14	1444.99
549.50	1444.95
549.86	1444.60
550.21	1444.57
550.57	1444.74
550.92	1444.19
551.28	1444.25
551.64	1443.94
551.99	1443.80
552.35	1443.22
552.70	1442.55
553.06	1442.11
553.41	1441.77
553.77	1442.04
554.13	1441.76
554.48	1441.63
554.84	1441.71
555.19	1441.48
555.55	1441.24
555.90	1440.52
556.26	1440.20
556.61	1439.55
556.97	1438.45
557.32	1438.11
557.68	1437.20
558.03	1436.14
558.39	1435.10
558.74	1434.37
559.10	1433.42
559.45	1432.34
559.81	1431.88
560.16	1430.56
560.52	1429.78
560.87	1428.86
561.23	1426.90
561.58	1426.15
561.94	1424.62
562.29	1422.58
562.64	1421.16
563.00	1419.77
563.35	1418.97
563.71	1418.54
564.06	1417.58
564.42	1417.14
564.77	1416.41
565.12	1416.01
565.48	1415.53
565.83	1414.87
566.19	1414.26
566.54	1413.24
566.89	1411.95
567.25	1411.04
567.60	1410.80
567.96	1409.87
568.31	1408.98
568.66	1408.21
569.02	1406.62
569.37	1405.05
569.72	1404.07
570.08	1402.73
570.43	1401.13
570.78	1399.33
571.14	1396.67
571.49	1394.60
571.84	1392.70
572.20	1390.23
572.55	1387.85
572.90	1385.08
573.26	1382.28
573.61	1379.49
573.96	1376.85
574.31	1374.01
574.67	1370.38
575.02	1366.71
575.37	1363.17
575.72	1359.50
576.08	1356.53
576.43	1353.02
576.78	1349.98
577.13	1346.82
577.49	1343.53
577.84	1340.05
578.19	1336.73
578.54	1334.20
578.90	1331.57
579.25	1328.01
579.60	1324.24
579.95	1320.54
580.30	1317.01
580.66	1314.20
581.01	1310.43
581.36	1306.63
581.71	1302.75
582.06	1299.27
582.42	1295.84
582.77	1291.79
583.12	1287.99
583.47	1284.15
583.82	1280.55
584.17	1276.77
584.53	1272.97
584.88	1268.72
585.23	1264.49
585.58	1260.52
585.93	1256.08
586.28	1251.69
586.63	1247.55
586.98	1243.90
587.34	1240.42
587.69	1236.20
588.04	1231.79
588.39	1227.74
588.74	1223.49
589.09	1220.00
589.44	1215.40
589.79	1211.44
590.14	1207.76
590.49	1203.78
590.84	1199.37
591.19	1195.81
591.54	1191.71
591.89	1186.95
592.25	1182.93
592.60	1178.56
592.95	1174.18
593.30	1169.37
593.65	1164.47
594.00	1159.92
594.35	1156.51
594.70	1151.70
595.05	1147.54
595.40	1143.05
595.75	1138.42
596.10	1134.20
596.45	1129.84
596.80	1126.16
597.15	1122.11
597.50	1117.62
597.85	1113.54
598.19	1109.14
598.54	1104.48
598.89	1100.34
599.24	1096.80
599.59	1092.40
599.94	1088.47
600.29	1084.22
600.64	1080.23
600.99	1076.00
601.34	1071.93
601.69	1066.53
602.04	1062.08
602.39	1057.72
602.74	1053.41
603.08	1049.57
603.43	1045.87
603.78	1041.55
604.13	1037.05
604.48	1032.40
604.83	1028.64
605.18	1024.63
605.53	1020.47
605.87	1016.20
606.22	1012.09
606.57	1007.28
606.92	1002.90
607.27	998.47
607.62	994.36
607.96	990.30
608.31	986.60
608.66	982.34
609.01	977.96
609.36	973.45
609.70	969.01
610.05	964.28
610.40	959.78
610.75	954.95
611.10	950.71
611.44	945.88
611.79	941.20
612.14	936.17
612.49	930.96
612.83	926.36
613.18	921.40
613.53	916.45
613.88	911.50
614.22	906.94
614.57	902.22
614.92	897.50
615.27	892.71
615.61	887.69
615.96	883.02
616.31	878.67
616.65	874.61
617.00	870.12
617.35	866.04
617.70	861.20
618.04	856.45
618.39	851.38
618.74	847.12
619.08	842.62
619.43	838.24
619.78	834.10
620.12	829.94
620.47	825.64
620.82	820.96
621.16	816.48
621.51	811.99
621.85	807.70
622.20	803.12
622.55	798.67
622.89	794.26
623.24	789.95
623.59	785.35
623.93	780.84
624.28	776.64
624.62	772.64
624.97	768.40
625.32	764.26
625.66	760.33
626.01	756.10
626.35	752.24
626.70	748.10
627.04	744.10
627.39	740.05
627.73	736.26
628.08	732.86
628.43	729.29
628.77	725.26
629.12	721.17
629.46	717.63
629.81	713.88
630.15	710.09
630.50	706.19
630.84	702.36
631.19	698.62
631.53	694.92
631.88	690.75
632.22	687.30
632.57	683.90
632.91	680.11
633.26	676.55
633.60	672.76
633.95	669.16
634.29	665.57
634.64	661.99
634.98	658.35
635.32	654.78
635.67	651.46
636.01	648.29
636.36	645.08
636.70	641.79
637.05	638.44
637.39	635.44
637.73	632.54
638.08	629.82
638.42	626.83
638.77	623.80
639.11	620.76
639.45	617.59
639.80	614.26
640.14	611.03
640.49	607.88
640.83	604.84
641.17	601.78
641.52	598.58
641.86	595.32
642.20	592.33
642.55	588.92
642.89	585.85
643.23	582.68
643.58	579.86
643.92	576.52
644.26	573.51
644.61	570.42
644.95	567.25
645.29	563.86
645.64	560.72
645.98	557.59
646.32	554.62
646.66	551.49
647.01	548.60
647.35	545.98
647.69	542.94
648.04	540.20
648.38	537.35
648.72	534.58
649.06	531.69
649.41	528.77
649.75	526.04
650.09	523.28
650.43	520.57
650.78	517.57
651.12	514.80
651.46	511.97
651.80	509.36
652.14	506.75
652.49	504.19
652.83	501.46
653.17	498.63
653.51	495.94
653.85	493.61
654.20	491.06
654.54	488.23
654.88	485.60
655.22	482.85
655.56	480.10
655.90	477.42
656.25	474.92
656.59	472.30
656.93	469.86
657.27	467.42
657.61	464.78
657.95	462.30
658.29	459.94
658.64	457.74
658.98	455.07
659.32	452.45
659.66	449.99
660.00	447.57
660.34	445.22
660.68	442.76
661.02	440.12
661.36	437.74
661.70	435.64
662.05	433.49
662.39	431.50
662.73	429.62
663.07	427.69
663.41	425.67
663.75	423.65
664.09	421.59
664.43	419.34
664.77	417.44
665.11	415.42
665.45	413.36
665.79	411.30
666.13	409.38
666.47	407.43
666.81	405.50
667.15	403.49
667.49	401.76
667.83	400.08
668.17	398.40
668.51	396.68
668.85	394.86
669.19	393.34
669.53	391.48
669.87	389.53
670.21	387.68
670.55	385.97
670.89	384.42
671.23	382.85
671.57	381.27
671.91	379.67
672.25	378.05
672.58	376.64
672.92	374.98
673.26	373.51
673.60	372.00
673.94	370.50
674.28	369.12
674.62	367.55
674.96	366.04
675.30	364.60
675.64	363.03
675.97	361.55
676.31	360.14
676.65	358.69
676.99	357.51
677.33	356.14
677.67	354.76
678.01	353.25
678.34	351.81
678.68	350.53
679.02	349.14
679.36	347.92
679.70	346.52
680.04	345.19
680.37	343.82
680.71	342.66
681.05	341.53
681.39	340.35
681.73	339.12
682.06	337.97
682.40	336.77
682.74	335.61
683.08	334.54
683.42	333.17
683.75	331.91
684.09	330.53
684.43	329.31
684.77	327.97
685.10	326.88
685.44	325.65
685.78	324.32
686.12	323.12
686.45	321.91
686.79	320.66
687.13	319.66
687.46	318.51
687.80	317.33
688.14	316.06
688.48	315.07
688.81	313.93
689.15	312.91
689.49	311.80
689.82	310.75
690.16	309.49
690.50	308.39
690.83	307.43
691.17	306.46
691.51	305.34
691.84	304.42
692.18	303.29
692.52	302.38
692.85	301.58
693.19	300.75
693.52	299.79
693.86	298.84
694.20	297.94
694.53	297.12
694.87	296.13
695.21	295.16
695.54	294.12
695.88	293.22
696.21	292.16
696.55	291.31
696.88	290.41
697.22	289.58
697.56	288.82
697.89	287.87
698.23	287.07
698.56	286.23
698.90	285.49
699.23	284.67
699.57	283.88
699.90	282.95
700.24	282.05
700.58	281.29
700.91	280.57
701.25	279.92
701.58	279.16
701.92	278.41
702.25	277.69
702.59	276.90
702.92	276.25
703.26	275.47
703.59	274.78
703.93	274.39
704.26	273.73
704.60	273.04
704.93	272.38
705.26	271.59
705.60	271.07
705.93	270.26
706.27	269.81
706.60	269.22
706.94	268.81
707.27	268.17
707.61	267.63
707.94	266.99
708.27	266.21
708.61	265.53
708.94	264.97
709.28	264.42
709.61	263.80
709.94	263.28
710.28	262.80
710.61	262.28
710.95	261.41
711.28	261.05
711.61	260.45
711.95	260.01
712.28	259.53
712.61	259.00
712.95	258.73
713.28	258.29
713.61	257.72
713.95	257.05
714.28	256.56
714.61	255.93
714.95	255.45
715.28	254.88
715.61	254.37
715.95	253.97
716.28	253.44
716.61	253.09
716.95	252.57
717.28	252.10
717.61	251.61
717.94	251.16
718.28	250.54
718.61	250.06
718.94	249.58
719.27	249.18
719.61	248.73
719.94	248.22
720.27	247.58
720.60	247.23
720.94	246.85
721.27	246.45
721.60	246.18
721.93	245.80
722.27	245.62
722.60	245.28
722.93	244.92
723.26	244.59
723.59	244.19
723.93	243.80
724.26	243.53
724.59	243.22
724.92	243.01
725.25	242.76
725.59	242.47
725.92	242.21
726.25	241.87
726.58	241.57
726.91	241.25
727.24	241.04
727.57	240.63
727.91	240.35
728.24	240.18
728.57	239.83
728.90	239.65
729.23	239.15
729.56	239.06
729.89	238.76
730.22	238.58
730.55	238.26
730.89	238.04
731.22	237.69
731.55	237.32
731.88	237.02
732.21	236.74
732.54	236.49
732.87	236.24
733.20	235.98
733.53	235.77
733.86	235.59
734.19	235.22
734.52	235.15
734.85	235.01
735.18	234.64
735.51	234.49
735.84	234.29
736.17	234.29
736.50	233.89
736.83	234.09
737.16	233.87
737.49	233.72
737.82	233.45
738.15	233.31
738.48	233.15
738.81	232.88
739.14	232.61
739.47	232.37
739.80	232.16
740.13	231.94
740.46	231.63
740.79	231.32
741.12	231.18
741.45	230.87
741.78	230.58
742.11	230.49
742.44	230.14
742.77	229.93
743.10	229.63
743.43	229.39
743.75	228.81
744.08	229.01
744.41	228.78
744.74	228.58
745.07	228.32
745.40	228.23
745.73	228.22
746.06	228.08
746.39	227.96
746.71	227.72
747.04	227.53
747.37	227.42
747.70	227.31
748.03	227.17
748.36	227.05
748.68	226.87
749.01	226.58
749.34	226.53
749.67	226.34
750.00	226.23
750.33	226.38
750.65	226.20
750.98	225.60
751.31	225.42
751.64	225.27
751.97	225.34
752.29	225.14
752.62	224.80
752.95	224.59
753.28	224.42
753.60	224.29
753.93	224.24
754.26	224.10
754.59	223.85
754.91	223.66
755.24	223.52
755.57	223.39
755.90	223.20
756.22	223.12
756.55	222.90
756.88	222.67
757.20	222.29
757.53	222.12
757.86	222.04
758.19	221.92
758.51	221.80
758.84	221.50
759.17	221.35
759.49	221.25
759.82	221.29
760.15	221.25
760.47	221.08
760.80	220.85
761.13	220.87
761.45	220.83
761.78	220.78
762.11	220.73
762.43	220.57
762.76	220.52
763.08	220.36
763.41	220.39
763.74	220.31
764.06	220.29
764.39	220.22
764.71	220.10
765.04	219.99
765.37	219.85
765.69	219.78
766.02	219.64
766.34	219.52
766.67	219.33
767.00	219.25
767.32	219.40
767.65	219.49
767.97	219.31
768.30	219.20
768.62	219.07
768.95	218.85
769.27	218.76
769.60	218.79
769.92	218.60
770.25	218.47
770.57	218.38
770.90	218.24
771.22	218.14
771.55	218.04
771.87	218.05
772.20	217.99
772.52	218.16
772.85	218.56
773.17	218.47
773.50	218.34
773.82	218.20
774.15	217.98
774.47	217.74
774.80	217.67
775.12	217.64
775.45	217.57
775.77	217.56
776.09	217.51
776.42	217.43
776.74	217.54
777.07	217.48
777.39	217.53
777.72	217.47
778.04	217.42
778.36	217.36
778.69	217.33
779.01	217.39
779.33	217.08
779.66	216.64
779.98	216.65
780.31	216.66
780.63	216.75
780.95	216.72
781.28	216.73
781.60	216.70
781.92	216.66
782.25	216.57
782.57	216.52
782.89	216.51
783.22	216.43
783.54	216.34
783.86	216.27
784.19	216.20
784.51	216.24
784.83	216.18
785.16	216.18
785.48	216.07
785.80	216.02
786.12	215.99
786.45	215.95
786.77	215.92
787.09	215.87
787.42	215.73
787.74	215.72
788.06	215.69
