SpectraSuite Data File
++++++++++++++++++++++++++++++++++++
Date: Mon Feb 25 16:58:06 EST 2013
User: group
Dark Spectrum Present: No
Reference Spectrum Present: No
Number of Sampled Component Spectra: 1
Spectrometers: USB2E7196
Integration Time (usec): 104000 (USB2E7196)
Spectra Averaged: 20 (USB2E7196)
Boxcar Smoothing: 10 (USB2E7196)
Correct for Electrical Dark: No (USB2E7196)
Strobe/Lamp Enabled: No (USB2E7196)
Correct for Detector Non-linearity: No (USB2E7196)
Correct for Stray Light: No (USB2E7196)
Number of Pixels in Processed Spectrum: 2048
>>>>>Begin Processed Spectral Data<<<<<
339.09	0.00
339.48	198.95
339.86	199.60
340.24	201.55
340.63	202.30
341.01	209.95
341.39	204.90
341.78	206.80
342.16	209.90
342.54	208.85
342.93	198.25
343.31	208.23
343.69	208.74
344.07	209.23
344.46	209.71
344.84	210.11
345.22	210.16
345.60	210.47
345.99	210.64
346.37	210.67
346.75	210.75
347.13	210.76
347.52	210.83
347.90	211.03
348.28	211.06
348.66	211.15
349.05	211.01
349.43	211.05
349.81	211.16
350.19	211.23
350.57	211.33
350.96	211.41
351.34	211.61
351.72	211.67
352.10	211.83
352.48	211.84
352.87	211.95
353.25	212.02
353.63	212.07
354.01	212.12
354.39	212.26
354.77	212.37
355.15	212.53
355.54	212.53
355.92	212.51
356.30	212.61
356.68	212.83
357.06	212.96
357.44	213.04
357.82	213.07
358.20	213.11
358.58	213.14
358.97	213.24
359.35	213.28
359.73	213.47
360.11	213.40
360.49	213.42
360.87	213.47
361.25	213.56
361.63	213.70
362.01	213.78
362.39	213.73
362.77	213.75
363.15	213.81
363.53	213.84
363.91	213.86
364.29	213.82
364.67	213.57
365.05	213.56
365.43	213.61
365.81	213.74
366.19	213.94
366.57	214.15
366.95	214.05
367.33	213.95
367.71	213.98
368.09	214.09
368.47	214.15
368.85	214.10
369.23	214.15
369.61	214.05
369.99	214.15
370.37	214.14
370.75	214.31
371.13	214.22
371.51	214.17
371.89	214.18
372.27	214.20
372.65	214.19
373.03	214.18
373.41	214.14
373.78	213.98
374.16	213.71
374.54	213.51
374.92	213.48
375.30	213.52
375.68	213.32
376.06	213.25
376.44	213.24
376.82	213.22
377.19	213.10
377.57	213.02
377.95	212.88
378.33	212.92
378.71	212.72
379.09	212.75
379.47	212.82
379.84	212.71
380.22	212.66
380.60	212.60
380.98	212.60
381.36	212.51
381.73	212.43
382.11	212.50
382.49	212.44
382.87	212.35
383.25	212.30
383.62	212.72
384.00	212.67
384.38	212.55
384.76	212.61
385.13	212.68
385.51	212.56
385.89	212.48
386.27	212.46
386.64	212.42
387.02	212.32
387.40	212.20
387.78	212.18
388.15	212.16
388.53	212.16
388.91	212.06
389.29	211.98
389.66	212.01
390.04	211.96
390.42	212.03
390.79	212.03
391.17	212.00
391.55	211.56
391.92	211.51
392.30	211.52
392.68	211.38
393.05	211.37
393.43	211.46
393.81	211.54
394.18	211.45
394.56	211.40
394.94	211.46
395.31	211.41
395.69	211.52
396.06	211.57
396.44	211.57
396.82	211.62
397.19	211.83
397.57	211.85
397.95	211.88
398.32	211.84
398.70	211.90
399.07	211.97
399.45	212.07
399.82	212.11
400.20	212.14
400.58	212.19
400.95	212.15
401.33	212.27
401.70	212.56
402.08	212.62
402.45	212.82
402.83	213.00
403.20	213.24
403.58	213.30
403.95	213.47
404.33	213.67
404.71	213.80
405.08	214.17
405.46	214.42
405.83	214.69
406.21	214.95
406.58	215.31
406.96	215.65
407.33	216.00
407.70	216.40
408.08	217.12
408.45	217.72
408.83	218.27
409.20	218.74
409.58	219.01
409.95	219.71
410.33	220.34
410.70	220.85
411.08	221.59
411.45	222.44
411.82	223.28
412.20	224.20
412.57	225.38
412.95	226.06
413.32	227.18
413.69	228.32
414.07	229.50
414.44	230.76
414.82	232.07
415.19	233.61
415.56	235.32
415.94	236.83
416.31	238.80
416.68	240.65
417.06	242.87
417.43	245.00
417.81	247.41
418.18	249.84
418.55	252.55
418.93	255.35
419.30	258.25
419.67	261.30
420.04	264.41
420.42	267.70
420.79	271.66
421.16	275.53
421.54	279.62
421.91	283.81
422.28	288.23
422.66	292.90
423.03	297.54
423.40	302.24
423.77	307.41
424.15	312.42
424.52	317.92
424.89	323.76
425.26	329.51
425.64	335.01
426.01	341.09
426.38	347.43
426.75	353.77
427.13	360.42
427.50	367.40
427.87	374.92
428.24	382.28
428.61	389.25
428.99	396.95
429.36	405.42
429.73	413.75
430.10	422.00
430.47	430.50
430.85	439.23
431.22	448.60
431.59	458.51
431.96	468.00
432.33	478.54
432.70	488.89
433.08	500.85
433.45	512.11
433.82	523.47
434.19	536.08
434.56	548.58
434.93	560.63
435.30	572.78
435.68	586.04
436.05	599.33
436.42	612.57
436.79	624.74
437.16	637.84
437.53	651.80
437.90	665.64
438.27	679.33
438.64	693.87
439.01	707.03
439.38	719.03
439.75	730.82
440.13	743.99
440.50	756.45
440.87	767.01
441.24	777.96
441.61	789.92
441.98	798.96
442.35	809.60
442.72	820.16
443.09	830.40
443.46	837.09
443.83	841.88
444.20	846.34
444.57	852.23
444.94	855.44
445.31	858.78
445.68	862.08
446.05	864.11
446.42	863.61
446.79	863.37
447.16	862.48
447.53	862.34
447.90	858.39
448.27	854.41
448.64	848.25
449.01	844.20
449.37	836.01
449.74	828.13
450.11	818.45
450.48	807.95
450.85	796.91
451.22	787.62
451.59	778.80
451.96	770.07
452.33	758.55
452.70	748.17
453.07	735.64
453.43	722.86
453.80	710.56
454.17	698.76
454.54	687.37
454.91	675.24
455.28	663.22
455.65	652.18
456.02	641.20
456.38	631.91
456.75	620.06
457.12	610.28
457.49	600.55
457.86	591.07
458.23	582.91
458.59	574.07
458.96	564.97
459.33	557.02
459.70	549.17
460.07	542.70
460.43	535.36
460.80	528.48
461.17	522.32
461.54	515.90
461.91	509.78
462.27	503.76
462.64	498.76
463.01	493.04
463.38	487.48
463.74	481.78
464.11	476.77
464.48	472.41
464.85	467.64
465.21	464.15
465.58	460.24
465.95	455.54
466.32	451.67
466.68	447.91
467.05	444.00
467.42	440.36
467.78	436.37
468.15	432.55
468.52	429.69
468.88	426.00
469.25	422.78
469.62	420.19
469.98	417.23
470.35	414.44
470.72	411.86
471.08	409.06
471.45	406.78
471.82	404.43
472.18	401.82
472.55	399.98
472.92	397.67
473.28	395.82
473.65	393.96
474.02	392.10
474.38	390.54
474.75	389.25
475.11	387.70
475.48	386.64
475.85	385.67
476.21	384.63
476.58	383.83
476.94	383.16
477.31	382.41
477.67	381.67
478.04	381.10
478.41	380.64
478.77	380.60
479.14	380.06
479.50	379.88
479.87	379.97
480.23	379.95
480.60	380.01
480.96	379.92
481.33	380.43
481.69	380.80
482.06	380.94
482.42	381.06
482.79	381.38
483.15	381.93
483.52	382.75
483.88	383.35
484.25	384.12
484.61	384.92
484.98	385.58
485.34	386.72
485.71	387.95
486.07	389.26
486.44	390.30
486.80	391.80
487.17	393.41
487.53	395.12
487.90	396.94
488.26	398.96
488.62	400.96
488.99	402.80
489.35	404.94
489.72	407.39
490.08	409.96
490.44	412.47
490.81	415.08
491.17	417.54
491.54	420.49
491.90	423.43
492.26	426.42
492.63	429.81
492.99	433.06
493.36	436.55
493.72	440.03
494.08	443.70
494.45	447.57
494.81	451.48
495.17	455.34
495.54	459.50
495.90	463.36
496.26	467.55
496.63	472.01
496.99	476.60
497.35	481.15
497.72	485.80
498.08	490.53
498.44	495.36
498.80	500.63
499.17	505.62
499.53	510.66
499.89	516.01
500.26	521.07
500.62	526.14
500.98	531.48
501.34	536.83
501.71	542.39
502.07	547.71
502.43	553.15
502.79	558.60
503.16	563.98
503.52	569.68
503.88	575.25
504.24	580.84
504.60	586.20
504.97	591.79
505.33	597.18
505.69	603.16
506.05	608.89
506.41	614.23
506.78	619.45
507.14	624.80
507.50	629.95
507.86	635.29
508.22	640.70
508.59	645.65
508.95	650.95
509.31	656.05
509.67	661.17
510.03	666.07
510.39	671.25
510.75	676.17
511.12	681.12
511.48	685.95
511.84	690.59
512.20	695.26
512.56	699.95
512.92	704.83
513.28	709.08
513.64	713.43
514.00	717.76
514.37	722.15
514.73	726.47
515.09	730.80
515.45	734.90
515.81	738.85
516.17	742.65
516.53	746.21
516.89	749.62
517.25	753.04
517.61	756.51
517.97	759.61
518.33	762.72
518.69	765.81
519.05	768.98
519.41	772.01
519.77	775.45
520.13	778.28
520.49	780.87
520.85	783.51
521.21	786.04
521.57	788.68
521.93	791.08
522.29	793.62
522.65	796.15
523.01	798.57
523.37	800.62
523.73	803.05
524.09	805.26
524.45	807.61
524.81	809.88
525.17	812.29
525.53	814.68
525.89	817.09
526.25	819.22
526.61	821.03
526.97	822.91
527.33	824.62
527.68	826.73
528.04	828.73
528.40	830.43
528.76	832.26
529.12	834.30
529.48	836.66
529.84	838.62
530.20	840.28
530.56	842.34
530.91	844.85
531.27	847.05
531.63	849.29
531.99	851.36
532.35	853.27
532.71	855.17
533.07	857.22
533.42	859.60
533.78	861.72
534.14	863.94
534.50	865.97
534.86	868.09
535.21	869.74
535.57	872.10
535.93	874.37
536.29	876.66
536.65	878.72
537.00	880.44
537.36	882.33
537.72	884.42
538.08	886.28
538.44	888.08
538.79	890.00
539.15	892.02
539.51	894.26
539.87	896.56
540.22	898.72
540.58	901.29
540.94	903.28
541.29	905.30
541.65	907.24
542.01	909.52
542.37	911.57
542.72	913.84
543.08	915.46
543.44	917.75
543.79	919.49
544.15	921.50
544.51	923.84
544.87	926.01
545.22	928.10
545.58	930.14
545.94	931.99
546.29	933.92
546.65	935.56
547.01	937.23
547.36	939.12
547.72	940.86
548.07	942.17
548.43	943.38
548.79	944.75
549.14	946.52
549.50	948.25
549.86	949.75
550.21	951.40
550.57	953.41
550.92	954.72
551.28	956.47
551.64	957.83
551.99	959.51
552.35	960.85
552.70	962.16
553.06	963.68
553.41	965.29
553.77	967.00
554.13	968.83
554.48	970.66
554.84	972.48
555.19	974.02
555.55	975.87
555.90	977.43
556.26	979.12
556.61	980.43
556.97	981.48
557.32	982.92
557.68	984.14
558.03	985.24
558.39	986.38
558.74	987.63
559.10	988.85
559.45	990.07
559.81	991.60
560.16	992.83
560.52	994.34
560.87	995.53
561.23	996.18
561.58	997.41
561.94	998.03
562.29	998.61
562.64	999.56
563.00	1000.28
563.35	1001.49
563.71	1002.70
564.06	1003.94
564.42	1005.15
564.77	1006.60
565.12	1007.94
565.48	1009.30
565.83	1010.55
566.19	1011.86
566.54	1012.99
566.89	1013.72
567.25	1014.85
567.60	1016.14
567.96	1016.94
568.31	1018.01
568.66	1018.86
569.02	1019.17
569.37	1019.39
569.72	1019.89
570.08	1020.40
570.43	1020.51
570.78	1020.67
571.14	1020.72
571.49	1020.62
571.84	1020.97
572.20	1020.47
572.55	1020.15
572.90	1019.40
573.26	1018.89
573.61	1018.20
573.96	1017.52
574.31	1016.73
574.67	1015.71
575.02	1014.52
575.37	1013.20
575.72	1011.77
576.08	1011.06
576.43	1009.67
576.78	1008.89
577.13	1007.90
577.49	1006.71
577.84	1005.46
578.19	1004.41
578.54	1003.43
578.90	1002.63
579.25	1000.98
579.60	999.20
579.95	997.50
580.30	996.09
580.66	994.80
581.01	993.15
581.36	991.32
581.71	989.50
582.06	987.81
582.42	985.99
582.77	984.06
583.12	982.30
583.47	980.35
583.82	978.68
584.17	976.93
584.53	975.18
584.88	973.05
585.23	971.19
585.58	968.88
585.93	966.71
586.28	964.46
586.63	962.57
586.98	960.90
587.34	959.26
587.69	957.11
588.04	954.83
588.39	952.81
588.74	950.67
589.09	948.78
589.44	946.30
589.79	944.33
590.14	942.49
590.49	940.36
590.84	938.04
591.19	936.25
591.54	933.78
591.89	930.95
592.25	929.06
592.60	926.61
592.95	924.11
593.30	921.18
593.65	918.23
594.00	915.45
594.35	913.75
594.70	910.85
595.05	908.50
595.40	905.93
595.75	903.05
596.10	900.68
596.45	898.20
596.80	895.91
597.15	893.38
597.50	890.61
597.85	887.95
598.19	885.12
598.54	882.25
598.89	879.68
599.24	877.56
599.59	874.70
599.94	872.08
600.29	869.67
600.64	867.23
600.99	864.82
601.34	862.35
601.69	858.76
602.04	855.86
602.39	853.04
602.74	850.43
603.08	848.19
603.43	845.81
603.78	842.86
604.13	840.06
604.48	837.26
604.83	834.85
605.18	832.31
605.53	829.60
605.87	826.89
606.22	824.21
606.57	821.08
606.92	818.09
607.27	815.15
607.62	812.33
607.96	809.77
608.31	806.97
608.66	803.78
609.01	800.90
609.36	798.25
609.70	795.13
610.05	791.98
610.40	788.90
610.75	785.57
611.10	782.73
611.44	779.19
611.79	775.92
612.14	772.47
612.49	768.99
612.83	765.95
613.18	762.61
613.53	759.22
613.88	755.91
614.22	752.64
614.57	749.51
614.92	746.25
615.27	742.72
615.61	739.39
615.96	736.51
616.31	733.45
616.65	730.42
617.00	727.42
617.35	724.23
617.70	720.79
618.04	717.36
618.39	713.90
618.74	710.97
619.08	707.77
619.43	704.66
619.78	701.65
620.12	698.69
620.47	695.68
620.82	692.31
621.16	689.00
621.51	685.78
621.85	682.66
622.20	679.36
622.55	676.33
622.89	673.14
623.24	669.81
623.59	666.34
623.93	663.06
624.28	660.06
624.62	657.48
624.97	654.53
625.32	651.76
625.66	648.97
626.01	646.03
626.35	643.31
626.70	640.24
627.04	637.34
627.39	634.21
627.73	631.37
628.08	629.01
628.43	626.25
628.77	623.45
629.12	620.47
629.46	617.75
629.81	614.91
630.15	612.10
630.50	609.37
630.84	606.62
631.19	603.92
631.53	601.06
631.88	597.74
632.22	594.83
632.57	592.11
632.91	589.29
633.26	586.53
633.60	583.69
633.95	581.16
634.29	578.45
634.64	576.00
634.98	573.02
635.32	570.17
635.67	567.90
636.01	565.50
636.36	563.03
636.70	560.71
637.05	558.14
637.39	555.77
637.73	553.46
638.08	551.51
638.42	549.16
638.77	546.99
639.11	544.83
639.45	542.62
639.80	539.97
640.14	537.46
640.49	535.15
640.83	532.67
641.17	530.25
641.52	527.82
641.86	525.31
642.20	523.20
642.55	520.75
642.89	518.03
643.23	515.53
643.58	513.32
643.92	510.69
644.26	508.33
644.61	505.96
644.95	503.46
645.29	500.80
645.64	498.38
645.98	495.85
646.32	493.52
646.66	490.97
647.01	488.71
647.35	486.52
647.69	484.24
648.04	482.11
648.38	479.81
648.72	477.62
649.06	475.23
649.41	472.91
649.75	470.75
650.09	468.77
650.43	466.55
650.78	464.10
651.12	461.87
651.46	459.78
651.80	457.80
652.14	455.77
652.49	453.72
652.83	451.65
653.17	449.32
653.51	447.18
653.85	445.29
654.20	443.20
654.54	441.07
654.88	438.91
655.22	436.79
655.56	434.67
655.90	432.48
656.25	430.60
656.59	428.57
656.93	426.54
657.27	424.47
657.61	422.38
657.95	420.60
658.29	418.68
658.64	416.74
658.98	414.70
659.32	412.52
659.66	410.46
660.00	408.45
660.34	406.64
660.68	404.58
661.02	402.57
661.36	400.82
661.70	398.98
662.05	397.20
662.39	395.57
662.73	394.07
663.07	392.49
663.41	390.74
663.75	388.89
664.09	387.27
664.43	385.63
664.77	384.03
665.11	382.31
665.45	380.75
665.79	379.22
666.13	377.46
666.47	375.94
666.81	374.52
667.15	372.92
667.49	371.54
667.83	370.26
668.17	368.79
668.51	367.35
668.85	366.06
669.19	364.83
669.53	363.28
669.87	361.61
670.21	360.20
670.55	358.75
670.89	357.71
671.23	356.44
671.57	355.17
671.91	353.99
672.25	352.74
672.58	351.53
672.92	350.12
673.26	349.05
673.60	347.82
673.94	346.53
674.28	345.44
674.62	344.24
674.96	342.98
675.30	341.88
675.64	340.64
675.97	339.33
676.31	338.05
676.65	336.83
676.99	335.93
677.33	334.81
677.67	333.76
678.01	332.41
678.34	331.30
678.68	330.17
679.02	328.90
679.36	327.72
679.70	326.57
680.04	325.50
680.37	324.30
680.71	323.22
681.05	322.16
681.39	321.03
681.73	319.82
682.06	318.74
682.40	317.75
682.74	316.79
683.08	315.90
683.42	314.82
683.75	313.89
684.09	312.74
684.43	311.75
684.77	310.63
685.10	309.65
685.44	308.56
685.78	307.47
686.12	306.65
686.45	305.69
686.79	304.64
687.13	303.81
687.46	302.88
687.80	302.11
688.14	301.14
688.48	300.35
688.81	299.54
689.15	298.67
689.49	297.68
689.82	296.85
690.16	295.72
690.50	294.86
690.83	293.86
691.17	292.98
691.51	292.00
691.84	291.21
692.18	290.39
692.52	289.59
692.85	288.91
693.19	288.18
693.52	287.40
693.86	286.61
694.20	285.77
694.53	285.04
694.87	284.07
695.21	283.27
695.54	282.39
695.88	281.54
696.21	280.72
696.55	279.99
696.88	279.17
697.22	278.51
697.56	277.90
697.89	277.30
698.23	276.59
698.56	275.95
698.90	275.34
699.23	274.70
699.57	274.04
699.90	273.22
700.24	272.44
700.58	271.79
700.91	271.21
701.25	270.81
701.58	270.27
701.92	269.84
702.25	269.25
702.59	268.59
702.92	268.06
703.26	267.47
703.59	266.84
703.93	266.52
704.26	265.95
704.60	265.31
704.93	264.67
705.26	264.08
705.60	263.54
705.93	262.89
706.27	262.46
706.60	262.01
706.94	261.63
707.27	261.00
707.61	260.50
707.94	259.90
708.27	259.17
708.61	258.53
708.94	257.94
709.28	257.48
709.61	256.98
709.94	256.54
710.28	256.06
710.61	255.72
710.95	255.03
711.28	254.82
711.61	254.37
711.95	254.05
712.28	253.57
712.61	253.20
712.95	253.05
713.28	252.62
713.61	252.06
713.95	251.59
714.28	251.32
714.61	250.86
714.95	250.45
715.28	249.95
715.61	249.52
715.95	249.16
716.28	248.67
716.61	248.30
716.95	247.82
717.28	247.47
717.61	247.05
717.94	246.66
718.28	246.05
718.61	245.74
718.94	245.29
719.27	245.00
719.61	244.70
719.94	244.26
720.27	243.79
720.60	243.51
720.94	243.10
721.27	242.76
721.60	242.48
721.93	242.30
722.27	242.20
722.60	241.99
722.93	241.68
723.26	241.47
723.59	241.13
723.93	240.99
724.26	240.80
724.59	240.52
724.92	240.25
725.25	240.12
725.59	239.79
725.92	239.61
726.25	239.35
726.58	239.10
726.91	238.78
727.24	238.59
727.57	238.31
727.91	238.11
728.24	237.94
728.57	237.66
728.90	237.39
729.23	236.96
729.56	236.87
729.89	236.58
730.22	236.31
730.55	236.08
730.89	235.75
731.22	235.39
731.55	235.05
731.88	234.85
732.21	234.58
732.54	234.31
732.87	234.03
733.20	233.79
733.53	233.57
733.86	233.33
734.19	233.12
734.52	232.98
734.85	233.00
735.18	232.65
735.51	232.52
735.84	232.26
736.17	232.14
736.50	231.71
736.83	231.93
737.16	231.69
737.49	231.53
737.82	231.32
738.15	231.22
738.48	231.12
738.81	230.90
739.14	230.68
739.47	230.47
739.80	230.26
740.13	230.11
740.46	229.74
740.79	229.56
741.12	229.36
741.45	229.06
741.78	228.71
742.11	228.63
742.44	228.39
742.77	228.27
743.10	228.05
743.43	227.90
743.75	227.37
744.08	227.69
744.41	227.45
744.74	227.23
745.07	226.97
745.40	226.90
745.73	226.90
746.06	226.79
746.39	226.63
746.71	226.47
747.04	226.25
747.37	226.14
747.70	225.99
748.03	225.77
748.36	225.70
748.68	225.47
749.01	225.22
749.34	225.11
749.67	225.02
750.00	224.98
750.33	225.08
750.65	224.98
750.98	224.39
751.31	224.28
751.64	224.11
751.97	224.20
752.29	223.94
752.62	223.65
752.95	223.31
753.28	223.16
753.60	223.02
753.93	223.02
754.26	222.94
754.59	222.71
754.91	222.58
755.24	222.50
755.57	222.36
755.90	222.23
756.22	222.06
756.55	221.89
756.88	221.62
757.20	221.30
757.53	221.05
757.86	220.91
758.19	220.83
758.51	220.80
758.84	220.51
759.17	220.44
759.49	220.40
759.82	220.58
760.15	220.54
760.47	220.40
760.80	220.19
761.13	220.18
761.45	220.09
761.78	220.02
762.11	219.93
762.43	219.80
762.76	219.70
763.08	219.72
763.41	219.69
763.74	219.64
764.06	219.52
764.39	219.47
764.71	219.40
765.04	219.33
765.37	219.25
765.69	219.11
766.02	218.98
766.34	218.82
766.67	218.62
767.00	218.58
767.32	218.72
767.65	218.87
767.97	218.67
768.30	218.59
768.62	218.54
768.95	218.35
769.27	218.35
769.60	218.36
769.92	218.22
770.25	218.04
770.57	217.98
770.90	217.93
771.22	217.81
771.55	217.82
771.87	217.74
772.20	217.66
772.52	217.96
772.85	218.27
773.17	218.25
773.50	218.14
773.82	218.02
774.15	217.78
774.47	217.51
774.80	217.41
775.12	217.35
775.45	217.27
775.77	217.24
776.09	217.24
776.42	217.10
776.74	217.15
777.07	217.09
777.39	217.03
777.72	216.90
778.04	216.89
778.36	216.74
778.69	216.70
779.01	216.57
779.33	216.22
779.66	215.90
779.98	215.80
780.31	215.74
780.63	215.81
780.95	215.81
781.28	215.76
781.60	215.69
781.92	215.68
782.25	215.63
782.57	215.53
782.89	215.42
783.22	215.45
783.54	215.28
783.86	215.31
784.19	215.27
784.51	215.41
784.83	215.36
785.16	215.34
785.48	215.26
785.80	215.33
786.12	215.27
786.45	215.16
786.77	215.11
787.09	215.09
787.42	215.01
787.74	214.94
788.06	214.90
788.38	214.92
788.71	214.80
789.03	214.74
789.35	214.76
789.67	214.70
789.99	214.61
790.32	214.60
790.64	214.55
790.96	214.75
791.28	214.58
791.61	214.59
791.93	214.57
792.25	214.52
792.57	214.64
792.89	214.59
793.21	214.60
