SpectraSuite Data File
++++++++++++++++++++++++++++++++++++
Date: Mon Feb 25 16:57:05 EST 2013
User: group
Dark Spectrum Present: No
Reference Spectrum Present: No
Number of Sampled Component Spectra: 1
Spectrometers: USB2E7196
Integration Time (usec): 104000 (USB2E7196)
Spectra Averaged: 20 (USB2E7196)
Boxcar Smoothing: 10 (USB2E7196)
Correct for Electrical Dark: No (USB2E7196)
Strobe/Lamp Enabled: No (USB2E7196)
Correct for Detector Non-linearity: No (USB2E7196)
Correct for Stray Light: No (USB2E7196)
Number of Pixels in Processed Spectrum: 2048
>>>>>Begin Processed Spectral Data<<<<<
339.09	0.00
339.48	198.10
339.86	201.10
340.24	201.65
340.63	202.45
341.01	208.45
341.39	205.15
341.78	206.90
342.16	207.75
342.54	208.55
342.93	198.11
343.31	208.09
343.69	208.65
344.07	209.05
344.46	209.50
344.84	209.91
345.22	210.02
345.60	210.33
345.99	210.53
346.37	210.75
346.75	210.81
347.13	210.91
347.52	210.97
347.90	211.15
348.28	211.18
348.66	211.25
349.05	211.12
349.43	211.27
349.81	211.32
350.19	211.44
350.57	211.46
350.96	211.44
351.34	211.59
351.72	211.71
352.10	211.87
352.48	211.90
352.87	211.95
353.25	212.05
353.63	212.06
354.01	212.16
354.39	212.24
354.77	212.35
355.15	212.52
355.54	212.55
355.92	212.53
356.30	212.57
356.68	212.83
357.06	213.02
357.44	213.04
357.82	213.14
358.20	213.24
358.58	213.29
358.97	213.43
359.35	213.60
359.73	213.71
360.11	213.78
360.49	213.95
360.87	214.02
361.25	214.08
361.63	214.26
362.01	214.30
362.39	214.34
362.77	214.46
363.15	214.52
363.53	214.56
363.91	214.57
364.29	214.61
364.67	214.40
365.05	214.40
365.43	214.45
365.81	214.48
366.19	214.61
366.57	214.84
366.95	214.82
367.33	214.65
367.71	214.61
368.09	214.63
368.47	214.54
368.85	214.51
369.23	214.60
369.61	214.48
369.99	214.60
370.37	214.56
370.75	214.68
371.13	214.51
371.51	214.38
371.89	214.35
372.27	214.39
372.65	214.40
373.03	214.34
373.41	214.31
373.78	214.27
374.16	214.02
374.54	213.75
374.92	213.68
375.30	213.63
375.68	213.52
376.06	213.45
376.44	213.40
376.82	213.39
377.19	213.29
377.57	213.23
377.95	213.00
378.33	212.89
378.71	212.63
379.09	212.67
379.47	212.65
379.84	212.64
380.22	212.53
380.60	212.44
380.98	212.41
381.36	212.31
381.73	212.21
382.11	212.26
382.49	212.16
382.87	212.12
383.25	212.12
383.62	212.47
384.00	212.38
384.38	212.35
384.76	212.35
385.13	212.47
385.51	212.44
385.89	212.39
386.27	212.38
386.64	212.43
387.02	212.33
387.40	212.37
387.78	212.30
388.15	212.24
388.53	212.18
388.91	212.16
389.29	212.10
389.66	212.15
390.04	212.10
390.42	212.21
390.79	212.18
391.17	212.18
391.55	211.83
391.92	211.80
392.30	211.81
392.68	211.81
393.05	211.71
393.43	211.73
393.81	211.72
394.18	211.66
394.56	211.61
394.94	211.75
395.31	211.66
395.69	211.85
396.06	211.91
396.44	211.97
396.82	211.95
397.19	212.16
397.57	212.22
397.95	212.30
398.32	212.23
398.70	212.33
399.07	212.48
399.45	212.49
399.82	212.61
400.20	212.66
400.58	212.73
400.95	212.75
401.33	212.90
401.70	213.32
402.08	213.55
402.45	213.68
402.83	213.86
403.20	214.07
403.58	214.20
403.95	214.58
404.33	214.84
404.71	215.06
405.08	215.48
405.46	215.71
405.83	216.05
406.21	216.39
406.58	216.76
406.96	217.07
407.33	217.45
407.70	217.85
408.08	218.59
408.45	219.09
408.83	219.68
409.20	220.17
409.58	220.56
409.95	221.19
410.33	221.98
410.70	222.69
411.08	223.62
411.45	224.51
411.82	225.30
412.20	226.27
412.57	227.58
412.95	228.39
413.32	229.60
413.69	230.82
414.07	232.28
414.44	233.75
414.82	235.34
415.19	237.26
415.56	239.15
415.94	240.95
416.31	243.14
416.68	245.37
417.06	247.91
417.43	250.43
417.81	253.25
418.18	256.13
418.55	259.13
418.93	262.22
419.30	265.54
419.67	269.18
420.04	272.86
420.42	276.65
420.79	281.23
421.16	285.76
421.54	290.48
421.91	295.27
422.28	300.32
422.66	305.72
423.03	311.05
423.40	316.65
423.77	322.62
424.15	328.53
424.52	334.69
424.89	341.57
425.26	348.14
425.64	354.55
426.01	361.46
426.38	368.73
426.75	376.27
427.13	384.00
427.50	392.07
427.87	400.49
428.24	408.95
428.61	416.93
428.99	425.95
429.36	435.65
429.73	445.25
430.10	454.80
430.47	464.65
430.85	474.87
431.22	485.49
431.59	496.91
431.96	508.08
432.33	520.30
432.70	532.02
433.08	545.98
433.45	559.07
433.82	572.32
434.19	587.01
434.56	601.29
434.93	615.26
435.30	629.20
435.68	644.75
436.05	660.05
436.42	675.52
436.79	689.57
437.16	704.78
437.53	720.87
437.90	737.00
438.27	752.91
438.64	769.60
439.01	785.10
439.38	798.83
439.75	812.23
440.13	827.58
440.50	842.27
440.87	854.43
441.24	867.10
441.61	880.99
441.98	891.74
442.35	904.14
442.72	916.26
443.09	928.09
443.46	935.70
443.83	941.37
444.20	946.32
444.57	953.15
444.94	956.95
445.31	961.12
445.68	964.63
446.05	966.95
446.42	966.46
446.79	966.00
447.16	965.20
447.53	965.05
447.90	960.33
448.27	955.60
448.64	948.48
449.01	943.50
449.37	933.80
449.74	924.55
450.11	913.35
450.48	901.24
450.85	888.68
451.22	878.06
451.59	867.91
451.96	858.36
452.33	844.82
452.70	832.90
453.07	818.03
453.43	803.49
453.80	789.16
454.17	775.45
454.54	762.40
454.91	748.53
455.28	734.81
455.65	722.30
456.02	709.36
456.38	698.56
456.75	684.96
457.12	673.80
457.49	662.56
457.86	651.65
458.23	642.18
458.59	631.90
458.96	621.36
459.33	612.17
459.70	602.82
460.07	595.59
460.43	587.00
460.80	579.12
461.17	572.10
461.54	564.79
461.91	557.70
462.27	550.58
462.64	544.74
463.01	537.93
463.38	531.42
463.74	525.09
464.11	519.42
464.48	514.50
464.85	509.13
465.21	504.98
465.58	500.60
465.95	495.24
466.32	490.77
466.68	486.45
467.05	481.94
467.42	477.33
467.78	472.87
468.15	468.67
468.52	465.60
468.88	461.37
469.25	457.56
469.62	454.59
469.98	451.25
470.35	447.87
470.72	444.94
471.08	441.69
471.45	439.01
471.82	436.24
472.18	433.22
472.55	430.87
472.92	428.22
473.28	425.83
473.65	423.66
474.02	421.63
474.38	419.93
474.75	418.48
475.11	416.92
475.48	415.48
475.85	414.27
476.21	412.88
476.58	411.93
476.94	411.18
477.31	410.34
477.67	409.68
478.04	409.17
478.41	408.93
478.77	408.91
479.14	408.40
479.50	408.24
479.87	408.40
480.23	408.59
480.60	408.52
480.96	408.58
481.33	409.24
481.69	409.60
482.06	410.05
482.42	410.37
482.79	410.93
483.15	411.75
483.52	412.86
483.88	413.87
484.25	414.74
484.61	415.85
484.98	416.84
485.34	418.24
485.71	419.71
486.07	421.29
486.44	422.69
486.80	424.51
487.17	426.44
487.53	428.64
487.90	430.98
488.26	433.55
488.62	436.19
488.99	438.65
489.35	441.34
489.72	444.21
490.08	447.28
490.44	450.35
490.81	453.61
491.17	456.75
491.54	460.27
491.90	464.01
492.26	467.87
492.63	471.91
492.99	475.94
493.36	480.24
493.72	484.73
494.08	489.38
494.45	494.33
494.81	499.33
495.17	504.24
495.54	509.43
495.90	514.76
496.26	520.21
496.63	525.81
496.99	531.74
497.35	537.77
497.72	543.95
498.08	550.10
498.44	556.32
498.80	562.98
499.17	569.83
499.53	576.66
499.89	583.63
500.26	590.69
500.62	597.43
500.98	604.55
501.34	611.57
501.71	618.95
502.07	626.27
502.43	633.53
502.79	640.82
503.16	648.23
503.52	655.78
503.88	663.34
504.24	670.90
504.60	678.29
504.97	685.89
505.33	693.40
505.69	701.52
506.05	709.48
506.41	717.09
506.78	724.33
507.14	731.91
507.50	739.35
507.86	746.86
508.22	754.65
508.59	762.13
508.95	769.76
509.31	777.14
509.67	784.61
510.03	792.03
510.39	799.78
510.75	807.42
511.12	814.52
511.48	821.68
511.84	829.08
512.20	836.24
512.56	843.51
512.92	850.67
513.28	857.62
513.64	864.18
514.00	870.83
514.37	877.62
514.73	884.46
515.09	891.19
515.45	897.58
515.81	903.94
516.17	910.02
516.53	916.04
516.89	921.98
517.25	927.71
517.61	933.36
517.97	938.75
518.33	943.80
518.69	949.45
519.05	954.82
519.41	960.01
519.77	965.54
520.13	970.30
520.49	974.88
520.85	979.35
521.21	984.36
521.57	989.24
521.93	993.48
522.29	997.87
522.65	1002.25
523.01	1006.57
523.37	1010.33
523.73	1014.70
524.09	1018.70
524.45	1022.73
524.81	1026.60
525.17	1031.02
525.53	1034.95
525.89	1039.02
526.25	1042.51
526.61	1045.72
526.97	1048.90
527.33	1052.09
527.68	1055.85
528.04	1059.41
528.40	1062.56
528.76	1065.52
529.12	1068.70
529.48	1072.23
529.84	1075.12
530.20	1077.98
530.56	1080.93
530.91	1084.45
531.27	1087.38
531.63	1090.62
531.99	1093.52
532.35	1096.52
532.71	1098.97
533.07	1101.92
533.42	1104.74
533.78	1107.93
534.14	1110.98
534.50	1113.56
534.86	1116.30
535.21	1118.25
535.57	1121.08
535.93	1123.58
536.29	1126.15
536.65	1128.41
537.00	1130.65
537.36	1132.83
537.72	1135.00
538.08	1137.39
538.44	1139.41
538.79	1141.70
539.15	1143.62
539.51	1145.94
539.87	1148.20
540.22	1150.42
540.58	1152.84
540.94	1154.89
541.29	1156.51
541.65	1158.15
542.01	1160.03
542.37	1161.87
542.72	1163.93
543.08	1165.39
543.44	1167.68
543.79	1168.93
544.15	1170.50
544.51	1172.34
544.87	1174.57
545.22	1176.33
545.58	1177.75
545.94	1178.87
546.29	1179.96
546.65	1180.87
547.01	1181.70
547.36	1182.37
547.72	1183.68
548.07	1184.14
548.43	1184.67
548.79	1185.25
549.14	1186.03
549.50	1186.90
549.86	1187.33
550.21	1187.97
550.57	1188.95
550.92	1189.21
551.28	1190.11
551.64	1190.71
551.99	1191.45
552.35	1191.60
552.70	1191.85
553.06	1192.66
553.41	1193.48
553.77	1194.47
554.13	1195.53
554.48	1196.70
554.84	1198.04
555.19	1198.27
555.55	1199.20
555.90	1199.58
556.26	1200.05
556.61	1200.62
556.97	1200.87
557.32	1201.61
557.68	1201.69
558.03	1201.58
558.39	1201.54
558.74	1201.75
559.10	1202.02
559.45	1201.85
559.81	1202.26
560.16	1202.18
560.52	1201.94
560.87	1202.11
561.23	1201.36
561.58	1201.39
561.94	1200.80
562.29	1199.72
562.64	1199.52
563.00	1199.15
563.35	1199.41
563.71	1199.85
564.06	1199.84
564.42	1200.28
564.77	1200.40
565.12	1200.93
565.48	1201.21
565.83	1201.50
566.19	1202.02
566.54	1201.85
566.89	1201.84
567.25	1201.83
567.60	1202.18
567.96	1202.49
568.31	1202.66
568.66	1202.89
569.02	1202.28
569.37	1201.65
569.72	1201.75
570.08	1201.37
570.43	1200.77
570.78	1200.08
571.14	1198.80
571.49	1197.73
571.84	1196.68
572.20	1195.26
572.55	1193.89
572.90	1192.16
573.26	1190.69
573.61	1188.58
573.96	1187.06
574.31	1185.08
574.67	1182.83
575.02	1180.56
575.37	1178.02
575.72	1175.16
576.08	1172.93
576.43	1170.51
576.78	1168.33
577.13	1166.01
577.49	1163.66
577.84	1161.20
578.19	1158.89
578.54	1157.22
578.90	1155.44
579.25	1152.94
579.60	1150.25
579.95	1147.44
580.30	1145.12
580.66	1142.93
581.01	1140.45
581.36	1137.60
581.71	1134.89
582.06	1132.24
582.42	1129.60
582.77	1126.62
583.12	1123.96
583.47	1121.14
583.82	1118.56
584.17	1115.64
584.53	1112.94
584.88	1109.84
585.23	1106.90
585.58	1103.74
585.93	1100.42
586.28	1097.40
586.63	1094.45
586.98	1091.65
587.34	1089.15
587.69	1086.00
588.04	1082.58
588.39	1079.65
588.74	1076.59
589.09	1073.92
589.44	1070.55
589.79	1067.58
590.14	1064.72
590.49	1061.64
590.84	1058.45
591.19	1055.55
591.54	1052.75
591.89	1048.90
592.25	1045.96
592.60	1042.37
592.95	1038.90
593.30	1035.06
593.65	1030.86
594.00	1026.99
594.35	1024.24
594.70	1020.32
595.05	1016.96
595.40	1013.60
595.75	1009.68
596.10	1006.40
596.45	1002.94
596.80	999.76
597.15	996.48
597.50	992.82
597.85	989.37
598.19	985.88
598.54	982.26
598.89	978.63
599.24	975.87
599.59	972.18
599.94	968.92
600.29	965.44
600.64	962.05
600.99	958.68
601.34	955.47
601.69	951.07
602.04	947.45
602.39	943.67
602.74	940.10
603.08	936.90
603.43	933.74
603.78	929.94
604.13	926.41
604.48	922.71
604.83	919.80
605.18	916.72
605.53	913.38
605.87	909.64
606.22	906.33
606.57	902.38
606.92	898.56
607.27	895.14
607.62	891.65
607.96	888.40
608.31	885.21
608.66	881.74
609.01	878.14
609.36	874.61
609.70	870.96
610.05	866.96
610.40	863.29
610.75	859.24
611.10	855.73
611.44	851.37
611.79	847.36
612.14	843.04
612.49	838.66
612.83	834.64
613.18	830.65
613.53	826.54
613.88	822.40
614.22	818.59
614.57	814.38
614.92	810.48
615.27	806.36
615.61	802.20
615.96	798.19
616.31	794.49
616.65	790.96
617.00	787.36
617.35	783.81
617.70	779.85
618.04	775.68
618.39	771.49
618.74	768.13
619.08	764.31
619.43	760.66
619.78	756.96
620.12	753.33
620.47	749.68
620.82	745.70
621.16	741.99
621.51	738.38
621.85	734.67
622.20	730.77
622.55	726.93
622.89	723.26
623.24	719.54
623.59	715.70
623.93	711.75
624.28	708.16
624.62	704.70
624.97	701.25
625.32	697.87
625.66	694.44
626.01	690.79
626.35	687.27
626.70	683.70
627.04	680.33
627.39	676.90
627.73	673.56
628.08	670.61
628.43	667.25
628.77	663.85
629.12	660.46
629.46	657.42
629.81	654.28
630.15	650.99
630.50	647.67
630.84	644.36
631.19	641.20
631.53	638.03
631.88	634.50
632.22	631.17
632.57	628.18
632.91	625.10
633.26	622.01
633.60	619.11
633.95	616.19
634.29	613.10
634.64	610.15
634.98	606.94
635.32	603.80
635.67	601.15
636.01	598.28
636.36	595.38
636.70	592.51
637.05	589.68
637.39	586.87
637.73	584.24
638.08	581.89
638.42	579.29
638.77	576.62
639.11	573.90
639.45	571.34
639.80	568.38
640.14	565.63
640.49	563.07
640.83	560.12
641.17	557.43
641.52	554.75
641.86	551.82
642.20	549.38
642.55	546.56
642.89	543.61
643.23	540.90
643.58	538.55
643.92	535.88
644.26	533.22
644.61	530.56
644.95	527.82
645.29	524.98
645.64	522.28
645.98	519.49
646.32	517.07
646.66	514.31
647.01	511.86
647.35	509.36
647.69	506.61
648.04	504.33
648.38	501.71
648.72	499.29
649.06	496.87
649.41	494.37
649.75	491.80
650.09	489.57
650.43	487.07
650.78	484.46
651.12	481.99
651.46	479.60
651.80	477.49
652.14	475.25
652.49	473.01
652.83	470.74
653.17	468.24
653.51	465.90
653.85	463.68
654.20	461.36
654.54	458.89
654.88	456.66
655.22	454.28
655.56	451.96
655.90	449.61
656.25	447.29
656.59	445.00
656.93	442.89
657.27	440.69
657.61	438.43
657.95	436.30
658.29	434.15
658.64	432.12
658.98	429.94
659.32	427.72
659.66	425.58
660.00	423.28
660.34	421.38
660.68	419.31
661.02	417.15
661.36	415.21
661.70	413.34
662.05	411.30
662.39	409.51
662.73	407.73
663.07	406.06
663.41	404.36
663.75	402.46
664.09	400.67
664.43	398.70
664.77	396.92
665.11	395.10
665.45	393.28
665.79	391.55
666.13	389.69
666.47	388.05
666.81	386.20
667.15	384.57
667.49	383.00
667.83	381.39
668.17	379.77
668.51	378.32
668.85	376.84
669.19	375.56
669.53	373.84
669.87	372.25
670.21	370.54
670.55	368.85
670.89	367.65
671.23	366.28
671.57	364.85
671.91	363.48
672.25	362.06
672.58	360.82
672.92	359.28
673.26	357.91
673.60	356.46
673.94	355.15
674.28	353.79
674.62	352.50
674.96	351.18
675.30	349.94
675.64	348.49
675.97	347.16
676.31	345.78
676.65	344.61
676.99	343.64
677.33	342.40
677.67	341.25
678.01	339.78
678.34	338.51
678.68	337.45
679.02	336.20
679.36	335.05
679.70	333.75
680.04	332.59
680.37	331.44
680.71	330.25
681.05	329.17
681.39	328.02
681.73	326.84
682.06	325.81
682.40	324.83
682.74	323.88
683.08	322.90
683.42	321.79
683.75	320.72
684.09	319.43
684.43	318.44
684.77	317.30
685.10	316.21
685.44	315.07
685.78	313.97
686.12	313.09
686.45	312.03
686.79	311.16
687.13	310.31
687.46	309.42
687.80	308.58
688.14	307.57
688.48	306.73
688.81	305.81
689.15	304.88
689.49	303.75
689.82	302.74
690.16	301.63
690.50	300.69
690.83	299.72
691.17	298.79
691.51	297.83
691.84	296.93
692.18	296.11
692.52	295.25
692.85	294.52
693.19	293.79
693.52	292.89
693.86	291.91
694.20	291.07
694.53	290.20
694.87	289.29
695.21	288.37
695.54	287.47
695.88	286.50
696.21	285.54
696.55	284.77
696.88	283.97
697.22	283.24
697.56	282.48
697.89	281.68
698.23	280.89
698.56	280.12
698.90	279.49
699.23	278.74
699.57	278.07
699.90	277.20
700.24	276.23
700.58	275.57
700.91	274.98
701.25	274.43
701.58	273.82
701.92	273.16
702.25	272.53
702.59	271.90
702.92	271.31
703.26	270.64
703.59	270.06
703.93	269.72
704.26	269.15
704.60	268.60
704.93	267.96
705.26	267.25
705.60	266.63
705.93	265.90
706.27	265.42
706.60	264.91
706.94	264.51
707.27	263.95
707.61	263.40
707.94	262.78
708.27	261.96
708.61	261.27
708.94	260.75
709.28	260.27
709.61	259.73
709.94	259.23
710.28	258.84
710.61	258.46
710.95	257.60
711.28	257.31
711.61	256.78
711.95	256.40
712.28	256.01
712.61	255.59
712.95	255.40
713.28	255.09
713.61	254.57
713.95	253.97
714.28	253.55
714.61	253.14
714.95	252.65
715.28	252.21
715.61	251.76
715.95	251.32
716.28	250.79
716.61	250.44
716.95	249.91
717.28	249.46
717.61	248.95
717.94	248.55
718.28	247.88
718.61	247.48
718.94	247.13
719.27	246.76
719.61	246.38
719.94	245.91
720.27	245.34
720.60	245.02
720.94	244.70
721.27	244.43
721.60	244.04
721.93	243.73
722.27	243.63
722.60	243.41
722.93	243.02
723.26	242.79
723.59	242.42
723.93	242.17
724.26	241.93
724.59	241.56
724.92	241.30
725.25	241.11
725.59	240.79
725.92	240.49
726.25	240.20
726.58	239.89
726.91	239.59
727.24	239.30
727.57	238.91
727.91	238.57
728.24	238.32
728.57	238.00
728.90	237.75
729.23	237.32
729.56	237.21
729.89	236.99
730.22	236.72
730.55	236.43
730.89	236.27
731.22	235.97
731.55	235.75
731.88	235.52
732.21	235.17
732.54	234.90
732.87	234.59
733.20	234.37
733.53	234.24
733.86	234.02
734.19	233.74
734.52	233.58
734.85	233.58
735.18	233.26
735.51	233.20
735.84	233.00
736.17	232.86
736.50	232.42
736.83	232.63
737.16	232.39
737.49	232.29
737.82	232.01
738.15	231.87
738.48	231.66
738.81	231.49
739.14	231.32
739.47	231.13
739.80	230.96
740.13	230.87
740.46	230.55
740.79	230.28
741.12	230.09
741.45	229.87
741.78	229.45
742.11	229.31
742.44	229.07
742.77	228.95
743.10	228.67
743.43	228.58
743.75	227.99
744.08	228.28
744.41	228.00
744.74	227.79
745.07	227.60
745.40	227.48
745.73	227.45
746.06	227.26
746.39	227.15
746.71	227.00
747.04	226.73
747.37	226.59
747.70	226.50
748.03	226.40
748.36	226.28
748.68	226.27
749.01	226.10
749.34	225.86
749.67	225.69
750.00	225.60
750.33	225.65
750.65	225.56
750.98	225.01
751.31	224.88
751.64	224.71
751.97	224.70
752.29	224.54
752.62	224.16
752.95	223.94
753.28	223.72
753.60	223.52
753.93	223.54
754.26	223.51
754.59	223.28
754.91	223.13
755.24	223.04
755.57	222.77
755.90	222.67
756.22	222.58
756.55	222.43
756.88	222.31
757.20	221.97
757.53	221.74
757.86	221.60
758.19	221.51
758.51	221.46
758.84	221.17
759.17	221.08
759.49	221.07
759.82	221.26
760.15	221.21
760.47	221.15
760.80	220.82
761.13	220.66
761.45	220.55
761.78	220.46
762.11	220.36
762.43	220.34
762.76	220.20
763.08	220.10
763.41	220.00
763.74	219.93
764.06	219.86
764.39	219.81
764.71	219.75
765.04	219.66
765.37	219.50
765.69	219.43
766.02	219.33
766.34	219.21
766.67	218.90
767.00	218.83
767.32	218.94
767.65	219.10
767.97	219.00
768.30	218.90
768.62	218.80
768.95	218.70
769.27	218.60
769.60	218.58
769.92	218.47
770.25	218.38
770.57	218.18
770.90	218.06
771.22	217.95
771.55	217.83
771.87	217.81
772.20	217.78
772.52	218.00
772.85	218.28
773.17	218.29
773.50	218.30
773.82	218.21
774.15	217.97
774.47	217.71
774.80	217.67
775.12	217.58
775.45	217.57
775.77	217.49
776.09	217.39
776.42	217.33
776.74	217.37
777.07	217.27
777.39	217.32
777.72	217.28
778.04	217.24
778.36	217.24
778.69	217.17
779.01	217.15
779.33	216.77
779.66	216.36
779.98	216.21
780.31	216.10
780.63	216.25
780.95	216.22
781.28	216.12
781.60	216.01
781.92	216.08
782.25	216.04
782.57	215.98
782.89	215.97
783.22	215.87
783.54	215.78
783.86	215.75
784.19	215.63
784.51	215.65
784.83	215.62
785.16	215.56
785.48	215.47
785.80	215.42
786.12	215.47
786.45	215.40
786.77	215.34
787.09	215.35
787.42	215.17
787.74	215.21
788.06	215.26
788.38	215.22
788.71	215.08
789.03	214.99
789.35	215.05
789.67	215.07
