SpectraSuite Data File
++++++++++++++++++++++++++++++++++++
Date: Mon Feb 25 17:12:59 EST 2013
User: group
Dark Spectrum Present: No
Reference Spectrum Present: No
Number of Sampled Component Spectra: 1
Spectrometers: USB2E7196
Integration Time (usec): 104000 (USB2E7196)
Spectra Averaged: 20 (USB2E7196)
Boxcar Smoothing: 10 (USB2E7196)
Correct for Electrical Dark: No (USB2E7196)
Strobe/Lamp Enabled: No (USB2E7196)
Correct for Detector Non-linearity: No (USB2E7196)
Correct for Stray Light: No (USB2E7196)
Number of Pixels in Processed Spectrum: 2048
>>>>>Begin Processed Spectral Data<<<<<
339.09	0.00
339.48	199.60
339.86	202.10
340.24	202.80
340.63	203.85
341.01	210.35
341.39	206.05
341.78	208.00
342.16	208.60
342.54	210.10
342.93	199.18
343.31	209.21
343.69	209.76
344.07	210.19
344.46	210.64
344.84	211.03
345.22	211.07
345.60	211.33
345.99	211.48
346.37	211.60
346.75	211.63
347.13	211.61
347.52	211.67
347.90	211.76
348.28	211.71
348.66	211.77
349.05	211.59
349.43	211.60
349.81	211.56
350.19	211.57
350.57	211.55
350.96	211.56
351.34	211.60
351.72	211.63
352.10	211.63
352.48	211.58
352.87	211.55
353.25	211.56
353.63	211.53
354.01	211.52
354.39	211.55
354.77	211.59
355.15	211.67
355.54	211.78
355.92	211.71
356.30	211.73
356.68	211.95
357.06	212.00
357.44	211.97
357.82	212.06
358.20	212.05
358.58	212.10
358.97	212.20
359.35	212.32
359.73	212.40
360.11	212.44
360.49	212.51
360.87	212.54
361.25	212.63
361.63	212.80
362.01	212.90
362.39	212.92
362.77	213.02
363.15	213.04
363.53	212.97
363.91	213.02
364.29	213.05
364.67	212.75
365.05	212.73
365.43	212.81
365.81	212.86
366.19	213.00
366.57	213.12
366.95	213.08
367.33	213.03
367.71	213.03
368.09	213.10
368.47	213.10
368.85	213.10
369.23	213.17
369.61	213.03
369.99	213.09
370.37	213.13
370.75	213.27
371.13	213.24
371.51	213.23
371.89	213.25
372.27	213.32
372.65	213.25
373.03	213.30
373.41	213.23
373.78	213.18
374.16	212.99
374.54	212.86
374.92	212.80
375.30	212.76
375.68	212.70
376.06	212.67
376.44	212.64
376.82	212.65
377.19	212.55
377.57	212.48
377.95	212.37
378.33	212.29
378.71	212.04
379.09	212.08
379.47	212.00
379.84	211.87
380.22	211.77
380.60	211.72
380.98	211.67
381.36	211.68
381.73	211.57
382.11	211.67
382.49	211.63
382.87	211.61
383.25	211.54
383.62	211.96
384.00	211.85
384.38	211.78
384.76	211.83
385.13	211.94
385.51	212.01
385.89	211.94
386.27	211.92
386.64	211.94
387.02	211.78
387.40	211.75
387.78	211.83
388.15	211.82
388.53	211.84
388.91	211.81
389.29	211.73
389.66	211.78
390.04	211.70
390.42	211.81
390.79	211.72
391.17	211.71
391.55	211.20
391.92	211.25
392.30	211.30
392.68	211.16
393.05	211.09
393.43	211.01
393.81	211.02
394.18	210.99
394.56	210.92
394.94	211.03
395.31	210.97
395.69	211.06
396.06	211.14
396.44	211.14
396.82	211.14
397.19	211.35
397.57	211.39
397.95	211.43
398.32	211.26
398.70	211.30
399.07	211.43
399.45	211.42
399.82	211.40
400.20	211.38
400.58	211.40
400.95	211.29
401.33	211.31
401.70	211.62
402.08	211.64
402.45	211.66
402.83	211.76
403.20	211.82
403.58	211.78
403.95	211.75
404.33	211.87
404.71	211.87
405.08	212.00
405.46	212.04
405.83	212.07
406.21	212.16
406.58	212.32
406.96	212.36
407.33	212.56
407.70	212.70
408.08	213.10
408.45	213.32
408.83	213.60
409.20	213.81
409.58	213.77
409.95	214.04
410.33	214.32
410.70	214.44
411.08	214.76
411.45	214.99
411.82	215.29
412.20	215.60
412.57	216.12
412.95	216.24
413.32	216.69
413.69	217.00
414.07	217.40
414.44	217.81
414.82	218.32
415.19	218.81
415.56	219.36
415.94	219.78
416.31	220.37
416.68	221.01
417.06	221.77
417.43	222.54
417.81	223.31
418.18	224.21
418.55	225.15
418.93	226.12
419.30	227.13
419.67	228.23
420.04	229.28
420.42	230.29
420.79	231.85
421.16	233.04
421.54	234.61
421.91	236.07
422.28	237.54
422.66	238.99
423.03	240.74
423.40	242.41
423.77	244.04
424.15	245.70
424.52	247.40
424.89	249.37
425.26	251.12
425.64	252.89
426.01	254.72
426.38	256.73
426.75	258.84
427.13	260.93
427.50	263.02
427.87	265.33
428.24	267.65
428.61	269.56
428.99	272.05
429.36	274.53
429.73	276.99
430.10	279.56
430.47	282.31
430.85	284.76
431.22	287.51
431.59	290.72
431.96	293.63
432.33	296.93
432.70	299.93
433.08	303.57
433.45	306.91
433.82	310.29
434.19	314.04
434.56	317.84
434.93	321.46
435.30	325.07
435.68	328.84
436.05	332.70
436.42	336.47
436.79	340.08
437.16	343.93
437.53	348.06
437.90	352.01
438.27	355.85
438.64	359.80
439.01	363.54
439.38	366.61
439.75	369.90
440.13	373.52
440.50	377.01
440.87	379.75
441.24	382.81
441.61	386.09
441.98	388.37
442.35	390.95
442.72	393.63
443.09	396.37
443.46	398.17
443.83	399.25
444.20	400.23
444.57	401.40
444.94	401.94
445.31	402.48
445.68	403.37
446.05	403.56
446.42	403.20
446.79	402.69
447.16	402.21
447.53	401.82
447.90	400.35
448.27	398.72
448.64	396.81
449.01	395.26
449.37	392.67
449.74	390.30
450.11	387.59
450.48	384.30
450.85	380.80
451.22	377.82
451.59	375.12
451.96	372.48
452.33	369.10
452.70	365.86
453.07	361.99
453.43	357.84
453.80	354.22
454.17	350.79
454.54	347.44
454.91	343.77
455.28	340.10
455.65	336.70
456.02	333.96
456.38	331.13
456.75	327.61
457.12	324.67
457.49	321.73
457.86	318.57
458.23	316.30
458.59	313.64
458.96	310.95
459.33	308.47
459.70	306.17
460.07	304.26
460.43	302.18
460.80	300.38
461.17	298.72
461.54	296.84
461.91	294.99
462.27	293.20
462.64	291.69
463.01	290.14
463.38	288.69
463.74	286.64
464.11	285.22
464.48	284.05
464.85	282.62
465.21	281.66
465.58	280.61
465.95	279.24
466.32	278.22
466.68	277.20
467.05	276.23
467.42	275.16
467.78	273.99
468.15	272.96
468.52	272.15
468.88	270.96
469.25	269.94
469.62	269.29
469.98	268.50
470.35	267.78
470.72	267.07
471.08	266.18
471.45	265.65
471.82	265.04
472.18	264.42
472.55	264.01
472.92	263.37
473.28	262.95
473.65	262.49
474.02	262.01
474.38	261.69
474.75	261.43
475.11	261.11
475.48	261.02
475.85	260.77
476.21	260.53
476.58	260.46
476.94	260.50
477.31	260.35
477.67	260.30
478.04	260.26
478.41	260.27
478.77	260.66
479.14	260.59
479.50	260.65
479.87	260.72
480.23	260.85
480.60	261.00
480.96	261.11
481.33	261.38
481.69	261.73
482.06	261.99
482.42	262.28
482.79	262.63
483.15	262.92
483.52	263.46
483.88	263.94
484.25	264.45
484.61	264.91
484.98	265.49
485.34	266.19
485.71	266.91
486.07	267.60
486.44	268.14
486.80	268.96
487.17	269.84
487.53	270.95
487.90	272.00
488.26	273.21
488.62	274.42
488.99	275.64
489.35	276.90
489.72	278.16
490.08	279.55
490.44	281.04
490.81	282.65
491.17	284.27
491.54	286.04
491.90	287.95
492.26	289.89
492.63	291.91
492.99	294.01
493.36	296.29
493.72	298.67
494.08	301.04
494.45	303.65
494.81	306.47
495.17	309.13
495.54	312.08
495.90	315.02
496.26	318.13
496.63	321.41
496.99	324.77
497.35	328.34
497.72	332.05
498.08	335.81
498.44	339.70
498.80	343.89
499.17	348.13
499.53	352.44
499.89	357.09
500.26	361.78
500.62	366.58
500.98	371.62
501.34	376.90
501.71	382.31
502.07	387.74
502.43	393.20
502.79	398.87
503.16	404.82
503.52	410.98
503.88	417.20
504.24	423.70
504.60	430.42
504.97	437.38
505.33	444.34
505.69	451.82
506.05	459.30
506.41	466.86
506.78	474.46
507.14	482.30
507.50	490.37
507.86	498.60
508.22	507.20
508.59	515.70
508.95	524.45
509.31	533.55
509.67	542.81
510.03	552.37
510.39	562.01
510.75	571.72
511.12	581.56
511.48	591.56
511.84	601.71
512.20	611.95
512.56	622.41
512.92	633.17
513.28	643.69
513.64	654.55
514.00	665.45
514.37	676.64
514.73	688.01
515.09	699.51
515.45	710.82
515.81	722.32
516.17	733.96
516.53	745.58
516.89	757.19
517.25	769.00
517.61	780.91
517.97	792.70
518.33	804.67
518.69	816.85
519.05	829.18
519.41	841.53
519.77	854.12
520.13	866.27
520.49	878.30
520.85	890.69
521.21	903.24
521.57	915.76
521.93	927.86
522.29	940.64
522.65	952.95
523.01	965.58
523.37	977.74
523.73	990.13
524.09	1002.78
524.45	1015.36
524.81	1027.70
525.17	1040.54
525.53	1053.13
525.89	1065.64
526.25	1078.05
526.61	1089.93
526.97	1102.05
527.33	1114.14
527.68	1126.66
528.04	1138.94
528.40	1150.49
528.76	1162.15
529.12	1174.23
529.48	1186.80
529.84	1198.36
530.20	1210.19
530.56	1222.04
530.91	1234.41
531.27	1246.34
531.63	1257.57
531.99	1268.86
532.35	1280.13
532.71	1290.78
533.07	1302.15
533.42	1313.08
533.78	1324.04
534.14	1334.64
534.50	1345.02
534.86	1355.48
535.21	1365.16
535.57	1375.49
535.93	1385.52
536.29	1395.46
536.65	1405.22
537.00	1414.09
537.36	1423.10
537.72	1431.93
538.08	1440.77
538.44	1449.06
538.79	1457.56
539.15	1466.32
539.51	1474.80
539.87	1483.59
540.22	1491.82
540.58	1500.03
540.94	1508.06
541.29	1515.13
541.65	1522.52
542.01	1529.78
542.37	1536.72
542.72	1543.88
543.08	1550.14
543.44	1557.49
543.79	1563.69
544.15	1569.24
544.51	1575.87
544.87	1582.24
545.22	1587.98
545.58	1593.14
545.94	1597.89
546.29	1602.41
546.65	1606.46
547.01	1610.74
547.36	1614.66
547.72	1618.40
548.07	1621.48
548.43	1624.46
548.79	1627.66
549.14	1630.74
549.50	1633.48
549.86	1635.96
550.21	1638.33
550.57	1641.06
550.92	1642.34
551.28	1644.13
551.64	1646.34
551.99	1648.03
552.35	1649.00
552.70	1650.30
553.06	1651.80
553.41	1653.46
553.77	1654.83
554.13	1656.20
554.48	1657.13
554.84	1658.13
555.19	1658.66
555.55	1659.12
555.90	1659.27
556.26	1659.29
556.61	1659.29
556.97	1659.07
557.32	1658.87
557.68	1658.23
558.03	1657.60
558.39	1657.31
558.74	1657.22
559.10	1656.99
559.45	1656.22
559.81	1656.21
560.16	1655.17
560.52	1654.26
560.87	1653.13
561.23	1651.63
561.58	1650.87
561.94	1649.37
562.29	1647.12
562.64	1645.96
563.00	1644.72
563.35	1643.67
563.71	1643.09
564.06	1642.08
564.42	1641.15
564.77	1640.22
565.12	1639.55
565.48	1638.32
565.83	1636.97
566.19	1635.52
566.54	1633.01
566.89	1630.74
567.25	1628.56
567.60	1626.69
567.96	1624.59
568.31	1622.67
568.66	1620.51
569.02	1617.32
569.37	1614.40
569.72	1612.07
570.08	1609.03
570.43	1606.02
570.78	1602.87
571.14	1599.21
571.49	1595.54
571.84	1592.25
572.20	1588.42
572.55	1584.85
572.90	1580.75
573.26	1576.67
573.61	1572.37
573.96	1568.58
574.31	1564.62
574.67	1559.73
575.02	1554.77
575.37	1550.26
575.72	1545.24
576.08	1541.11
576.43	1536.63
576.78	1532.13
577.13	1528.08
577.49	1523.77
577.84	1519.46
578.19	1515.54
578.54	1511.41
578.90	1507.82
579.25	1503.24
579.60	1498.32
579.95	1492.96
580.30	1488.95
580.66	1484.86
581.01	1480.38
581.36	1475.52
581.71	1470.69
582.06	1466.41
582.42	1462.38
582.77	1457.60
583.12	1453.05
583.47	1448.54
583.82	1444.38
584.17	1440.35
584.53	1436.07
584.88	1431.72
585.23	1426.91
585.58	1422.20
585.93	1417.58
586.28	1413.08
586.63	1408.73
586.98	1404.64
587.34	1401.03
587.69	1396.27
588.04	1391.85
588.39	1387.54
588.74	1383.12
589.09	1379.26
589.44	1374.84
589.79	1370.92
590.14	1366.93
590.49	1362.64
590.84	1358.15
591.19	1354.32
591.54	1349.82
591.89	1344.34
592.25	1339.75
592.60	1335.29
592.95	1330.36
593.30	1325.13
593.65	1319.78
594.00	1314.93
594.35	1311.43
594.70	1306.50
595.05	1302.24
595.40	1297.61
595.75	1292.41
596.10	1287.96
596.45	1283.47
596.80	1279.41
597.15	1275.18
597.50	1270.40
597.85	1266.30
598.19	1261.74
598.54	1257.15
598.89	1253.25
599.24	1249.84
599.59	1245.76
599.94	1242.06
600.29	1237.77
600.64	1233.89
600.99	1229.75
601.34	1225.66
601.69	1220.14
602.04	1215.67
602.39	1211.20
602.74	1207.08
603.08	1203.94
603.43	1200.71
603.78	1196.71
604.13	1192.51
604.48	1188.28
604.83	1185.17
605.18	1181.59
605.53	1177.47
605.87	1173.39
606.22	1169.14
606.57	1165.01
606.92	1160.80
607.27	1156.31
607.62	1152.41
607.96	1148.77
608.31	1145.12
608.66	1140.90
609.01	1136.82
609.36	1132.68
609.70	1128.06
610.05	1123.63
610.40	1118.72
610.75	1113.65
611.10	1109.08
611.44	1104.01
611.79	1099.01
612.14	1093.54
612.49	1087.97
612.83	1083.44
613.18	1078.03
613.53	1072.94
613.88	1067.48
614.22	1062.52
614.57	1057.70
614.92	1052.70
615.27	1047.44
615.61	1042.13
615.96	1037.19
616.31	1032.59
616.65	1028.08
617.00	1023.28
617.35	1018.35
617.70	1013.40
618.04	1008.21
618.39	1002.65
618.74	997.90
619.08	992.84
619.43	987.77
619.78	983.13
620.12	978.16
620.47	973.68
620.82	968.64
621.16	963.69
621.51	958.96
621.85	953.89
622.20	948.86
622.55	944.06
622.89	939.16
623.24	934.15
623.59	928.95
623.93	924.04
624.28	919.45
624.62	914.98
624.97	910.48
625.32	905.78
625.66	901.49
626.01	896.95
626.35	892.70
626.70	888.43
627.04	884.30
627.39	879.86
627.73	875.32
628.08	871.10
628.43	866.58
628.77	862.02
629.12	857.64
629.46	853.60
629.81	849.14
630.15	844.83
630.50	840.59
630.84	836.03
631.19	831.65
631.53	827.27
631.88	822.46
632.22	817.72
632.57	813.73
632.91	809.28
633.26	804.97
633.60	800.64
633.95	796.38
634.29	791.76
634.64	787.75
634.98	783.41
635.32	779.38
635.67	775.55
636.01	771.69
636.36	767.45
636.70	763.61
637.05	759.89
637.39	756.06
637.73	752.37
638.08	749.12
638.42	745.43
638.77	741.70
639.11	737.92
639.45	734.18
639.80	730.09
640.14	726.12
640.49	722.20
640.83	718.25
641.17	714.66
641.52	710.90
641.86	706.88
642.20	703.11
642.55	698.79
642.89	694.77
643.23	690.56
643.58	687.01
643.92	682.75
644.26	678.78
644.61	674.95
644.95	670.89
645.29	666.75
645.64	662.89
645.98	659.08
646.32	655.52
646.66	651.63
647.01	648.08
647.35	644.79
647.69	641.01
648.04	637.37
648.38	633.51
648.72	629.74
649.06	626.01
649.41	622.24
649.75	618.94
650.09	615.60
650.43	612.02
650.78	608.25
651.12	604.58
651.46	600.83
651.80	597.33
652.14	593.97
652.49	590.56
652.83	586.84
653.17	582.98
653.51	579.36
653.85	576.25
654.20	572.65
654.54	568.90
654.88	565.58
655.22	562.17
655.56	558.45
655.90	555.10
656.25	551.67
656.59	548.41
656.93	545.14
657.27	541.87
657.61	538.43
657.95	535.16
658.29	532.15
658.64	529.09
658.98	525.79
659.32	522.50
659.66	519.31
660.00	516.13
660.34	513.15
660.68	509.81
661.02	506.42
661.36	503.57
661.70	500.62
662.05	497.58
662.39	494.89
662.73	492.16
663.07	489.40
663.41	486.63
663.75	483.88
664.09	480.90
664.43	477.86
664.77	475.23
665.11	472.44
665.45	469.59
665.79	466.99
666.13	464.17
666.47	461.52
666.81	458.95
667.15	456.49
667.49	454.13
667.83	451.95
668.17	449.58
668.51	447.26
668.85	444.93
669.19	442.75
669.53	440.26
669.87	437.95
670.21	435.58
670.55	433.25
670.89	431.12
671.23	428.93
671.57	426.86
671.91	424.77
672.25	422.67
672.58	420.65
672.92	418.41
673.26	416.58
673.60	414.64
673.94	412.49
674.28	410.50
674.62	408.55
674.96	406.52
675.30	404.63
675.64	402.59
675.97	400.60
676.31	398.70
676.65	396.75
676.99	395.16
677.33	393.24
677.67	391.49
678.01	389.53
678.34	387.83
678.68	386.04
679.02	384.13
679.36	382.43
679.70	380.65
680.04	378.94
680.37	377.10
680.71	375.28
681.05	373.71
681.39	371.96
681.73	370.31
682.06	368.64
682.40	367.03
682.74	365.37
683.08	363.88
683.42	362.12
683.75	360.54
684.09	358.70
684.43	357.18
684.77	355.54
685.10	353.96
685.44	352.28
685.78	350.81
686.12	349.34
686.45	347.92
686.79	346.47
687.13	345.07
687.46	343.67
687.80	342.24
688.14	340.83
688.48	339.44
688.81	337.93
689.15	336.57
689.49	335.11
689.82	333.66
690.16	332.06
690.50	330.73
690.83	329.36
691.17	328.05
691.51	326.68
691.84	325.40
692.18	324.16
692.52	322.98
692.85	321.80
693.19	320.65
693.52	319.28
693.86	318.01
694.20	316.75
694.53	315.57
694.87	314.34
695.21	313.13
695.54	311.82
695.88	310.65
696.21	309.43
696.55	308.40
696.88	307.33
697.22	306.28
697.56	305.23
697.89	304.16
698.23	303.08
698.56	302.09
698.90	301.09
699.23	300.01
699.57	298.96
699.90	297.87
700.24	296.69
700.58	295.74
700.91	294.77
701.25	294.07
701.58	293.15
701.92	292.24
702.25	291.24
702.59	290.42
702.92	289.51
703.26	288.64
703.59	287.70
703.93	287.08
704.26	286.20
704.60	285.35
704.93	284.42
705.26	283.51
705.60	282.59
705.93	281.71
706.27	281.02
706.60	280.35
706.94	279.69
707.27	278.96
707.61	278.21
707.94	277.37
708.27	276.32
708.61	275.52
708.94	274.78
709.28	274.10
709.61	273.42
709.94	272.67
710.28	271.91
710.61	271.26
710.95	270.27
711.28	269.82
711.61	269.13
711.95	268.55
712.28	268.02
712.61	267.43
712.95	266.97
713.28	266.47
713.61	265.73
713.95	265.03
714.28	264.47
714.61	263.84
714.95	263.30
715.28	262.80
715.61	262.20
715.95	261.65
716.28	261.08
716.61	260.52
716.95	259.97
717.28	259.47
717.61	258.95
717.94	258.41
718.28	257.70
718.61	257.09
718.94	256.58
719.27	255.97
719.61	255.50
719.94	254.96
720.27	254.24
720.60	253.72
720.94	253.20
721.27	252.75
721.60	252.32
721.93	251.90
722.27	251.49
722.60	251.08
722.93	250.62
723.26	250.18
723.59	249.68
723.93	249.31
724.26	248.92
724.59	248.50
724.92	248.10
725.25	247.79
725.59	247.49
725.92	247.20
726.25	246.80
726.58	246.43
726.91	246.00
727.24	245.70
727.57	245.38
727.91	244.96
728.24	244.63
728.57	244.30
728.90	244.00
729.23	243.54
729.56	243.35
729.89	242.97
730.22	242.58
730.55	242.20
730.89	241.80
731.22	241.44
731.55	241.10
731.88	240.82
732.21	240.40
732.54	240.02
732.87	239.66
733.20	239.42
733.53	239.14
733.86	238.83
734.19	238.49
734.52	238.21
734.85	238.25
735.18	237.89
735.51	237.72
735.84	237.39
736.17	237.28
736.50	236.78
736.83	236.97
737.16	236.74
737.49	236.52
737.82	236.26
738.15	236.05
738.48	235.71
738.81	235.48
739.14	235.21
739.47	234.96
739.80	234.70
740.13	234.47
740.46	234.02
740.79	233.72
741.12	233.48
741.45	233.15
741.78	232.66
742.11	232.50
742.44	232.09
742.77	231.98
743.10	231.67
743.43	231.43
743.75	230.74
744.08	231.01
744.41	230.76
744.74	230.54
745.07	230.26
745.40	230.13
745.73	230.04
746.06	229.87
746.39	229.74
746.71	229.48
747.04	229.20
747.37	229.08
747.70	229.01
748.03	228.79
748.36	228.80
748.68	228.58
749.01	228.33
749.34	228.23
749.67	228.03
750.00	227.82
750.33	227.92
750.65	227.89
750.98	227.18
751.31	227.00
751.64	226.90
751.97	226.93
752.29	226.80
752.62	226.45
752.95	226.25
753.28	226.07
753.60	225.92
753.93	225.83
754.26	225.77
754.59	225.44
754.91	225.28
755.24	225.00
755.57	224.81
755.90	224.68
756.22	224.43
756.55	224.17
756.88	224.03
757.20	223.65
757.53	223.29
757.86	223.20
758.19	223.10
758.51	222.95
758.84	222.61
759.17	222.39
759.49	222.33
759.82	222.33
760.15	222.22
760.47	222.09
760.80	221.83
761.13	221.77
761.45	221.65
761.78	221.52
762.11	221.39
762.43	221.28
762.76	221.12
763.08	221.07
763.41	220.99
763.74	220.86
764.06	220.82
764.39	220.72
764.71	220.60
765.04	220.57
765.37	220.40
765.69	220.35
766.02	220.27
766.34	220.07
766.67	219.89
767.00	219.85
767.32	219.90
767.65	220.08
767.97	219.91
768.30	219.86
768.62	219.75
768.95	219.62
769.27	219.56
769.60	219.55
769.92	219.45
770.25	219.27
770.57	219.09
770.90	218.92
771.22	218.82
771.55	218.74
771.87	218.54
772.20	218.41
772.52	218.67
772.85	218.96
773.17	218.97
773.50	218.86
773.82	218.74
774.15	218.56
774.47	218.26
774.80	218.18
775.12	218.10
775.45	218.03
775.77	218.02
776.09	217.99
776.42	217.94
776.74	217.98
777.07	217.98
777.39	217.96
777.72	217.88
778.04	217.89
778.36	217.80
778.69	217.77
779.01	217.76
779.33	217.33
779.66	216.97
779.98	216.85
780.31	216.82
780.63	216.85
780.95	216.97
781.28	217.00
781.60	216.88
781.92	216.78
782.25	216.77
782.57	216.70
782.89	216.50
783.22	216.40
783.54	216.26
783.86	216.24
784.19	216.19
784.51	216.31
784.83	216.28
785.16	216.30
785.48	216.26
785.80	216.25
786.12	216.21
786.45	216.12
786.77	216.08
787.09	215.92
787.42	215.75
787.74	215.55
788.06	215.39
788.38	215.40
