SpectraSuite Data File
++++++++++++++++++++++++++++++++++++
Date: Mon Feb 25 17:04:35 EST 2013
User: group
Dark Spectrum Present: No
Reference Spectrum Present: No
Number of Sampled Component Spectra: 1
Spectrometers: USB2E7196
Integration Time (usec): 104000 (USB2E7196)
Spectra Averaged: 20 (USB2E7196)
Boxcar Smoothing: 10 (USB2E7196)
Correct for Electrical Dark: No (USB2E7196)
Strobe/Lamp Enabled: No (USB2E7196)
Correct for Detector Non-linearity: No (USB2E7196)
Correct for Stray Light: No (USB2E7196)
Number of Pixels in Processed Spectrum: 2048
>>>>>Begin Processed Spectral Data<<<<<
339.09	0.00
339.48	198.95
339.86	200.30
340.24	201.65
340.63	203.95
341.01	209.90
341.39	205.35
341.78	208.60
342.16	208.70
342.54	209.60
342.93	198.43
343.31	208.41
343.69	208.95
344.07	209.34
344.46	209.80
344.84	210.09
345.22	210.08
345.60	210.41
345.99	210.53
346.37	210.64
346.75	210.58
347.13	210.69
347.52	210.73
347.90	210.82
348.28	210.79
348.66	210.90
349.05	210.75
349.43	210.75
349.81	210.67
350.19	210.71
350.57	210.68
350.96	210.72
351.34	210.83
351.72	210.87
352.10	210.98
352.48	211.02
352.87	211.14
353.25	211.16
353.63	211.09
354.01	211.11
354.39	211.18
354.77	211.33
355.15	211.42
355.54	211.46
355.92	211.46
356.30	211.50
356.68	211.72
357.06	211.86
357.44	211.86
357.82	211.96
358.20	212.12
358.58	212.19
358.97	212.28
359.35	212.40
359.73	212.52
360.11	212.59
360.49	212.61
360.87	212.58
361.25	212.72
361.63	212.94
362.01	213.04
362.39	213.01
362.77	213.10
363.15	213.14
363.53	213.11
363.91	213.16
364.29	213.25
364.67	213.02
365.05	213.03
365.43	213.16
365.81	213.19
366.19	213.31
366.57	213.47
366.95	213.42
367.33	213.36
367.71	213.36
368.09	213.51
368.47	213.48
368.85	213.46
369.23	213.55
369.61	213.38
369.99	213.50
370.37	213.54
370.75	213.68
371.13	213.63
371.51	213.63
371.89	213.63
372.27	213.67
372.65	213.66
373.03	213.63
373.41	213.50
373.78	213.42
374.16	213.25
374.54	213.07
374.92	213.05
375.30	213.01
375.68	212.91
376.06	212.88
376.44	212.85
376.82	212.89
377.19	212.79
377.57	212.75
377.95	212.55
378.33	212.49
378.71	212.20
379.09	212.23
379.47	212.17
379.84	212.14
380.22	212.03
380.60	211.95
380.98	211.87
381.36	211.82
381.73	211.71
382.11	211.73
382.49	211.69
382.87	211.52
383.25	211.44
383.62	211.79
384.00	211.55
384.38	211.55
384.76	211.55
385.13	211.61
385.51	211.53
385.89	211.44
386.27	211.45
386.64	211.46
387.02	211.42
387.40	211.38
387.78	211.29
388.15	211.18
388.53	211.19
388.91	211.18
389.29	211.15
389.66	211.20
390.04	211.06
390.42	211.11
390.79	211.18
391.17	211.10
391.55	210.66
391.92	210.70
392.30	210.64
392.68	210.51
393.05	210.45
393.43	210.48
393.81	210.48
394.18	210.38
394.56	210.40
394.94	210.29
395.31	210.28
395.69	210.35
396.06	210.45
396.44	210.46
396.82	210.42
397.19	210.56
397.57	210.53
397.95	210.65
398.32	210.51
398.70	210.53
399.07	210.70
399.45	210.69
399.82	210.68
400.20	210.70
400.58	210.71
400.95	210.56
401.33	210.60
401.70	210.86
402.08	210.84
402.45	210.88
402.83	211.05
403.20	211.11
403.58	211.15
403.95	211.27
404.33	211.32
404.71	211.38
405.08	211.66
405.46	211.82
405.83	211.92
406.21	212.05
406.58	212.19
406.96	212.30
407.33	212.52
407.70	212.75
408.08	213.27
408.45	213.63
408.83	214.00
409.20	214.15
409.58	214.20
409.95	214.60
410.33	214.85
410.70	215.07
411.08	215.40
411.45	215.75
411.82	216.01
412.20	216.49
412.57	217.11
412.95	217.21
413.32	217.69
413.69	218.18
414.07	218.71
414.44	219.29
414.82	219.90
415.19	220.61
415.56	221.30
415.94	221.81
416.31	222.58
416.68	223.37
417.06	224.40
417.43	225.40
417.81	226.42
418.18	227.50
418.55	228.72
418.93	229.98
419.30	231.28
419.67	232.69
420.04	234.05
420.42	235.46
420.79	237.48
421.16	239.23
421.54	241.16
421.91	243.13
422.28	244.99
422.66	247.04
423.03	249.29
423.40	251.35
423.77	253.59
424.15	255.90
424.52	258.31
424.89	261.00
425.26	263.49
425.64	266.03
426.01	268.71
426.38	271.45
426.75	274.36
427.13	277.30
427.50	280.48
427.87	283.67
428.24	286.89
428.61	289.82
428.99	293.29
429.36	296.81
429.73	300.46
430.10	304.21
430.47	307.96
430.85	311.60
431.22	315.75
431.59	320.37
431.96	324.57
432.33	329.24
432.70	333.75
433.08	339.02
433.45	343.90
433.82	348.97
434.19	354.64
434.56	360.10
434.93	365.35
435.30	370.49
435.68	376.27
436.05	382.14
436.42	387.77
436.79	393.17
437.16	398.94
437.53	404.92
437.90	410.75
438.27	416.72
438.64	422.88
439.01	428.67
439.38	433.51
439.75	438.61
440.13	444.32
440.50	449.65
440.87	454.10
441.24	458.68
441.61	463.62
441.98	467.38
442.35	471.77
442.72	476.29
443.09	480.74
443.46	483.45
443.83	485.31
444.20	487.20
444.57	489.51
444.94	490.77
445.31	492.19
445.68	493.88
446.05	494.51
446.42	494.35
446.79	493.95
447.16	493.50
447.53	493.24
447.90	491.32
448.27	489.43
448.64	486.73
449.01	485.08
449.37	481.55
449.74	478.10
450.11	474.05
450.48	469.26
450.85	464.40
451.22	460.60
451.59	456.67
451.96	452.93
452.33	447.72
452.70	443.21
453.07	437.67
453.43	431.82
453.80	426.45
454.17	421.20
454.54	416.37
454.91	411.20
455.28	405.94
455.65	401.16
456.02	396.75
456.38	392.62
456.75	387.39
457.12	383.10
457.49	378.80
457.86	374.45
458.23	371.10
458.59	367.18
458.96	363.07
459.33	359.57
459.70	355.97
460.07	353.24
460.43	349.96
460.80	346.91
461.17	344.37
461.54	341.67
461.91	339.06
462.27	336.43
462.64	334.06
463.01	331.60
463.38	329.27
463.74	326.50
464.11	324.31
464.48	322.40
464.85	320.33
465.21	318.81
465.58	317.15
465.95	314.99
466.32	313.30
466.68	311.63
467.05	309.99
467.42	308.35
467.78	306.57
468.15	304.88
468.52	303.79
468.88	302.03
469.25	300.54
469.62	299.31
469.98	297.86
470.35	296.69
470.72	295.54
471.08	294.21
471.45	293.11
471.82	292.07
472.18	290.84
472.55	290.00
472.92	288.94
473.28	288.06
473.65	287.22
474.02	286.43
474.38	285.77
474.75	285.14
475.11	284.45
475.48	283.99
475.85	283.55
476.21	282.92
476.58	282.55
476.94	282.14
477.31	281.82
477.67	281.51
478.04	281.16
478.41	280.95
478.77	280.98
479.14	280.61
479.50	280.52
479.87	280.46
480.23	280.31
480.60	280.06
480.96	279.84
481.33	279.92
481.69	279.97
482.06	279.93
482.42	279.90
482.79	279.95
483.15	280.03
483.52	280.39
483.88	280.46
484.25	280.51
484.61	280.72
484.98	280.87
485.34	281.15
485.71	281.53
486.07	281.77
486.44	281.79
486.80	282.20
487.17	282.56
487.53	283.11
487.90	283.72
488.26	284.50
488.62	285.23
488.99	285.74
489.35	286.38
489.72	287.07
490.08	287.86
490.44	288.58
490.81	289.38
491.17	290.01
491.54	290.95
491.90	291.90
492.26	292.85
492.63	293.75
492.99	294.66
493.36	295.62
493.72	296.75
494.08	297.82
494.45	298.98
494.81	300.18
495.17	301.33
495.54	302.46
495.90	303.64
496.26	304.75
496.63	306.07
496.99	307.23
497.35	308.54
497.72	309.85
498.08	311.12
498.44	312.40
498.80	313.83
499.17	315.10
499.53	316.48
499.89	317.88
500.26	319.15
500.62	320.50
500.98	321.97
501.34	323.22
501.71	324.72
502.07	326.05
502.43	327.29
502.79	328.41
503.16	329.73
503.52	330.95
503.88	332.19
504.24	333.35
504.60	334.56
504.97	335.73
505.33	336.82
505.69	338.13
506.05	339.31
506.41	340.18
506.78	341.22
507.14	342.12
507.50	343.03
507.86	344.14
508.22	345.20
508.59	346.01
508.95	346.96
509.31	347.84
509.67	348.75
510.03	349.60
510.39	350.46
510.75	351.29
511.12	351.98
511.48	352.66
511.84	353.35
512.20	354.04
512.56	354.65
512.92	355.39
513.28	355.90
513.64	356.44
514.00	357.13
514.37	357.74
514.73	358.35
515.09	358.96
515.45	359.43
515.81	359.70
516.17	360.10
516.53	360.49
516.89	360.78
517.25	361.07
517.61	361.41
517.97	361.83
518.33	362.11
518.69	362.61
519.05	363.28
519.41	363.79
519.77	364.50
520.13	364.86
520.49	365.17
520.85	365.67
521.21	366.20
521.57	366.76
521.93	367.13
522.29	367.71
522.65	368.21
523.01	368.81
523.37	369.48
523.73	370.22
524.09	370.85
524.45	371.57
524.81	372.31
525.17	373.29
525.53	374.19
525.89	375.09
526.25	375.96
526.61	376.75
526.97	377.60
527.33	378.50
527.68	379.99
528.04	381.16
528.40	382.25
528.76	383.42
529.12	384.66
529.48	386.12
529.84	387.46
530.20	388.94
530.56	390.46
530.91	392.11
531.27	393.67
531.63	395.28
531.99	396.99
532.35	398.67
532.71	400.29
533.07	402.07
533.42	404.35
533.78	406.27
534.14	408.22
534.50	410.16
534.86	412.20
535.21	414.02
535.57	416.09
535.93	418.27
536.29	420.57
536.65	422.69
537.00	424.83
537.36	426.99
537.72	429.17
538.08	431.51
538.44	433.72
538.79	436.05
539.15	438.38
539.51	440.75
539.87	443.31
540.22	445.79
540.58	448.35
540.94	450.48
541.29	452.97
541.65	455.43
542.01	458.11
542.37	460.78
542.72	463.36
543.08	465.98
543.44	468.79
543.79	471.26
544.15	474.06
544.51	476.92
544.87	479.77
545.22	482.60
545.58	485.10
545.94	487.81
546.29	490.47
546.65	493.25
547.01	495.99
547.36	498.82
547.72	501.60
548.07	504.29
548.43	506.99
548.79	509.57
549.14	512.34
549.50	515.04
549.86	517.48
550.21	520.12
550.57	522.88
550.92	525.22
551.28	527.91
551.64	530.37
551.99	533.09
552.35	535.47
552.70	537.90
553.06	540.56
553.41	543.03
553.77	545.74
554.13	548.22
554.48	550.83
554.84	553.34
555.19	555.72
555.55	558.31
555.90	560.56
556.26	562.86
556.61	564.98
556.97	567.08
557.32	569.39
557.68	571.57
558.03	573.55
558.39	575.71
558.74	577.88
559.10	580.02
559.45	581.94
559.81	584.20
560.16	586.16
560.52	588.20
560.87	590.50
561.23	592.38
561.58	594.61
561.94	596.32
562.29	598.12
562.64	600.08
563.00	601.79
563.35	603.66
563.71	605.79
564.06	607.86
564.42	609.79
564.77	611.54
565.12	613.42
565.48	615.68
565.83	617.58
566.19	619.27
566.54	620.87
566.89	622.54
567.25	624.35
567.60	626.26
567.96	628.00
568.31	629.59
568.66	631.08
569.02	632.24
569.37	633.42
569.72	634.73
570.08	635.80
570.43	636.83
570.78	638.01
571.14	638.75
571.49	639.38
571.84	640.24
572.20	641.03
572.55	641.68
572.90	641.79
573.26	642.28
573.61	642.65
573.96	643.15
574.31	643.58
574.67	643.54
575.02	643.58
575.37	643.53
575.72	643.39
576.08	643.48
576.43	643.54
576.78	643.75
577.13	643.79
577.49	643.98
577.84	644.06
578.19	644.06
578.54	644.46
578.90	644.86
579.25	644.86
579.60	644.85
579.95	644.70
580.30	645.00
580.66	645.01
581.01	645.20
581.36	644.98
581.71	644.57
582.06	644.72
582.42	644.63
582.77	644.50
583.12	644.39
583.47	644.37
583.82	644.23
584.17	644.08
584.53	644.05
584.88	643.73
585.23	643.62
585.58	643.37
585.93	642.83
586.28	642.40
586.63	642.26
586.98	642.07
587.34	641.88
587.69	641.40
588.04	641.16
588.39	640.58
588.74	640.29
589.09	640.22
589.44	639.42
589.79	639.05
590.14	638.61
590.49	638.04
590.84	637.27
591.19	637.05
591.54	636.41
591.89	635.42
592.25	634.99
592.60	634.15
592.95	633.32
593.30	632.46
593.65	631.57
594.00	630.54
594.35	630.30
594.70	629.47
595.05	628.69
595.40	627.79
595.75	626.81
596.10	625.96
596.45	625.01
596.80	624.45
597.15	623.67
597.50	622.78
597.85	622.09
598.19	621.35
598.54	620.16
598.89	619.45
599.24	618.85
599.59	617.96
599.94	617.26
600.29	616.52
600.64	615.66
600.99	614.85
601.34	614.22
601.69	612.62
602.04	611.62
602.39	610.69
602.74	609.82
603.08	609.34
603.43	608.75
603.78	607.87
604.13	607.00
604.48	605.94
604.83	605.29
605.18	604.44
605.53	603.45
605.87	602.58
606.22	601.75
606.57	600.70
606.92	599.71
607.27	598.58
607.62	597.59
607.96	596.76
608.31	595.89
608.66	594.74
609.01	593.75
609.36	592.74
609.70	591.54
610.05	590.21
610.40	588.80
610.75	587.33
611.10	586.19
611.44	584.77
611.79	583.47
612.14	581.92
612.49	580.34
612.83	579.03
613.18	577.68
613.53	576.11
613.88	574.60
614.22	572.99
614.57	571.45
614.92	569.91
615.27	568.47
615.61	566.83
615.96	565.35
616.31	563.98
616.65	562.51
617.00	561.08
617.35	559.65
617.70	558.05
618.04	556.39
618.39	554.47
618.74	552.94
619.08	551.32
619.43	549.92
619.78	548.32
620.12	546.57
620.47	544.98
620.82	543.24
621.16	541.48
621.51	540.02
621.85	538.39
622.20	536.66
622.55	534.82
622.89	533.14
623.24	531.43
623.59	529.60
623.93	527.95
624.28	526.29
624.62	524.90
624.97	523.46
625.32	521.91
625.66	520.49
626.01	518.91
626.35	517.31
626.70	515.47
627.04	514.12
627.39	512.56
627.73	511.10
628.08	509.60
628.43	508.00
628.77	506.30
629.12	504.65
629.46	503.38
629.81	501.72
630.15	500.11
630.50	498.49
630.84	496.81
631.19	495.21
631.53	493.54
631.88	491.49
632.22	489.67
632.57	488.21
632.91	486.67
633.26	485.10
633.60	483.47
633.95	481.99
634.29	480.20
634.64	478.74
634.98	476.95
635.32	475.63
635.67	474.27
636.01	472.77
636.36	471.18
636.70	469.58
637.05	468.14
637.39	466.64
637.73	465.25
638.08	463.88
638.42	462.43
638.77	461.03
639.11	459.66
639.45	458.11
639.80	456.40
640.14	454.72
640.49	453.10
640.83	451.53
641.17	449.98
641.52	448.46
641.86	446.83
642.20	445.37
642.55	443.50
642.89	441.85
643.23	440.06
643.58	438.75
643.92	436.97
644.26	435.36
644.61	433.86
644.95	432.22
645.29	430.63
645.64	428.94
645.98	427.42
646.32	426.02
646.66	424.52
647.01	422.93
647.35	421.52
647.69	419.85
648.04	418.40
648.38	416.81
648.72	415.32
649.06	413.69
649.41	411.95
649.75	410.34
650.09	408.95
650.43	407.60
650.78	405.95
651.12	404.40
651.46	402.90
651.80	401.34
652.14	399.87
652.49	398.46
652.83	396.97
653.17	395.33
653.51	393.75
653.85	392.32
654.20	390.95
654.54	389.35
654.88	387.90
655.22	386.40
655.56	384.89
655.90	383.41
656.25	381.96
656.59	380.51
656.93	379.16
657.27	377.71
657.61	376.05
657.95	374.67
658.29	373.34
658.64	372.05
658.98	370.51
659.32	368.90
659.66	367.40
660.00	365.94
660.34	364.47
660.68	362.97
661.02	361.52
661.36	360.17
661.70	358.80
662.05	357.54
662.39	356.31
662.73	355.11
663.07	353.96
663.41	352.78
663.75	351.56
664.09	350.40
664.43	349.05
664.77	347.99
665.11	346.74
665.45	345.51
665.79	344.37
666.13	343.18
666.47	342.12
666.81	340.97
667.15	339.76
667.49	338.76
667.83	337.80
668.17	336.61
668.51	335.51
668.85	334.60
669.19	333.69
669.53	332.47
669.87	331.31
670.21	330.09
670.55	328.92
670.89	328.02
671.23	326.96
671.57	325.90
671.91	324.93
672.25	323.89
672.58	322.94
672.92	321.80
673.26	320.97
673.60	320.08
673.94	319.01
674.28	318.12
674.62	317.23
674.96	316.22
675.30	315.38
675.64	314.41
675.97	313.36
676.31	312.36
676.65	311.50
676.99	310.82
677.33	309.78
677.67	309.04
678.01	308.01
678.34	307.14
678.68	306.29
679.02	305.26
679.36	304.36
679.70	303.47
680.04	302.67
680.37	301.84
680.71	300.97
681.05	300.29
681.39	299.43
681.73	298.64
682.06	297.85
682.40	297.10
682.74	296.33
683.08	295.71
683.42	294.94
683.75	294.25
684.09	293.40
684.43	292.66
684.77	291.71
685.10	291.05
685.44	290.16
685.78	289.45
686.12	288.81
686.45	288.11
686.79	287.32
687.13	286.64
687.46	285.82
687.80	285.07
688.14	284.28
688.48	283.62
688.81	282.87
689.15	282.18
689.49	281.32
689.82	280.60
690.16	279.67
690.50	278.84
690.83	278.03
691.17	277.23
691.51	276.64
691.84	276.05
692.18	275.31
692.52	274.77
692.85	274.20
693.19	273.63
693.52	273.03
693.86	272.39
694.20	271.75
694.53	271.08
694.87	270.39
695.21	269.75
695.54	269.11
695.88	268.35
696.21	267.68
696.55	267.19
696.88	266.62
697.22	266.09
697.56	265.59
697.89	265.00
698.23	264.49
698.56	263.88
698.90	263.35
699.23	262.73
699.57	262.17
699.90	261.49
700.24	260.85
700.58	260.28
700.91	259.76
701.25	259.49
701.58	259.12
701.92	258.70
702.25	258.21
702.59	257.66
702.92	257.21
703.26	256.78
703.59	256.26
703.93	256.09
704.26	255.65
704.60	255.17
704.93	254.74
705.26	254.16
705.60	253.74
705.93	253.25
706.27	252.90
706.60	252.51
706.94	252.35
707.27	251.80
707.61	251.44
707.94	251.06
708.27	250.34
708.61	249.89
708.94	249.50
709.28	249.07
709.61	248.71
709.94	248.39
710.28	247.98
710.61	247.68
710.95	246.93
711.28	246.81
711.61	246.41
711.95	246.10
712.28	245.73
712.61	245.42
712.95	245.24
713.28	245.01
713.61	244.65
713.95	244.06
714.28	243.84
714.61	243.36
714.95	242.93
715.28	242.57
715.61	242.20
715.95	241.87
716.28	241.44
716.61	241.19
716.95	240.80
717.28	240.51
717.61	240.08
717.94	239.82
718.28	239.15
718.61	238.88
718.94	238.58
719.27	238.38
719.61	238.09
719.94	237.77
720.27	237.37
720.60	237.10
720.94	236.90
721.27	236.61
721.60	236.55
721.93	236.44
722.27	236.35
722.60	236.15
722.93	235.86
723.26	235.77
723.59	235.47
723.93	235.29
724.26	235.03
724.59	234.89
724.92	234.77
725.25	234.79
725.59	234.61
725.92	234.40
726.25	234.19
726.58	233.97
726.91	233.69
727.24	233.49
727.57	233.25
727.91	232.97
728.24	232.83
728.57	232.50
728.90	232.32
729.23	231.96
729.56	231.91
729.89	231.76
730.22	231.48
730.55	231.29
730.89	231.13
731.22	230.91
731.55	230.71
731.88	230.51
732.21	230.14
732.54	229.90
732.87	229.67
733.20	229.50
733.53	229.35
733.86	229.19
734.19	229.01
734.52	228.89
734.85	229.02
735.18	228.84
735.51	228.78
735.84	228.55
736.17	228.45
736.50	228.07
736.83	228.21
737.16	228.12
737.49	227.95
737.82	227.74
738.15	227.61
738.48	227.41
738.81	227.18
739.14	227.05
739.47	226.91
739.80	226.74
740.13	226.56
740.46	226.33
740.79	226.16
741.12	225.97
741.45	225.78
741.78	225.41
742.11	225.29
742.44	225.05
742.77	224.89
743.10	224.74
743.43	224.67
743.75	224.22
744.08	224.48
744.41	224.30
744.74	224.14
745.07	223.95
745.40	223.93
745.73	223.97
746.06	223.81
746.39	223.65
746.71	223.51
747.04	223.33
747.37	223.21
747.70	223.12
748.03	223.04
748.36	222.94
748.68	222.76
749.01	222.60
749.34	222.44
749.67	222.37
750.00	222.38
750.33	222.46
750.65	222.43
750.98	221.87
751.31	221.80
751.64	221.75
751.97	221.90
752.29	221.74
752.62	221.49
752.95	221.37
753.28	221.28
753.60	221.20
753.93	221.17
754.26	221.11
754.59	220.92
754.91	220.76
755.24	220.56
755.57	220.59
755.90	220.38
756.22	220.31
756.55	220.18
756.88	219.88
757.20	219.58
757.53	219.35
757.86	219.22
758.19	219.24
758.51	219.09
758.84	218.80
759.17	218.64
759.49	218.62
759.82	218.75
760.15	218.73
760.47	218.71
760.80	218.58
761.13	218.56
761.45	218.46
761.78	218.35
762.11	218.25
762.43	218.05
762.76	218.04
763.08	217.95
763.41	217.90
763.74	217.95
764.06	217.84
764.39	217.78
764.71	217.80
765.04	217.60
765.37	217.48
765.69	217.37
766.02	217.35
766.34	217.15
766.67	216.94
767.00	216.94
767.32	217.01
767.65	217.22
767.97	217.17
768.30	217.23
768.62	217.18
768.95	217.20
769.27	217.12
769.60	217.14
769.92	217.09
770.25	216.95
770.57	216.84
770.90	216.84
771.22	216.77
771.55	216.63
771.87	216.64
772.20	216.65
772.52	216.92
772.85	217.20
773.17	217.28
773.50	217.22
773.82	217.07
774.15	216.90
774.47	216.52
774.80	216.37
775.12	216.26
775.45	216.34
775.77	216.30
776.09	216.44
776.42	216.39
776.74	216.45
777.07	216.43
777.39	216.38
777.72	216.25
778.04	216.29
778.36	216.26
778.69	216.31
779.01	216.33
779.33	215.94
779.66	215.58
779.98	215.37
780.31	215.37
780.63	215.50
780.95	215.50
781.28	215.51
781.60	215.50
781.92	215.52
782.25	215.42
782.57	215.38
782.89	215.25
783.22	215.18
783.54	215.07
783.86	215.03
784.19	215.06
784.51	215.14
784.83	215.00
785.16	214.96
785.48	214.81
785.80	214.77
786.12	214.81
786.45	214.74
786.77	214.86
787.09	214.79
787.42	214.58
787.74	214.54
788.06	214.50
788.38	214.45
788.71	214.29
789.03	214.28
789.35	214.33
789.67	214.25
789.99	214.25
790.32	214.21
790.64	214.26
790.96	214.44
791.28	214.32
791.61	214.32
791.93	214.35
792.25	214.32
792.57	214.51
792.89	214.47
793.21	214.48
793.54	214.35
793.86	214.25
794.18	214.27
