SpectraSuite Data File
++++++++++++++++++++++++++++++++++++
Date: Mon Feb 25 17:04:18 EST 2013
User: group
Dark Spectrum Present: No
Reference Spectrum Present: No
Number of Sampled Component Spectra: 1
Spectrometers: USB2E7196
Integration Time (usec): 104000 (USB2E7196)
Spectra Averaged: 20 (USB2E7196)
Boxcar Smoothing: 10 (USB2E7196)
Correct for Electrical Dark: No (USB2E7196)
Strobe/Lamp Enabled: No (USB2E7196)
Correct for Detector Non-linearity: No (USB2E7196)
Correct for Stray Light: No (USB2E7196)
Number of Pixels in Processed Spectrum: 2048
>>>>>Begin Processed Spectral Data<<<<<
339.09	0.00
339.48	198.15
339.86	200.70
340.24	202.15
340.63	202.65
341.01	210.15
341.39	205.90
341.78	207.60
342.16	210.55
342.54	209.60
342.93	198.70
343.31	208.75
343.69	209.26
344.07	209.70
344.46	210.17
344.84	210.56
345.22	210.59
345.60	210.81
345.99	211.00
346.37	211.04
346.75	211.08
347.13	211.08
347.52	211.10
347.90	211.15
348.28	211.14
348.66	211.24
349.05	211.13
349.43	211.13
349.81	211.21
350.19	211.31
350.57	211.34
350.96	211.35
351.34	211.42
351.72	211.56
352.10	211.62
352.48	211.57
352.87	211.59
353.25	211.65
353.63	211.75
354.01	211.78
354.39	211.83
354.77	211.92
355.15	211.99
355.54	211.98
355.92	212.00
356.30	212.08
356.68	212.26
357.06	212.36
357.44	212.32
357.82	212.28
358.20	212.24
358.58	212.28
358.97	212.34
359.35	212.39
359.73	212.39
360.11	212.43
360.49	212.49
360.87	212.56
361.25	212.59
361.63	212.68
362.01	212.73
362.39	212.77
362.77	212.75
363.15	212.74
363.53	212.86
363.91	212.89
364.29	212.86
364.67	212.56
365.05	212.46
365.43	212.54
365.81	212.65
366.19	212.83
366.57	212.96
366.95	213.00
367.33	212.95
367.71	213.04
368.09	213.05
368.47	213.03
368.85	212.92
369.23	213.03
369.61	212.85
369.99	212.90
370.37	212.82
370.75	212.95
371.13	212.88
371.51	212.74
371.89	212.72
372.27	212.77
372.65	212.76
373.03	212.82
373.41	212.69
373.78	212.57
374.16	212.32
374.54	212.16
374.92	212.01
375.30	211.95
375.68	211.86
376.06	211.86
376.44	211.83
376.82	211.84
377.19	211.73
377.57	211.64
377.95	211.48
378.33	211.43
378.71	211.24
379.09	211.29
379.47	211.33
379.84	211.26
380.22	211.10
380.60	211.08
380.98	210.93
381.36	210.95
381.73	210.85
382.11	210.92
382.49	210.94
382.87	210.87
383.25	210.81
383.62	211.03
384.00	210.89
384.38	210.88
384.76	210.91
385.13	211.02
385.51	211.05
385.89	211.01
386.27	211.05
386.64	211.05
387.02	210.89
387.40	210.77
387.78	210.75
388.15	210.80
388.53	210.72
388.91	210.75
389.29	210.68
389.66	210.75
390.04	210.63
390.42	210.59
390.79	210.66
391.17	210.66
391.55	210.32
391.92	210.34
392.30	210.37
392.68	210.27
393.05	210.19
393.43	210.18
393.81	210.17
394.18	210.06
394.56	210.09
394.94	210.23
395.31	210.19
395.69	210.29
396.06	210.30
396.44	210.27
396.82	210.24
397.19	210.47
397.57	210.44
397.95	210.61
398.32	210.57
398.70	210.54
399.07	210.63
399.45	210.64
399.82	210.65
400.20	210.65
400.58	210.68
400.95	210.57
401.33	210.68
401.70	211.05
402.08	211.12
402.45	211.19
402.83	211.26
403.20	211.40
403.58	211.46
403.95	211.56
404.33	211.75
404.71	211.83
405.08	212.03
405.46	212.15
405.83	212.24
406.21	212.32
406.58	212.50
406.96	212.65
407.33	212.92
407.70	213.12
408.08	213.55
408.45	213.83
408.83	214.11
409.20	214.29
409.58	214.28
409.95	214.64
410.33	214.85
410.70	215.05
411.08	215.42
411.45	215.68
411.82	215.98
412.20	216.36
412.57	217.01
412.95	217.24
413.32	217.76
413.69	218.28
414.07	218.85
414.44	219.48
414.82	220.07
415.19	220.76
415.56	221.49
415.94	222.07
416.31	222.95
416.68	223.89
417.06	224.96
417.43	225.99
417.81	227.06
418.18	228.30
418.55	229.62
418.93	230.85
419.30	232.32
419.67	233.74
420.04	235.26
420.42	236.68
420.79	238.65
421.16	240.44
421.54	242.49
421.91	244.49
422.28	246.38
422.66	248.52
423.03	250.77
423.40	253.04
423.77	255.36
424.15	257.69
424.52	260.13
424.89	262.87
425.26	265.36
425.64	267.87
426.01	270.59
426.38	273.45
426.75	276.45
427.13	279.42
427.50	282.58
427.87	285.85
428.24	289.23
428.61	292.32
428.99	295.96
429.36	299.65
429.73	303.39
430.10	307.18
430.47	311.02
430.85	314.93
431.22	319.22
431.59	323.97
431.96	328.20
432.33	333.05
432.70	337.59
433.08	342.94
433.45	348.14
433.82	353.32
434.19	359.02
434.56	364.72
434.93	370.11
435.30	375.65
435.68	381.78
436.05	387.65
436.42	393.46
436.79	398.95
437.16	404.71
437.53	410.89
437.90	417.16
438.27	423.30
438.64	429.66
439.01	435.52
439.38	440.62
439.75	445.96
440.13	451.80
440.50	457.18
440.87	461.86
441.24	466.55
441.61	471.80
441.98	475.75
442.35	480.20
442.72	484.72
443.09	489.21
443.46	491.98
443.83	494.18
444.20	495.95
444.57	498.22
444.94	499.61
445.31	500.93
445.68	502.51
446.05	503.23
446.42	502.96
446.79	502.52
447.16	502.11
447.53	501.89
447.90	499.90
448.27	498.20
448.64	495.40
449.01	493.46
449.37	489.62
449.74	486.08
450.11	482.01
450.48	477.24
450.85	472.21
451.22	468.03
451.59	463.88
451.96	460.14
452.33	455.09
452.70	450.43
453.07	444.80
453.43	438.71
453.80	433.24
454.17	427.85
454.54	422.84
454.91	417.35
455.28	411.90
455.65	406.85
456.02	402.24
456.38	398.00
456.75	392.71
457.12	388.26
457.49	383.80
457.86	379.35
458.23	375.82
458.59	371.92
458.96	367.85
459.33	364.33
459.70	360.74
460.07	357.75
460.43	354.43
460.80	351.35
461.17	348.75
461.54	345.83
461.91	343.16
462.27	340.37
462.64	338.00
463.01	335.48
463.38	333.16
463.74	330.17
464.11	327.94
464.48	325.97
464.85	323.95
465.21	322.35
465.58	320.60
465.95	318.45
466.32	316.68
466.68	314.86
467.05	313.08
467.42	311.38
467.78	309.64
468.15	307.91
468.52	306.65
468.88	304.95
469.25	303.43
469.62	302.18
469.98	300.82
470.35	299.60
470.72	298.45
471.08	297.08
471.45	296.05
471.82	294.97
472.18	293.90
472.55	293.04
472.92	292.00
473.28	291.03
473.65	290.13
474.02	289.21
474.38	288.59
474.75	288.03
475.11	287.28
475.48	286.72
475.85	286.18
476.21	285.60
476.58	285.13
476.94	284.72
477.31	284.36
477.67	284.05
478.04	283.72
478.41	283.47
478.77	283.55
479.14	283.26
479.50	283.25
479.87	283.09
480.23	282.92
480.60	282.72
480.96	282.53
481.33	282.61
481.69	282.61
482.06	282.67
482.42	282.57
482.79	282.57
483.15	282.65
483.52	282.92
483.88	283.08
484.25	283.16
484.61	283.40
484.98	283.43
485.34	283.74
485.71	284.05
486.07	284.32
486.44	284.36
486.80	284.85
487.17	285.12
487.53	285.65
487.90	286.20
488.26	286.92
488.62	287.64
488.99	288.15
489.35	288.74
489.72	289.31
490.08	290.09
490.44	290.79
490.81	291.66
491.17	292.33
491.54	293.21
491.90	294.21
492.26	295.17
492.63	296.22
492.99	297.11
493.36	298.10
493.72	299.18
494.08	300.26
494.45	301.39
494.81	302.65
495.17	303.80
495.54	305.09
495.90	306.24
496.26	307.45
496.63	308.80
496.99	310.20
497.35	311.50
497.72	312.87
498.08	314.22
498.44	315.47
498.80	316.91
499.17	318.31
499.53	319.56
499.89	320.95
500.26	322.30
500.62	323.65
500.98	325.15
501.34	326.46
501.71	327.86
502.07	329.11
502.43	330.33
502.79	331.46
503.16	332.61
503.52	333.82
503.88	334.96
504.24	336.11
504.60	337.18
504.97	338.39
505.33	339.42
505.69	340.74
506.05	341.92
506.41	342.97
506.78	344.02
507.14	345.05
507.50	345.92
507.86	346.93
508.22	347.89
508.59	348.68
508.95	349.63
509.31	350.57
509.67	351.37
510.03	352.19
510.39	353.01
510.75	353.75
511.12	354.47
511.48	355.21
511.84	355.87
512.20	356.53
512.56	357.10
512.92	357.68
513.28	358.19
513.64	358.55
514.00	358.98
514.37	359.34
514.73	359.82
515.09	360.40
515.45	360.68
515.81	361.09
516.17	361.41
516.53	361.66
516.89	361.74
517.25	362.12
517.61	362.52
517.97	362.79
518.33	363.09
518.69	363.37
519.05	363.71
519.41	364.11
519.77	364.70
520.13	364.98
520.49	365.34
520.85	365.63
521.21	366.17
521.57	366.50
521.93	366.84
522.29	367.24
522.65	367.68
523.01	368.25
523.37	368.72
523.73	369.25
524.09	369.81
524.45	370.46
524.81	371.03
525.17	371.66
525.53	372.42
525.89	373.10
526.25	373.97
526.61	374.75
526.97	375.47
527.33	376.21
527.68	377.50
528.04	378.50
528.40	379.40
528.76	380.44
529.12	381.72
529.48	383.06
529.84	384.27
530.20	385.48
530.56	386.75
530.91	388.21
531.27	389.75
531.63	391.27
531.99	392.80
532.35	394.34
532.71	395.85
533.07	397.64
533.42	399.77
533.78	401.38
534.14	403.20
534.50	404.97
534.86	406.93
535.21	408.38
535.57	410.42
535.93	412.40
536.29	414.46
536.65	416.49
537.00	418.49
537.36	420.58
537.72	422.53
538.08	424.94
538.44	427.03
538.79	429.22
539.15	431.56
539.51	433.96
539.87	436.33
540.22	438.71
540.58	441.15
540.94	443.41
541.29	446.00
541.65	448.31
542.01	450.92
542.37	453.39
542.72	456.10
543.08	458.60
543.44	461.36
543.79	463.79
544.15	466.59
544.51	469.30
544.87	472.22
545.22	475.15
545.58	477.63
545.94	480.27
546.29	482.92
546.65	485.59
547.01	488.14
547.36	491.05
547.72	493.87
548.07	496.53
548.43	499.01
548.79	501.69
549.14	504.51
549.50	507.24
549.86	509.77
550.21	512.45
550.57	515.20
550.92	517.71
551.28	520.41
551.64	522.81
551.99	525.48
552.35	527.84
552.70	530.26
553.06	532.85
553.41	535.43
553.77	538.19
554.13	540.63
554.48	543.26
554.84	545.58
555.19	547.81
555.55	550.30
555.90	552.73
556.26	554.79
556.61	556.98
556.97	559.05
557.32	561.29
557.68	563.40
558.03	565.52
558.39	567.65
558.74	569.99
559.10	572.37
559.45	574.41
559.81	576.57
560.16	578.73
560.52	580.87
560.87	582.93
561.23	584.72
561.58	586.94
561.94	588.96
562.29	591.03
562.64	593.25
563.00	595.04
563.35	597.00
563.71	599.23
564.06	601.24
564.42	603.27
564.77	605.32
565.12	607.51
565.48	609.53
565.83	611.61
566.19	613.18
566.54	614.60
566.89	616.27
567.25	618.21
567.60	620.12
567.96	621.96
568.31	623.80
568.66	625.47
569.02	626.65
569.37	627.84
569.72	629.07
570.08	630.19
570.43	631.38
570.78	632.26
571.14	633.11
571.49	634.09
571.84	634.97
572.20	635.65
572.55	636.27
572.90	636.57
573.26	636.98
573.61	637.54
573.96	638.05
574.31	638.50
574.67	638.50
575.02	638.43
575.37	638.25
575.72	638.11
576.08	638.02
576.43	638.10
576.78	638.27
577.13	638.32
577.49	638.52
577.84	638.54
578.19	638.96
578.54	639.45
578.90	639.54
579.25	639.70
579.60	639.88
579.95	639.76
580.30	640.01
580.66	640.14
581.01	640.16
581.36	640.24
581.71	640.08
582.06	640.21
582.42	640.34
582.77	640.13
583.12	640.07
583.47	640.13
583.82	640.05
584.17	639.88
584.53	640.03
584.88	639.75
585.23	639.62
585.58	639.20
585.93	638.64
586.28	638.43
586.63	638.30
586.98	638.11
587.34	638.05
587.69	637.63
588.04	637.33
588.39	636.96
588.74	636.44
589.09	636.36
589.44	635.79
589.79	635.38
590.14	635.22
590.49	634.70
590.84	634.09
591.19	633.80
591.54	633.43
591.89	632.48
592.25	631.87
592.60	631.10
592.95	630.41
593.30	629.58
593.65	628.66
594.00	627.70
594.35	627.56
594.70	626.73
595.05	625.97
595.40	625.04
595.75	624.15
596.10	623.38
596.45	622.52
596.80	621.80
597.15	621.04
597.50	620.02
597.85	619.37
598.19	618.63
598.54	617.66
598.89	616.71
599.24	616.12
599.59	615.44
599.94	614.81
600.29	613.90
600.64	613.06
600.99	612.28
601.34	611.52
601.69	609.87
602.04	608.77
602.39	607.86
602.74	607.21
603.08	606.52
603.43	606.04
603.78	605.14
604.13	604.35
604.48	603.29
604.83	602.72
605.18	601.88
605.53	601.04
605.87	600.23
606.22	599.43
606.57	598.44
606.92	597.33
607.27	596.24
607.62	595.33
607.96	594.62
608.31	593.98
608.66	592.80
609.01	591.60
609.36	590.60
609.70	589.47
610.05	588.25
610.40	587.08
610.75	585.53
611.10	584.42
611.44	582.96
611.79	581.62
612.14	580.13
612.49	578.76
612.83	577.25
613.18	575.73
613.53	574.23
613.88	572.63
614.22	571.19
614.57	569.67
614.92	568.28
615.27	566.68
615.61	564.77
615.96	563.47
616.31	562.15
616.65	560.82
617.00	559.31
617.35	557.86
617.70	556.15
618.04	554.61
618.39	552.81
618.74	551.37
619.08	549.80
619.43	548.28
619.78	546.51
620.12	544.89
620.47	543.35
620.82	541.57
621.16	539.82
621.51	538.29
621.85	536.79
622.20	535.08
622.55	533.32
622.89	531.74
623.24	530.00
623.59	528.18
623.93	526.50
624.28	524.87
624.62	523.39
624.97	521.93
625.32	520.26
625.66	518.65
626.01	516.89
626.35	515.40
626.70	513.65
627.04	512.26
627.39	510.74
627.73	509.29
628.08	507.97
628.43	506.42
628.77	504.65
629.12	503.10
629.46	501.63
629.81	500.05
630.15	498.45
630.50	496.79
630.84	495.24
631.19	493.54
631.53	492.13
631.88	490.18
632.22	488.34
632.57	486.85
632.91	485.25
633.26	483.80
633.60	482.14
633.95	480.74
634.29	479.04
634.64	477.57
634.98	475.77
635.32	474.22
635.67	472.89
636.01	471.52
636.36	469.80
636.70	468.25
637.05	466.72
637.39	465.29
637.73	463.86
638.08	462.65
638.42	461.26
638.77	459.67
639.11	458.25
639.45	456.69
639.80	454.91
640.14	453.39
640.49	451.80
640.83	450.26
641.17	448.68
641.52	447.00
641.86	445.32
642.20	443.96
642.55	442.17
642.89	440.64
643.23	438.99
643.58	437.74
643.92	436.15
644.26	434.67
644.61	433.13
644.95	431.42
645.29	429.60
645.64	427.98
645.98	426.37
646.32	424.85
646.66	423.32
647.01	421.95
647.35	420.44
647.69	418.83
648.04	417.39
648.38	415.87
648.72	414.58
649.06	413.06
649.41	411.42
649.75	409.97
650.09	408.35
650.43	406.84
650.78	405.13
651.12	403.50
651.46	401.95
651.80	400.51
652.14	399.06
652.49	397.66
652.83	396.27
653.17	394.75
653.51	393.22
653.85	392.02
654.20	390.64
654.54	389.05
654.88	387.46
655.22	385.92
655.56	384.35
655.90	382.75
656.25	381.24
656.59	379.73
656.93	378.42
657.27	377.16
657.61	375.61
657.95	374.19
658.29	372.88
658.64	371.49
658.98	369.93
659.32	368.58
659.66	367.16
660.00	365.57
660.34	364.17
660.68	362.69
661.02	361.07
661.36	359.58
661.70	358.33
662.05	357.15
662.39	355.93
662.73	354.80
663.07	353.72
663.41	352.53
663.75	351.27
664.09	349.93
664.43	348.39
664.77	347.11
665.11	345.85
665.45	344.62
665.79	343.53
666.13	342.35
666.47	341.11
666.81	339.92
667.15	338.79
667.49	337.72
667.83	336.81
668.17	335.80
668.51	334.85
668.85	333.83
669.19	332.87
669.53	331.66
669.87	330.37
670.21	329.11
670.55	328.00
670.89	327.27
671.23	326.26
671.57	325.40
671.91	324.53
672.25	323.54
672.58	322.62
672.92	321.45
673.26	320.54
673.60	319.60
673.94	318.66
674.28	317.68
674.62	316.85
674.96	315.88
675.30	314.94
675.64	314.02
675.97	313.04
676.31	312.07
676.65	311.23
676.99	310.62
677.33	309.69
677.67	308.82
678.01	307.64
678.34	306.76
678.68	305.83
679.02	304.97
679.36	304.12
679.70	303.26
680.04	302.44
680.37	301.51
680.71	300.57
681.05	299.78
681.39	298.97
681.73	298.07
682.06	297.24
682.40	296.47
682.74	295.67
683.08	295.03
683.42	294.25
683.75	293.50
684.09	292.60
684.43	291.85
684.77	291.05
685.10	290.34
685.44	289.53
685.78	288.84
686.12	288.10
686.45	287.38
686.79	286.58
687.13	285.97
687.46	285.35
687.80	284.91
688.14	284.17
688.48	283.63
688.81	282.83
689.15	282.08
689.49	281.37
689.82	280.66
690.16	279.88
690.50	279.13
690.83	278.32
691.17	277.52
691.51	276.85
691.84	276.24
692.18	275.54
692.52	274.93
692.85	274.29
693.19	273.64
693.52	272.98
693.86	272.39
694.20	271.76
694.53	271.07
694.87	270.20
695.21	269.52
695.54	268.82
695.88	268.20
696.21	267.55
696.55	266.98
696.88	266.33
697.22	265.65
697.56	265.17
697.89	264.69
698.23	264.24
698.56	263.71
698.90	263.26
699.23	262.78
699.57	262.24
699.90	261.64
700.24	261.08
700.58	260.55
700.91	260.05
701.25	259.77
701.58	259.36
701.92	258.92
702.25	258.46
702.59	257.97
702.92	257.58
703.26	257.14
703.59	256.70
703.93	256.64
704.26	256.22
704.60	255.79
704.93	255.27
705.26	254.78
705.60	254.42
705.93	253.83
706.27	253.36
706.60	253.00
706.94	252.82
707.27	252.35
707.61	251.91
707.94	251.46
708.27	250.80
708.61	250.37
708.94	249.96
709.28	249.54
709.61	249.15
709.94	248.76
710.28	248.35
710.61	248.00
710.95	247.16
711.28	247.04
711.61	246.58
711.95	246.32
712.28	245.97
712.61	245.53
712.95	245.32
713.28	245.24
713.61	244.83
713.95	244.29
714.28	244.05
714.61	243.78
714.95	243.38
715.28	242.97
715.61	242.63
715.95	242.38
716.28	242.05
716.61	241.75
716.95	241.37
717.28	241.11
717.61	240.75
717.94	240.53
718.28	239.97
718.61	239.65
718.94	239.31
719.27	238.99
719.61	238.71
719.94	238.45
720.27	237.89
720.60	237.63
720.94	237.35
721.27	237.04
721.60	236.82
721.93	236.57
722.27	236.50
722.60	236.32
722.93	236.06
723.26	235.91
723.59	235.63
723.93	235.47
724.26	235.17
724.59	234.92
724.92	234.73
725.25	234.60
725.59	234.37
725.92	234.20
726.25	233.95
726.58	233.77
726.91	233.48
727.24	233.32
727.57	233.07
727.91	232.85
728.24	232.76
728.57	232.48
728.90	232.31
729.23	231.97
729.56	231.94
729.89	231.68
730.22	231.38
730.55	231.14
730.89	230.84
731.22	230.64
731.55	230.41
731.88	230.28
732.21	230.05
732.54	229.83
732.87	229.56
733.20	229.40
733.53	229.19
733.86	229.00
734.19	228.84
734.52	228.71
734.85	228.80
735.18	228.46
735.51	228.42
735.84	228.30
736.17	228.18
736.50	227.78
736.83	228.07
737.16	227.95
737.49	227.76
737.82	227.58
738.15	227.45
738.48	227.32
738.81	227.07
739.14	226.85
739.47	226.71
739.80	226.58
740.13	226.52
740.46	226.33
740.79	226.20
741.12	226.04
741.45	225.81
741.78	225.45
742.11	225.43
742.44	225.16
742.77	225.04
743.10	224.83
743.43	224.64
743.75	224.10
744.08	224.35
744.41	224.24
744.74	224.12
745.07	223.92
745.40	223.87
745.73	223.89
746.06	223.74
746.39	223.70
746.71	223.53
747.04	223.30
747.37	223.17
747.70	223.01
748.03	222.90
748.36	222.85
748.68	222.71
749.01	222.46
749.34	222.36
749.67	222.24
750.00	222.15
750.33	222.40
750.65	222.35
750.98	221.90
751.31	221.78
751.64	221.76
751.97	221.87
752.29	221.73
752.62	221.48
752.95	221.41
753.28	221.23
753.60	221.18
753.93	221.24
754.26	221.14
754.59	220.97
754.91	220.79
755.24	220.65
755.57	220.55
755.90	220.44
756.22	220.35
756.55	220.22
756.88	220.14
757.20	219.75
757.53	219.55
757.86	219.40
758.19	219.42
758.51	219.28
758.84	218.99
759.17	218.85
759.49	218.77
759.82	218.81
760.15	218.78
760.47	218.65
760.80	218.47
761.13	218.44
761.45	218.42
761.78	218.38
762.11	218.25
762.43	218.19
762.76	218.19
763.08	218.15
763.41	218.08
763.74	217.97
764.06	217.96
764.39	217.91
764.71	217.81
765.04	217.66
765.37	217.58
765.69	217.54
766.02	217.49
766.34	217.34
766.67	217.10
767.00	217.06
767.32	217.19
767.65	217.26
767.97	217.26
768.30	217.20
768.62	217.09
768.95	217.12
769.27	217.00
769.60	216.98
769.92	216.86
770.25	216.69
770.57	216.58
770.90	216.46
771.22	216.33
771.55	216.35
771.87	216.33
772.20	216.23
772.52	216.43
772.85	216.74
773.17	216.74
773.50	216.70
773.82	216.60
774.15	216.39
774.47	216.13
774.80	215.98
775.12	215.87
775.45	215.87
775.77	215.81
776.09	215.84
776.42	215.78
776.74	215.74
777.07	215.72
777.39	215.68
777.72	215.58
778.04	215.66
778.36	215.53
778.69	215.49
779.01	215.51
779.33	215.23
779.66	214.84
779.98	214.81
780.31	214.82
780.63	214.96
780.95	214.94
781.28	214.94
781.60	214.88
781.92	214.86
782.25	214.76
782.57	214.72
782.89	214.65
783.22	214.53
783.54	214.48
783.86	214.51
784.19	214.50
784.51	214.64
784.83	214.58
785.16	214.51
785.48	214.55
785.80	214.56
786.12	214.59
786.45	214.52
786.77	214.48
787.09	214.41
787.42	214.20
787.74	214.15
788.06	214.18
788.38	214.12
788.71	214.14
789.03	214.18
789.35	214.22
789.67	214.16
789.99	214.19
790.32	214.14
790.64	214.09
790.96	214.33
791.28	214.14
791.61	214.04
791.93	214.07
792.25	213.96
792.57	214.12
792.89	213.98
793.21	214.01
793.54	214.02
793.86	213.97
794.18	214.03
