SpectraSuite Data File
++++++++++++++++++++++++++++++++++++
Date: Mon Feb 25 17:03:45 EST 2013
User: group
Dark Spectrum Present: No
Reference Spectrum Present: No
Number of Sampled Component Spectra: 1
Spectrometers: USB2E7196
Integration Time (usec): 104000 (USB2E7196)
Spectra Averaged: 20 (USB2E7196)
Boxcar Smoothing: 10 (USB2E7196)
Correct for Electrical Dark: No (USB2E7196)
Strobe/Lamp Enabled: No (USB2E7196)
Correct for Detector Non-linearity: No (USB2E7196)
Correct for Stray Light: No (USB2E7196)
Number of Pixels in Processed Spectrum: 2048
>>>>>Begin Processed Spectral Data<<<<<
339.09	0.00
339.48	198.00
339.86	199.65
340.24	201.15
340.63	202.25
341.01	209.55
341.39	206.30
341.78	207.60
342.16	209.60
342.54	209.25
342.93	198.38
343.31	208.39
343.69	208.95
344.07	209.40
344.46	209.81
344.84	210.29
345.22	210.33
345.60	210.57
345.99	210.76
346.37	210.82
346.75	210.90
347.13	210.93
347.52	210.92
347.90	211.00
348.28	210.97
348.66	211.11
349.05	210.95
349.43	211.03
349.81	211.09
350.19	211.14
350.57	211.14
350.96	211.18
351.34	211.28
351.72	211.35
352.10	211.49
352.48	211.62
352.87	211.55
353.25	211.59
353.63	211.59
354.01	211.56
354.39	211.66
354.77	211.74
355.15	211.89
355.54	211.88
355.92	211.79
356.30	211.87
356.68	212.11
357.06	212.20
357.44	212.14
357.82	212.19
358.20	212.25
358.58	212.29
358.97	212.35
359.35	212.39
359.73	212.46
360.11	212.39
360.49	212.34
360.87	212.43
361.25	212.47
361.63	212.63
362.01	212.72
362.39	212.63
362.77	212.65
363.15	212.65
363.53	212.73
363.91	212.82
364.29	212.80
364.67	212.42
365.05	212.49
365.43	212.57
365.81	212.57
366.19	212.71
366.57	212.87
366.95	212.92
367.33	212.88
367.71	212.87
368.09	213.01
368.47	213.05
368.85	213.01
369.23	213.11
369.61	212.99
369.99	213.05
370.37	213.13
370.75	213.30
371.13	213.20
371.51	213.09
371.89	213.06
372.27	213.09
372.65	213.14
373.03	213.11
373.41	213.06
373.78	212.98
374.16	212.75
374.54	212.55
374.92	212.45
375.30	212.40
375.68	212.31
376.06	212.30
376.44	212.26
376.82	212.27
377.19	212.19
377.57	212.10
377.95	211.98
378.33	211.91
378.71	211.63
379.09	211.66
379.47	211.70
379.84	211.63
380.22	211.59
380.60	211.49
380.98	211.37
381.36	211.37
381.73	211.31
382.11	211.34
382.49	211.35
382.87	211.25
383.25	211.20
383.62	211.54
384.00	211.38
384.38	211.28
384.76	211.32
385.13	211.41
385.51	211.45
385.89	211.36
386.27	211.29
386.64	211.24
387.02	211.19
387.40	211.07
387.78	211.06
388.15	211.04
388.53	210.96
388.91	210.95
389.29	210.86
389.66	210.89
390.04	210.81
390.42	210.75
390.79	210.80
391.17	210.76
391.55	210.47
391.92	210.43
392.30	210.49
392.68	210.35
393.05	210.38
393.43	210.33
393.81	210.27
394.18	210.22
394.56	210.24
394.94	210.28
395.31	210.28
395.69	210.37
396.06	210.35
396.44	210.36
396.82	210.31
397.19	210.43
397.57	210.37
397.95	210.47
398.32	210.47
398.70	210.45
399.07	210.53
399.45	210.49
399.82	210.51
400.20	210.51
400.58	210.56
400.95	210.38
401.33	210.47
401.70	210.79
402.08	210.93
402.45	210.98
402.83	211.08
403.20	211.16
403.58	211.16
403.95	211.32
404.33	211.45
404.71	211.58
405.08	211.81
405.46	211.90
405.83	211.92
406.21	212.06
406.58	212.22
406.96	212.36
407.33	212.48
407.70	212.74
408.08	213.18
408.45	213.44
408.83	213.66
409.20	213.88
409.58	213.92
409.95	214.14
410.33	214.45
410.70	214.72
411.08	215.19
411.45	215.60
411.82	215.81
412.20	216.30
412.57	216.95
412.95	217.17
413.32	217.80
413.69	218.38
414.07	218.97
414.44	219.62
414.82	220.31
415.19	221.15
415.56	221.90
415.94	222.51
416.31	223.42
416.68	224.40
417.06	225.48
417.43	226.61
417.81	227.81
418.18	229.08
418.55	230.37
418.93	231.68
419.30	233.13
419.67	234.79
420.04	236.34
420.42	237.92
420.79	240.05
421.16	241.87
421.54	244.02
421.91	246.08
422.28	248.17
422.66	250.45
423.03	252.87
423.40	255.27
423.77	257.81
424.15	260.32
424.52	262.98
424.89	265.96
425.26	268.71
425.64	271.42
426.01	274.46
426.38	277.50
426.75	280.65
427.13	283.85
427.50	287.28
427.87	290.92
428.24	294.50
428.61	297.84
428.99	301.76
429.36	305.83
429.73	309.90
430.10	314.04
430.47	318.26
430.85	322.56
431.22	327.13
431.59	332.15
431.96	336.90
432.33	342.10
432.70	347.13
433.08	352.94
433.45	358.54
433.82	364.03
434.19	370.24
434.56	376.28
434.93	382.10
435.30	387.86
435.68	394.30
436.05	400.68
436.42	407.05
436.79	412.96
437.16	419.17
437.53	425.84
437.90	432.47
438.27	439.03
438.64	445.63
439.01	451.98
439.38	457.49
439.75	463.00
440.13	469.21
440.50	475.09
440.87	480.17
441.24	485.26
441.61	490.82
441.98	495.18
442.35	500.06
442.72	504.98
443.09	509.85
443.46	512.83
443.83	515.07
444.20	517.03
444.57	519.68
444.94	521.22
445.31	522.87
445.68	524.58
446.05	525.41
446.42	525.21
446.79	524.94
447.16	524.50
447.53	524.33
447.90	522.43
448.27	520.35
448.64	517.31
449.01	515.21
449.37	511.27
449.74	507.25
450.11	503.00
450.48	497.93
450.85	492.60
451.22	488.13
451.59	483.85
451.96	479.74
452.33	474.22
452.70	469.14
453.07	462.86
453.43	456.40
453.80	450.46
454.17	444.75
454.54	439.17
454.91	433.23
455.28	427.44
455.65	422.02
456.02	417.06
456.38	412.46
456.75	406.75
457.12	402.04
457.49	397.41
457.86	392.47
458.23	388.64
458.59	384.42
458.96	380.10
459.33	376.17
459.70	372.26
460.07	369.15
460.43	365.75
460.80	362.54
461.17	359.61
461.54	356.62
461.91	353.64
462.27	350.66
462.64	348.16
463.01	345.36
463.38	342.72
463.74	339.61
464.11	337.21
464.48	335.11
464.85	332.73
465.21	331.03
465.58	329.24
465.95	326.87
466.32	324.95
466.68	323.11
467.05	321.24
467.42	319.43
467.78	317.40
468.15	315.47
468.52	314.17
468.88	312.38
469.25	310.64
469.62	309.38
469.98	307.94
470.35	306.70
470.72	305.39
471.08	303.89
471.45	302.74
471.82	301.59
472.18	300.42
472.55	299.48
472.92	298.38
473.28	297.33
473.65	296.48
474.02	295.58
474.38	294.84
474.75	294.18
475.11	293.37
475.48	292.78
475.85	292.21
476.21	291.47
476.58	290.96
476.94	290.67
477.31	290.22
477.67	289.82
478.04	289.41
478.41	289.17
478.77	289.24
479.14	288.91
479.50	288.69
479.87	288.51
480.23	288.44
480.60	288.22
480.96	288.05
481.33	288.15
481.69	288.07
482.06	288.00
482.42	287.98
482.79	288.01
483.15	288.08
483.52	288.31
483.88	288.51
484.25	288.72
484.61	288.84
484.98	289.06
485.34	289.48
485.71	289.85
486.07	290.19
486.44	290.34
486.80	290.74
487.17	291.19
487.53	291.86
487.90	292.50
488.26	293.29
488.62	294.12
488.99	294.60
489.35	295.33
489.72	296.06
490.08	296.89
490.44	297.71
490.81	298.62
491.17	299.41
491.54	300.40
491.90	301.44
492.26	302.49
492.63	303.52
492.99	304.50
493.36	305.73
493.72	306.92
494.08	308.12
494.45	309.54
494.81	310.95
495.17	312.14
495.54	313.55
495.90	314.76
496.26	315.93
496.63	317.35
496.99	318.76
497.35	320.23
497.72	321.65
498.08	323.11
498.44	324.52
498.80	326.04
499.17	327.47
499.53	328.79
499.89	330.31
500.26	331.82
500.62	333.31
500.98	334.66
501.34	336.02
501.71	337.55
502.07	338.78
502.43	340.02
502.79	341.36
503.16	342.50
503.52	343.74
503.88	344.97
504.24	346.25
504.60	347.43
504.97	348.67
505.33	349.78
505.69	351.11
506.05	352.26
506.41	353.29
506.78	354.24
507.14	355.12
507.50	356.01
507.86	356.82
508.22	357.66
508.59	358.49
508.95	359.37
509.31	360.19
509.67	361.01
510.03	361.76
510.39	362.42
510.75	363.06
511.12	363.58
511.48	364.25
511.84	364.58
512.20	365.02
512.56	365.32
512.92	365.84
513.28	365.99
513.64	366.21
514.00	366.53
514.37	366.76
514.73	367.17
515.09	367.37
515.45	367.57
515.81	367.75
516.17	367.86
516.53	367.86
516.89	367.70
517.25	367.73
517.61	367.70
517.97	367.69
518.33	367.75
518.69	367.78
519.05	367.73
519.41	367.96
519.77	368.24
520.13	368.24
520.49	368.15
520.85	368.29
521.21	368.49
521.57	368.56
521.93	368.68
522.29	368.70
522.65	368.76
523.01	368.91
523.37	369.04
523.73	369.32
524.09	369.73
524.45	370.01
524.81	370.40
525.17	370.93
525.53	371.36
525.89	371.71
526.25	372.32
526.61	372.71
526.97	373.18
527.33	373.79
527.68	374.81
528.04	375.51
528.40	376.23
528.76	377.03
529.12	377.88
529.48	378.84
529.84	379.84
530.20	380.87
530.56	381.95
530.91	383.29
531.27	384.41
531.63	385.56
531.99	386.94
532.35	388.22
532.71	389.39
533.07	390.83
533.42	392.74
533.78	394.18
534.14	395.89
534.50	397.42
534.86	398.99
535.21	400.37
535.57	402.21
535.93	404.00
536.29	405.89
536.65	407.77
537.00	409.60
537.36	411.52
537.72	413.37
538.08	415.49
538.44	417.34
538.79	419.46
539.15	421.57
539.51	423.60
539.87	425.81
540.22	428.05
540.58	430.40
540.94	432.35
541.29	434.65
541.65	436.94
542.01	439.57
542.37	442.08
542.72	444.61
543.08	447.04
543.44	449.65
543.79	452.04
544.15	454.71
544.51	457.63
544.87	460.40
545.22	463.38
545.58	465.90
545.94	468.68
546.29	471.35
546.65	473.95
547.01	476.72
547.36	479.44
547.72	482.30
548.07	484.98
548.43	487.68
548.79	490.41
549.14	493.09
549.50	495.68
549.86	498.25
550.21	501.20
550.57	503.91
550.92	506.37
551.28	509.12
551.64	511.64
551.99	514.15
552.35	516.57
552.70	519.04
553.06	521.72
553.41	524.23
553.77	526.96
554.13	529.52
554.48	532.40
554.84	535.00
555.19	537.45
555.55	540.14
555.90	542.60
556.26	545.00
556.61	547.40
556.97	549.66
557.32	552.07
557.68	554.15
558.03	556.46
558.39	558.81
558.74	561.14
559.10	563.45
559.45	565.83
559.81	568.21
560.16	570.42
560.52	572.59
560.87	574.87
561.23	576.79
561.58	579.31
561.94	581.03
562.29	583.04
562.64	585.16
563.00	586.95
563.35	588.92
563.71	591.14
564.06	593.20
564.42	595.40
564.77	597.39
565.12	599.48
565.48	601.70
565.83	603.80
566.19	605.68
566.54	607.42
566.89	609.08
567.25	611.08
567.60	613.12
567.96	615.16
568.31	616.90
568.66	618.57
569.02	619.69
569.37	621.14
569.72	622.52
570.08	623.99
570.43	625.29
570.78	626.59
571.14	627.48
571.49	628.40
571.84	629.31
572.20	630.14
572.55	631.04
572.90	631.44
573.26	631.95
573.61	632.54
573.96	633.25
574.31	633.60
574.67	633.84
575.02	633.86
575.37	633.85
575.72	633.86
576.08	634.24
576.43	634.43
576.78	634.66
577.13	635.05
577.49	635.14
577.84	635.39
578.19	635.62
578.54	636.15
578.90	636.63
579.25	636.93
579.60	637.03
579.95	636.80
580.30	636.95
580.66	637.23
581.01	637.10
581.36	637.00
581.71	637.12
582.06	637.29
582.42	637.37
582.77	637.40
583.12	637.51
583.47	637.42
583.82	637.54
584.17	637.47
584.53	637.52
584.88	637.37
585.23	637.21
585.58	636.84
585.93	636.33
586.28	636.04
586.63	635.70
586.98	635.59
587.34	635.62
587.69	635.28
588.04	634.79
588.39	634.64
588.74	634.42
589.09	634.23
589.44	633.66
589.79	633.12
590.14	632.82
590.49	632.39
590.84	631.84
591.19	631.65
591.54	631.29
591.89	630.28
592.25	629.99
592.60	629.21
592.95	628.61
593.30	627.90
593.65	627.01
594.00	626.33
594.35	626.35
594.70	625.38
595.05	624.66
595.40	623.83
595.75	622.80
596.10	622.02
596.45	621.07
596.80	620.45
597.15	619.95
597.50	618.98
597.85	618.29
598.19	617.36
598.54	616.30
598.89	615.41
599.24	614.77
599.59	613.60
599.94	613.01
600.29	612.27
600.64	611.50
600.99	610.76
601.34	609.96
601.69	608.27
602.04	607.33
602.39	606.59
602.74	606.06
603.08	605.39
603.43	604.74
603.78	603.69
604.13	602.77
604.48	601.81
604.83	601.17
605.18	600.36
605.53	599.57
605.87	598.68
606.22	597.80
606.57	596.91
606.92	596.08
607.27	595.01
607.62	594.00
607.96	593.20
608.31	592.37
608.66	591.27
609.01	590.13
609.36	588.96
609.70	587.63
610.05	586.22
610.40	585.11
610.75	583.67
611.10	582.75
611.44	581.24
611.79	579.87
612.14	578.41
612.49	576.70
612.83	575.53
613.18	573.87
613.53	572.38
613.88	570.74
614.22	569.22
614.57	567.66
614.92	566.16
615.27	564.51
615.61	562.83
615.96	561.29
616.31	559.97
616.65	558.90
617.00	557.55
617.35	556.10
617.70	554.58
618.04	553.00
618.39	551.11
618.74	549.64
619.08	547.90
619.43	546.31
619.78	544.82
620.12	543.17
620.47	541.75
620.82	540.07
621.16	538.46
621.51	536.95
621.85	535.43
622.20	533.83
622.55	532.17
622.89	530.53
623.24	528.88
623.59	527.02
623.93	525.34
624.28	523.68
624.62	522.42
624.97	520.89
625.32	519.33
625.66	517.95
626.01	516.32
626.35	514.86
626.70	513.18
627.04	511.61
627.39	509.96
627.73	508.54
628.08	507.11
628.43	505.37
628.77	503.67
629.12	501.97
629.46	500.60
629.81	499.00
630.15	497.34
630.50	495.80
630.84	494.15
631.19	492.45
631.53	490.94
631.88	488.91
632.22	487.11
632.57	485.58
632.91	483.96
633.26	482.58
633.60	480.98
633.95	479.57
634.29	477.98
634.64	476.45
634.98	474.65
635.32	473.25
635.67	472.01
636.01	470.46
636.36	468.79
636.70	467.22
637.05	465.74
637.39	464.39
637.73	462.85
638.08	461.78
638.42	460.40
638.77	458.90
639.11	457.43
639.45	455.96
639.80	454.26
640.14	452.76
640.49	451.16
640.83	449.58
641.17	447.92
641.52	446.29
641.86	444.56
642.20	443.14
642.55	441.26
642.89	439.65
643.23	438.05
643.58	436.81
643.92	435.07
644.26	433.52
644.61	431.95
644.95	430.42
645.29	428.62
645.64	427.02
645.98	425.32
646.32	423.76
646.66	422.00
647.01	420.57
647.35	419.02
647.69	417.44
648.04	415.98
648.38	414.38
648.72	412.88
649.06	411.38
649.41	409.89
649.75	408.43
650.09	406.93
650.43	405.54
650.78	403.97
651.12	402.40
651.46	400.93
651.80	399.49
652.14	397.94
652.49	396.47
652.83	394.87
653.17	393.49
653.51	391.98
653.85	390.78
654.20	389.30
654.54	387.77
654.88	386.10
655.22	384.63
655.56	383.16
655.90	381.68
656.25	380.25
656.59	378.75
656.93	377.43
657.27	376.15
657.61	374.49
657.95	373.09
658.29	371.81
658.64	370.52
658.98	369.01
659.32	367.56
659.66	366.12
660.00	364.76
660.34	363.28
660.68	361.91
661.02	360.46
661.36	359.13
661.70	357.88
662.05	356.71
662.39	355.51
662.73	354.46
663.07	353.43
663.41	352.25
663.75	350.93
664.09	349.62
664.43	348.18
664.77	347.05
665.11	345.76
665.45	344.59
665.79	343.33
666.13	342.15
666.47	340.94
666.81	339.89
667.15	338.73
667.49	337.70
667.83	336.71
668.17	335.54
668.51	334.40
668.85	333.26
669.19	332.28
669.53	331.16
669.87	329.88
670.21	328.67
670.55	327.63
670.89	326.81
671.23	325.87
671.57	324.95
671.91	323.97
672.25	322.99
672.58	322.07
672.92	321.08
673.26	320.21
673.60	319.39
673.94	318.45
674.28	317.54
674.62	316.70
674.96	315.63
675.30	314.81
675.64	314.04
675.97	313.24
676.31	312.32
676.65	311.36
676.99	310.76
677.33	309.91
677.67	309.05
678.01	308.03
678.34	307.05
678.68	306.19
679.02	305.33
679.36	304.46
679.70	303.55
680.04	302.71
680.37	301.77
680.71	300.90
681.05	300.06
681.39	299.17
681.73	298.33
682.06	297.55
682.40	296.83
682.74	296.00
683.08	295.25
683.42	294.42
683.75	293.76
684.09	292.78
684.43	292.02
684.77	291.16
685.10	290.36
685.44	289.59
685.78	288.82
686.12	288.06
686.45	287.29
686.79	286.51
687.13	285.81
687.46	285.10
687.80	284.56
688.14	283.76
688.48	283.25
688.81	282.49
689.15	281.88
689.49	281.07
689.82	280.35
690.16	279.48
690.50	278.76
690.83	277.97
691.17	277.21
691.51	276.58
691.84	275.95
692.18	275.27
692.52	274.62
692.85	273.99
693.19	273.50
693.52	272.95
693.86	272.20
694.20	271.56
694.53	270.94
694.87	270.18
695.21	269.57
695.54	268.80
695.88	268.12
696.21	267.41
696.55	266.87
696.88	266.35
697.22	265.73
697.56	265.18
697.89	264.59
698.23	264.12
698.56	263.45
698.90	262.90
699.23	262.35
699.57	261.85
699.90	261.29
700.24	260.72
700.58	260.17
700.91	259.87
701.25	259.62
701.58	259.17
701.92	258.68
702.25	258.21
702.59	257.76
702.92	257.39
703.26	256.92
703.59	256.46
703.93	256.23
704.26	255.82
704.60	255.38
704.93	254.95
705.26	254.45
705.60	254.12
705.93	253.68
706.27	253.33
706.60	252.95
706.94	252.71
707.27	252.21
707.61	251.75
707.94	251.24
708.27	250.53
708.61	249.97
708.94	249.68
709.28	249.24
709.61	248.79
709.94	248.36
710.28	248.02
710.61	247.60
710.95	246.86
711.28	246.74
711.61	246.36
711.95	246.08
712.28	245.70
712.61	245.27
712.95	245.05
713.28	244.83
713.61	244.44
713.95	243.96
714.28	243.59
714.61	243.31
714.95	242.90
715.28	242.54
715.61	242.22
715.95	241.82
716.28	241.47
716.61	241.15
716.95	240.76
717.28	240.41
717.61	240.14
717.94	239.86
718.28	239.38
718.61	239.09
718.94	238.74
719.27	238.51
719.61	238.20
719.94	237.84
720.27	237.43
720.60	237.13
720.94	236.89
721.27	236.70
721.60	236.49
721.93	236.29
722.27	236.19
722.60	236.02
722.93	235.80
723.26	235.66
723.59	235.40
723.93	235.18
724.26	234.97
724.59	234.70
724.92	234.52
725.25	234.34
725.59	234.14
725.92	233.99
726.25	233.74
726.58	233.64
726.91	233.50
727.24	233.35
727.57	233.12
727.91	232.82
728.24	232.65
728.57	232.36
728.90	232.24
729.23	231.95
729.56	231.96
729.89	231.77
730.22	231.55
730.55	231.40
730.89	231.30
731.22	231.14
731.55	230.97
731.88	230.75
732.21	230.53
732.54	230.29
732.87	230.01
733.20	229.81
733.53	229.58
733.86	229.33
734.19	229.04
734.52	228.92
734.85	229.05
735.18	228.74
735.51	228.67
735.84	228.52
736.17	228.42
736.50	228.01
736.83	228.24
737.16	228.07
737.49	227.90
737.82	227.68
738.15	227.53
738.48	227.35
738.81	227.19
739.14	226.98
739.47	226.80
739.80	226.63
740.13	226.53
740.46	226.35
740.79	226.17
741.12	226.06
741.45	225.80
741.78	225.42
742.11	225.42
742.44	225.14
742.77	225.00
743.10	224.80
743.43	224.71
743.75	224.15
744.08	224.41
744.41	224.24
744.74	224.11
745.07	223.88
745.40	223.85
745.73	223.89
746.06	223.79
746.39	223.73
746.71	223.66
747.04	223.50
747.37	223.39
747.70	223.33
748.03	223.16
748.36	223.14
748.68	223.02
749.01	222.80
749.34	222.74
749.67	222.66
750.00	222.57
750.33	222.62
750.65	222.55
750.98	222.04
751.31	222.00
751.64	221.95
751.97	222.11
752.29	221.90
752.62	221.66
752.95	221.55
753.28	221.32
753.60	221.20
753.93	221.18
754.26	221.06
754.59	220.87
754.91	220.77
755.24	220.63
755.57	220.48
755.90	220.42
756.22	220.30
756.55	220.07
756.88	219.89
757.20	219.62
757.53	219.47
757.86	219.42
758.19	219.39
758.51	219.23
758.84	218.89
759.17	218.84
759.49	218.73
759.82	218.85
760.15	218.79
760.47	218.67
760.80	218.54
761.13	218.53
761.45	218.42
761.78	218.36
762.11	218.35
762.43	218.29
762.76	218.16
763.08	218.12
763.41	218.13
763.74	218.14
764.06	218.02
764.39	217.98
764.71	217.81
765.04	217.67
765.37	217.62
765.69	217.57
766.02	217.53
766.34	217.42
766.67	217.15
767.00	217.15
767.32	217.33
767.65	217.44
767.97	217.29
768.30	217.24
768.62	217.15
768.95	217.02
769.27	216.98
769.60	217.05
769.92	216.94
770.25	216.80
770.57	216.60
770.90	216.63
771.22	216.51
771.55	216.49
771.87	216.41
772.20	216.37
772.52	216.65
772.85	217.04
773.17	217.04
773.50	216.97
773.82	216.90
774.15	216.57
774.47	216.27
774.80	216.21
775.12	216.16
775.45	216.08
775.77	216.14
776.09	216.06
776.42	216.01
776.74	216.05
777.07	215.99
777.39	216.02
777.72	215.86
778.04	215.83
778.36	215.74
778.69	215.76
779.01	215.71
779.33	215.36
779.66	214.85
779.98	214.75
780.31	214.69
780.63	214.75
780.95	214.84
781.28	214.78
781.60	214.81
781.92	214.84
782.25	214.83
782.57	214.72
782.89	214.63
783.22	214.51
783.54	214.40
783.86	214.43
784.19	214.42
784.51	214.56
784.83	214.52
785.16	214.44
785.48	214.32
785.80	214.27
786.12	214.24
786.45	214.20
786.77	214.26
787.09	214.31
787.42	214.19
787.74	214.16
788.06	214.18
788.38	214.07
788.71	213.96
789.03	213.98
789.35	214.01
789.67	213.96
789.99	213.94
790.32	213.90
790.64	213.85
790.96	214.04
791.28	213.86
791.61	213.88
791.93	213.90
792.25	213.91
792.57	214.24
792.89	214.12
793.21	214.07
793.54	214.05
793.86	213.88
794.18	213.91
