SpectraSuite Data File
++++++++++++++++++++++++++++++++++++
Date: Mon Feb 25 17:15:11 EST 2013
User: group
Dark Spectrum Present: No
Reference Spectrum Present: No
Number of Sampled Component Spectra: 1
Spectrometers: USB2E7196
Integration Time (usec): 104000 (USB2E7196)
Spectra Averaged: 20 (USB2E7196)
Boxcar Smoothing: 10 (USB2E7196)
Correct for Electrical Dark: No (USB2E7196)
Strobe/Lamp Enabled: No (USB2E7196)
Correct for Detector Non-linearity: No (USB2E7196)
Correct for Stray Light: No (USB2E7196)
Number of Pixels in Processed Spectrum: 2048
>>>>>Begin Processed Spectral Data<<<<<
339.09	0.00
339.48	198.80
339.86	199.95
340.24	201.70
340.63	202.40
341.01	209.10
341.39	206.35
341.78	208.55
342.16	209.20
342.54	209.75
342.93	198.47
343.31	208.48
343.69	209.02
344.07	209.54
344.46	210.04
344.84	210.47
345.22	210.58
345.60	210.82
345.99	210.97
346.37	211.09
346.75	211.15
347.13	211.20
347.52	211.27
347.90	211.54
348.28	211.58
348.66	211.79
349.05	211.75
349.43	211.83
349.81	211.81
350.19	211.87
350.57	212.00
350.96	212.11
351.34	212.24
351.72	212.33
352.10	212.38
352.48	212.37
352.87	212.42
353.25	212.48
353.63	212.55
354.01	212.63
354.39	212.76
354.77	212.86
355.15	212.96
355.54	213.03
355.92	212.93
356.30	213.00
356.68	213.20
357.06	213.28
357.44	213.22
357.82	213.31
358.20	213.43
358.58	213.47
358.97	213.57
359.35	213.65
359.73	213.77
360.11	213.80
360.49	213.86
360.87	213.86
361.25	213.91
361.63	214.07
362.01	214.11
362.39	214.05
362.77	214.07
363.15	214.09
363.53	214.02
363.91	214.06
364.29	214.09
364.67	213.73
365.05	213.73
365.43	213.84
365.81	213.86
366.19	213.93
366.57	213.99
366.95	213.87
367.33	213.79
367.71	213.67
368.09	213.70
368.47	213.68
368.85	213.71
369.23	213.80
369.61	213.62
369.99	213.71
370.37	213.68
370.75	213.84
371.13	213.72
371.51	213.65
371.89	213.62
372.27	213.56
372.65	213.57
373.03	213.56
373.41	213.45
373.78	213.37
374.16	213.18
374.54	213.06
374.92	213.06
375.30	213.08
375.68	213.04
376.06	213.08
376.44	212.96
376.82	212.89
377.19	212.83
377.57	212.77
377.95	212.60
378.33	212.60
378.71	212.33
379.09	212.35
379.47	212.45
379.84	212.39
380.22	212.32
380.60	212.25
380.98	212.11
381.36	212.09
381.73	211.96
382.11	212.01
382.49	212.00
382.87	211.89
383.25	211.82
383.62	212.21
384.00	212.06
384.38	212.07
384.76	212.10
385.13	212.19
385.51	212.23
385.89	212.12
386.27	212.03
386.64	212.05
387.02	211.99
387.40	211.89
387.78	211.81
388.15	211.83
388.53	211.79
388.91	211.85
389.29	211.76
389.66	211.84
390.04	211.77
390.42	211.83
390.79	211.83
391.17	211.85
391.55	211.39
391.92	211.38
392.30	211.44
392.68	211.38
393.05	211.26
393.43	211.24
393.81	211.31
394.18	211.27
394.56	211.30
394.94	211.43
395.31	211.37
395.69	211.58
396.06	211.58
396.44	211.65
396.82	211.57
397.19	211.74
397.57	211.68
397.95	211.79
398.32	211.66
398.70	211.69
399.07	211.72
399.45	211.72
399.82	211.81
400.20	211.74
400.58	211.78
400.95	211.68
401.33	211.75
401.70	211.99
402.08	212.12
402.45	212.13
402.83	212.21
403.20	212.29
403.58	212.25
403.95	212.37
404.33	212.44
404.71	212.54
405.08	212.88
405.46	213.04
405.83	213.09
406.21	213.27
406.58	213.50
406.96	213.58
407.33	213.81
407.70	213.98
408.08	214.44
408.45	214.64
408.83	214.95
409.20	215.11
409.58	215.15
409.95	215.46
410.33	215.74
410.70	215.93
411.08	216.29
411.45	216.59
411.82	216.90
412.20	217.36
412.57	217.96
412.95	218.01
413.32	218.53
413.69	219.00
414.07	219.42
414.44	219.91
414.82	220.48
415.19	221.14
415.56	221.76
415.94	222.26
416.31	223.08
416.68	223.85
417.06	224.79
417.43	225.72
417.81	226.58
418.18	227.61
418.55	228.62
418.93	229.70
419.30	230.89
419.67	232.05
420.04	233.26
420.42	234.43
420.79	236.21
421.16	237.66
421.54	239.39
421.91	241.11
422.28	242.72
422.66	244.45
423.03	246.45
423.40	248.30
423.77	250.19
424.15	252.09
424.52	254.15
424.89	256.43
425.26	258.51
425.64	260.59
426.01	262.78
426.38	265.08
426.75	267.45
427.13	269.83
427.50	272.47
427.87	275.14
428.24	277.80
428.61	280.21
428.99	283.11
429.36	286.00
429.73	288.95
430.10	292.09
430.47	295.31
430.85	298.21
431.22	301.53
431.59	305.26
431.96	308.67
432.33	312.42
432.70	316.08
433.08	320.32
433.45	324.42
433.82	328.52
434.19	332.95
434.56	337.42
434.93	341.49
435.30	345.69
435.68	350.25
436.05	354.84
436.42	359.31
436.79	363.38
437.16	367.75
437.53	372.36
437.90	376.92
438.27	381.40
438.64	386.06
439.01	390.47
439.38	394.14
439.75	397.95
440.13	402.24
440.50	406.15
440.87	409.35
441.24	412.64
441.61	416.30
441.98	419.06
442.35	422.08
442.72	425.39
443.09	428.50
443.46	430.33
443.83	431.58
444.20	432.50
444.57	433.88
444.94	434.69
445.31	435.38
445.68	436.35
446.05	436.56
446.42	436.05
446.79	435.42
447.16	434.78
447.53	434.31
447.90	432.38
448.27	430.52
448.64	428.17
449.01	426.37
449.37	423.28
449.74	420.26
450.11	416.99
450.48	413.03
450.85	408.98
451.22	405.59
451.59	402.24
451.96	399.15
452.33	395.20
452.70	391.35
453.07	386.88
453.43	382.03
453.80	377.61
454.17	373.43
454.54	369.37
454.91	365.16
455.28	360.80
455.65	356.96
456.02	353.57
456.38	350.20
456.75	346.16
457.12	342.72
457.49	339.39
457.86	335.90
458.23	333.23
458.59	330.17
458.96	327.13
459.33	324.49
459.70	321.81
460.07	319.55
460.43	317.09
460.80	314.80
461.17	312.81
461.54	310.74
461.91	308.75
462.27	306.75
462.64	305.03
463.01	303.32
463.38	301.60
463.74	299.34
464.11	297.67
464.48	296.25
464.85	294.65
465.21	293.59
465.58	292.37
465.95	290.79
466.32	289.54
466.68	288.31
467.05	287.05
467.42	285.79
467.78	284.56
468.15	283.39
468.52	282.64
468.88	281.40
469.25	280.42
469.62	279.67
469.98	278.86
470.35	278.12
470.72	277.25
471.08	276.37
471.45	275.73
471.82	275.24
472.18	274.50
472.55	274.09
472.92	273.39
473.28	272.89
473.65	272.39
474.02	271.98
474.38	271.69
474.75	271.43
475.11	271.10
475.48	270.92
475.85	270.78
476.21	270.47
476.58	270.49
476.94	270.44
477.31	270.33
477.67	270.23
478.04	270.17
478.41	270.32
478.77	270.65
479.14	270.75
479.50	270.82
479.87	271.02
480.23	271.29
480.60	271.59
480.96	271.94
481.33	272.57
481.69	273.07
482.06	273.44
482.42	273.86
482.79	274.49
483.15	275.08
483.52	275.84
483.88	276.52
484.25	277.18
484.61	277.97
484.98	278.84
485.34	279.95
485.71	281.04
486.07	282.08
486.44	283.05
486.80	284.22
487.17	285.60
487.53	287.21
487.90	288.74
488.26	290.46
488.62	292.20
488.99	293.80
489.35	295.54
489.72	297.46
490.08	299.57
490.44	301.74
490.81	304.11
491.17	306.31
491.54	308.96
491.90	311.76
492.26	314.53
492.63	317.45
492.99	320.44
493.36	323.62
493.72	327.12
494.08	330.65
494.45	334.37
494.81	338.25
495.17	342.17
495.54	346.35
495.90	350.59
496.26	355.02
496.63	359.85
496.99	364.75
497.35	369.95
497.72	375.40
498.08	380.92
498.44	386.63
498.80	392.80
499.17	398.98
499.53	405.27
499.89	412.04
500.26	418.95
500.62	426.06
500.98	433.53
501.34	441.09
501.71	448.99
502.07	457.16
502.43	465.39
502.79	473.88
503.16	482.78
503.52	491.96
503.88	501.31
504.24	510.90
504.60	520.75
504.97	531.02
505.33	541.21
505.69	552.17
506.05	563.31
506.41	574.57
506.78	586.07
507.14	597.79
507.50	609.72
507.86	622.05
508.22	634.73
508.59	647.51
508.95	660.61
509.31	674.00
509.67	687.64
510.03	701.73
510.39	716.16
510.75	730.68
511.12	745.46
511.48	760.56
511.84	775.85
512.20	791.32
512.56	807.19
512.92	823.35
513.28	839.39
513.64	855.56
514.00	871.86
514.37	888.38
514.73	905.53
515.09	922.68
515.45	939.75
515.81	956.78
516.17	974.08
516.53	991.82
516.89	1009.40
517.25	1027.05
517.61	1044.60
517.97	1062.29
518.33	1080.08
518.69	1097.89
519.05	1116.07
519.41	1134.21
519.77	1152.78
520.13	1170.64
520.49	1188.67
520.85	1206.72
521.21	1225.14
521.57	1243.81
521.93	1261.86
522.29	1280.41
522.65	1298.94
523.01	1317.23
523.37	1335.38
523.73	1353.70
524.09	1371.79
524.45	1390.24
524.81	1408.70
525.17	1427.36
525.53	1445.70
525.89	1463.84
526.25	1481.64
526.61	1498.99
526.97	1516.59
527.33	1533.73
527.68	1551.48
528.04	1568.78
528.40	1585.74
528.76	1602.60
529.12	1619.41
529.48	1637.27
529.84	1653.72
530.20	1669.95
530.56	1686.54
530.91	1703.74
531.27	1720.32
531.63	1736.19
531.99	1751.83
532.35	1767.27
532.71	1782.47
533.07	1797.94
533.42	1812.91
533.78	1828.31
534.14	1843.15
534.50	1857.01
534.86	1871.78
535.21	1885.12
535.57	1899.36
535.93	1912.86
536.29	1925.98
536.65	1939.43
537.00	1951.10
537.36	1963.14
537.72	1975.17
538.08	1987.42
538.44	1998.97
538.79	2010.45
539.15	2022.13
539.51	2033.53
539.87	2045.20
540.22	2055.80
540.58	2066.77
540.94	2077.45
541.29	2087.05
541.65	2096.41
542.01	2106.12
542.37	2115.15
542.72	2124.71
543.08	2132.71
543.44	2141.81
543.79	2149.78
544.15	2157.21
544.51	2165.81
544.87	2174.07
545.22	2181.29
545.58	2187.41
545.94	2193.43
546.29	2198.94
546.65	2204.04
547.01	2209.05
547.36	2213.61
547.72	2218.34
548.07	2222.03
548.43	2225.28
548.79	2228.62
549.14	2232.18
549.50	2235.57
549.86	2237.84
550.21	2240.09
550.57	2243.19
550.92	2244.90
551.28	2247.01
551.64	2249.05
551.99	2250.66
552.35	2251.79
552.70	2253.00
553.06	2254.49
553.41	2255.25
553.77	2256.39
554.13	2257.39
554.48	2258.10
554.84	2258.91
555.19	2259.02
555.55	2258.86
555.90	2258.51
556.26	2257.99
556.61	2257.26
556.97	2255.99
557.32	2255.40
557.68	2253.67
558.03	2251.81
558.39	2250.31
558.74	2249.50
559.10	2247.93
559.45	2246.05
559.81	2244.32
560.16	2242.40
560.52	2240.78
560.87	2238.76
561.23	2235.92
561.58	2233.50
561.94	2230.31
562.29	2226.86
562.64	2224.03
563.00	2221.25
563.35	2219.18
563.71	2217.30
564.06	2214.99
564.42	2212.65
564.77	2210.44
565.12	2208.49
565.48	2206.06
565.83	2203.72
566.19	2200.96
566.54	2197.16
566.89	2193.66
567.25	2190.42
567.60	2187.24
567.96	2183.33
568.31	2180.00
568.66	2176.31
569.02	2172.16
569.37	2167.90
569.72	2163.73
570.08	2159.45
570.43	2154.61
570.78	2149.51
571.14	2144.10
571.49	2138.74
571.84	2133.94
572.20	2127.96
572.55	2122.77
572.90	2116.76
573.26	2110.40
573.61	2103.89
573.96	2098.04
574.31	2091.41
574.67	2084.53
575.02	2077.41
575.37	2070.74
575.72	2063.50
576.08	2057.39
576.43	2050.42
576.78	2044.17
577.13	2038.07
577.49	2031.64
577.84	2025.27
578.19	2019.20
578.54	2013.41
578.90	2007.94
579.25	2001.34
579.60	1994.30
579.95	1987.07
580.30	1980.63
580.66	1974.59
581.01	1967.87
581.36	1961.11
581.71	1954.77
582.06	1948.29
582.42	1942.00
582.77	1934.69
583.12	1927.59
583.47	1921.18
583.82	1915.08
584.17	1908.40
584.53	1901.65
584.88	1895.34
585.23	1888.99
585.58	1882.16
585.93	1875.03
586.28	1868.30
586.63	1861.51
586.98	1855.55
587.34	1849.64
587.69	1843.35
588.04	1836.46
588.39	1830.24
588.74	1823.40
589.09	1817.26
589.44	1810.42
589.79	1803.98
590.14	1798.29
590.49	1792.07
590.84	1785.24
591.19	1779.40
591.54	1773.07
591.89	1765.50
592.25	1758.58
592.60	1751.14
592.95	1743.99
593.30	1736.48
593.65	1728.68
594.00	1721.73
594.35	1716.06
594.70	1709.25
595.05	1702.42
595.40	1696.01
595.75	1688.75
596.10	1682.76
596.45	1676.17
596.80	1670.40
597.15	1664.38
597.50	1657.66
597.85	1651.73
598.19	1645.01
598.54	1638.29
598.89	1632.25
599.24	1627.23
599.59	1621.36
599.94	1616.76
600.29	1611.25
600.64	1605.67
600.99	1599.55
601.34	1594.03
601.69	1586.76
602.04	1580.23
602.39	1574.04
602.74	1568.07
603.08	1562.92
603.43	1557.64
603.78	1551.64
604.13	1545.69
604.48	1539.73
604.83	1534.80
605.18	1530.08
605.53	1524.34
605.87	1518.30
606.22	1512.64
606.57	1506.48
606.92	1500.33
607.27	1493.52
607.62	1487.55
607.96	1482.25
608.31	1477.37
608.66	1470.78
609.01	1464.64
609.36	1458.61
609.70	1452.30
610.05	1445.64
610.40	1438.85
610.75	1431.78
611.10	1425.64
611.44	1418.24
611.79	1411.25
612.14	1403.79
612.49	1395.58
612.83	1389.01
613.18	1381.85
613.53	1374.68
613.88	1367.24
614.22	1360.50
614.57	1353.20
614.92	1345.82
615.27	1338.25
615.61	1330.74
615.96	1324.13
616.31	1317.94
616.65	1311.65
617.00	1305.27
617.35	1298.91
617.70	1292.11
618.04	1284.86
618.39	1277.14
618.74	1270.75
619.08	1263.75
619.43	1256.82
619.78	1250.38
620.12	1243.56
620.47	1237.00
620.82	1229.97
621.16	1223.06
621.51	1215.95
621.85	1209.55
622.20	1202.89
622.55	1195.99
622.89	1188.95
623.24	1182.18
623.59	1174.79
623.93	1167.96
624.28	1161.03
624.62	1154.46
624.97	1148.20
625.32	1142.05
625.66	1136.21
626.01	1129.76
626.35	1123.90
626.70	1117.57
627.04	1111.52
627.39	1105.46
627.73	1099.30
628.08	1093.50
628.43	1087.30
628.77	1081.03
629.12	1074.62
629.46	1069.16
629.81	1063.52
630.15	1057.65
630.50	1051.68
630.84	1045.70
631.19	1039.45
631.53	1033.62
631.88	1027.25
632.22	1020.63
632.57	1014.96
632.91	1008.99
633.26	1003.19
633.60	997.32
633.95	991.93
634.29	986.14
634.64	980.58
634.98	974.72
635.32	969.00
635.67	963.74
636.01	958.40
636.36	952.90
636.70	947.08
637.05	941.47
637.39	936.21
637.73	931.02
638.08	926.42
638.42	921.52
638.77	916.55
639.11	911.41
639.45	906.39
639.80	900.61
640.14	895.00
640.49	889.41
640.83	883.90
641.17	878.62
641.52	873.07
641.86	867.43
642.20	862.26
642.55	856.65
642.89	851.17
643.23	845.66
643.58	840.59
643.92	835.15
644.26	829.95
644.61	824.74
644.95	819.11
645.29	813.51
645.64	807.98
645.98	802.61
646.32	797.61
646.66	792.47
647.01	787.64
647.35	782.91
647.69	777.87
648.04	772.95
648.38	767.66
648.72	762.80
649.06	757.70
649.41	752.75
649.75	747.84
650.09	743.09
650.43	738.29
650.78	733.19
651.12	728.29
651.46	723.38
651.80	718.65
652.14	714.11
652.49	709.20
652.83	704.53
653.17	699.41
653.51	694.55
653.85	689.99
654.20	685.32
654.54	680.45
654.88	675.88
655.22	671.05
655.56	666.39
655.90	661.66
656.25	656.95
656.59	652.37
656.93	647.89
657.27	643.48
657.61	638.89
657.95	634.66
658.29	630.25
658.64	626.09
658.98	621.53
659.32	617.05
659.66	612.97
660.00	608.65
660.34	604.48
660.68	600.15
661.02	595.85
661.36	591.77
661.70	587.81
662.05	583.93
662.39	580.30
662.73	576.80
663.07	573.23
663.41	569.59
663.75	565.76
664.09	562.04
664.43	558.17
664.77	554.69
665.11	551.04
665.45	547.62
665.79	544.01
666.13	540.57
666.47	537.22
666.81	533.72
667.15	530.27
667.49	527.24
667.83	524.16
668.17	520.98
668.51	517.92
668.85	514.85
669.19	511.93
669.53	508.72
669.87	505.36
670.21	502.25
670.55	499.23
670.89	496.57
671.23	493.90
671.57	491.13
671.91	488.33
672.25	485.44
672.58	482.65
672.92	479.79
673.26	477.18
673.60	474.41
673.94	471.65
674.28	468.99
674.62	466.35
674.96	463.64
675.30	461.03
675.64	458.32
675.97	455.72
676.31	453.10
676.65	450.72
676.99	448.42
677.33	445.91
677.67	443.57
678.01	441.00
678.34	438.45
678.68	436.02
679.02	433.50
679.36	431.24
679.70	428.82
680.04	426.54
680.37	424.03
680.71	421.79
681.05	419.64
681.39	417.58
681.73	415.31
682.06	413.28
682.40	411.09
682.74	409.06
683.08	407.03
683.42	404.78
683.75	402.50
684.09	400.25
684.43	398.13
684.77	395.95
685.10	393.81
685.44	391.67
685.78	389.66
686.12	387.79
686.45	385.79
686.79	383.89
687.13	382.13
687.46	380.45
687.80	378.65
688.14	376.67
688.48	374.84
688.81	372.87
689.15	371.05
689.49	369.21
689.82	367.22
690.16	365.22
690.50	363.32
690.83	361.51
691.17	359.63
691.51	357.83
691.84	356.17
692.18	354.51
692.52	352.96
692.85	351.40
693.19	349.85
693.52	348.23
693.86	346.46
694.20	344.75
694.53	343.08
694.87	341.38
695.21	339.87
695.54	338.16
695.88	336.57
696.21	334.91
696.55	333.57
696.88	332.13
697.22	330.75
697.56	329.48
697.89	328.07
698.23	326.72
698.56	325.33
698.90	324.07
699.23	322.58
699.57	321.14
699.90	319.74
700.24	318.29
700.58	316.92
700.91	315.79
701.25	314.72
701.58	313.52
701.92	312.43
702.25	311.18
702.59	309.95
702.92	308.84
703.26	307.60
703.59	306.40
703.93	305.63
704.26	304.48
704.60	303.35
704.93	302.26
705.26	301.18
705.60	300.25
705.93	299.13
706.27	298.30
706.60	297.51
706.94	296.61
707.27	295.57
707.61	294.59
707.94	293.54
708.27	292.28
708.61	291.25
708.94	290.24
709.28	289.30
709.61	288.36
709.94	287.45
710.28	286.65
710.61	285.80
710.95	284.62
711.28	283.96
711.61	283.06
711.95	282.37
712.28	281.51
712.61	280.64
712.95	280.04
713.28	279.32
713.61	278.40
713.95	277.61
714.28	276.86
714.61	276.06
714.95	275.30
715.28	274.61
715.61	273.79
715.95	273.12
716.28	272.33
716.61	271.60
716.95	270.84
717.28	270.19
717.61	269.48
717.94	268.73
718.28	267.87
718.61	267.29
718.94	266.52
719.27	265.92
719.61	265.35
719.94	264.61
720.27	263.88
720.60	263.27
720.94	262.63
721.27	262.06
721.60	261.56
721.93	261.11
722.27	260.69
722.60	260.29
722.93	259.74
723.26	259.33
723.59	258.85
723.93	258.43
724.26	257.91
724.59	257.43
724.92	257.00
725.25	256.61
725.59	256.10
725.92	255.68
726.25	255.15
726.58	254.70
726.91	254.14
727.24	253.77
727.57	253.38
727.91	252.80
728.24	252.43
728.57	251.93
728.90	251.43
729.23	250.85
729.56	250.55
729.89	250.05
730.22	249.60
730.55	249.16
730.89	248.75
731.22	248.32
731.55	247.82
731.88	247.45
732.21	247.02
732.54	246.63
732.87	246.24
733.20	245.92
733.53	245.50
733.86	245.20
734.19	244.74
734.52	244.39
734.85	244.37
735.18	243.95
735.51	243.80
735.84	243.48
736.17	243.23
736.50	242.77
736.83	242.82
737.16	242.42
737.49	242.15
737.82	241.73
738.15	241.43
738.48	241.09
738.81	240.74
739.14	240.38
739.47	239.92
739.80	239.57
740.13	239.23
740.46	238.81
740.79	238.44
741.12	238.08
741.45	237.68
741.78	237.17
742.11	236.94
742.44	236.44
742.77	236.18
743.10	235.89
743.43	235.49
743.75	234.82
744.08	235.03
744.41	234.66
744.74	234.49
745.07	234.20
745.40	234.06
745.73	233.99
746.06	233.70
746.39	233.60
746.71	233.32
747.04	233.14
747.37	232.93
747.70	232.73
748.03	232.54
748.36	232.40
748.68	232.07
749.01	231.68
749.34	231.54
749.67	231.32
750.00	231.11
750.33	231.11
750.65	230.95
750.98	230.30
751.31	230.07
751.64	229.88
751.97	229.80
752.29	229.53
752.62	229.15
752.95	228.91
753.28	228.67
753.60	228.49
753.93	228.35
754.26	228.23
754.59	227.96
754.91	227.79
755.24	227.57
755.57	227.41
755.90	227.25
756.22	227.05
756.55	226.86
756.88	226.62
757.20	226.22
757.53	225.91
757.86	225.77
758.19	225.69
758.51	225.55
758.84	225.24
759.17	225.02
759.49	224.84
759.82	224.88
760.15	224.73
760.47	224.59
760.80	224.31
761.13	224.13
761.45	223.99
761.78	223.77
762.11	223.60
762.43	223.47
762.76	223.42
763.08	223.28
763.41	223.13
763.74	223.04
764.06	222.93
764.39	222.92
764.71	222.82
765.04	222.61
765.37	222.33
765.69	222.21
766.02	222.07
766.34	221.92
766.67	221.70
767.00	221.67
767.32	221.76
767.65	221.92
767.97	221.74
768.30	221.68
768.62	221.61
768.95	221.41
769.27	221.30
769.60	221.17
769.92	221.04
770.25	220.89
770.57	220.71
770.90	220.66
771.22	220.49
771.55	220.33
771.87	220.20
772.20	220.15
772.52	220.35
772.85	220.73
773.17	220.67
773.50	220.52
773.82	220.37
774.15	220.03
774.47	219.66
774.80	219.64
775.12	219.60
775.45	219.48
775.77	219.43
776.09	219.40
776.42	219.35
776.74	219.37
777.07	219.29
777.39	219.19
777.72	219.04
778.04	218.95
778.36	218.88
778.69	218.88
779.01	218.83
779.33	218.51
779.66	218.05
779.98	217.96
780.31	217.85
780.63	217.90
780.95	217.88
781.28	217.84
781.60	217.72
781.92	217.58
782.25	217.54
782.57	217.54
782.89	217.45
783.22	217.41
783.54	217.28
783.86	217.25
784.19	217.24
784.51	217.30
784.83	217.24
785.16	217.17
785.48	217.09
785.80	217.03
786.12	216.89
786.45	216.88
786.77	216.89
787.09	216.90
