SpectraSuite Data File
++++++++++++++++++++++++++++++++++++
Date: Mon Feb 25 17:19:51 EST 2013
User: group
Dark Spectrum Present: No
Reference Spectrum Present: No
Number of Sampled Component Spectra: 1
Spectrometers: USB2E7196
Integration Time (usec): 104000 (USB2E7196)
Spectra Averaged: 20 (USB2E7196)
Boxcar Smoothing: 10 (USB2E7196)
Correct for Electrical Dark: No (USB2E7196)
Strobe/Lamp Enabled: No (USB2E7196)
Correct for Detector Non-linearity: No (USB2E7196)
Correct for Stray Light: No (USB2E7196)
Number of Pixels in Processed Spectrum: 2048
>>>>>Begin Processed Spectral Data<<<<<
339.09	0.00
339.48	199.35
339.86	201.70
340.24	201.75
340.63	203.10
341.01	211.30
341.39	207.05
341.78	207.90
342.16	210.10
342.54	210.10
342.93	199.19
343.31	209.23
343.69	209.78
344.07	210.23
344.46	210.75
344.84	211.20
345.22	211.26
345.60	211.52
345.99	211.81
346.37	211.93
346.75	212.04
347.13	212.19
347.52	212.25
347.90	212.45
348.28	212.45
348.66	212.68
349.05	212.62
349.43	212.75
349.81	212.85
350.19	213.00
350.57	213.10
350.96	213.24
351.34	213.35
351.72	213.44
352.10	213.57
352.48	213.59
352.87	213.65
353.25	213.72
353.63	213.75
354.01	213.78
354.39	213.86
354.77	213.92
355.15	214.00
355.54	214.05
355.92	213.99
356.30	214.05
356.68	214.25
357.06	214.29
357.44	214.22
357.82	214.20
358.20	214.21
358.58	214.30
358.97	214.42
359.35	214.53
359.73	214.66
360.11	214.63
360.49	214.61
360.87	214.61
361.25	214.62
361.63	214.78
362.01	214.81
362.39	214.80
362.77	214.84
363.15	214.86
363.53	214.96
363.91	214.96
364.29	214.98
364.67	214.67
365.05	214.70
365.43	214.74
365.81	214.85
366.19	215.00
366.57	215.14
366.95	215.07
367.33	215.01
367.71	214.95
368.09	215.01
368.47	215.04
368.85	215.01
369.23	215.08
369.61	214.90
369.99	214.93
370.37	214.91
370.75	215.06
371.13	214.95
371.51	214.82
371.89	214.80
372.27	214.86
372.65	214.85
373.03	214.78
373.41	214.70
373.78	214.59
374.16	214.38
374.54	214.17
374.92	214.03
375.30	213.96
375.68	213.82
376.06	213.84
376.44	213.81
376.82	213.80
377.19	213.70
377.57	213.73
377.95	213.61
378.33	213.62
378.71	213.42
379.09	213.46
379.47	213.51
379.84	213.46
380.22	213.34
380.60	213.27
380.98	213.20
381.36	213.18
381.73	213.07
382.11	213.13
382.49	213.15
382.87	213.13
383.25	213.16
383.62	213.56
384.00	213.47
384.38	213.50
384.76	213.60
385.13	213.80
385.51	213.72
385.89	213.66
386.27	213.59
386.64	213.61
387.02	213.52
387.40	213.47
387.78	213.46
388.15	213.49
388.53	213.47
388.91	213.51
389.29	213.46
389.66	213.62
390.04	213.49
390.42	213.59
390.79	213.63
391.17	213.60
391.55	213.30
391.92	213.28
392.30	213.25
392.68	213.14
393.05	213.03
393.43	213.01
393.81	212.98
394.18	212.96
394.56	212.91
394.94	213.03
395.31	213.00
395.69	213.14
396.06	213.18
396.44	213.18
396.82	213.21
397.19	213.45
397.57	213.36
397.95	213.52
398.32	213.30
398.70	213.29
399.07	213.39
399.45	213.36
399.82	213.40
400.20	213.44
400.58	213.46
400.95	213.38
401.33	213.45
401.70	213.82
402.08	213.96
402.45	214.05
402.83	214.17
403.20	214.29
403.58	214.32
403.95	214.48
404.33	214.68
404.71	214.76
405.08	215.13
405.46	215.32
405.83	215.44
406.21	215.72
406.58	215.97
406.96	216.18
407.33	216.40
407.70	216.75
408.08	217.30
408.45	217.66
408.83	218.14
409.20	218.56
409.58	218.71
409.95	219.11
410.33	219.61
410.70	219.92
411.08	220.43
411.45	220.95
411.82	221.46
412.20	222.07
412.57	222.94
412.95	223.25
413.32	223.98
413.69	224.71
414.07	225.50
414.44	226.42
414.82	227.26
415.19	228.27
415.56	229.24
415.94	230.16
416.31	231.49
416.68	232.70
417.06	234.04
417.43	235.48
417.81	237.01
418.18	238.65
418.55	240.44
418.93	242.21
419.30	244.10
419.67	246.11
420.04	248.12
420.42	250.13
420.79	252.81
421.16	255.26
421.54	257.97
421.91	260.63
422.28	263.36
422.66	266.23
423.03	269.32
423.40	272.36
423.77	275.48
424.15	278.56
424.52	281.84
424.89	285.55
425.26	289.00
425.64	292.42
426.01	296.00
426.38	299.78
426.75	303.77
427.13	307.78
427.50	311.97
427.87	316.41
428.24	320.85
428.61	324.90
428.99	329.59
429.36	334.51
429.73	339.42
430.10	344.33
430.47	349.44
430.85	354.53
431.22	359.99
431.59	365.99
431.96	371.66
432.33	377.77
432.70	383.72
433.08	390.76
433.45	397.24
433.82	403.80
434.19	411.06
434.56	418.13
434.93	424.88
435.30	431.69
435.68	439.24
436.05	446.63
436.42	454.00
436.79	460.73
437.16	467.88
437.53	475.35
437.90	482.83
438.27	490.32
438.64	498.11
439.01	505.25
439.38	511.53
439.75	517.64
440.13	524.78
440.50	531.49
440.87	536.88
441.24	542.52
441.61	548.60
441.98	553.18
442.35	558.43
442.72	563.70
443.09	568.95
443.46	571.89
443.83	573.93
444.20	575.63
444.57	578.20
444.94	579.39
445.31	580.80
445.68	582.27
446.05	582.61
446.42	581.69
446.79	580.78
447.16	579.57
447.53	578.88
447.90	575.80
448.27	572.76
448.64	568.62
449.01	565.67
449.37	560.65
449.74	555.61
450.11	549.88
450.48	543.62
450.85	536.84
451.22	531.28
451.59	525.89
451.96	520.80
452.33	513.95
452.70	507.83
453.07	500.48
453.43	492.72
453.80	485.68
454.17	478.89
454.54	472.38
454.91	465.51
455.28	458.70
455.65	452.57
456.02	446.65
456.38	441.37
456.75	434.84
457.12	429.25
457.49	423.89
457.86	418.37
458.23	413.88
458.59	409.08
458.96	404.13
459.33	399.70
459.70	395.34
460.07	391.89
460.43	387.83
460.80	384.15
461.17	381.07
461.54	377.49
461.91	374.17
462.27	370.87
462.64	368.08
463.01	364.97
463.38	361.88
463.74	358.48
464.11	355.85
464.48	353.55
464.85	351.12
465.21	349.29
465.58	347.44
465.95	344.91
466.32	342.85
466.68	340.81
467.05	338.87
467.42	336.87
467.78	334.69
468.15	332.78
468.52	331.35
468.88	329.32
469.25	327.68
469.62	326.48
469.98	325.07
470.35	323.69
470.72	322.37
471.08	321.10
471.45	320.10
471.82	319.05
472.18	317.87
472.55	317.00
472.92	315.91
473.28	314.98
473.65	314.23
474.02	313.55
474.38	312.94
474.75	312.55
475.11	312.06
475.48	311.83
475.85	311.66
476.21	311.52
476.58	311.49
476.94	311.58
477.31	311.48
477.67	311.42
478.04	311.66
478.41	312.02
478.77	312.68
479.14	312.93
479.50	313.31
479.87	313.91
480.23	314.64
480.60	315.23
480.96	315.94
481.33	316.95
481.69	317.90
482.06	318.95
482.42	319.86
482.79	320.93
483.15	322.13
483.52	323.61
483.88	324.85
484.25	326.27
484.61	327.88
484.98	329.52
485.34	331.65
485.71	333.70
486.07	335.83
486.44	337.75
486.80	340.11
487.17	342.66
487.53	345.45
487.90	348.37
488.26	351.50
488.62	354.75
488.99	357.96
489.35	361.47
489.72	365.27
490.08	369.30
490.44	373.45
490.81	377.87
491.17	382.29
491.54	387.23
491.90	392.41
492.26	397.60
492.63	403.19
492.99	408.90
493.36	414.97
493.72	421.40
494.08	427.94
494.45	435.08
494.81	442.45
495.17	449.96
495.54	457.95
495.90	466.33
496.26	474.98
496.63	484.18
496.99	493.58
497.35	503.43
497.72	513.45
498.08	524.10
498.44	535.02
498.80	546.69
499.17	558.65
499.53	571.02
499.89	584.07
500.26	597.19
500.62	610.59
500.98	624.84
501.34	639.33
501.71	654.67
502.07	670.26
502.43	686.20
502.79	702.43
503.16	719.45
503.52	737.05
503.88	755.07
504.24	773.40
504.60	792.60
504.97	812.18
505.33	832.37
505.69	853.47
506.05	874.92
506.41	896.54
506.78	918.46
507.14	940.96
507.50	964.02
507.86	987.72
508.22	1012.07
508.59	1036.49
508.95	1061.91
509.31	1087.43
509.67	1113.42
510.03	1140.24
510.39	1167.98
510.75	1195.92
511.12	1223.85
511.48	1252.25
511.84	1281.52
512.20	1310.43
512.56	1340.02
512.92	1370.38
513.28	1400.53
513.64	1431.16
514.00	1461.76
514.37	1492.83
514.73	1524.60
515.09	1556.58
515.45	1588.22
515.81	1620.20
516.17	1652.46
516.53	1684.73
516.89	1717.27
517.25	1749.73
517.61	1782.01
517.97	1814.26
518.33	1846.34
518.69	1878.80
519.05	1911.79
519.41	1944.55
519.77	1977.81
520.13	2010.47
520.49	2042.57
520.85	2075.57
521.21	2108.47
521.57	2141.95
521.93	2174.32
522.29	2207.26
522.65	2239.92
523.01	2272.83
523.37	2305.14
523.73	2337.33
524.09	2369.15
524.45	2401.39
524.81	2433.74
525.17	2466.30
525.53	2498.32
525.89	2530.15
526.25	2561.74
526.61	2591.87
526.97	2622.19
527.33	2652.50
527.68	2683.30
528.04	2712.77
528.40	2741.21
528.76	2770.22
529.12	2799.35
529.48	2829.43
529.84	2857.93
530.20	2886.15
530.56	2914.54
530.91	2943.84
531.27	2972.53
531.63	3000.43
531.99	3027.51
532.35	3053.75
532.71	3079.37
533.07	3105.90
533.42	3131.05
533.78	3156.57
534.14	3181.95
534.50	3205.50
534.86	3229.76
535.21	3252.15
535.57	3276.37
535.93	3299.40
536.29	3321.29
536.65	3343.00
537.00	3363.01
537.36	3383.18
537.72	3402.70
538.08	3421.81
538.44	3440.56
538.79	3459.31
539.15	3478.15
539.51	3496.79
539.87	3515.70
540.22	3533.48
540.58	3551.52
540.94	3569.01
541.29	3584.78
541.65	3599.80
542.01	3615.47
542.37	3629.48
542.72	3644.73
543.08	3657.71
543.44	3672.40
543.79	3685.14
544.15	3696.90
544.51	3709.92
544.87	3722.88
545.22	3733.99
545.58	3744.45
545.94	3753.27
546.29	3761.27
546.65	3768.63
547.01	3775.82
547.36	3782.76
547.72	3789.60
548.07	3794.37
548.43	3798.92
548.79	3803.67
549.14	3808.38
549.50	3813.30
549.86	3817.25
550.21	3820.07
550.57	3824.21
550.92	3825.32
551.28	3827.60
551.64	3830.22
551.99	3832.25
552.35	3832.55
552.70	3834.20
553.06	3835.51
553.41	3836.70
553.77	3837.61
554.13	3838.06
554.48	3838.59
554.84	3838.75
555.19	3837.91
555.55	3836.42
555.90	3834.85
556.26	3833.05
556.61	3830.90
556.97	3827.55
557.32	3825.50
557.68	3822.43
558.03	3818.70
558.39	3816.13
558.74	3814.14
559.10	3811.28
559.45	3807.25
559.81	3804.37
560.16	3800.12
560.52	3796.29
560.87	3791.83
561.23	3786.12
561.58	3781.87
561.94	3775.81
562.29	3769.16
562.64	3763.90
563.00	3759.20
563.35	3754.98
563.71	3751.24
564.06	3746.62
564.42	3742.61
564.77	3737.86
565.12	3733.56
565.48	3728.31
565.83	3722.79
566.19	3717.66
566.54	3710.31
566.89	3703.95
567.25	3697.43
567.60	3691.06
567.96	3684.00
568.31	3677.17
568.66	3670.51
569.02	3662.53
569.37	3654.47
569.72	3647.55
570.08	3639.27
570.43	3630.50
570.78	3621.45
571.14	3610.95
571.49	3601.32
571.84	3592.02
572.20	3581.56
572.55	3571.73
572.90	3561.11
573.26	3550.09
573.61	3538.15
573.96	3527.68
574.31	3515.86
574.67	3503.39
575.02	3490.82
575.37	3478.58
575.72	3465.57
576.08	3454.37
576.43	3441.91
576.78	3430.53
577.13	3418.86
577.49	3407.33
577.84	3395.47
578.19	3384.44
578.54	3374.47
578.90	3363.91
579.25	3351.53
579.60	3338.54
579.95	3325.60
580.30	3314.28
580.66	3303.22
581.01	3290.72
581.36	3277.94
581.71	3265.63
582.06	3253.33
582.42	3241.69
582.77	3228.45
583.12	3216.14
583.47	3203.71
583.82	3192.43
584.17	3180.36
584.53	3168.54
584.88	3156.65
585.23	3144.15
585.58	3131.31
585.93	3117.77
586.28	3105.46
586.63	3093.35
586.98	3081.57
587.34	3070.22
587.69	3057.95
588.04	3045.74
588.39	3034.02
588.74	3021.36
589.09	3009.76
589.44	2997.65
589.79	2985.81
590.14	2975.36
590.49	2963.80
590.84	2952.01
591.19	2941.41
591.54	2929.90
591.89	2915.87
592.25	2902.99
592.60	2890.49
592.95	2877.43
593.30	2863.93
593.65	2850.29
594.00	2837.82
594.35	2827.31
594.70	2814.99
595.05	2803.18
595.40	2790.62
595.75	2777.69
596.10	2766.67
596.45	2755.23
596.80	2744.66
597.15	2733.62
597.50	2721.46
597.85	2710.32
598.19	2698.34
598.54	2686.20
598.89	2674.97
599.24	2665.75
599.59	2655.09
599.94	2645.44
600.29	2635.58
600.64	2625.51
600.99	2614.65
601.34	2603.98
601.69	2591.70
602.04	2580.09
602.39	2568.80
602.74	2558.48
603.08	2549.13
603.43	2539.70
603.78	2528.87
604.13	2517.95
604.48	2507.41
604.83	2498.51
605.18	2489.38
605.53	2479.41
605.87	2468.41
606.22	2458.17
606.57	2447.35
606.92	2437.01
607.27	2425.85
607.62	2414.83
607.96	2405.17
608.31	2396.03
608.66	2385.16
609.01	2374.04
609.36	2363.25
609.70	2351.88
610.05	2340.26
610.40	2328.76
610.75	2316.43
611.10	2305.88
611.44	2293.24
611.79	2280.73
612.14	2267.48
612.49	2253.95
612.83	2241.98
613.18	2229.40
613.53	2216.73
613.88	2203.41
614.22	2191.22
614.57	2178.50
614.92	2166.40
615.27	2153.51
615.61	2140.47
615.96	2128.37
616.31	2117.60
616.65	2106.62
617.00	2095.51
617.35	2084.54
617.70	2072.55
618.04	2060.16
618.39	2047.19
618.74	2035.80
619.08	2023.60
619.43	2011.95
619.78	2001.12
620.12	1989.38
620.47	1978.33
620.82	1966.37
621.16	1954.49
621.51	1942.28
621.85	1931.41
622.20	1919.46
622.55	1907.71
622.89	1895.89
623.24	1884.63
623.59	1872.18
623.93	1860.10
624.28	1848.75
624.62	1836.98
624.97	1825.76
625.32	1815.10
625.66	1804.56
626.01	1793.88
626.35	1783.95
626.70	1773.23
627.04	1762.54
627.39	1752.12
627.73	1741.44
628.08	1731.45
628.43	1721.04
628.77	1710.65
629.12	1699.54
629.46	1690.05
629.81	1679.96
630.15	1669.83
630.50	1659.25
630.84	1649.04
631.19	1639.28
631.53	1629.09
631.88	1618.21
632.22	1607.64
632.57	1597.64
632.91	1587.42
633.26	1577.15
633.60	1566.93
633.95	1557.67
634.29	1547.28
634.64	1537.52
634.98	1527.15
635.32	1517.42
635.67	1508.45
636.01	1499.30
636.36	1489.59
636.70	1479.90
637.05	1470.41
637.39	1461.43
637.73	1452.54
638.08	1444.18
638.42	1435.14
638.77	1425.93
639.11	1417.18
639.45	1408.14
639.80	1398.50
640.14	1388.97
640.49	1379.70
640.83	1370.40
641.17	1360.68
641.52	1351.67
641.86	1341.93
642.20	1332.90
642.55	1322.98
642.89	1313.15
643.23	1303.20
643.58	1294.80
643.92	1285.07
644.26	1275.95
644.61	1266.64
644.95	1257.30
645.29	1247.97
645.64	1238.43
645.98	1229.32
646.32	1220.46
646.66	1211.47
647.01	1202.68
647.35	1194.23
647.69	1184.92
648.04	1176.11
648.38	1167.23
648.72	1158.28
649.06	1149.42
649.41	1140.88
649.75	1132.55
650.09	1124.28
650.43	1115.80
650.78	1106.48
651.12	1097.63
651.46	1088.96
651.80	1080.54
652.14	1072.31
652.49	1063.59
652.83	1055.12
653.17	1046.16
653.51	1037.41
653.85	1029.25
654.20	1020.96
654.54	1012.12
654.88	1004.26
655.22	995.87
655.56	987.55
655.90	979.40
656.25	971.38
656.59	963.27
656.93	955.23
657.27	947.46
657.61	939.44
657.95	931.86
658.29	924.36
658.64	916.93
658.98	909.30
659.32	901.31
659.66	893.79
660.00	886.25
660.34	878.77
660.68	871.42
661.02	863.79
661.36	856.62
661.70	849.93
662.05	843.10
662.39	836.67
662.73	830.20
663.07	823.72
663.41	817.44
663.75	810.87
664.09	804.16
664.43	797.33
664.77	791.16
665.11	784.78
665.45	778.66
665.79	772.44
666.13	766.26
666.47	760.42
666.81	754.41
667.15	748.34
667.49	742.99
667.83	737.45
668.17	732.03
668.51	726.68
668.85	721.22
669.19	715.94
669.53	710.29
669.87	704.65
670.21	699.17
670.55	693.74
670.89	689.02
671.23	684.28
671.57	679.32
671.91	674.21
672.25	669.23
672.58	664.21
672.92	659.40
673.26	654.74
673.60	650.03
673.94	645.31
674.28	640.86
674.62	636.23
674.96	631.72
675.30	627.19
675.64	622.44
675.97	617.73
676.31	613.31
676.65	609.10
676.99	605.17
677.33	600.87
677.67	596.71
678.01	591.93
678.34	587.73
678.68	583.70
679.02	579.57
679.36	575.52
679.70	571.46
680.04	567.32
680.37	563.22
680.71	559.12
681.05	555.56
681.39	551.63
681.73	547.97
682.06	544.39
682.40	540.76
682.74	537.35
683.08	533.92
683.42	530.20
683.75	526.51
684.09	522.68
684.43	519.24
684.77	515.43
685.10	512.02
685.44	508.29
685.78	504.70
686.12	501.59
686.45	498.28
686.79	495.12
687.13	491.92
687.46	488.87
687.80	485.77
688.14	482.35
688.48	479.37
688.81	476.02
689.15	472.77
689.49	469.56
689.82	466.24
690.16	462.79
690.50	459.61
690.83	456.51
691.17	453.30
691.51	450.16
691.84	447.42
692.18	444.56
692.52	441.89
692.85	439.32
693.19	436.60
693.52	433.84
693.86	430.98
694.20	428.35
694.53	425.60
694.87	422.83
695.21	420.14
695.54	417.35
695.88	414.75
696.21	412.13
696.55	409.76
696.88	407.44
697.22	405.09
697.56	402.77
697.89	400.48
698.23	398.23
698.56	395.93
698.90	393.75
699.23	391.46
699.57	389.09
699.90	386.66
700.24	384.23
700.58	381.99
700.91	379.90
701.25	377.98
701.58	375.95
701.92	373.88
702.25	371.77
702.59	369.82
702.92	367.85
703.26	365.80
703.59	363.88
703.93	362.19
704.26	360.46
704.60	358.53
704.93	356.60
705.26	354.80
705.60	353.07
705.93	351.16
706.27	349.47
706.60	347.86
706.94	346.39
707.27	344.61
707.61	343.07
707.94	341.37
708.27	339.33
708.61	337.51
708.94	335.89
709.28	334.40
709.61	332.85
709.94	331.30
710.28	329.95
710.61	328.44
710.95	326.74
711.28	325.41
711.61	324.05
711.95	322.82
712.28	321.44
712.61	320.10
712.95	318.96
713.28	317.81
713.61	316.53
713.95	315.20
714.28	314.12
714.61	312.82
714.95	311.64
715.28	310.47
715.61	309.30
715.95	308.23
716.28	307.03
716.61	305.88
716.95	304.70
717.28	303.58
717.61	302.53
717.94	301.40
718.28	300.15
718.61	299.05
718.94	297.93
719.27	296.92
719.61	295.92
719.94	294.89
720.27	293.68
720.60	292.62
720.94	291.43
721.27	290.46
721.60	289.48
721.93	288.56
722.27	287.85
722.60	287.07
722.93	286.27
723.26	285.45
723.59	284.59
723.93	283.73
724.26	282.92
724.59	282.00
724.92	281.23
725.25	280.49
725.59	279.76
725.92	279.06
726.25	278.38
726.58	277.60
726.91	276.80
727.24	276.17
727.57	275.55
727.91	274.90
728.24	274.25
728.57	273.58
728.90	272.96
729.23	272.22
729.56	271.63
729.89	270.85
730.22	270.27
730.55	269.62
730.89	268.96
731.22	268.28
731.55	267.59
731.88	266.98
732.21	266.32
732.54	265.59
732.87	264.88
733.20	264.15
733.53	263.54
733.86	262.91
734.19	262.26
734.52	261.64
734.85	261.38
735.18	260.73
735.51	260.23
735.84	259.71
736.17	259.26
736.50	258.58
736.83	258.48
737.16	257.87
737.49	257.33
737.82	256.86
738.15	256.39
738.48	255.95
738.81	255.39
739.14	254.92
739.47	254.39
739.80	253.88
740.13	253.39
740.46	252.76
740.79	252.21
741.12	251.73
741.45	251.24
741.78	250.50
742.11	250.08
742.44	249.56
742.77	249.16
743.10	248.58
743.43	248.16
743.75	247.38
744.08	247.39
744.41	246.95
744.74	246.50
745.07	246.04
745.40	245.70
745.73	245.52
746.06	245.14
746.39	244.85
746.71	244.49
747.04	244.14
747.37	243.85
747.70	243.61
748.03	243.25
748.36	243.01
748.68	242.62
749.01	242.16
749.34	241.94
749.67	241.47
750.00	241.23
750.33	241.07
750.65	240.67
750.98	239.93
751.31	239.57
751.64	239.19
751.97	239.08
752.29	238.80
752.62	238.26
752.95	237.87
753.28	237.50
753.60	237.14
753.93	237.03
754.26	236.74
754.59	236.37
754.91	236.05
755.24	235.65
755.57	235.44
755.90	235.21
756.22	234.84
756.55	234.51
756.88	234.09
757.20	233.59
757.53	233.25
757.86	233.00
758.19	232.77
758.51	232.48
758.84	232.04
759.17	231.72
759.49	231.58
759.82	231.49
760.15	231.27
760.47	231.08
760.80	230.62
761.13	230.43
761.45	230.23
761.78	230.00
762.11	229.82
762.43	229.57
762.76	229.36
763.08	229.15
763.41	229.01
763.74	228.88
764.06	228.69
764.39	228.53
764.71	228.26
765.04	228.07
765.37	227.91
765.69	227.70
766.02	227.45
766.34	227.15
766.67	226.88
767.00	226.75
767.32	226.76
767.65	226.86
767.97	226.68
768.30	226.48
768.62	226.32
768.95	226.11
769.27	225.95
769.60	225.85
769.92	225.65
770.25	225.44
770.57	225.26
770.90	225.11
771.22	224.95
771.55	224.83
771.87	224.73
772.20	224.66
772.52	224.75
772.85	225.04
773.17	224.90
773.50	224.74
773.82	224.64
774.15	224.26
774.47	223.87
774.80	223.72
775.12	223.59
775.45	223.45
775.77	223.39
776.09	223.31
776.42	223.17
776.74	223.19
777.07	223.04
777.39	222.89
777.72	222.68
778.04	222.58
778.36	222.43
778.69	222.33
779.01	222.30
779.33	221.91
779.66	221.44
779.98	221.31
780.31	221.21
780.63	221.19
780.95	221.22
781.28	221.14
781.60	220.96
781.92	220.92
782.25	220.85
782.57	220.66
782.89	220.52
783.22	220.38
783.54	220.14
783.86	220.06
784.19	219.97
784.51	220.05
784.83	219.93
785.16	219.83
