SpectraSuite Data File
++++++++++++++++++++++++++++++++++++
Date: Mon Feb 25 17:10:51 EST 2013
User: group
Dark Spectrum Present: No
Reference Spectrum Present: No
Number of Sampled Component Spectra: 1
Spectrometers: USB2E7196
Integration Time (usec): 104000 (USB2E7196)
Spectra Averaged: 20 (USB2E7196)
Boxcar Smoothing: 10 (USB2E7196)
Correct for Electrical Dark: No (USB2E7196)
Strobe/Lamp Enabled: No (USB2E7196)
Correct for Detector Non-linearity: No (USB2E7196)
Correct for Stray Light: No (USB2E7196)
Number of Pixels in Processed Spectrum: 2048
>>>>>Begin Processed Spectral Data<<<<<
339.09	0.00
339.48	197.95
339.86	199.30
340.24	201.70
340.63	202.50
341.01	209.20
341.39	206.05
341.78	206.00
342.16	208.30
342.54	209.10
342.93	197.96
343.31	208.01
343.69	208.61
344.07	209.07
344.46	209.47
344.84	209.86
345.22	209.88
345.60	210.05
345.99	210.30
346.37	210.41
346.75	210.49
347.13	210.54
347.52	210.59
347.90	210.74
348.28	210.72
348.66	210.84
349.05	210.82
349.43	210.88
349.81	210.96
350.19	210.95
350.57	211.02
350.96	211.05
351.34	211.06
351.72	211.08
352.10	211.25
352.48	211.28
352.87	211.33
353.25	211.39
353.63	211.48
354.01	211.49
354.39	211.64
354.77	211.63
355.15	211.79
355.54	211.84
355.92	211.72
356.30	211.82
356.68	212.11
357.06	212.24
357.44	212.24
357.82	212.21
358.20	212.38
358.58	212.48
358.97	212.53
359.35	212.64
359.73	212.81
360.11	212.81
360.49	212.92
360.87	212.98
361.25	213.08
361.63	213.23
362.01	213.29
362.39	213.30
362.77	213.38
363.15	213.38
363.53	213.43
363.91	213.57
364.29	213.58
364.67	213.26
365.05	213.26
365.43	213.30
365.81	213.42
366.19	213.55
366.57	213.70
366.95	213.73
367.33	213.68
367.71	213.65
368.09	213.70
368.47	213.76
368.85	213.75
369.23	213.87
369.61	213.70
369.99	213.84
370.37	213.84
370.75	214.00
371.13	213.89
371.51	213.82
371.89	213.81
372.27	213.82
372.65	213.85
373.03	213.80
373.41	213.70
373.78	213.60
374.16	213.35
374.54	213.18
374.92	213.10
375.30	213.10
375.68	212.97
376.06	213.00
376.44	212.84
376.82	212.80
377.19	212.65
377.57	212.69
377.95	212.53
378.33	212.42
378.71	212.18
379.09	212.19
379.47	212.15
379.84	212.10
380.22	212.00
380.60	211.84
380.98	211.78
381.36	211.76
381.73	211.69
382.11	211.74
382.49	211.71
382.87	211.68
383.25	211.58
383.62	211.92
384.00	211.71
384.38	211.70
384.76	211.71
385.13	211.79
385.51	211.66
385.89	211.53
386.27	211.46
386.64	211.49
387.02	211.40
387.40	211.35
387.78	211.25
388.15	211.23
388.53	211.20
388.91	211.11
389.29	211.06
389.66	211.11
390.04	211.01
390.42	211.01
390.79	210.99
391.17	210.96
391.55	210.52
391.92	210.50
392.30	210.50
392.68	210.41
393.05	210.37
393.43	210.45
393.81	210.46
394.18	210.50
394.56	210.50
394.94	210.59
395.31	210.59
395.69	210.72
396.06	210.73
396.44	210.75
396.82	210.74
397.19	210.93
397.57	210.84
397.95	210.97
398.32	210.91
398.70	210.89
399.07	211.09
399.45	211.16
399.82	211.21
400.20	211.22
400.58	211.28
400.95	211.14
401.33	211.19
401.70	211.50
402.08	211.55
402.45	211.55
402.83	211.65
403.20	211.70
403.58	211.68
403.95	211.81
404.33	211.89
404.71	212.02
405.08	212.25
405.46	212.35
405.83	212.37
406.21	212.51
406.58	212.62
406.96	212.64
407.33	212.83
407.70	213.03
408.08	213.40
408.45	213.58
408.83	213.84
409.20	213.99
409.58	213.96
409.95	214.15
410.33	214.37
410.70	214.45
411.08	214.68
411.45	214.98
411.82	215.20
412.20	215.55
412.57	215.99
412.95	215.94
413.32	216.32
413.69	216.64
414.07	216.97
414.44	217.34
414.82	217.78
415.19	218.25
415.56	218.70
415.94	218.99
416.31	219.67
416.68	220.31
417.06	220.97
417.43	221.74
417.81	222.50
418.18	223.32
418.55	224.18
418.93	225.09
419.30	225.91
419.67	226.86
420.04	227.92
420.42	228.89
420.79	230.38
421.16	231.64
421.54	233.10
421.91	234.47
422.28	235.92
422.66	237.36
423.03	238.95
423.40	240.37
423.77	241.98
424.15	243.47
424.52	245.15
424.89	247.01
425.26	248.70
425.64	250.30
426.01	252.11
426.38	253.99
426.75	255.98
427.13	258.01
427.50	260.12
427.87	262.26
428.24	264.45
428.61	266.36
428.99	268.66
429.36	270.88
429.73	273.35
430.10	275.85
430.47	278.35
430.85	280.71
431.22	283.46
431.59	286.56
431.96	289.32
432.33	292.31
432.70	295.21
433.08	298.62
433.45	301.98
433.82	305.31
434.19	308.96
434.56	312.58
434.93	316.04
435.30	319.35
435.68	323.04
436.05	326.78
436.42	330.46
436.79	333.87
437.16	337.59
437.53	341.33
437.90	345.05
438.27	348.86
438.64	352.77
439.01	356.52
439.38	359.62
439.75	362.77
440.13	366.30
440.50	369.60
440.87	372.47
441.24	375.23
441.61	378.26
441.98	380.48
442.35	383.05
442.72	385.81
443.09	388.65
443.46	390.29
443.83	391.28
444.20	392.25
444.57	393.69
444.94	394.39
445.31	395.26
445.68	396.28
446.05	396.56
446.42	396.28
446.79	395.85
447.16	395.36
447.53	394.95
447.90	393.67
448.27	392.25
448.64	390.17
449.01	388.79
449.37	386.33
449.74	384.04
450.11	381.37
450.48	378.07
450.85	374.63
451.22	371.92
451.59	369.43
451.96	366.90
452.33	363.45
452.70	360.37
453.07	356.58
453.43	352.55
453.80	348.94
454.17	345.54
454.54	342.30
454.91	338.82
455.28	335.46
455.65	332.20
456.02	329.58
456.38	326.92
456.75	323.67
457.12	320.93
457.49	318.18
457.86	315.24
458.23	313.08
458.59	310.68
458.96	308.15
459.33	305.82
459.70	303.59
460.07	301.81
460.43	299.72
460.80	297.87
461.17	296.22
461.54	294.51
461.91	292.82
462.27	291.08
462.64	289.57
463.01	288.04
463.38	286.63
463.74	284.52
464.11	283.09
464.48	281.87
464.85	280.53
465.21	279.67
465.58	278.73
465.95	277.33
466.32	276.32
466.68	275.19
467.05	274.21
467.42	273.12
467.78	272.02
468.15	270.91
468.52	270.11
468.88	269.02
469.25	268.06
469.62	267.32
469.98	266.53
470.35	265.70
470.72	264.94
471.08	264.04
471.45	263.60
471.82	263.14
472.18	262.40
472.55	261.89
472.92	261.19
473.28	260.58
473.65	260.11
474.02	259.54
474.38	259.23
474.75	258.87
475.11	258.54
475.48	258.21
475.85	258.00
476.21	257.79
476.58	257.63
476.94	257.55
477.31	257.32
477.67	257.13
478.04	257.09
478.41	257.08
478.77	257.39
479.14	257.26
479.50	257.15
479.87	257.20
480.23	257.24
480.60	257.15
480.96	257.25
481.33	257.55
481.69	257.77
482.06	257.90
482.42	258.06
482.79	258.22
483.15	258.43
483.52	258.79
483.88	259.00
484.25	259.23
484.61	259.51
484.98	259.89
485.34	260.40
485.71	260.97
486.07	261.44
486.44	261.71
486.80	262.32
487.17	262.90
487.53	263.73
487.90	264.52
488.26	265.50
488.62	266.37
488.99	267.23
489.35	268.03
489.72	268.97
490.08	269.90
490.44	271.00
490.81	272.23
491.17	273.34
491.54	274.60
491.90	276.05
492.26	277.35
492.63	278.87
492.99	280.30
493.36	281.84
493.72	283.52
494.08	285.20
494.45	286.97
494.81	288.95
495.17	290.76
495.54	292.74
495.90	294.81
496.26	296.89
496.63	299.00
496.99	301.36
497.35	303.71
497.72	306.25
498.08	308.74
498.44	311.33
498.80	314.08
499.17	316.81
499.53	319.73
499.89	322.85
500.26	325.86
500.62	329.05
500.98	332.38
501.34	335.68
501.71	339.20
502.07	342.75
502.43	346.36
502.79	350.04
503.16	353.97
503.52	357.80
503.88	361.90
504.24	366.06
504.60	370.31
504.97	374.81
505.33	379.29
505.69	384.14
506.05	388.86
506.41	393.80
506.78	398.67
507.14	403.56
507.50	408.54
507.86	413.81
508.22	419.25
508.59	424.56
508.95	430.12
509.31	435.75
509.67	441.46
510.03	447.33
510.39	453.44
510.75	459.38
511.12	465.49
511.48	471.73
511.84	478.13
512.20	484.48
512.56	490.98
512.92	497.53
513.28	504.07
513.64	510.76
514.00	517.54
514.37	524.44
514.73	531.51
515.09	538.65
515.45	545.68
515.81	552.66
516.17	559.81
516.53	567.13
516.89	574.40
517.25	581.68
517.61	589.10
517.97	596.35
518.33	603.81
518.69	611.45
519.05	619.01
519.41	626.68
519.77	634.68
520.13	642.33
520.49	649.94
520.85	657.75
521.21	665.69
521.57	673.58
521.93	681.35
522.29	689.27
522.65	697.21
523.01	705.18
523.37	713.06
523.73	721.17
524.09	729.05
524.45	736.94
524.81	744.92
525.17	752.96
525.53	761.22
525.89	769.41
526.25	777.32
526.61	785.03
526.97	792.85
527.33	800.66
527.68	808.96
528.04	817.04
528.40	824.51
528.76	832.32
529.12	840.26
529.48	848.51
529.84	856.30
530.20	864.08
530.56	871.96
530.91	880.07
531.27	887.89
531.63	895.74
531.99	903.58
532.35	911.19
532.71	918.54
533.07	926.18
533.42	933.81
533.78	941.39
534.14	948.83
534.50	955.85
534.86	963.06
535.21	969.71
535.57	976.78
535.93	983.87
536.29	990.79
536.65	997.37
537.00	1003.64
537.36	1009.83
537.72	1016.07
538.08	1022.39
538.44	1028.48
538.79	1034.65
539.15	1040.73
539.51	1046.90
539.87	1053.31
540.22	1059.22
540.58	1065.27
540.94	1070.90
541.29	1076.28
541.65	1081.75
542.01	1087.38
542.37	1092.35
542.72	1097.59
543.08	1102.39
543.44	1107.91
543.79	1112.46
544.15	1116.88
544.51	1121.92
544.87	1127.14
545.22	1131.80
545.58	1135.98
545.94	1139.91
546.29	1143.58
546.65	1147.20
547.01	1150.82
547.36	1154.07
547.72	1157.51
548.07	1160.30
548.43	1162.91
548.79	1165.53
549.14	1168.05
549.50	1170.58
549.86	1173.05
550.21	1175.31
550.57	1177.84
550.92	1179.37
551.28	1181.59
551.64	1183.90
551.99	1185.75
552.35	1186.80
552.70	1188.39
553.06	1190.34
553.41	1192.02
553.77	1193.69
554.13	1195.00
554.48	1196.13
554.84	1197.37
555.19	1198.29
555.55	1199.44
555.90	1200.25
556.26	1201.18
556.61	1202.04
556.97	1202.53
557.32	1203.27
557.68	1203.70
558.03	1203.97
558.39	1204.50
558.74	1205.00
559.10	1205.40
559.45	1205.50
559.81	1206.36
560.16	1206.35
560.52	1206.07
560.87	1205.93
561.23	1205.51
561.58	1205.84
561.94	1205.37
562.29	1204.76
562.64	1204.62
563.00	1204.24
563.35	1204.24
563.71	1204.48
564.06	1204.40
564.42	1204.57
564.77	1204.66
565.12	1204.63
565.48	1204.52
565.83	1204.31
566.19	1204.08
566.54	1203.14
566.89	1202.54
567.25	1201.81
567.60	1201.26
567.96	1200.69
568.31	1199.93
568.66	1199.22
569.02	1197.78
569.37	1196.45
569.72	1195.59
570.08	1194.34
570.43	1192.79
570.78	1191.37
571.14	1189.21
571.49	1187.23
571.84	1185.45
572.20	1182.98
572.55	1181.18
572.90	1178.71
573.26	1176.18
573.61	1173.46
573.96	1171.38
574.31	1168.64
574.67	1166.03
575.02	1163.25
575.37	1160.33
575.72	1157.43
576.08	1154.94
576.43	1152.12
576.78	1149.58
577.13	1147.17
577.49	1144.48
577.84	1141.89
578.19	1139.13
578.54	1136.99
578.90	1134.86
579.25	1132.02
579.60	1129.14
579.95	1125.87
580.30	1123.66
580.66	1121.36
581.01	1118.59
581.36	1115.48
581.71	1112.68
582.06	1109.74
582.42	1107.00
582.77	1104.00
583.12	1101.26
583.47	1098.64
583.82	1096.24
584.17	1093.50
584.53	1090.72
584.88	1088.01
585.23	1085.28
585.58	1082.83
585.93	1079.81
586.28	1077.06
586.63	1074.39
586.98	1072.05
587.34	1069.76
587.69	1066.75
588.04	1063.88
588.39	1061.32
588.74	1058.55
589.09	1056.14
589.44	1053.18
589.79	1050.63
590.14	1048.05
590.49	1045.12
590.84	1042.14
591.19	1039.49
591.54	1036.81
591.89	1033.25
592.25	1030.54
592.60	1027.25
592.95	1023.82
593.30	1020.55
593.65	1017.04
594.00	1013.78
594.35	1011.63
594.70	1008.39
595.05	1005.54
595.40	1002.45
595.75	999.18
596.10	996.65
596.45	993.69
596.80	991.11
597.15	988.26
597.50	985.28
597.85	982.58
598.19	979.56
598.54	976.49
598.89	973.70
599.24	971.39
599.59	968.40
599.94	966.22
600.29	963.70
600.64	961.00
600.99	958.37
601.34	955.93
601.69	952.13
602.04	949.16
602.39	946.21
602.74	943.58
603.08	941.29
603.43	938.90
603.78	936.10
604.13	933.32
604.48	930.52
604.83	928.45
605.18	926.45
605.53	923.90
605.87	921.29
606.22	918.74
606.57	916.25
606.92	913.65
607.27	910.67
607.62	907.77
607.96	905.38
608.31	903.17
608.66	900.12
609.01	897.42
609.36	894.73
609.70	891.72
610.05	888.57
610.40	885.44
610.75	882.03
611.10	879.26
611.44	875.80
611.79	872.26
612.14	868.55
612.49	864.51
612.83	861.20
613.18	857.64
613.53	854.14
613.88	850.13
614.22	846.53
614.57	843.09
614.92	839.61
615.27	835.99
615.61	832.03
615.96	828.66
616.31	825.24
616.65	822.03
617.00	818.99
617.35	815.67
617.70	812.01
618.04	808.37
618.39	804.52
618.74	801.20
619.08	797.89
619.43	794.47
619.78	791.34
620.12	787.79
620.47	784.56
620.82	780.98
621.16	777.45
621.51	774.01
621.85	770.35
622.20	766.67
622.55	763.20
622.89	759.83
623.24	756.29
623.59	752.70
623.93	749.03
624.28	745.39
624.62	742.24
624.97	739.19
625.32	735.88
625.66	732.77
626.01	729.55
626.35	726.32
626.70	723.10
627.04	720.07
627.39	716.94
627.73	713.61
628.08	710.66
628.43	707.55
628.77	704.26
629.12	701.10
629.46	698.47
629.81	695.30
630.15	692.15
630.50	689.07
630.84	685.87
631.19	682.84
631.53	679.85
631.88	676.28
632.22	672.75
632.57	669.87
632.91	666.75
633.26	663.63
633.60	660.54
633.95	657.64
634.29	654.30
634.64	651.38
634.98	648.23
635.32	645.10
635.67	642.29
636.01	639.44
636.36	636.42
636.70	633.50
637.05	630.48
637.39	627.60
637.73	624.89
638.08	622.50
638.42	619.92
638.77	616.99
639.11	614.30
639.45	611.45
639.80	608.27
640.14	605.28
640.49	602.37
640.83	599.55
641.17	596.68
641.52	593.74
641.86	590.67
642.20	588.12
642.55	584.97
642.89	581.96
643.23	578.99
643.58	576.47
643.92	573.20
644.26	570.47
644.61	567.60
644.95	564.57
645.29	561.61
645.64	558.56
645.98	555.75
646.32	553.05
646.66	550.43
647.01	547.75
647.35	545.00
647.69	542.18
648.04	539.46
648.38	536.73
648.72	534.08
649.06	531.37
649.41	528.40
649.75	525.83
650.09	523.37
650.43	520.70
650.78	517.85
651.12	515.24
651.46	512.63
651.80	510.18
652.14	507.58
652.49	504.94
652.83	502.35
653.17	499.70
653.51	496.99
653.85	494.45
654.20	491.87
654.54	489.36
654.88	486.94
655.22	484.36
655.56	481.60
655.90	478.99
656.25	476.50
656.59	474.01
656.93	471.50
657.27	469.11
657.61	466.72
657.95	464.33
658.29	461.96
658.64	459.74
658.98	457.09
659.32	454.57
659.66	452.23
660.00	449.81
660.34	447.32
660.68	445.01
661.02	442.65
661.36	440.44
661.70	438.14
662.05	435.85
662.39	433.83
662.73	431.76
663.07	429.84
663.41	427.66
663.75	425.57
664.09	423.51
664.43	421.21
664.77	419.04
665.11	416.78
665.45	414.71
665.79	412.56
666.13	410.63
666.47	408.74
666.81	406.62
667.15	404.57
667.49	402.81
667.83	401.01
668.17	399.11
668.51	397.17
668.85	395.38
669.19	393.72
669.53	391.76
669.87	389.96
670.21	388.02
670.55	386.30
670.89	384.85
671.23	383.26
671.57	381.74
671.91	380.14
672.25	378.60
672.58	377.09
672.92	375.49
673.26	373.92
673.60	372.48
673.94	370.94
674.28	369.46
674.62	367.97
674.96	366.41
675.30	364.89
675.64	363.50
675.97	361.99
676.31	360.45
676.65	359.12
676.99	357.93
677.33	356.55
677.67	355.13
678.01	353.39
678.34	351.94
678.68	350.55
679.02	349.09
679.36	347.82
679.70	346.49
680.04	345.03
680.37	343.61
680.71	342.20
681.05	340.98
681.39	339.73
681.73	338.44
682.06	337.33
682.40	336.25
682.74	335.03
683.08	333.92
683.42	332.54
683.75	331.34
684.09	329.97
684.43	328.67
684.77	327.50
685.10	326.50
685.44	325.23
685.78	323.97
686.12	322.88
686.45	321.62
686.79	320.34
687.13	319.28
687.46	318.20
687.80	317.16
688.14	315.94
688.48	314.85
688.81	313.62
689.15	312.40
689.49	311.16
689.82	310.07
690.16	308.79
690.50	307.75
690.83	306.69
691.17	305.58
691.51	304.55
691.84	303.46
692.18	302.35
692.52	301.33
692.85	300.43
693.19	299.67
693.52	298.72
693.86	297.75
694.20	296.77
694.53	295.88
694.87	294.85
695.21	293.88
695.54	292.87
695.88	291.94
696.21	290.95
696.55	290.05
696.88	289.06
697.22	288.18
697.56	287.50
697.89	286.55
698.23	285.63
698.56	284.90
698.90	284.16
699.23	283.31
699.57	282.60
699.90	281.71
700.24	280.69
700.58	279.87
700.91	279.17
701.25	278.69
701.58	277.94
701.92	277.36
702.25	276.76
702.59	276.04
702.92	275.35
703.26	274.61
703.59	273.95
703.93	273.54
704.26	272.88
704.60	272.10
704.93	271.41
705.26	270.75
705.60	270.05
705.93	269.26
706.27	268.72
706.60	268.20
706.94	267.67
707.27	266.97
707.61	266.35
707.94	265.66
708.27	264.75
708.61	264.02
708.94	263.21
709.28	262.56
709.61	262.05
709.94	261.59
710.28	261.14
710.61	260.64
710.95	259.82
711.28	259.48
711.61	258.96
711.95	258.49
712.28	257.98
712.61	257.39
712.95	257.11
713.28	256.68
713.61	256.06
713.95	255.55
714.28	255.13
714.61	254.63
714.95	254.24
715.28	253.80
715.61	253.29
715.95	252.87
716.28	252.39
716.61	251.97
716.95	251.35
717.28	250.83
717.61	250.39
717.94	250.06
718.28	249.45
718.61	248.96
718.94	248.52
719.27	248.10
719.61	247.78
719.94	247.35
720.27	246.74
720.60	246.33
720.94	245.82
721.27	245.47
721.60	245.14
721.93	244.71
722.27	244.41
722.60	244.20
722.93	243.82
723.26	243.49
723.59	243.04
723.93	242.80
724.26	242.54
724.59	242.14
724.92	241.82
725.25	241.59
725.59	241.30
725.92	241.00
726.25	240.69
726.58	240.41
726.91	239.97
727.24	239.83
727.57	239.50
727.91	239.30
728.24	239.03
728.57	238.77
728.90	238.57
729.23	238.21
729.56	238.07
729.89	237.87
730.22	237.63
730.55	237.34
730.89	237.08
731.22	236.75
731.55	236.48
731.88	236.12
732.21	235.84
732.54	235.57
732.87	235.29
733.20	235.08
733.53	234.84
733.86	234.61
734.19	234.21
734.52	233.99
734.85	233.98
735.18	233.67
735.51	233.51
735.84	233.27
736.17	233.06
736.50	232.68
736.83	232.76
737.16	232.54
737.49	232.38
737.82	232.12
738.15	231.93
738.48	231.69
738.81	231.53
739.14	231.28
739.47	231.08
739.80	230.85
740.13	230.63
740.46	230.30
740.79	230.04
741.12	229.84
741.45	229.60
741.78	229.13
742.11	229.05
742.44	228.77
742.77	228.56
743.10	228.44
743.43	228.19
743.75	227.70
744.08	227.96
744.41	227.73
744.74	227.52
745.07	227.30
745.40	227.18
745.73	227.14
746.06	226.99
746.39	226.77
746.71	226.61
747.04	226.40
747.37	226.28
747.70	226.21
748.03	226.08
748.36	226.01
748.68	225.91
749.01	225.68
749.34	225.55
749.67	225.42
750.00	225.24
750.33	225.36
750.65	225.25
750.98	224.67
751.31	224.51
751.64	224.37
751.97	224.41
752.29	224.21
752.62	223.96
752.95	223.77
753.28	223.63
753.60	223.53
753.93	223.44
754.26	223.30
754.59	223.09
754.91	222.89
755.24	222.79
755.57	222.64
755.90	222.48
756.22	222.25
756.55	222.07
756.88	221.86
757.20	221.50
757.53	221.29
757.86	221.09
758.19	221.07
758.51	220.98
758.84	220.69
759.17	220.67
759.49	220.48
759.82	220.56
760.15	220.51
760.47	220.40
760.80	220.31
761.13	220.30
761.45	220.22
761.78	220.19
762.11	220.09
762.43	219.95
762.76	219.87
763.08	219.84
763.41	219.82
763.74	219.78
764.06	219.74
764.39	219.65
764.71	219.58
765.04	219.46
765.37	219.30
765.69	219.22
766.02	219.05
766.34	218.99
766.67	218.74
767.00	218.72
767.32	218.80
767.65	218.96
767.97	218.86
768.30	218.87
768.62	218.80
768.95	218.66
769.27	218.61
769.60	218.62
769.92	218.57
770.25	218.41
770.57	218.35
770.90	218.28
771.22	218.13
771.55	218.13
771.87	218.04
772.20	217.99
772.52	218.25
772.85	218.72
773.17	218.68
773.50	218.66
773.82	218.61
774.15	218.36
774.47	218.02
774.80	217.88
775.12	217.82
775.45	217.77
775.77	217.77
776.09	217.79
776.42	217.69
776.74	217.74
777.07	217.71
777.39	217.62
777.72	217.54
778.04	217.58
778.36	217.50
778.69	217.50
779.01	217.51
779.33	217.15
779.66	216.56
779.98	216.43
780.31	216.43
780.63	216.44
780.95	216.48
781.28	216.43
781.60	216.41
781.92	216.29
782.25	216.26
782.57	216.21
782.89	216.09
783.22	215.96
783.54	215.82
783.86	215.80
784.19	215.83
784.51	215.80
784.83	215.70
785.16	215.69
785.48	215.61
785.80	215.53
786.12	215.58
786.45	215.59
786.77	215.68
787.09	215.55
787.42	215.42
787.74	215.38
788.06	215.33
788.38	215.20
788.71	215.19
789.03	215.11
789.35	215.11
789.67	215.06
789.99	215.19
790.32	215.06
790.64	215.12
