SpectraSuite Data File
++++++++++++++++++++++++++++++++++++
Date: Mon Feb 25 17:10:54 EST 2013
User: group
Dark Spectrum Present: No
Reference Spectrum Present: No
Number of Sampled Component Spectra: 1
Spectrometers: USB2E7196
Integration Time (usec): 104000 (USB2E7196)
Spectra Averaged: 20 (USB2E7196)
Boxcar Smoothing: 10 (USB2E7196)
Correct for Electrical Dark: No (USB2E7196)
Strobe/Lamp Enabled: No (USB2E7196)
Correct for Detector Non-linearity: No (USB2E7196)
Correct for Stray Light: No (USB2E7196)
Number of Pixels in Processed Spectrum: 2048
>>>>>Begin Processed Spectral Data<<<<<
339.09	0.00
339.48	199.20
339.86	200.15
340.24	202.45
340.63	202.40
341.01	210.50
341.39	206.70
341.78	208.30
342.16	208.95
342.54	208.35
342.93	198.70
343.31	208.69
343.69	209.24
344.07	209.72
344.46	210.12
344.84	210.56
345.22	210.54
345.60	210.75
345.99	210.90
346.37	211.04
346.75	211.13
347.13	211.23
347.52	211.22
347.90	211.25
348.28	211.34
348.66	211.42
349.05	211.39
349.43	211.50
349.81	211.50
350.19	211.56
350.57	211.61
350.96	211.67
351.34	211.73
351.72	211.80
352.10	211.77
352.48	211.87
352.87	211.87
353.25	212.01
353.63	212.06
354.01	212.09
354.39	212.22
354.77	212.33
355.15	212.38
355.54	212.40
355.92	212.40
356.30	212.35
356.68	212.54
357.06	212.59
357.44	212.48
357.82	212.52
358.20	212.61
358.58	212.68
358.97	212.75
359.35	212.87
359.73	212.90
360.11	213.01
360.49	213.06
360.87	213.10
361.25	213.13
361.63	213.25
362.01	213.26
362.39	213.18
362.77	213.21
363.15	213.31
363.53	213.40
363.91	213.49
364.29	213.55
364.67	213.29
365.05	213.24
365.43	213.36
365.81	213.36
366.19	213.45
366.57	213.58
366.95	213.60
367.33	213.53
367.71	213.55
368.09	213.64
368.47	213.60
368.85	213.56
369.23	213.60
369.61	213.53
369.99	213.59
370.37	213.59
370.75	213.75
371.13	213.65
371.51	213.62
371.89	213.52
372.27	213.43
372.65	213.43
373.03	213.42
373.41	213.36
373.78	213.33
374.16	213.12
374.54	212.91
374.92	212.74
375.30	212.70
375.68	212.62
376.06	212.58
376.44	212.44
376.82	212.43
377.19	212.42
377.57	212.28
377.95	212.17
378.33	212.11
378.71	211.79
379.09	211.79
379.47	211.79
379.84	211.73
380.22	211.70
380.60	211.58
380.98	211.51
381.36	211.47
381.73	211.38
382.11	211.38
382.49	211.36
382.87	211.35
383.25	211.28
383.62	211.63
384.00	211.58
384.38	211.63
384.76	211.74
385.13	211.79
385.51	211.84
385.89	211.82
386.27	211.82
386.64	211.89
387.02	211.79
387.40	211.65
387.78	211.67
388.15	211.69
388.53	211.67
388.91	211.63
389.29	211.55
389.66	211.58
390.04	211.57
390.42	211.57
390.79	211.57
391.17	211.62
391.55	211.29
391.92	211.14
392.30	211.19
392.68	211.04
393.05	210.95
393.43	210.92
393.81	210.95
394.18	210.83
394.56	210.81
394.94	210.86
395.31	210.85
395.69	210.87
396.06	210.89
396.44	210.90
396.82	210.86
397.19	211.03
397.57	211.00
397.95	211.01
398.32	210.92
398.70	210.95
399.07	210.96
399.45	210.91
399.82	211.00
400.20	210.94
400.58	210.95
400.95	210.84
401.33	210.87
401.70	211.12
402.08	211.20
402.45	211.17
402.83	211.28
403.20	211.34
403.58	211.42
403.95	211.54
404.33	211.64
404.71	211.75
405.08	212.03
405.46	212.10
405.83	212.18
406.21	212.26
406.58	212.40
406.96	212.51
407.33	212.61
407.70	212.77
408.08	213.13
408.45	213.36
408.83	213.57
409.20	213.70
409.58	213.61
409.95	213.83
410.33	214.10
410.70	214.16
411.08	214.47
411.45	214.63
411.82	214.81
412.20	215.14
412.57	215.59
412.95	215.55
413.32	215.95
413.69	216.26
414.07	216.64
414.44	217.01
414.82	217.46
415.19	217.97
415.56	218.45
415.94	218.91
416.31	219.56
416.68	220.20
417.06	220.95
417.43	221.72
417.81	222.54
418.18	223.35
418.55	224.22
418.93	225.08
419.30	226.01
419.67	227.00
420.04	227.98
420.42	229.00
420.79	230.52
421.16	231.70
421.54	233.16
421.91	234.60
422.28	235.98
422.66	237.42
423.03	239.11
423.40	240.62
423.77	242.08
424.15	243.56
424.52	245.21
424.89	246.98
425.26	248.68
425.64	250.24
426.01	252.02
426.38	253.90
426.75	255.90
427.13	257.87
427.50	259.96
427.87	262.14
428.24	264.30
428.61	266.15
428.99	268.61
429.36	270.97
429.73	273.34
430.10	275.81
430.47	278.32
430.85	280.69
431.22	283.35
431.59	286.43
431.96	289.21
432.33	292.31
432.70	295.32
433.08	298.73
433.45	302.11
433.82	305.37
434.19	309.10
434.56	312.65
434.93	316.08
435.30	319.45
435.68	323.25
436.05	326.99
436.42	330.58
436.79	333.85
437.16	337.48
437.53	341.31
437.90	345.13
438.27	348.96
438.64	352.77
439.01	356.52
439.38	359.56
439.75	362.64
440.13	366.20
440.50	369.50
440.87	372.33
441.24	375.03
441.61	378.19
441.98	380.40
442.35	383.02
442.72	385.74
443.09	388.57
443.46	390.17
443.83	391.28
444.20	392.41
444.57	393.77
444.94	394.52
445.31	395.26
445.68	396.27
446.05	396.45
446.42	396.16
446.79	395.72
447.16	395.24
447.53	395.05
447.90	393.63
448.27	392.28
448.64	390.25
449.01	388.92
449.37	386.53
449.74	384.20
450.11	381.59
450.48	378.45
450.85	374.96
451.22	372.12
451.59	369.42
451.96	366.84
452.33	363.48
452.70	360.32
453.07	356.64
453.43	352.56
453.80	349.07
454.17	345.69
454.54	342.30
454.91	338.83
455.28	335.28
455.65	331.99
456.02	329.26
456.38	326.63
456.75	323.33
457.12	320.44
457.49	317.65
457.86	314.68
458.23	312.47
458.59	310.06
458.96	307.52
459.33	305.23
459.70	303.00
460.07	301.17
460.43	299.07
460.80	297.16
461.17	295.48
461.54	293.69
461.91	292.10
462.27	290.47
462.64	288.97
463.01	287.45
463.38	286.03
463.74	283.91
464.11	282.43
464.48	281.27
464.85	279.96
465.21	279.05
465.58	278.01
465.95	276.56
466.32	275.45
466.68	274.42
467.05	273.42
467.42	272.28
467.78	271.18
468.15	270.22
468.52	269.60
468.88	268.49
469.25	267.48
469.62	266.71
469.98	265.93
470.35	265.15
470.72	264.46
471.08	263.65
471.45	263.18
471.82	262.63
472.18	261.91
472.55	261.49
472.92	260.78
473.28	260.28
473.65	259.88
474.02	259.43
474.38	259.13
474.75	258.82
475.11	258.44
475.48	258.20
475.85	257.94
476.21	257.50
476.58	257.39
476.94	257.34
477.31	257.10
477.67	256.91
478.04	256.85
478.41	256.75
478.77	257.03
479.14	256.87
479.50	256.90
479.87	256.91
480.23	256.90
480.60	256.93
480.96	257.05
481.33	257.27
481.69	257.42
482.06	257.48
482.42	257.63
482.79	257.91
483.15	258.18
483.52	258.55
483.88	258.89
484.25	259.16
484.61	259.57
484.98	260.04
485.34	260.62
485.71	261.15
486.07	261.69
486.44	262.01
486.80	262.61
487.17	263.25
487.53	264.21
487.90	264.89
488.26	265.80
488.62	266.70
488.99	267.51
489.35	268.43
489.72	269.43
490.08	270.45
490.44	271.48
490.81	272.59
491.17	273.68
491.54	275.00
491.90	276.35
492.26	277.60
492.63	278.90
492.99	280.32
493.36	281.89
493.72	283.58
494.08	285.26
494.45	287.01
494.81	288.90
495.17	290.55
495.54	292.70
495.90	294.74
496.26	296.81
496.63	299.02
496.99	301.32
497.35	303.75
497.72	306.25
498.08	308.85
498.44	311.44
498.80	314.26
499.17	317.00
499.53	319.98
499.89	323.19
500.26	326.43
500.62	329.61
500.98	332.97
501.34	336.36
501.71	339.95
502.07	343.72
502.43	347.37
502.79	351.09
503.16	354.92
503.52	358.73
503.88	362.87
504.24	367.04
504.60	371.41
504.97	375.84
505.33	380.33
505.69	385.12
506.05	389.98
506.41	394.75
506.78	399.69
507.14	404.68
507.50	409.72
507.86	415.02
508.22	420.50
508.59	425.86
508.95	431.46
509.31	437.23
509.67	442.99
510.03	448.97
510.39	455.15
510.75	461.23
511.12	467.58
511.48	473.73
511.84	480.22
512.20	486.53
512.56	493.06
512.92	499.86
513.28	506.53
513.64	513.40
514.00	520.32
514.37	527.38
514.73	534.56
515.09	541.73
515.45	548.82
515.81	555.95
516.17	563.35
516.53	570.67
516.89	577.90
517.25	585.21
517.61	592.79
517.97	600.10
518.33	607.59
518.69	615.14
519.05	622.93
519.41	630.87
519.77	639.06
520.13	646.81
520.49	654.49
520.85	662.44
521.21	670.53
521.57	678.52
521.93	686.19
522.29	694.33
522.65	702.31
523.01	710.32
523.37	718.25
523.73	726.30
524.09	734.20
524.45	742.25
524.81	750.42
525.17	758.48
525.53	766.88
525.89	774.96
526.25	783.24
526.61	791.11
526.97	798.90
527.33	806.81
527.68	815.26
528.04	823.06
528.40	830.82
528.76	838.51
529.12	846.53
529.48	854.81
529.84	862.47
530.20	870.44
530.56	878.29
530.91	886.33
531.27	894.54
531.63	902.55
531.99	910.30
532.35	917.88
532.71	925.49
533.07	933.15
533.42	941.22
533.78	948.47
534.14	955.91
534.50	963.05
534.86	970.52
535.21	977.25
535.57	984.71
535.93	991.66
536.29	998.66
536.65	1005.79
537.00	1012.07
537.36	1018.63
537.72	1024.86
538.08	1031.30
538.44	1037.56
538.79	1043.45
539.15	1049.70
539.51	1056.01
539.87	1062.38
540.22	1068.20
540.58	1074.36
540.94	1079.77
541.29	1085.55
541.65	1090.81
542.01	1096.42
542.37	1101.35
542.72	1106.60
543.08	1111.38
543.44	1116.66
543.79	1121.20
544.15	1125.42
544.51	1130.61
544.87	1135.35
545.22	1139.91
545.58	1144.20
545.94	1148.21
546.29	1152.11
546.65	1155.43
547.01	1158.98
547.36	1162.39
547.72	1165.67
548.07	1168.52
548.43	1171.62
548.79	1174.23
549.14	1177.22
549.50	1179.68
549.86	1182.04
550.21	1184.44
550.57	1186.94
550.92	1188.87
551.28	1191.11
551.64	1193.19
551.99	1195.13
552.35	1196.77
552.70	1198.39
553.06	1200.08
553.41	1201.71
553.77	1202.99
554.13	1204.84
554.48	1206.40
554.84	1207.95
555.19	1209.00
555.55	1209.94
555.90	1210.68
556.26	1211.47
556.61	1212.08
556.97	1212.69
557.32	1213.35
557.68	1213.69
558.03	1214.21
558.39	1214.39
558.74	1215.02
559.10	1215.50
559.45	1215.62
559.81	1216.15
560.16	1215.92
560.52	1216.06
560.87	1216.01
561.23	1215.74
561.58	1215.88
561.94	1215.08
562.29	1214.29
562.64	1214.16
563.00	1213.90
563.35	1213.84
563.71	1214.06
564.06	1213.88
564.42	1213.74
564.77	1213.68
565.12	1213.44
565.48	1213.17
565.83	1212.88
566.19	1212.52
566.54	1211.62
566.89	1210.74
567.25	1209.81
567.60	1209.40
567.96	1208.64
568.31	1207.85
568.66	1206.82
569.02	1205.19
569.37	1203.85
569.72	1202.64
570.08	1201.23
570.43	1199.59
570.78	1197.63
571.14	1195.60
571.49	1193.76
571.84	1192.02
572.20	1189.70
572.55	1188.03
572.90	1185.51
573.26	1183.21
573.61	1180.80
573.96	1178.39
574.31	1175.88
574.67	1173.01
575.02	1170.16
575.37	1167.22
575.72	1164.10
576.08	1161.65
576.43	1158.60
576.78	1156.12
577.13	1153.71
577.49	1151.05
577.84	1148.36
578.19	1145.99
578.54	1143.80
578.90	1141.53
579.25	1138.83
579.60	1135.92
579.95	1132.57
580.30	1129.92
580.66	1127.60
581.01	1124.57
581.36	1121.83
581.71	1118.92
582.06	1116.49
582.42	1113.82
582.77	1110.69
583.12	1108.09
583.47	1105.71
583.82	1103.58
584.17	1100.75
584.53	1098.12
584.88	1095.39
585.23	1092.93
585.58	1090.07
585.93	1086.75
586.28	1084.02
586.63	1081.12
586.98	1078.51
587.34	1076.11
587.69	1073.20
588.04	1070.29
588.39	1067.45
588.74	1064.59
589.09	1062.18
589.44	1059.30
589.79	1056.52
590.14	1054.20
590.49	1051.60
590.84	1048.28
591.19	1045.58
591.54	1042.83
591.89	1039.36
592.25	1036.53
592.60	1033.11
592.95	1029.91
593.30	1026.72
593.65	1023.34
594.00	1020.11
594.35	1018.18
594.70	1014.95
595.05	1012.22
595.40	1009.16
595.75	1006.00
596.10	1003.10
596.45	1000.24
596.80	997.38
597.15	994.83
597.50	991.72
597.85	988.70
598.19	985.80
598.54	982.74
598.89	979.90
599.24	977.43
599.59	974.63
599.94	972.48
600.29	969.78
600.64	967.34
600.99	964.36
601.34	961.84
601.69	958.12
602.04	955.18
602.39	952.27
602.74	949.41
603.08	946.96
603.43	944.74
603.78	941.95
604.13	939.27
604.48	936.41
604.83	934.24
605.18	931.90
605.53	929.64
605.87	926.65
606.22	924.17
606.57	921.63
606.92	918.73
607.27	915.63
607.62	912.91
607.96	910.36
608.31	908.04
608.66	905.02
609.01	902.10
609.36	899.34
609.70	896.38
610.05	893.27
610.40	890.23
610.75	886.76
611.10	883.86
611.44	880.10
611.79	876.63
612.14	872.96
612.49	869.22
612.83	865.65
613.18	862.07
613.53	858.37
613.88	854.19
614.22	850.74
614.57	847.01
614.92	843.37
615.27	839.55
615.61	835.73
615.96	832.48
616.31	829.24
616.65	826.01
617.00	822.54
617.35	819.10
617.70	815.24
618.04	811.58
618.39	807.68
618.74	804.69
619.08	801.16
619.43	797.50
619.78	794.10
620.12	790.49
620.47	787.18
620.82	783.53
621.16	780.16
621.51	776.79
621.85	773.46
622.20	769.94
622.55	766.35
622.89	762.90
623.24	759.29
623.59	755.61
623.93	752.13
624.28	748.77
624.62	745.71
624.97	742.84
625.32	739.61
625.66	736.23
626.01	732.78
626.35	729.64
626.70	726.36
627.04	723.36
627.39	720.27
627.73	717.27
628.08	714.28
628.43	710.86
628.77	707.40
629.12	704.04
629.46	701.16
629.81	698.04
630.15	694.96
630.50	691.80
630.84	688.52
631.19	685.22
631.53	682.15
631.88	678.61
632.22	674.92
632.57	671.92
632.91	668.72
633.26	665.59
633.60	662.40
633.95	659.57
634.29	656.28
634.64	653.15
634.98	649.94
635.32	646.91
635.67	644.35
636.01	641.57
636.36	638.60
636.70	635.66
637.05	632.77
637.39	629.91
637.73	627.13
638.08	624.65
638.42	622.16
638.77	619.35
639.11	616.54
639.45	613.90
639.80	610.76
640.14	607.90
640.49	604.90
640.83	601.86
641.17	598.95
641.52	595.98
641.86	592.95
642.20	590.20
642.55	587.13
642.89	584.05
643.23	581.07
643.58	578.39
643.92	575.37
644.26	572.57
644.61	569.68
644.95	566.69
645.29	563.63
645.64	560.53
645.98	557.66
646.32	554.93
646.66	552.10
647.01	549.35
647.35	546.68
647.69	543.90
648.04	541.45
648.38	538.68
648.72	535.98
649.06	533.42
649.41	530.59
649.75	527.91
650.09	525.28
650.43	522.64
650.78	519.78
651.12	517.07
651.46	514.38
651.80	511.76
652.14	509.17
652.49	506.61
652.83	503.86
653.17	501.02
653.51	498.34
653.85	495.82
654.20	493.20
654.54	490.49
654.88	487.91
655.22	485.39
655.56	482.64
655.90	480.01
656.25	477.40
656.59	474.93
656.93	472.52
657.27	470.27
657.61	467.70
657.95	465.30
658.29	462.85
658.64	460.54
658.98	457.95
659.32	455.28
659.66	452.92
660.00	450.60
660.34	448.15
660.68	445.67
661.02	443.17
661.36	440.93
661.70	438.69
662.05	436.57
662.39	434.39
662.73	432.48
663.07	430.56
663.41	428.42
663.75	426.15
664.09	423.90
664.43	421.41
664.77	419.27
665.11	417.21
665.45	415.31
665.79	413.29
666.13	411.34
666.47	409.48
666.81	407.44
667.15	405.46
667.49	403.85
667.83	402.18
668.17	400.29
668.51	398.41
668.85	396.68
669.19	394.94
669.53	392.99
669.87	390.99
670.21	389.09
670.55	387.37
670.89	385.84
671.23	384.32
671.57	382.83
671.91	381.24
672.25	379.53
672.58	377.90
672.92	376.07
673.26	374.58
673.60	373.14
673.94	371.56
674.28	370.08
674.62	368.45
674.96	366.89
675.30	365.53
675.64	364.18
675.97	362.71
676.31	361.25
676.65	359.88
676.99	358.63
677.33	357.16
677.67	355.72
678.01	354.24
678.34	352.84
678.68	351.42
679.02	350.05
679.36	348.66
679.70	347.26
680.04	346.04
680.37	344.68
680.71	343.33
681.05	342.00
681.39	340.69
681.73	339.47
682.06	338.24
682.40	337.03
682.74	335.81
683.08	334.62
683.42	333.24
683.75	331.83
684.09	330.46
684.43	329.30
684.77	328.06
685.10	326.86
685.44	325.53
685.78	324.34
686.12	323.07
686.45	321.96
686.79	320.72
687.13	319.61
687.46	318.36
687.80	317.25
688.14	316.12
688.48	315.01
688.81	313.77
689.15	312.69
689.49	311.50
689.82	310.34
690.16	308.98
690.50	307.92
690.83	306.90
691.17	305.79
691.51	304.58
691.84	303.65
692.18	302.49
692.52	301.67
692.85	300.76
693.19	299.95
693.52	298.90
693.86	297.89
694.20	296.84
694.53	296.00
694.87	294.97
695.21	293.99
695.54	293.01
695.88	292.05
696.21	291.02
696.55	290.12
696.88	289.15
697.22	288.42
697.56	287.70
697.89	286.81
698.23	286.09
698.56	285.33
698.90	284.48
699.23	283.71
699.57	282.75
699.90	281.89
700.24	281.00
700.58	280.28
700.91	279.63
701.25	279.17
701.58	278.45
701.92	277.69
702.25	277.04
702.59	276.28
702.92	275.66
703.26	275.04
703.59	274.33
703.93	274.07
704.26	273.31
704.60	272.56
704.93	271.86
705.26	271.13
705.60	270.52
705.93	269.92
706.27	269.40
706.60	268.96
706.94	268.49
707.27	267.79
707.61	267.21
707.94	266.54
708.27	265.72
708.61	264.97
708.94	264.42
709.28	263.80
709.61	263.22
709.94	262.62
710.28	261.96
710.61	261.40
710.95	260.48
711.28	260.19
711.61	259.58
711.95	259.22
712.28	258.63
712.61	258.11
712.95	257.68
713.28	257.25
713.61	256.51
713.95	255.82
714.28	255.38
714.61	254.84
714.95	254.33
715.28	253.71
715.61	253.33
715.95	252.91
716.28	252.37
716.61	252.05
716.95	251.52
717.28	251.05
717.61	250.57
717.94	250.16
718.28	249.51
718.61	249.08
718.94	248.53
719.27	248.15
719.61	247.74
719.94	247.19
720.27	246.60
720.60	246.32
720.94	246.01
721.27	245.67
721.60	245.41
721.93	245.06
722.27	244.91
722.60	244.61
722.93	244.20
723.26	243.94
723.59	243.50
723.93	243.26
724.26	242.97
724.59	242.71
724.92	242.33
725.25	242.11
725.59	241.83
725.92	241.56
726.25	241.25
726.58	240.94
726.91	240.67
727.24	240.47
727.57	240.09
727.91	239.75
728.24	239.47
728.57	239.12
728.90	238.83
729.23	238.35
729.56	238.20
729.89	237.99
730.22	237.66
730.55	237.34
730.89	237.03
731.22	236.80
731.55	236.53
731.88	236.23
732.21	235.82
732.54	235.54
732.87	235.29
733.20	235.01
733.53	234.80
733.86	234.64
734.19	234.31
734.52	234.18
734.85	234.12
735.18	233.74
735.51	233.58
735.84	233.40
736.17	233.29
736.50	232.80
736.83	232.96
737.16	232.79
737.49	232.67
737.82	232.35
738.15	232.16
738.48	231.91
738.81	231.71
739.14	231.49
739.47	231.26
739.80	231.02
740.13	230.90
740.46	230.60
740.79	230.29
741.12	230.07
741.45	229.77
741.78	229.48
742.11	229.49
742.44	229.13
742.77	228.96
743.10	228.72
743.43	228.54
743.75	227.94
744.08	228.21
744.41	227.91
744.74	227.80
745.07	227.55
745.40	227.43
745.73	227.41
746.06	227.35
746.39	227.14
746.71	226.94
747.04	226.62
747.37	226.47
747.70	226.38
748.03	226.25
748.36	226.17
748.68	226.04
749.01	225.75
749.34	225.70
749.67	225.55
750.00	225.45
750.33	225.60
750.65	225.53
750.98	224.91
751.31	224.84
751.64	224.69
751.97	224.75
752.29	224.59
752.62	224.32
752.95	224.13
753.28	224.06
753.60	223.93
753.93	223.92
754.26	223.78
754.59	223.50
754.91	223.39
755.24	223.25
755.57	223.06
755.90	222.93
756.22	222.75
756.55	222.61
756.88	222.45
757.20	222.03
757.53	221.76
757.86	221.67
758.19	221.52
758.51	221.41
758.84	221.10
759.17	221.00
759.49	220.91
759.82	220.95
760.15	220.92
760.47	220.87
760.80	220.69
761.13	220.75
761.45	220.63
761.78	220.42
762.11	220.30
762.43	220.18
762.76	220.13
763.08	220.11
763.41	220.05
763.74	219.92
764.06	219.86
764.39	219.82
764.71	219.70
765.04	219.57
765.37	219.46
765.69	219.44
766.02	219.30
766.34	219.17
766.67	218.98
767.00	218.91
767.32	219.05
767.65	219.18
767.97	219.02
768.30	219.03
768.62	219.07
768.95	218.99
769.27	218.86
769.60	218.79
769.92	218.61
770.25	218.44
770.57	218.33
770.90	218.21
771.22	218.10
771.55	217.99
771.87	217.97
772.20	217.95
772.52	218.09
772.85	218.51
773.17	218.49
773.50	218.36
773.82	218.29
774.15	217.92
774.47	217.68
774.80	217.60
775.12	217.53
775.45	217.49
775.77	217.41
776.09	217.44
776.42	217.41
776.74	217.44
777.07	217.38
777.39	217.31
777.72	217.22
778.04	217.27
778.36	217.21
778.69	217.18
779.01	217.12
779.33	216.82
779.66	216.32
779.98	216.21
780.31	216.19
780.63	216.24
780.95	216.27
781.28	216.19
781.60	216.08
781.92	215.96
782.25	215.84
782.57	215.83
782.89	215.72
783.22	215.66
783.54	215.55
783.86	215.50
784.19	215.49
784.51	215.56
784.83	215.44
785.16	215.45
785.48	215.42
785.80	215.40
786.12	215.34
786.45	215.27
786.77	215.27
787.09	215.16
787.42	214.91
787.74	214.87
788.06	214.88
788.38	214.83
788.71	214.85
789.03	214.80
789.35	214.80
789.67	214.71
789.99	214.70
790.32	214.66
790.64	214.70
