SpectraSuite Data File
++++++++++++++++++++++++++++++++++++
Date: Mon Feb 25 17:06:05 EST 2013
User: group
Dark Spectrum Present: No
Reference Spectrum Present: No
Number of Sampled Component Spectra: 1
Spectrometers: USB2E7196
Integration Time (usec): 104000 (USB2E7196)
Spectra Averaged: 20 (USB2E7196)
Boxcar Smoothing: 10 (USB2E7196)
Correct for Electrical Dark: No (USB2E7196)
Strobe/Lamp Enabled: No (USB2E7196)
Correct for Detector Non-linearity: No (USB2E7196)
Correct for Stray Light: No (USB2E7196)
Number of Pixels in Processed Spectrum: 2048
>>>>>Begin Processed Spectral Data<<<<<
339.09	0.00
339.48	198.25
339.86	200.65
340.24	201.95
340.63	202.25
341.01	209.85
341.39	206.15
341.78	207.30
342.16	209.40
342.54	208.95
342.93	198.48
343.31	208.46
343.69	209.04
344.07	209.44
344.46	209.87
344.84	210.25
345.22	210.22
345.60	210.45
345.99	210.64
346.37	210.64
346.75	210.66
347.13	210.65
347.52	210.69
347.90	210.83
348.28	210.85
348.66	210.82
349.05	210.75
349.43	210.78
349.81	210.74
350.19	210.72
350.57	210.79
350.96	210.79
351.34	210.85
351.72	210.89
352.10	210.99
352.48	210.97
352.87	211.00
353.25	211.05
353.63	211.08
354.01	211.10
354.39	211.25
354.77	211.31
355.15	211.47
355.54	211.48
355.92	211.39
356.30	211.46
356.68	211.80
357.06	211.81
357.44	211.76
357.82	211.88
358.20	212.01
358.58	212.03
358.97	212.19
359.35	212.27
359.73	212.40
360.11	212.44
360.49	212.48
360.87	212.56
361.25	212.69
361.63	212.87
362.01	212.91
362.39	212.93
362.77	213.06
363.15	213.13
363.53	213.15
363.91	213.20
364.29	213.21
364.67	212.86
365.05	212.90
365.43	212.95
365.81	213.02
366.19	213.12
366.57	213.29
366.95	213.23
367.33	213.21
367.71	213.21
368.09	213.35
368.47	213.38
368.85	213.38
369.23	213.44
369.61	213.24
369.99	213.39
370.37	213.36
370.75	213.49
371.13	213.46
371.51	213.46
371.89	213.51
372.27	213.50
372.65	213.50
373.03	213.50
373.41	213.48
373.78	213.39
374.16	213.19
374.54	212.98
374.92	212.86
375.30	212.86
375.68	212.74
376.06	212.64
376.44	212.60
376.82	212.59
377.19	212.55
377.57	212.59
377.95	212.47
378.33	212.51
378.71	212.31
379.09	212.23
379.47	212.16
379.84	212.07
380.22	211.95
380.60	211.86
380.98	211.76
381.36	211.66
381.73	211.60
382.11	211.63
382.49	211.63
382.87	211.55
383.25	211.52
383.62	211.90
384.00	211.80
384.38	211.78
384.76	211.75
385.13	211.81
385.51	211.72
385.89	211.47
386.27	211.33
386.64	211.31
387.02	211.23
387.40	211.22
387.78	211.19
388.15	211.24
388.53	211.24
388.91	211.22
389.29	211.19
389.66	211.19
390.04	211.05
390.42	211.04
390.79	211.09
391.17	211.05
391.55	210.60
391.92	210.57
392.30	210.58
392.68	210.46
393.05	210.40
393.43	210.37
393.81	210.48
394.18	210.44
394.56	210.40
394.94	210.46
395.31	210.35
395.69	210.44
396.06	210.40
396.44	210.40
396.82	210.37
397.19	210.56
397.57	210.52
397.95	210.62
398.32	210.58
398.70	210.55
399.07	210.58
399.45	210.53
399.82	210.54
400.20	210.55
400.58	210.63
400.95	210.46
401.33	210.55
401.70	210.81
402.08	210.85
402.45	210.89
402.83	210.98
403.20	211.06
403.58	211.03
403.95	211.16
404.33	211.20
404.71	211.27
405.08	211.49
405.46	211.57
405.83	211.70
406.21	211.80
406.58	211.91
406.96	212.02
407.33	212.19
407.70	212.33
408.08	212.75
408.45	212.93
408.83	213.22
409.20	213.43
409.58	213.44
409.95	213.74
410.33	214.03
410.70	214.17
411.08	214.52
411.45	214.90
411.82	215.16
412.20	215.65
412.57	216.20
412.95	216.25
413.32	216.69
413.69	217.03
414.07	217.53
414.44	218.06
414.82	218.55
415.19	219.22
415.56	219.80
415.94	220.22
416.31	220.94
416.68	221.63
417.06	222.49
417.43	223.41
417.81	224.35
418.18	225.31
418.55	226.37
418.93	227.44
419.30	228.54
419.67	229.70
420.04	230.82
420.42	232.08
420.79	233.92
421.16	235.43
421.54	237.15
421.91	238.82
422.28	240.59
422.66	242.35
423.03	244.29
423.40	246.16
423.77	248.07
424.15	250.10
424.52	252.27
424.89	254.50
425.26	256.55
425.64	258.60
426.01	260.82
426.38	263.17
426.75	265.65
427.13	268.18
427.50	270.89
427.87	273.77
428.24	276.55
428.61	279.00
428.99	281.95
429.36	285.01
429.73	288.18
430.10	291.24
430.47	294.64
430.85	297.76
431.22	301.35
431.59	305.40
431.96	309.05
432.33	313.05
432.70	317.01
433.08	321.65
433.45	325.99
433.82	330.35
434.19	335.23
434.56	339.95
434.93	344.45
435.30	348.94
435.68	353.88
436.05	358.70
436.42	363.59
436.79	368.20
437.16	373.12
437.53	378.10
437.90	383.17
438.27	388.10
438.64	393.37
439.01	398.34
439.38	402.45
439.75	406.62
440.13	411.38
440.50	415.72
440.87	419.39
441.24	423.27
441.61	427.51
441.98	430.78
442.35	434.36
442.72	438.26
443.09	442.07
443.46	444.44
443.83	446.22
444.20	447.61
444.57	449.63
444.94	450.64
445.31	451.83
445.68	453.30
446.05	453.89
446.42	453.67
446.79	453.32
447.16	452.94
447.53	452.79
447.90	451.08
448.27	449.61
448.64	447.41
449.01	445.71
449.37	442.65
449.74	439.49
450.11	436.25
450.48	432.01
450.85	427.77
451.22	424.22
451.59	420.84
451.96	417.71
452.33	413.39
452.70	409.45
453.07	404.69
453.43	399.52
453.80	394.91
454.17	390.41
454.54	385.99
454.91	381.39
455.28	376.89
455.65	372.82
456.02	369.09
456.38	365.45
456.75	361.19
457.12	357.50
457.49	353.96
457.86	350.15
458.23	347.28
458.59	343.91
458.96	340.46
459.33	337.36
459.70	334.34
460.07	331.92
460.43	329.20
460.80	326.71
461.17	324.51
461.54	322.20
461.91	320.00
462.27	317.83
462.64	315.88
463.01	313.81
463.38	311.80
463.74	309.21
464.11	307.32
464.48	305.56
464.85	303.81
465.21	302.55
465.58	301.11
465.95	299.36
466.32	297.95
466.68	296.51
467.05	295.19
467.42	293.76
467.78	292.27
468.15	290.94
468.52	289.88
468.88	288.46
469.25	287.13
469.62	286.06
469.98	284.92
470.35	283.92
470.72	282.86
471.08	281.74
471.45	280.98
471.82	280.15
472.18	279.18
472.55	278.54
472.92	277.52
473.28	276.74
473.65	275.93
474.02	275.24
474.38	274.70
474.75	274.16
475.11	273.57
475.48	273.07
475.85	272.57
476.21	271.99
476.58	271.64
476.94	271.36
477.31	271.07
477.67	270.84
478.04	270.60
478.41	270.45
478.77	270.59
479.14	270.27
479.50	270.06
479.87	270.05
480.23	269.90
480.60	269.75
480.96	269.61
481.33	269.69
481.69	269.70
482.06	269.66
482.42	269.70
482.79	269.82
483.15	269.86
483.52	270.03
483.88	270.25
484.25	270.30
484.61	270.47
484.98	270.62
485.34	270.94
485.71	271.21
486.07	271.50
486.44	271.54
486.80	271.87
487.17	272.27
487.53	272.77
487.90	273.28
488.26	274.00
488.62	274.63
488.99	275.16
489.35	275.75
489.72	276.40
490.08	276.97
490.44	277.60
490.81	278.35
491.17	279.13
491.54	279.88
491.90	280.80
492.26	281.66
492.63	282.58
492.99	283.42
493.36	284.40
493.72	285.37
494.08	286.30
494.45	287.41
494.81	288.54
495.17	289.64
495.54	290.81
495.90	291.87
496.26	293.08
496.63	294.28
496.99	295.50
497.35	296.71
497.72	298.11
498.08	299.40
498.44	300.74
498.80	302.08
499.17	303.43
499.53	304.81
499.89	306.26
500.26	307.54
500.62	308.94
500.98	310.39
501.34	311.79
501.71	313.38
502.07	314.82
502.43	316.14
502.79	317.49
503.16	318.84
503.52	320.23
503.88	321.53
504.24	322.92
504.60	324.41
504.97	325.96
505.33	327.33
505.69	328.97
506.05	330.36
506.41	331.79
506.78	333.24
507.14	334.65
507.50	336.07
507.86	337.64
508.22	339.06
508.59	340.39
508.95	341.87
509.31	343.32
509.67	344.70
510.03	346.17
510.39	347.55
510.75	348.99
511.12	350.37
511.48	351.80
511.84	353.24
512.20	354.62
512.56	356.02
512.92	357.48
513.28	358.84
513.64	360.30
514.00	361.61
514.37	362.98
514.73	364.38
515.09	365.82
515.45	367.10
515.81	368.43
516.17	369.72
516.53	371.03
516.89	372.14
517.25	373.47
517.61	374.93
517.97	376.23
518.33	377.53
518.69	379.02
519.05	380.54
519.41	382.01
519.77	383.62
520.13	385.01
520.49	386.37
520.85	387.68
521.21	389.38
521.57	391.02
521.93	392.53
522.29	394.07
522.65	395.59
523.01	397.25
523.37	398.90
523.73	400.79
524.09	402.55
524.45	404.34
524.81	406.18
525.17	408.04
525.53	409.98
525.89	411.86
526.25	413.88
526.61	415.81
526.97	417.80
527.33	419.73
527.68	422.08
528.04	424.20
528.40	426.50
528.76	428.53
529.12	430.87
529.48	433.27
529.84	435.53
530.20	437.96
530.56	440.46
530.91	443.10
531.27	445.53
531.63	447.99
531.99	450.69
532.35	453.38
532.71	456.03
533.07	458.74
533.42	461.81
533.78	464.55
534.14	467.21
534.50	469.84
534.86	472.67
535.21	475.07
535.57	478.11
535.93	480.71
536.29	483.62
536.65	486.45
537.00	489.13
537.36	492.06
537.72	494.78
538.08	497.64
538.44	500.32
538.79	503.30
539.15	506.22
539.51	509.08
539.87	512.06
540.22	514.89
540.58	517.98
540.94	520.71
541.29	523.55
541.65	526.44
542.01	529.59
542.37	532.38
542.72	535.38
543.08	538.04
543.44	541.29
543.79	543.94
544.15	546.77
544.51	550.01
544.87	553.10
545.22	556.05
545.58	558.86
545.94	561.79
546.29	564.50
546.65	567.26
547.01	569.99
547.36	572.68
547.72	575.47
548.07	578.17
548.43	580.72
548.79	583.25
549.14	585.97
549.50	588.50
549.86	590.93
550.21	593.63
550.57	596.50
550.92	598.77
551.28	601.35
551.64	603.81
551.99	606.18
552.35	608.42
552.70	610.79
553.06	613.13
553.41	615.52
553.77	618.04
554.13	620.39
554.48	622.74
554.84	625.05
555.19	627.37
555.55	629.50
555.90	631.53
556.26	633.54
556.61	635.39
556.97	637.25
557.32	639.38
557.68	641.25
558.03	642.74
558.39	644.56
558.74	646.46
559.10	648.30
559.45	649.98
559.81	651.81
560.16	653.43
560.52	655.27
560.87	656.84
561.23	658.17
561.58	660.09
561.94	661.65
562.29	662.92
562.64	664.25
563.00	665.68
563.35	667.35
563.71	669.19
564.06	670.76
564.42	672.41
564.77	673.89
565.12	675.30
565.48	677.10
565.83	678.69
566.19	680.19
566.54	681.42
566.89	682.49
567.25	683.85
567.60	685.26
567.96	686.58
568.31	687.88
568.66	689.03
569.02	689.68
569.37	690.33
569.72	691.32
570.08	692.09
570.43	692.70
570.78	693.35
571.14	693.55
571.49	694.07
571.84	694.51
572.20	694.80
572.55	695.26
572.90	695.17
573.26	695.12
573.61	695.04
573.96	695.09
574.31	695.08
574.67	694.75
575.02	694.45
575.37	693.93
575.72	693.44
576.08	693.31
576.43	692.88
576.78	692.72
577.13	692.46
577.49	692.30
577.84	692.09
578.19	691.76
578.54	691.69
578.90	691.56
579.25	691.17
579.60	690.87
579.95	690.18
580.30	689.64
580.66	689.33
581.01	688.89
581.36	688.29
581.71	687.86
582.06	687.71
582.42	687.26
582.77	686.75
583.12	686.28
583.47	685.82
583.82	685.52
584.17	685.13
584.53	684.57
584.88	683.97
585.23	683.48
585.58	682.89
585.93	682.24
586.28	681.70
586.63	681.03
586.98	680.41
587.34	680.08
587.69	679.80
588.04	679.17
588.39	678.67
588.74	678.05
589.09	677.56
589.44	676.48
589.79	675.79
590.14	675.04
590.49	674.43
590.84	673.58
591.19	672.87
591.54	672.17
591.89	671.25
592.25	670.39
592.60	669.32
592.95	668.35
593.30	667.27
593.65	665.94
594.00	664.82
594.35	664.60
594.70	663.30
595.05	662.12
595.40	661.02
595.75	659.53
596.10	658.62
596.45	657.52
596.80	656.72
597.15	655.89
597.50	654.81
597.85	653.76
598.19	652.64
598.54	651.54
598.89	650.41
599.24	649.63
599.59	648.60
599.94	647.68
600.29	646.67
600.64	645.79
600.99	644.90
601.34	644.07
601.69	642.19
602.04	641.15
602.39	640.01
602.74	639.20
603.08	638.66
603.43	637.83
603.78	636.81
604.13	635.66
604.48	634.60
604.83	633.93
605.18	633.13
605.53	632.00
605.87	630.87
606.22	629.75
606.57	628.64
606.92	627.56
607.27	626.24
607.62	625.08
607.96	623.94
608.31	622.99
608.66	621.71
609.01	620.67
609.36	619.58
609.70	618.36
610.05	616.91
610.40	615.48
610.75	613.92
611.10	612.70
611.44	611.15
611.79	609.46
612.14	607.58
612.49	605.60
612.83	604.20
613.18	602.52
613.53	600.86
613.88	599.01
614.22	597.47
614.57	596.00
614.92	594.36
615.27	592.67
615.61	590.73
615.96	589.10
616.31	587.32
616.65	585.73
617.00	584.10
617.35	582.44
617.70	580.63
618.04	578.75
618.39	576.75
618.74	575.12
619.08	573.36
619.43	571.77
619.78	570.18
620.12	568.44
620.47	566.74
620.82	564.77
621.16	562.96
621.51	561.14
621.85	559.30
622.20	557.40
622.55	555.45
622.89	553.62
623.24	551.81
623.59	549.81
623.93	547.90
624.28	546.05
624.62	544.56
624.97	542.86
625.32	541.15
625.66	539.54
626.01	537.72
626.35	536.04
626.70	534.20
627.04	532.57
627.39	530.76
627.73	529.15
628.08	527.73
628.43	525.93
628.77	524.03
629.12	522.18
629.46	520.60
629.81	518.99
630.15	517.32
630.50	515.42
630.84	513.71
631.19	511.88
631.53	510.21
631.88	508.00
632.22	506.00
632.57	504.37
632.91	502.43
633.26	500.82
633.60	499.01
633.95	497.35
634.29	495.60
634.64	493.85
634.98	491.97
635.32	490.23
635.67	488.79
636.01	487.04
636.36	485.30
636.70	483.72
637.05	482.03
637.39	480.39
637.73	479.02
638.08	477.71
638.42	476.14
638.77	474.66
639.11	473.11
639.45	471.62
639.80	469.80
640.14	468.14
640.49	466.33
640.83	464.71
641.17	463.13
641.52	461.44
641.86	459.81
642.20	458.22
642.55	456.38
642.89	454.55
643.23	452.96
643.58	451.62
643.92	449.79
644.26	448.05
644.61	446.39
644.95	444.52
645.29	442.67
645.64	441.05
645.98	439.32
646.32	437.72
646.66	435.79
647.01	434.18
647.35	432.63
647.69	430.99
648.04	429.38
648.38	427.76
648.72	426.04
649.06	424.24
649.41	422.58
649.75	420.96
650.09	419.36
650.43	417.74
650.78	415.90
651.12	414.20
651.46	412.65
651.80	411.10
652.14	409.57
652.49	408.04
652.83	406.49
653.17	404.74
653.51	402.97
653.85	401.69
654.20	400.20
654.54	398.55
654.88	396.93
655.22	395.38
655.56	393.65
655.90	392.09
656.25	390.65
656.59	389.03
656.93	387.61
657.27	386.18
657.61	384.53
657.95	383.06
658.29	381.59
658.64	380.18
658.98	378.58
659.32	376.94
659.66	375.40
660.00	373.84
660.34	372.17
660.68	370.78
661.02	369.22
661.36	367.77
661.70	366.42
662.05	365.09
662.39	363.78
662.73	362.57
663.07	361.42
663.41	360.05
663.75	358.70
664.09	357.29
664.43	355.82
664.77	354.59
665.11	353.28
665.45	352.02
665.79	350.70
666.13	349.39
666.47	348.20
666.81	346.92
667.15	345.55
667.49	344.63
667.83	343.46
668.17	342.30
668.51	341.12
668.85	339.98
669.19	338.96
669.53	337.61
669.87	336.33
670.21	335.02
670.55	333.92
670.89	332.98
671.23	332.02
671.57	331.00
671.91	329.89
672.25	328.73
672.58	327.73
672.92	326.65
673.26	325.71
673.60	324.76
673.94	323.73
674.28	322.82
674.62	321.80
674.96	320.96
675.30	320.01
675.64	318.95
675.97	317.93
676.31	316.80
676.65	315.87
676.99	315.16
677.33	314.24
677.67	313.30
678.01	312.29
678.34	311.32
678.68	310.47
679.02	309.46
679.36	308.60
679.70	307.64
680.04	306.74
680.37	305.76
680.71	304.74
681.05	303.93
681.39	303.07
681.73	302.14
682.06	301.14
682.40	300.32
682.74	299.55
683.08	298.87
683.42	298.15
683.75	297.34
684.09	296.30
684.43	295.47
684.77	294.60
685.10	293.77
685.44	292.96
685.78	292.16
686.12	291.49
686.45	290.75
686.79	289.93
687.13	289.26
687.46	288.50
687.80	287.84
688.14	287.09
688.48	286.40
688.81	285.74
689.15	285.07
689.49	284.23
689.82	283.45
690.16	282.52
690.50	281.70
690.83	280.96
691.17	280.29
691.51	279.58
691.84	278.92
692.18	278.30
692.52	277.61
692.85	276.99
693.19	276.45
693.52	275.78
693.86	275.17
694.20	274.45
694.53	273.90
694.87	273.19
695.21	272.49
695.54	271.76
695.88	270.97
696.21	270.21
696.55	269.70
696.88	269.14
697.22	268.49
697.56	267.95
697.89	267.39
698.23	266.85
698.56	266.24
698.90	265.69
699.23	265.03
699.57	264.40
699.90	263.77
700.24	262.93
700.58	262.32
700.91	261.77
701.25	261.43
701.58	260.85
701.92	260.31
702.25	259.89
702.59	259.38
702.92	258.86
703.26	258.41
703.59	257.83
703.93	257.60
704.26	257.18
704.60	256.66
704.93	256.10
705.26	255.50
705.60	255.09
705.93	254.54
706.27	254.15
706.60	253.81
706.94	253.44
707.27	253.12
707.61	252.74
707.94	252.17
708.27	251.57
708.61	251.15
708.94	250.77
709.28	250.29
709.61	249.88
709.94	249.59
710.28	249.10
710.61	248.67
710.95	247.99
711.28	247.85
711.61	247.51
711.95	247.28
712.28	246.88
712.61	246.47
712.95	246.29
713.28	245.98
713.61	245.61
713.95	245.19
714.28	244.91
714.61	244.49
714.95	244.29
715.28	243.85
715.61	243.46
715.95	243.17
716.28	242.77
716.61	242.50
716.95	242.16
717.28	241.89
717.61	241.61
717.94	241.27
718.28	240.66
718.61	240.23
718.94	239.88
719.27	239.58
719.61	239.30
719.94	238.96
720.27	238.55
720.60	238.13
720.94	237.89
721.27	237.50
721.60	237.34
721.93	237.02
722.27	236.85
722.60	236.67
722.93	236.42
723.26	236.20
723.59	235.92
723.93	235.64
724.26	235.50
724.59	235.17
724.92	235.05
725.25	234.95
725.59	234.76
725.92	234.59
726.25	234.37
726.58	234.06
726.91	233.84
727.24	233.65
727.57	233.50
727.91	233.24
728.24	233.10
728.57	232.82
728.90	232.69
729.23	232.43
729.56	232.39
729.89	232.12
730.22	231.84
730.55	231.53
730.89	231.28
731.22	231.04
731.55	230.88
731.88	230.58
732.21	230.33
732.54	230.15
732.87	229.91
733.20	229.84
733.53	229.74
733.86	229.58
734.19	229.35
734.52	229.23
734.85	229.22
735.18	228.99
735.51	228.93
735.84	228.75
736.17	228.67
736.50	228.31
736.83	228.54
737.16	228.41
737.49	228.33
737.82	228.12
738.15	227.98
738.48	227.81
738.81	227.68
739.14	227.45
739.47	227.27
739.80	227.05
740.13	226.87
740.46	226.68
740.79	226.41
741.12	226.28
741.45	226.07
741.78	225.75
742.11	225.71
742.44	225.48
742.77	225.33
743.10	225.06
743.43	224.84
743.75	224.30
744.08	224.71
744.41	224.50
744.74	224.43
745.07	224.25
745.40	224.20
745.73	224.18
746.06	224.07
746.39	223.93
746.71	223.84
747.04	223.72
747.37	223.64
747.70	223.63
748.03	223.50
748.36	223.36
748.68	223.24
749.01	222.98
749.34	222.84
749.67	222.75
750.00	222.74
750.33	222.94
750.65	222.87
750.98	222.25
751.31	222.22
751.64	222.06
751.97	222.14
752.29	221.99
752.62	221.67
752.95	221.53
753.28	221.43
753.60	221.24
753.93	221.20
754.26	221.03
754.59	220.77
754.91	220.66
755.24	220.65
755.57	220.52
755.90	220.48
756.22	220.39
756.55	220.29
756.88	220.10
757.20	219.74
757.53	219.58
757.86	219.54
758.19	219.48
758.51	219.47
758.84	219.27
759.17	219.12
759.49	219.17
759.82	219.34
760.15	219.29
760.47	219.23
760.80	219.05
761.13	219.05
761.45	219.00
761.78	218.88
762.11	218.78
762.43	218.71
762.76	218.60
763.08	218.60
763.41	218.53
763.74	218.55
764.06	218.48
764.39	218.49
764.71	218.39
765.04	218.27
765.37	218.14
765.69	217.98
766.02	217.98
766.34	217.81
766.67	217.55
767.00	217.53
767.32	217.66
767.65	217.78
767.97	217.67
768.30	217.61
768.62	217.61
768.95	217.46
769.27	217.40
769.60	217.40
769.92	217.27
770.25	217.12
770.57	216.93
770.90	216.89
771.22	216.72
771.55	216.63
771.87	216.66
772.20	216.61
772.52	216.90
772.85	217.28
773.17	217.26
773.50	217.20
773.82	217.11
774.15	216.83
774.47	216.60
774.80	216.57
775.12	216.52
775.45	216.44
775.77	216.46
776.09	216.44
776.42	216.40
776.74	216.44
777.07	216.39
777.39	216.35
777.72	216.27
778.04	216.28
778.36	216.26
778.69	216.14
779.01	216.10
779.33	215.70
779.66	215.22
779.98	215.16
780.31	215.16
780.63	215.24
780.95	215.29
781.28	215.24
781.60	215.14
781.92	215.13
782.25	215.05
782.57	215.03
782.89	214.95
783.22	214.89
783.54	214.81
783.86	214.84
784.19	214.80
784.51	214.91
784.83	214.87
785.16	214.81
785.48	214.79
785.80	214.79
786.12	214.77
786.45	214.74
786.77	214.70
787.09	214.66
787.42	214.58
787.74	214.60
788.06	214.58
788.38	214.57
788.71	214.54
789.03	214.54
789.35	214.56
789.67	214.46
789.99	214.41
790.32	214.32
790.64	214.36
790.96	214.58
791.28	214.41
791.61	214.33
791.93	214.30
792.25	214.26
792.57	214.50
792.89	214.45
793.21	214.48
793.54	214.44
793.86	214.36
794.18	214.24
