SpectraSuite Data File
++++++++++++++++++++++++++++++++++++
Date: Mon Feb 25 17:16:31 EST 2013
User: group
Dark Spectrum Present: No
Reference Spectrum Present: No
Number of Sampled Component Spectra: 1
Spectrometers: USB2E7196
Integration Time (usec): 104000 (USB2E7196)
Spectra Averaged: 20 (USB2E7196)
Boxcar Smoothing: 10 (USB2E7196)
Correct for Electrical Dark: No (USB2E7196)
Strobe/Lamp Enabled: No (USB2E7196)
Correct for Detector Non-linearity: No (USB2E7196)
Correct for Stray Light: No (USB2E7196)
Number of Pixels in Processed Spectrum: 2048
>>>>>Begin Processed Spectral Data<<<<<
339.09	0.00
339.48	198.65
339.86	200.55
340.24	202.10
340.63	203.75
341.01	208.20
341.39	204.75
341.78	207.75
342.16	209.10
342.54	208.15
342.93	198.45
343.31	208.46
343.69	208.98
344.07	209.38
344.46	209.87
344.84	210.26
345.22	210.48
345.60	210.83
345.99	211.05
346.37	211.19
346.75	211.39
347.13	211.41
347.52	211.53
347.90	211.68
348.28	211.70
348.66	211.85
349.05	211.79
349.43	211.87
349.81	211.96
350.19	212.04
350.57	212.11
350.96	212.25
351.34	212.45
351.72	212.57
352.10	212.79
352.48	212.71
352.87	212.74
353.25	212.77
353.63	212.76
354.01	212.78
354.39	212.90
354.77	212.85
355.15	212.97
355.54	212.97
355.92	212.94
356.30	213.03
356.68	213.20
357.06	213.21
357.44	213.15
357.82	213.29
358.20	213.36
358.58	213.34
358.97	213.33
359.35	213.31
359.73	213.49
360.11	213.48
360.49	213.65
360.87	213.71
361.25	213.70
361.63	213.91
362.01	213.87
362.39	213.81
362.77	213.97
363.15	213.98
363.53	214.00
363.91	214.05
364.29	214.04
364.67	213.76
365.05	213.78
365.43	213.87
365.81	213.80
366.19	213.98
366.57	214.25
366.95	214.26
367.33	214.19
367.71	214.09
368.09	214.14
368.47	214.10
368.85	214.10
369.23	214.15
369.61	213.96
369.99	214.11
370.37	214.14
370.75	214.22
371.13	214.05
371.51	214.00
371.89	214.01
372.27	213.93
372.65	213.95
373.03	214.00
373.41	213.88
373.78	213.92
374.16	213.66
374.54	213.49
374.92	213.48
375.30	213.41
375.68	213.29
376.06	213.24
376.44	213.10
376.82	212.98
377.19	212.95
377.57	212.95
377.95	212.82
378.33	212.75
378.71	212.53
379.09	212.57
379.47	212.54
379.84	212.50
380.22	212.53
380.60	212.40
380.98	212.28
381.36	212.25
381.73	212.10
382.11	212.14
382.49	212.11
382.87	212.03
383.25	212.06
383.62	212.46
384.00	212.36
384.38	212.40
384.76	212.52
385.13	212.61
385.51	212.55
385.89	212.48
386.27	212.45
386.64	212.43
387.02	212.43
387.40	212.42
387.78	212.33
388.15	212.27
388.53	212.17
388.91	212.15
389.29	212.13
389.66	212.22
390.04	212.23
390.42	212.20
390.79	212.21
391.17	212.15
391.55	211.81
391.92	211.78
392.30	211.71
392.68	211.58
393.05	211.50
393.43	211.59
393.81	211.58
394.18	211.55
394.56	211.58
394.94	211.66
395.31	211.60
395.69	211.77
396.06	211.83
396.44	211.96
396.82	211.99
397.19	212.15
397.57	212.10
397.95	212.10
398.32	211.98
398.70	211.97
399.07	212.10
399.45	212.06
399.82	212.12
400.20	212.21
400.58	212.22
400.95	212.11
401.33	212.16
401.70	212.48
402.08	212.50
402.45	212.54
402.83	212.63
403.20	212.78
403.58	212.74
403.95	212.88
404.33	212.97
404.71	213.05
405.08	213.35
405.46	213.50
405.83	213.65
406.21	213.80
406.58	213.99
406.96	214.07
407.33	214.27
407.70	214.48
408.08	214.91
408.45	215.19
408.83	215.55
409.20	215.70
409.58	215.78
409.95	216.15
410.33	216.47
410.70	216.64
411.08	216.96
411.45	217.33
411.82	217.55
412.20	217.98
412.57	218.62
412.95	218.80
413.32	219.29
413.69	219.74
414.07	220.31
414.44	220.89
414.82	221.58
415.19	222.35
415.56	223.07
415.94	223.65
416.31	224.58
416.68	225.46
417.06	226.48
417.43	227.46
417.81	228.58
418.18	229.69
418.55	230.86
418.93	232.16
419.30	233.47
419.67	234.93
420.04	236.36
420.42	237.69
420.79	239.59
421.16	241.32
421.54	243.23
421.91	245.13
422.28	247.05
422.66	249.11
423.03	251.31
423.40	253.43
423.77	255.57
424.15	257.79
424.52	260.11
424.89	262.61
425.26	264.93
425.64	267.24
426.01	269.75
426.38	272.54
426.75	275.27
427.13	278.09
427.50	281.00
427.87	284.05
428.24	287.13
428.61	289.91
428.99	293.21
429.36	296.62
429.73	300.03
430.10	303.48
430.47	306.94
430.85	310.30
431.22	314.08
431.59	318.31
431.96	322.14
432.33	326.40
432.70	330.54
433.08	335.43
433.45	340.03
433.82	344.63
434.19	349.65
434.56	354.47
434.93	359.16
435.30	363.95
435.68	369.10
436.05	374.35
436.42	379.43
436.79	384.00
437.16	388.93
437.53	394.10
437.90	399.37
438.27	404.66
438.64	410.00
439.01	414.89
439.38	419.17
439.75	423.34
440.13	428.16
440.50	432.71
440.87	436.49
441.24	440.30
441.61	444.49
441.98	447.55
442.35	451.26
442.72	454.85
443.09	458.49
443.46	460.65
443.83	461.88
444.20	462.97
444.57	464.64
444.94	465.56
445.31	466.54
445.68	467.50
446.05	467.62
446.42	467.05
446.79	466.36
447.16	465.56
447.53	465.02
447.90	462.89
448.27	460.80
448.64	457.91
449.01	455.76
449.37	452.19
449.74	448.71
450.11	444.85
450.48	440.42
450.85	435.67
451.22	431.71
451.59	428.10
451.96	424.59
452.33	419.94
452.70	415.61
453.07	410.37
453.43	404.97
453.80	400.06
454.17	395.20
454.54	390.81
454.91	386.14
455.28	381.48
455.65	377.06
456.02	373.15
456.38	369.51
456.75	365.04
457.12	361.27
457.49	357.39
457.86	353.41
458.23	350.28
458.59	346.86
458.96	343.41
459.33	340.28
459.70	337.16
460.07	334.78
460.43	331.91
460.80	329.37
461.17	327.23
461.54	324.84
461.91	322.63
462.27	320.26
462.64	318.19
463.01	316.11
463.38	314.25
463.74	311.70
464.11	309.82
464.48	308.16
464.85	306.38
465.21	305.25
465.58	303.94
465.95	302.21
466.32	300.78
466.68	299.44
467.05	298.09
467.42	296.80
467.78	295.26
468.15	293.96
468.52	293.07
468.88	291.55
469.25	290.40
469.62	289.55
469.98	288.50
470.35	287.69
470.72	286.77
471.08	285.81
471.45	285.19
471.82	284.48
472.18	283.68
472.55	283.19
472.92	282.58
473.28	282.05
473.65	281.55
474.02	281.06
474.38	280.73
474.75	280.46
475.11	280.08
475.48	279.94
475.85	279.86
476.21	279.63
476.58	279.65
476.94	279.55
477.31	279.45
477.67	279.53
478.04	279.53
478.41	279.77
478.77	280.25
479.14	280.36
479.50	280.69
479.87	280.98
480.23	281.27
480.60	281.49
480.96	281.81
481.33	282.40
481.69	283.09
482.06	283.62
482.42	284.21
482.79	284.93
483.15	285.72
483.52	286.56
483.88	287.39
484.25	288.27
484.61	289.33
484.98	290.39
485.34	291.62
485.71	292.95
486.07	294.17
486.44	295.21
486.80	296.79
487.17	298.31
487.53	300.12
487.90	302.06
488.26	304.16
488.62	306.35
488.99	308.41
489.35	310.63
489.72	312.98
490.08	315.45
490.44	318.14
490.81	320.94
491.17	323.69
491.54	326.84
491.90	330.07
492.26	333.43
492.63	336.92
492.99	340.45
493.36	344.33
493.72	348.50
494.08	352.80
494.45	357.35
494.81	361.99
495.17	366.90
495.54	372.04
495.90	377.39
496.26	382.67
496.63	388.44
496.99	394.41
497.35	400.67
497.72	407.34
498.08	414.00
498.44	420.99
498.80	428.53
499.17	436.06
499.53	443.95
499.89	452.17
500.26	460.65
500.62	469.31
500.98	478.41
501.34	487.76
501.71	497.40
502.07	507.13
502.43	517.34
502.79	527.86
503.16	538.51
503.52	549.56
503.88	561.19
504.24	572.99
504.60	584.96
504.97	597.56
505.33	610.15
505.69	623.71
506.05	637.27
506.41	650.83
506.78	664.91
507.14	679.38
507.50	694.34
507.86	709.55
508.22	725.10
508.59	740.71
508.95	756.90
509.31	773.55
509.67	790.53
510.03	807.71
510.39	825.30
510.75	843.40
511.12	861.39
511.48	879.84
511.84	898.49
512.20	917.34
512.56	936.61
512.92	956.23
513.28	975.73
513.64	995.85
514.00	1015.85
514.37	1036.30
514.73	1057.16
515.09	1077.61
515.45	1098.24
515.81	1119.39
516.17	1140.59
516.53	1161.78
516.89	1183.12
517.25	1204.59
517.61	1226.39
517.97	1247.82
518.33	1269.24
518.69	1291.05
519.05	1312.90
519.41	1335.20
519.77	1357.77
520.13	1379.63
520.49	1401.35
520.85	1423.72
521.21	1445.60
521.57	1468.25
521.93	1489.70
522.29	1512.12
522.65	1534.88
523.01	1557.10
523.37	1578.63
523.73	1600.39
524.09	1622.15
524.45	1643.80
524.81	1665.41
525.17	1687.28
525.53	1709.50
525.89	1731.28
526.25	1752.84
526.61	1773.54
526.97	1794.36
527.33	1815.08
527.68	1836.18
528.04	1856.47
528.40	1875.89
528.76	1895.76
529.12	1915.58
529.48	1936.38
529.84	1955.73
530.20	1975.04
530.56	1994.95
530.91	2015.23
531.27	2035.21
531.63	2054.37
531.99	2073.26
532.35	2091.67
532.71	2109.33
533.07	2127.37
533.42	2145.11
533.78	2162.68
534.14	2180.43
534.50	2196.57
534.86	2213.27
535.21	2228.77
535.57	2245.80
535.93	2261.92
536.29	2277.68
536.65	2293.37
537.00	2308.08
537.36	2322.11
537.72	2335.88
538.08	2349.24
538.44	2362.51
538.79	2375.82
539.15	2389.16
539.51	2402.53
539.87	2416.36
540.22	2429.34
540.58	2442.32
540.94	2454.42
541.29	2465.78
541.65	2476.38
542.01	2487.89
542.37	2498.40
542.72	2509.37
543.08	2518.99
543.44	2529.37
543.79	2538.53
544.15	2547.19
544.51	2556.51
544.87	2565.90
545.22	2574.05
545.58	2581.90
545.94	2588.69
546.29	2594.77
546.65	2600.80
547.01	2606.53
547.36	2611.58
547.72	2616.91
548.07	2620.61
548.43	2624.71
548.79	2628.73
549.14	2632.94
549.50	2636.76
549.86	2639.62
550.21	2642.39
550.57	2645.69
550.92	2647.55
551.28	2649.24
551.64	2651.20
551.99	2653.06
552.35	2653.90
552.70	2655.22
553.06	2656.55
553.41	2657.82
553.77	2658.93
554.13	2659.15
554.48	2659.70
554.84	2660.28
555.19	2659.95
555.55	2659.38
555.90	2658.26
556.26	2657.02
556.61	2655.87
556.97	2653.81
557.32	2652.85
557.68	2650.51
558.03	2647.81
558.39	2646.06
558.74	2645.28
559.10	2643.46
559.45	2640.63
559.81	2639.15
560.16	2636.29
560.52	2633.78
560.87	2630.95
561.23	2627.43
561.58	2624.91
561.94	2620.96
562.29	2616.50
562.64	2612.94
563.00	2609.71
563.35	2607.41
563.71	2605.31
564.06	2602.26
564.42	2599.80
564.77	2596.82
565.12	2594.44
565.48	2591.60
565.83	2588.02
566.19	2584.25
566.54	2579.60
566.89	2575.20
567.25	2570.79
567.60	2566.71
567.96	2562.14
568.31	2557.49
568.66	2552.73
569.02	2547.44
569.37	2542.14
569.72	2537.41
570.08	2531.90
570.43	2526.33
570.78	2519.82
571.14	2512.76
571.49	2506.19
571.84	2500.23
572.20	2492.83
572.55	2486.24
572.90	2479.05
573.26	2471.27
573.61	2463.50
573.96	2456.59
574.31	2448.76
574.67	2440.18
575.02	2431.94
575.37	2423.52
575.72	2415.21
576.08	2407.76
576.43	2399.16
576.78	2391.58
577.13	2383.64
577.49	2375.87
577.84	2367.73
578.19	2360.68
578.54	2353.69
578.90	2346.60
579.25	2338.11
579.60	2329.72
579.95	2320.76
580.30	2312.89
580.66	2305.99
581.01	2298.02
581.36	2289.38
581.71	2281.41
582.06	2273.59
582.42	2265.83
582.77	2257.19
583.12	2248.80
583.47	2240.88
583.82	2233.73
584.17	2225.25
584.53	2217.44
584.88	2209.37
585.23	2201.34
585.58	2192.68
585.93	2183.98
586.28	2175.83
586.63	2167.51
586.98	2160.15
587.34	2153.10
587.69	2144.99
588.04	2136.48
588.39	2128.64
588.74	2120.32
589.09	2112.80
589.44	2104.45
589.79	2096.91
590.14	2089.88
590.49	2082.20
590.84	2074.11
591.19	2066.61
591.54	2058.82
591.89	2049.55
592.25	2041.38
592.60	2032.73
592.95	2023.90
593.30	2014.81
593.65	2005.85
594.00	1997.97
594.35	1990.90
594.70	1982.30
595.05	1974.31
595.40	1966.50
595.75	1957.98
596.10	1950.67
596.45	1942.77
596.80	1935.70
597.15	1928.26
597.50	1920.32
597.85	1913.10
598.19	1905.05
598.54	1897.39
598.89	1890.29
599.24	1884.40
599.59	1877.42
599.94	1871.31
600.29	1864.69
600.64	1858.45
600.99	1850.71
601.34	1843.61
601.69	1835.28
602.04	1827.63
602.39	1820.22
602.74	1813.00
603.08	1806.88
603.43	1800.64
603.78	1793.90
604.13	1786.89
604.48	1779.57
604.83	1773.77
605.18	1767.75
605.53	1761.18
605.87	1753.65
606.22	1746.76
606.57	1739.51
606.92	1732.21
607.27	1724.59
607.62	1717.27
607.96	1710.44
608.31	1704.71
608.66	1697.27
609.01	1689.77
609.36	1682.75
609.70	1675.09
610.05	1667.07
610.40	1659.27
610.75	1651.02
611.10	1643.67
611.44	1634.88
611.79	1626.66
612.14	1617.38
612.49	1608.09
612.83	1599.71
613.18	1591.34
613.53	1582.68
613.88	1573.57
614.22	1565.37
614.57	1556.82
614.92	1548.51
615.27	1539.53
615.61	1530.57
615.96	1522.49
616.31	1514.73
616.65	1507.44
617.00	1499.65
617.35	1491.87
617.70	1483.39
618.04	1474.82
618.39	1465.65
618.74	1458.02
619.08	1449.66
619.43	1441.81
619.78	1434.16
620.12	1426.33
620.47	1418.70
620.82	1410.48
621.16	1402.34
621.51	1394.13
621.85	1386.20
622.20	1377.92
622.55	1369.97
622.89	1361.74
623.24	1353.58
623.59	1345.04
623.93	1336.69
624.28	1328.92
624.62	1321.38
624.97	1313.65
625.32	1306.16
625.66	1298.96
626.01	1291.60
626.35	1284.67
626.70	1277.10
627.04	1269.93
627.39	1262.49
627.73	1255.10
628.08	1248.26
628.43	1240.86
628.77	1233.42
629.12	1226.08
629.46	1219.59
629.81	1212.67
630.15	1205.94
630.50	1198.67
630.84	1191.87
631.19	1184.65
631.53	1177.72
631.88	1170.10
632.22	1162.83
632.57	1156.19
632.91	1149.09
633.26	1142.01
633.60	1134.72
633.95	1128.28
634.29	1121.08
634.64	1114.56
634.98	1107.51
635.32	1100.93
635.67	1094.86
636.01	1088.48
636.36	1081.94
636.70	1075.18
637.05	1068.85
637.39	1062.40
637.73	1056.55
638.08	1050.66
638.42	1044.75
638.77	1038.42
639.11	1032.41
639.45	1026.29
639.80	1019.45
640.14	1012.97
640.49	1006.67
640.83	1000.49
641.17	994.08
641.52	987.62
641.86	980.98
642.20	974.90
642.55	968.15
642.89	961.64
643.23	955.20
643.58	949.26
643.92	942.81
644.26	936.41
644.61	930.30
644.95	923.73
645.29	917.46
645.64	911.05
645.98	904.88
646.32	899.03
646.66	893.03
647.01	887.22
647.35	881.38
647.69	875.21
648.04	869.42
648.38	863.37
648.72	857.54
649.06	851.70
649.41	845.87
649.75	840.02
650.09	834.36
650.43	828.53
650.78	822.36
651.12	816.40
651.46	810.55
651.80	804.99
652.14	799.46
652.49	793.65
652.83	787.86
653.17	781.81
653.51	776.00
653.85	770.40
654.20	764.94
654.54	759.42
654.88	753.87
655.22	748.17
655.56	742.46
655.90	736.97
656.25	731.50
656.59	725.94
656.93	720.77
657.27	715.58
657.61	710.18
657.95	705.25
658.29	700.44
658.64	695.56
658.98	690.21
659.32	684.91
659.66	679.85
660.00	674.76
660.34	669.86
660.68	664.73
661.02	659.68
661.36	654.97
661.70	650.07
662.05	645.70
662.39	641.42
662.73	637.19
663.07	633.06
663.41	628.76
663.75	624.41
664.09	619.88
664.43	615.22
664.77	611.07
665.11	606.57
665.45	602.30
665.79	598.19
666.13	594.04
666.47	589.96
666.81	586.01
667.15	581.92
667.49	578.35
667.83	574.70
668.17	570.93
668.51	566.99
668.85	563.49
669.19	559.86
669.53	555.92
669.87	552.15
670.21	548.32
670.55	544.73
670.89	541.56
671.23	538.38
671.57	535.09
671.91	531.76
672.25	528.48
672.58	525.13
672.92	521.65
673.26	518.50
673.60	515.45
673.94	512.21
674.28	509.22
674.62	506.04
674.96	502.90
675.30	499.87
675.64	496.89
675.97	493.92
676.31	490.87
676.65	488.01
676.99	485.37
677.33	482.50
677.67	479.56
678.01	476.42
678.34	473.58
678.68	470.63
679.02	467.65
679.36	464.98
679.70	462.32
680.04	459.67
680.37	456.81
680.71	454.12
681.05	451.59
681.39	449.02
681.73	446.45
682.06	444.07
682.40	441.62
682.74	439.07
683.08	436.56
683.42	434.01
683.75	431.48
684.09	428.90
684.43	426.47
684.77	424.00
685.10	421.59
685.44	419.10
685.78	416.80
686.12	414.73
686.45	412.35
686.79	410.04
687.13	407.87
687.46	405.76
687.80	403.65
688.14	401.27
688.48	399.14
688.81	396.89
689.15	394.70
689.49	392.44
689.82	390.38
690.16	388.04
690.50	385.88
690.83	383.88
691.17	381.60
691.51	379.55
691.84	377.61
692.18	375.70
692.52	373.94
692.85	372.25
693.19	370.47
693.52	368.67
693.86	366.59
694.20	364.78
694.53	363.03
694.87	361.12
695.21	359.44
695.54	357.55
695.88	355.74
696.21	353.92
696.55	352.30
696.88	350.59
697.22	349.02
697.56	347.52
697.89	345.84
698.23	344.38
698.56	342.72
698.90	341.17
699.23	339.63
699.57	337.85
699.90	336.16
700.24	334.46
700.58	332.93
700.91	331.72
701.25	330.43
701.58	329.00
701.92	327.62
702.25	326.17
702.59	324.80
702.92	323.49
703.26	322.17
703.59	320.85
703.93	319.79
704.26	318.51
704.60	317.10
704.93	315.80
705.26	314.47
705.60	313.27
705.93	312.06
706.27	310.88
706.60	309.90
706.94	308.88
707.27	307.63
707.61	306.39
707.94	305.12
708.27	303.71
708.61	302.54
708.94	301.43
709.28	300.34
709.61	299.19
709.94	298.18
710.28	297.08
710.61	296.12
710.95	294.78
711.28	294.00
711.61	293.05
711.95	292.10
712.28	291.11
712.61	290.14
712.95	289.33
713.28	288.56
713.61	287.50
713.95	286.50
714.28	285.72
714.61	284.90
714.95	284.04
715.28	283.17
715.61	282.24
715.95	281.39
716.28	280.45
716.61	279.67
716.95	278.79
717.28	278.01
717.61	277.15
717.94	276.44
718.28	275.44
718.61	274.71
718.94	273.97
719.27	273.29
719.61	272.69
719.94	271.89
720.27	271.00
720.60	270.30
720.94	269.63
721.27	268.86
721.60	268.26
721.93	267.60
722.27	267.08
722.60	266.58
722.93	265.90
723.26	265.39
723.59	264.76
723.93	264.17
724.26	263.64
724.59	263.04
724.92	262.42
725.25	261.91
725.59	261.29
725.92	260.74
726.25	260.15
726.58	259.59
726.91	258.95
727.24	258.50
727.57	257.92
727.91	257.42
728.24	256.96
728.57	256.41
728.90	255.97
729.23	255.35
729.56	254.94
729.89	254.43
730.22	253.95
730.55	253.43
730.89	253.00
731.22	252.47
731.55	251.96
731.88	251.55
732.21	251.04
732.54	250.55
732.87	250.14
733.20	249.70
733.53	249.27
733.86	248.98
734.19	248.44
734.52	248.21
734.85	247.91
735.18	247.46
735.51	247.15
735.84	246.71
736.17	246.47
736.50	245.93
736.83	246.05
737.16	245.65
737.49	245.27
737.82	244.80
738.15	244.55
738.48	244.23
738.81	243.89
739.14	243.51
739.47	243.14
739.80	242.73
740.13	242.49
740.46	242.05
740.79	241.59
741.12	241.25
741.45	240.74
741.78	240.28
742.11	240.04
742.44	239.65
742.77	239.42
743.10	238.99
743.43	238.69
743.75	238.06
744.08	238.20
744.41	237.91
744.74	237.67
745.07	237.19
745.40	237.01
745.73	236.89
746.06	236.59
746.39	236.36
746.71	236.01
747.04	235.65
747.37	235.33
747.70	235.25
748.03	235.01
748.36	234.83
748.68	234.53
749.01	234.12
749.34	233.88
749.67	233.66
750.00	233.50
750.33	233.48
750.65	233.17
750.98	232.45
751.31	232.15
751.64	231.93
751.97	231.99
752.29	231.69
752.62	231.17
752.95	230.98
753.28	230.75
753.60	230.60
753.93	230.45
754.26	230.36
754.59	229.92
754.91	229.69
755.24	229.49
755.57	229.33
755.90	229.18
756.22	228.92
756.55	228.64
756.88	228.36
757.20	227.99
757.53	227.66
757.86	227.53
758.19	227.42
758.51	227.25
758.84	226.87
759.17	226.59
759.49	226.48
759.82	226.43
760.15	226.31
760.47	226.07
760.80	225.79
761.13	225.64
761.45	225.47
761.78	225.28
762.11	225.16
762.43	224.99
762.76	224.88
763.08	224.76
763.41	224.66
763.74	224.51
764.06	224.26
764.39	224.13
764.71	223.93
765.04	223.78
765.37	223.54
765.69	223.39
766.02	223.32
766.34	223.17
766.67	222.88
767.00	222.77
767.32	222.89
767.65	222.97
767.97	222.74
768.30	222.70
768.62	222.63
768.95	222.45
769.27	222.31
769.60	222.13
769.92	221.98
770.25	221.77
770.57	221.62
770.90	221.60
771.22	221.46
771.55	221.42
771.87	221.28
772.20	221.24
772.52	221.39
772.85	221.69
773.17	221.60
773.50	221.52
773.82	221.37
774.15	221.12
774.47	220.80
774.80	220.72
775.12	220.55
775.45	220.38
775.77	220.34
776.09	220.30
776.42	220.27
776.74	220.26
777.07	220.20
777.39	220.16
777.72	219.96
778.04	219.99
778.36	219.80
778.69	219.73
779.01	219.70
779.33	219.33
779.66	218.86
779.98	218.75
780.31	218.70
780.63	218.74
780.95	218.67
781.28	218.65
781.60	218.53
781.92	218.50
782.25	218.42
782.57	218.25
782.89	218.13
783.22	218.04
783.54	217.86
783.86	217.77
784.19	217.65
784.51	217.64
784.83	217.44
785.16	217.44
785.48	217.37
785.80	217.32
786.12	217.34
786.45	217.29
