SpectraSuite Data File
++++++++++++++++++++++++++++++++++++
Date: Mon Feb 25 17:19:37 EST 2013
User: group
Dark Spectrum Present: No
Reference Spectrum Present: No
Number of Sampled Component Spectra: 1
Spectrometers: USB2E7196
Integration Time (usec): 104000 (USB2E7196)
Spectra Averaged: 20 (USB2E7196)
Boxcar Smoothing: 10 (USB2E7196)
Correct for Electrical Dark: No (USB2E7196)
Strobe/Lamp Enabled: No (USB2E7196)
Correct for Detector Non-linearity: No (USB2E7196)
Correct for Stray Light: No (USB2E7196)
Number of Pixels in Processed Spectrum: 2048
>>>>>Begin Processed Spectral Data<<<<<
339.09	0.00
339.48	198.40
339.86	199.40
340.24	201.50
340.63	202.40
341.01	208.60
341.39	204.50
341.78	206.05
342.16	209.70
342.54	209.65
342.93	198.46
343.31	208.47
343.69	209.04
344.07	209.53
344.46	210.02
344.84	210.51
345.22	210.65
345.60	211.08
345.99	211.40
346.37	211.51
346.75	211.64
347.13	211.75
347.52	211.89
347.90	212.05
348.28	212.05
348.66	212.15
349.05	212.19
349.43	212.30
349.81	212.39
350.19	212.51
350.57	212.66
350.96	212.84
351.34	213.02
351.72	213.12
352.10	213.26
352.48	213.27
352.87	213.37
353.25	213.45
353.63	213.42
354.01	213.39
354.39	213.45
354.77	213.54
355.15	213.68
355.54	213.68
355.92	213.54
356.30	213.64
356.68	213.94
357.06	213.90
357.44	213.86
357.82	213.90
358.20	213.95
358.58	214.05
358.97	214.15
359.35	214.25
359.73	214.38
360.11	214.48
360.49	214.67
360.87	214.57
361.25	214.66
361.63	214.84
362.01	214.96
362.39	214.97
362.77	215.02
363.15	215.05
363.53	215.16
363.91	215.24
364.29	215.19
364.67	214.84
365.05	214.92
365.43	215.02
365.81	215.07
366.19	215.22
366.57	215.24
366.95	215.16
367.33	215.03
367.71	215.02
368.09	215.10
368.47	214.97
368.85	215.01
369.23	215.12
369.61	214.99
369.99	215.07
370.37	215.10
370.75	215.23
371.13	215.14
371.51	214.97
371.89	214.93
372.27	214.97
372.65	215.08
373.03	215.06
373.41	214.95
373.78	214.91
374.16	214.75
374.54	214.65
374.92	214.57
375.30	214.60
375.68	214.50
376.06	214.37
376.44	214.30
376.82	214.27
377.19	214.14
377.57	214.14
377.95	214.01
378.33	213.98
378.71	213.68
379.09	213.73
379.47	213.82
379.84	213.81
380.22	213.71
380.60	213.56
380.98	213.53
381.36	213.53
381.73	213.44
382.11	213.35
382.49	213.27
382.87	213.21
383.25	213.18
383.62	213.56
384.00	213.50
384.38	213.55
384.76	213.62
385.13	213.75
385.51	213.73
385.89	213.68
386.27	213.65
386.64	213.74
387.02	213.64
387.40	213.57
387.78	213.57
388.15	213.61
388.53	213.60
388.91	213.55
389.29	213.45
389.66	213.50
390.04	213.50
390.42	213.60
390.79	213.56
391.17	213.53
391.55	213.11
391.92	213.13
392.30	213.08
392.68	213.01
393.05	212.91
393.43	212.84
393.81	212.81
394.18	212.78
394.56	212.77
394.94	212.83
395.31	212.78
395.69	212.87
396.06	212.87
396.44	212.88
396.82	212.91
397.19	213.09
397.57	213.00
397.95	213.13
398.32	212.97
398.70	213.07
399.07	213.17
399.45	213.21
399.82	213.25
400.20	213.34
400.58	213.33
400.95	213.22
401.33	213.33
401.70	213.69
402.08	213.81
402.45	213.90
402.83	214.04
403.20	214.17
403.58	214.20
403.95	214.40
404.33	214.60
404.71	214.71
405.08	215.06
405.46	215.23
405.83	215.41
406.21	215.67
406.58	215.90
406.96	216.04
407.33	216.28
407.70	216.55
408.08	217.07
408.45	217.41
408.83	217.84
409.20	218.15
409.58	218.24
409.95	218.65
410.33	219.10
410.70	219.43
411.08	219.93
411.45	220.45
411.82	220.87
412.20	221.45
412.57	222.25
412.95	222.60
413.32	223.30
413.69	224.04
414.07	224.81
414.44	225.60
414.82	226.56
415.19	227.59
415.56	228.59
415.94	229.47
416.31	230.77
416.68	232.07
417.06	233.49
417.43	234.90
417.81	236.37
418.18	237.87
418.55	239.55
418.93	241.24
419.30	243.05
419.67	245.01
420.04	246.97
420.42	248.97
420.79	251.52
421.16	253.99
421.54	256.49
421.91	259.08
422.28	261.79
422.66	264.61
423.03	267.54
423.40	270.41
423.77	273.57
424.15	276.61
424.52	279.78
424.89	283.35
425.26	286.72
425.64	289.99
426.01	293.59
426.38	297.39
426.75	301.27
427.13	305.17
427.50	309.32
427.87	313.56
428.24	317.77
428.61	321.83
428.99	326.46
429.36	331.37
429.73	336.19
430.10	340.95
430.47	345.76
430.85	350.74
431.22	356.06
431.59	361.77
431.96	367.15
432.33	373.05
432.70	378.74
433.08	385.58
433.45	392.00
433.82	398.23
434.19	405.18
434.56	412.17
434.93	418.76
435.30	425.22
435.68	432.61
436.05	439.95
436.42	447.09
436.79	453.56
437.16	460.48
437.53	467.87
437.90	475.25
438.27	482.55
438.64	489.95
439.01	497.05
439.38	503.11
439.75	509.15
440.13	516.08
440.50	522.51
440.87	527.70
441.24	533.07
441.61	539.25
441.98	543.65
442.35	548.63
442.72	553.94
443.09	559.24
443.46	562.15
443.83	564.11
444.20	565.90
444.57	568.30
444.94	569.49
445.31	570.67
445.68	571.95
446.05	572.39
446.42	571.73
446.79	570.68
447.16	569.49
447.53	568.81
447.90	565.90
448.27	563.06
448.64	559.16
449.01	556.38
449.37	551.39
449.74	546.70
450.11	541.30
450.48	534.85
450.85	528.17
451.22	522.62
451.59	517.34
451.96	512.10
452.33	505.64
452.70	499.66
453.07	492.60
453.43	485.20
453.80	478.16
454.17	471.49
454.54	465.07
454.91	458.59
455.28	451.85
455.65	445.83
456.02	440.12
456.38	434.89
456.75	428.28
457.12	422.90
457.49	417.49
457.86	412.07
458.23	407.78
458.59	403.04
458.96	398.20
459.33	393.95
459.70	389.75
460.07	386.23
460.43	382.27
460.80	378.55
461.17	375.39
461.54	372.14
461.91	368.93
462.27	365.77
462.64	362.96
463.01	359.94
463.38	357.08
463.74	353.71
464.11	351.08
464.48	349.00
464.85	346.43
465.21	344.67
465.58	342.74
465.95	340.46
466.32	338.60
466.68	336.70
467.05	334.71
467.42	332.78
467.78	330.71
468.15	328.75
468.52	327.52
468.88	325.66
469.25	324.08
469.62	322.80
469.98	321.54
470.35	320.38
470.72	319.31
471.08	318.00
471.45	317.00
471.82	316.10
472.18	315.01
472.55	314.45
472.92	313.44
473.28	312.68
473.65	311.84
474.02	311.10
474.38	310.60
474.75	310.31
475.11	309.93
475.48	309.77
475.85	309.61
476.21	309.27
476.58	309.31
476.94	309.28
477.31	309.33
477.67	309.36
478.04	309.51
478.41	309.76
478.77	310.27
479.14	310.58
479.50	310.95
479.87	311.50
480.23	311.99
480.60	312.67
480.96	313.28
481.33	314.22
481.69	315.06
482.06	315.99
482.42	316.81
482.79	317.85
483.15	319.05
483.52	320.54
483.88	321.90
484.25	323.26
484.61	324.78
484.98	326.36
485.34	328.31
485.71	330.22
486.07	332.25
486.44	334.13
486.80	336.48
487.17	339.03
487.53	341.65
487.90	344.40
488.26	347.38
488.62	350.64
488.99	353.88
489.35	357.29
489.72	360.95
490.08	364.81
490.44	368.83
490.81	373.10
491.17	377.33
491.54	382.02
491.90	386.89
492.26	392.06
492.63	397.49
492.99	402.89
493.36	408.74
493.72	414.98
494.08	421.55
494.45	428.38
494.81	435.48
495.17	442.78
495.54	450.54
495.90	458.52
496.26	466.78
496.63	475.58
496.99	484.87
497.35	494.39
497.72	504.29
498.08	514.45
498.44	525.12
498.80	536.62
499.17	548.35
499.53	560.33
499.89	572.99
500.26	585.69
500.62	598.96
500.98	612.85
501.34	627.05
501.71	641.75
502.07	656.87
502.43	672.42
502.79	688.44
503.16	705.03
503.52	722.11
503.88	739.61
504.24	757.64
504.60	776.04
504.97	795.07
505.33	814.50
505.69	835.05
506.05	855.81
506.41	876.65
506.78	898.08
507.14	919.99
507.50	942.26
507.86	965.39
508.22	988.88
508.59	1012.45
508.95	1036.97
509.31	1061.78
509.67	1087.35
510.03	1113.19
510.39	1139.87
510.75	1166.93
511.12	1194.35
511.48	1222.00
511.84	1250.15
512.20	1278.55
512.56	1307.51
512.92	1337.04
513.28	1366.93
513.64	1396.61
514.00	1426.48
514.37	1456.19
514.73	1487.26
515.09	1518.18
515.45	1549.19
515.81	1580.35
516.17	1611.91
516.53	1643.44
516.89	1675.15
517.25	1706.69
517.61	1738.42
517.97	1769.98
518.33	1801.31
518.69	1832.72
519.05	1864.92
519.41	1896.89
519.77	1929.31
520.13	1961.18
520.49	1992.66
520.85	2024.36
521.21	2056.52
521.57	2089.19
521.93	2120.94
522.29	2153.15
522.65	2185.57
523.01	2217.21
523.37	2248.40
523.73	2279.85
524.09	2311.22
524.45	2342.57
524.81	2373.91
525.17	2405.50
525.53	2436.78
525.89	2468.45
526.25	2499.47
526.61	2528.79
526.97	2558.61
527.33	2588.13
527.68	2618.07
528.04	2646.91
528.40	2674.69
528.76	2702.77
529.12	2731.55
529.48	2761.48
529.84	2789.14
530.20	2816.64
530.56	2844.31
530.91	2872.99
531.27	2900.93
531.63	2927.50
531.99	2954.39
532.35	2980.12
532.71	3005.49
533.07	3031.29
533.42	3055.30
533.78	3080.29
534.14	3105.30
534.50	3128.06
534.86	3151.63
535.21	3173.71
535.57	3197.54
535.93	3220.24
536.29	3241.90
536.65	3262.86
537.00	3282.27
537.36	3301.89
537.72	3321.06
538.08	3340.28
538.44	3358.92
538.79	3377.50
539.15	3396.26
539.51	3414.09
539.87	3433.15
540.22	3450.29
540.58	3468.11
540.94	3485.04
541.29	3499.99
541.65	3514.59
542.01	3530.37
542.37	3544.51
542.72	3559.30
543.08	3572.21
543.44	3586.61
543.79	3598.91
544.15	3610.13
544.51	3622.89
544.87	3635.20
545.22	3646.25
545.58	3656.30
545.94	3665.05
546.29	3672.66
546.65	3680.10
547.01	3687.47
547.36	3693.67
547.72	3700.48
548.07	3705.05
548.43	3710.25
548.79	3715.18
549.14	3720.05
549.50	3724.43
549.86	3727.58
550.21	3730.51
550.57	3734.35
550.92	3735.45
551.28	3737.55
551.64	3739.66
551.99	3741.42
552.35	3742.51
552.70	3743.70
553.06	3744.91
553.41	3745.77
553.77	3746.88
554.13	3747.39
554.48	3747.77
554.84	3748.14
555.19	3747.57
555.55	3745.97
555.90	3744.33
556.26	3742.72
556.61	3740.56
556.97	3737.61
557.32	3736.01
557.68	3732.50
558.03	3728.50
558.39	3725.66
558.74	3723.63
559.10	3721.42
559.45	3717.87
559.81	3714.95
560.16	3710.30
560.52	3706.52
560.87	3702.29
561.23	3696.86
561.58	3692.69
561.94	3686.54
562.29	3679.74
562.64	3674.51
563.00	3670.09
563.35	3666.15
563.71	3662.48
564.06	3658.00
564.42	3653.65
564.77	3649.15
565.12	3645.05
565.48	3640.01
565.83	3634.83
566.19	3630.26
566.54	3623.21
566.89	3616.24
567.25	3609.56
567.60	3604.16
567.96	3597.43
568.31	3591.04
568.66	3584.15
569.02	3576.28
569.37	3568.36
569.72	3561.43
570.08	3553.46
570.43	3544.97
570.78	3535.50
571.14	3525.15
571.49	3515.59
571.84	3507.25
572.20	3496.60
572.55	3487.53
572.90	3477.26
573.26	3466.55
573.61	3454.95
573.96	3444.50
574.31	3432.97
574.67	3420.70
575.02	3407.93
575.37	3396.01
575.72	3383.11
576.08	3372.19
576.43	3359.75
576.78	3348.85
577.13	3337.70
577.49	3326.11
577.84	3314.49
578.19	3303.63
578.54	3293.89
578.90	3283.86
579.25	3271.32
579.60	3259.25
579.95	3246.10
580.30	3235.29
580.66	3224.33
581.01	3211.94
581.36	3199.59
581.71	3187.98
582.06	3176.39
582.42	3165.02
582.77	3152.19
583.12	3140.29
583.47	3128.96
583.82	3118.38
584.17	3106.58
584.53	3094.71
584.88	3082.74
585.23	3070.94
585.58	3058.55
585.93	3045.25
586.28	3032.82
586.63	3020.79
586.98	3009.43
587.34	2998.86
587.69	2986.71
588.04	2974.70
588.39	2963.86
588.74	2951.64
589.09	2940.57
589.44	2928.35
589.79	2917.29
590.14	2906.57
590.49	2895.10
590.84	2883.19
591.19	2872.25
591.54	2860.62
591.89	2847.27
592.25	2834.97
592.60	2822.47
592.95	2810.15
593.30	2797.03
593.65	2784.08
594.00	2771.80
594.35	2761.30
594.70	2748.93
595.05	2737.29
595.40	2725.46
595.75	2712.40
596.10	2701.71
596.45	2690.41
596.80	2680.35
597.15	2669.35
597.50	2657.81
597.85	2647.29
598.19	2635.41
598.54	2623.81
598.89	2613.15
599.24	2604.22
599.59	2593.97
599.94	2584.81
600.29	2574.46
600.64	2564.93
600.99	2554.08
601.34	2544.50
601.69	2532.71
602.04	2521.62
602.39	2510.81
602.74	2500.34
603.08	2491.59
603.43	2481.99
603.78	2471.64
604.13	2461.20
604.48	2451.12
604.83	2442.56
605.18	2433.82
605.53	2424.08
605.87	2413.71
606.22	2403.94
606.57	2393.20
606.92	2382.92
607.27	2371.72
607.62	2361.49
607.96	2352.13
608.31	2343.34
608.66	2332.40
609.01	2322.15
609.36	2311.66
609.70	2300.62
610.05	2289.37
610.40	2277.92
610.75	2266.23
611.10	2255.78
611.44	2243.21
611.79	2230.78
612.14	2217.78
612.49	2204.16
612.83	2192.57
613.18	2180.06
613.53	2167.73
613.88	2154.82
614.22	2143.08
614.57	2131.03
614.92	2118.83
615.27	2105.92
615.61	2093.30
615.96	2081.78
616.31	2070.48
616.65	2060.01
617.00	2048.98
617.35	2037.90
617.70	2025.85
618.04	2013.48
618.39	2000.84
618.74	1989.97
619.08	1978.42
619.43	1967.23
619.78	1956.22
620.12	1944.58
620.47	1933.97
620.82	1922.12
621.16	1910.73
621.51	1898.97
621.85	1887.78
622.20	1876.38
622.55	1865.11
622.89	1853.76
623.24	1842.30
623.59	1830.07
623.93	1818.10
624.28	1806.88
624.62	1796.04
624.97	1785.37
625.32	1775.22
625.66	1764.65
626.01	1754.08
626.35	1743.83
626.70	1733.16
627.04	1723.23
627.39	1713.35
627.73	1702.74
628.08	1693.27
628.43	1683.00
628.77	1672.86
629.12	1662.34
629.46	1652.95
629.81	1643.16
630.15	1633.21
630.50	1623.04
630.84	1612.97
631.19	1602.99
631.53	1593.14
631.88	1582.52
632.22	1572.09
632.57	1562.40
632.91	1552.17
633.26	1542.09
633.60	1532.31
633.95	1523.04
634.29	1513.01
634.64	1503.35
634.98	1493.31
635.32	1483.40
635.67	1474.84
636.01	1465.84
636.36	1456.43
636.70	1447.32
637.05	1438.05
637.39	1428.90
637.73	1420.51
638.08	1412.66
638.42	1404.21
638.77	1395.28
639.11	1386.58
639.45	1377.76
639.80	1368.63
640.14	1359.71
640.49	1350.52
640.83	1341.26
641.17	1332.04
641.52	1322.95
641.86	1313.57
642.20	1304.86
642.55	1295.50
642.89	1285.73
643.23	1275.84
643.58	1267.38
643.92	1257.38
644.26	1248.35
644.61	1239.45
644.95	1230.10
645.29	1220.61
645.64	1211.30
645.98	1202.50
646.32	1193.92
646.66	1185.10
647.01	1176.25
647.35	1168.08
647.69	1159.22
648.04	1150.89
648.38	1142.23
648.72	1133.67
649.06	1125.21
649.41	1116.70
649.75	1108.23
650.09	1099.95
650.43	1092.05
650.78	1083.07
651.12	1074.82
651.46	1066.30
651.80	1058.11
652.14	1049.79
652.49	1041.49
652.83	1033.14
653.17	1024.21
653.51	1015.67
653.85	1007.89
654.20	999.86
654.54	991.40
654.88	983.76
655.22	975.69
655.56	967.55
655.90	959.75
656.25	951.53
656.59	943.68
656.93	936.19
657.27	928.85
657.61	920.83
657.95	913.48
658.29	906.16
658.64	899.20
658.98	891.70
659.32	884.02
659.66	876.72
660.00	869.41
660.34	862.23
660.68	854.99
661.02	847.73
661.36	840.77
661.70	834.07
662.05	827.34
662.39	820.92
662.73	814.62
663.07	808.12
663.41	801.88
663.75	795.44
664.09	788.90
664.43	782.19
664.77	776.12
665.11	769.99
665.45	763.94
665.79	757.53
666.13	751.38
666.47	745.67
666.81	739.77
667.15	733.97
667.49	728.78
667.83	723.49
668.17	717.88
668.51	712.65
668.85	707.24
669.19	702.02
669.53	696.52
669.87	690.96
670.21	685.69
670.55	680.57
670.89	675.92
671.23	671.18
671.57	666.50
671.91	661.51
672.25	656.55
672.58	651.76
672.92	647.22
673.26	643.01
673.60	638.48
673.94	633.96
674.28	629.57
674.62	625.21
674.96	620.74
675.30	616.42
675.64	611.91
675.97	607.49
676.31	603.37
676.65	599.34
676.99	595.59
677.33	591.47
677.67	587.40
678.01	583.02
678.34	578.89
678.68	574.79
679.02	570.82
679.36	567.01
679.70	563.16
680.04	559.30
680.37	555.14
680.71	551.33
681.05	547.66
681.39	543.87
681.73	540.02
682.06	536.56
682.40	533.20
682.74	529.69
683.08	526.27
683.42	522.48
683.75	518.84
684.09	515.11
684.43	511.68
684.77	508.14
685.10	504.68
685.44	501.13
685.78	497.81
686.12	494.75
686.45	491.63
686.79	488.25
687.13	485.14
687.46	482.10
687.80	479.00
688.14	475.78
688.48	472.72
688.81	469.54
689.15	466.37
689.49	463.05
689.82	459.99
690.16	456.69
690.50	453.71
690.83	450.78
691.17	447.79
691.51	444.74
691.84	441.93
692.18	439.12
692.52	436.58
692.85	434.06
693.19	431.40
693.52	428.58
693.86	425.87
694.20	423.16
694.53	420.40
694.87	417.74
695.21	415.09
695.54	412.44
695.88	409.80
696.21	407.17
696.55	404.87
696.88	402.50
697.22	400.26
697.56	397.92
697.89	395.65
698.23	393.36
698.56	391.12
698.90	388.99
699.23	386.77
699.57	384.56
699.90	382.28
700.24	379.95
700.58	377.81
700.91	375.86
701.25	373.94
701.58	372.00
701.92	370.01
702.25	368.14
702.59	366.17
702.92	364.43
703.26	362.63
703.59	360.74
703.93	359.17
704.26	357.32
704.60	355.55
704.93	353.60
705.26	351.87
705.60	350.19
705.93	348.35
706.27	346.70
706.60	345.19
706.94	343.66
707.27	342.05
707.61	340.39
707.94	338.72
708.27	336.86
708.61	335.28
708.94	333.76
709.28	332.23
709.61	330.76
709.94	329.27
710.28	327.82
710.61	326.44
710.95	324.64
711.28	323.45
711.61	322.14
711.95	320.94
712.28	319.59
712.61	318.31
712.95	317.20
713.28	316.08
713.61	314.63
713.95	313.34
714.28	312.11
714.61	310.97
714.95	309.79
715.28	308.64
715.61	307.42
715.95	306.29
716.28	305.12
716.61	303.98
716.95	302.78
717.28	301.62
717.61	300.45
717.94	299.47
718.28	298.21
718.61	297.12
718.94	296.06
719.27	295.01
719.61	294.11
719.94	292.99
720.27	291.84
720.60	290.87
720.94	289.80
721.27	288.92
721.60	288.00
721.93	287.13
722.27	286.40
722.60	285.58
722.93	284.64
723.26	283.87
723.59	283.04
723.93	282.24
724.26	281.51
724.59	280.71
724.92	279.94
725.25	279.36
725.59	278.60
725.92	277.93
726.25	277.20
726.58	276.39
726.91	275.71
727.24	275.06
727.57	274.43
727.91	273.76
728.24	273.13
728.57	272.41
728.90	271.79
729.23	271.01
729.56	270.48
729.89	269.83
730.22	269.06
730.55	268.51
730.89	267.87
731.22	267.24
731.55	266.65
731.88	266.04
732.21	265.35
732.54	264.62
732.87	263.96
733.20	263.37
733.53	262.72
733.86	262.10
734.19	261.45
734.52	260.90
734.85	260.60
735.18	260.00
735.51	259.53
735.84	259.03
736.17	258.53
736.50	257.82
736.83	257.75
737.16	257.23
737.49	256.64
737.82	256.16
738.15	255.69
738.48	255.10
738.81	254.62
739.14	254.04
739.47	253.59
739.80	253.07
740.13	252.60
740.46	252.07
740.79	251.60
741.12	251.19
741.45	250.61
741.78	249.97
742.11	249.60
742.44	249.13
742.77	248.67
743.10	248.27
743.43	247.78
743.75	246.91
744.08	246.97
744.41	246.46
744.74	246.05
745.07	245.62
745.40	245.34
745.73	244.93
746.06	244.50
746.39	244.14
746.71	243.66
747.04	243.28
747.37	242.95
747.70	242.65
748.03	242.29
748.36	241.99
748.68	241.69
749.01	241.17
749.34	240.83
749.67	240.53
750.00	240.20
750.33	240.17
750.65	239.89
750.98	239.15
751.31	238.91
751.64	238.57
751.97	238.37
752.29	238.02
752.62	237.66
752.95	237.32
753.28	237.02
753.60	236.81
753.93	236.56
754.26	236.28
754.59	235.85
754.91	235.49
755.24	235.15
755.57	234.72
755.90	234.50
756.22	234.26
756.55	233.92
756.88	233.57
757.20	233.03
757.53	232.71
757.86	232.38
758.19	232.19
758.51	231.96
758.84	231.55
759.17	231.31
759.49	231.06
759.82	231.10
760.15	230.88
760.47	230.55
760.80	230.21
761.13	230.05
761.45	229.89
761.78	229.69
762.11	229.53
762.43	229.31
762.76	229.15
763.08	228.83
763.41	228.68
763.74	228.51
764.06	228.37
764.39	228.09
764.71	227.97
765.04	227.65
765.37	227.41
765.69	227.26
766.02	227.10
766.34	226.89
766.67	226.52
767.00	226.38
767.32	226.46
767.65	226.50
767.97	226.30
768.30	226.12
768.62	225.97
768.95	225.79
769.27	225.70
769.60	225.56
769.92	225.38
770.25	225.14
770.57	224.95
770.90	224.81
771.22	224.70
771.55	224.51
771.87	224.50
772.20	224.37
772.52	224.52
772.85	224.74
773.17	224.67
773.50	224.49
773.82	224.28
774.15	223.96
774.47	223.64
774.80	223.47
775.12	223.36
775.45	223.24
775.77	223.16
776.09	223.04
776.42	222.96
776.74	223.02
777.07	222.91
777.39	222.85
777.72	222.68
778.04	222.62
778.36	222.49
778.69	222.35
779.01	222.27
779.33	221.93
779.66	221.40
779.98	221.22
780.31	221.10
780.63	221.15
780.95	221.13
781.28	221.09
781.60	221.00
781.92	220.96
782.25	220.84
782.57	220.77
782.89	220.69
783.22	220.52
783.54	220.24
783.86	220.16
784.19	219.95
784.51	220.01
784.83	219.86
785.16	219.84
785.48	219.71
