SpectraSuite Data File
++++++++++++++++++++++++++++++++++++
Date: Mon Feb 25 17:06:38 EST 2013
User: group
Dark Spectrum Present: No
Reference Spectrum Present: No
Number of Sampled Component Spectra: 1
Spectrometers: USB2E7196
Integration Time (usec): 104000 (USB2E7196)
Spectra Averaged: 20 (USB2E7196)
Boxcar Smoothing: 10 (USB2E7196)
Correct for Electrical Dark: No (USB2E7196)
Strobe/Lamp Enabled: No (USB2E7196)
Correct for Detector Non-linearity: No (USB2E7196)
Correct for Stray Light: No (USB2E7196)
Number of Pixels in Processed Spectrum: 2048
>>>>>Begin Processed Spectral Data<<<<<
339.09	0.00
339.48	197.30
339.86	200.55
340.24	201.25
340.63	202.35
341.01	209.90
341.39	205.60
341.78	208.25
342.16	209.15
342.54	208.10
342.93	198.18
343.31	208.21
343.69	208.83
344.07	209.30
344.46	209.83
344.84	210.22
345.22	210.25
345.60	210.50
345.99	210.58
346.37	210.60
346.75	210.74
347.13	210.80
347.52	210.81
347.90	211.04
348.28	211.08
348.66	211.16
349.05	211.09
349.43	211.14
349.81	211.17
350.19	211.18
350.57	211.23
350.96	211.28
351.34	211.33
351.72	211.35
352.10	211.35
352.48	211.28
352.87	211.30
353.25	211.36
353.63	211.45
354.01	211.51
354.39	211.61
354.77	211.65
355.15	211.78
355.54	211.81
355.92	211.72
356.30	211.75
356.68	212.00
357.06	212.00
357.44	211.95
357.82	211.97
358.20	212.12
358.58	212.13
358.97	212.18
359.35	212.26
359.73	212.39
360.11	212.48
360.49	212.52
360.87	212.55
361.25	212.65
361.63	212.77
362.01	212.87
362.39	212.83
362.77	212.95
363.15	212.99
363.53	213.06
363.91	213.13
364.29	213.17
364.67	212.83
365.05	212.93
365.43	213.06
365.81	213.08
366.19	213.15
366.57	213.30
366.95	213.29
367.33	213.20
367.71	213.13
368.09	213.19
368.47	213.30
368.85	213.29
369.23	213.38
369.61	213.27
369.99	213.41
370.37	213.51
370.75	213.57
371.13	213.44
371.51	213.42
371.89	213.36
372.27	213.30
372.65	213.32
373.03	213.25
373.41	213.12
373.78	213.12
374.16	212.91
374.54	212.77
374.92	212.78
375.30	212.73
375.68	212.68
376.06	212.62
376.44	212.48
376.82	212.48
377.19	212.32
377.57	212.17
377.95	211.95
378.33	211.85
378.71	211.59
379.09	211.57
379.47	211.56
379.84	211.56
380.22	211.49
380.60	211.39
380.98	211.37
381.36	211.36
381.73	211.20
382.11	211.26
382.49	211.21
382.87	211.02
383.25	211.04
383.62	211.44
384.00	211.34
384.38	211.31
384.76	211.34
385.13	211.43
385.51	211.47
385.89	211.41
386.27	211.36
386.64	211.43
387.02	211.46
387.40	211.36
387.78	211.30
388.15	211.30
388.53	211.27
388.91	211.15
389.29	211.11
389.66	211.19
390.04	211.06
390.42	211.04
390.79	211.08
391.17	211.05
391.55	210.57
391.92	210.50
392.30	210.50
392.68	210.41
393.05	210.36
393.43	210.43
393.81	210.39
394.18	210.41
394.56	210.36
394.94	210.37
395.31	210.30
395.69	210.41
396.06	210.46
396.44	210.44
396.82	210.52
397.19	210.70
397.57	210.62
397.95	210.66
398.32	210.67
398.70	210.73
399.07	210.81
399.45	210.87
399.82	210.94
400.20	210.96
400.58	210.99
400.95	210.80
401.33	210.79
401.70	211.00
402.08	211.02
402.45	211.08
402.83	211.15
403.20	211.27
403.58	211.21
403.95	211.28
404.33	211.41
404.71	211.35
405.08	211.57
405.46	211.61
405.83	211.76
406.21	211.81
406.58	211.93
406.96	211.95
407.33	212.07
407.70	212.24
408.08	212.65
408.45	212.86
408.83	213.17
409.20	213.31
409.58	213.34
409.95	213.63
410.33	213.84
410.70	214.00
411.08	214.32
411.45	214.61
411.82	214.92
412.20	215.30
412.57	215.89
412.95	215.96
413.32	216.50
413.69	216.86
414.07	217.31
414.44	217.80
414.82	218.40
415.19	219.01
415.56	219.62
415.94	220.04
416.31	220.76
416.68	221.43
417.06	222.26
417.43	223.15
417.81	224.06
418.18	225.01
418.55	225.97
418.93	227.02
419.30	228.13
419.67	229.22
420.04	230.40
420.42	231.58
420.79	233.21
421.16	234.57
421.54	236.25
421.91	237.80
422.28	239.46
422.66	241.09
423.03	243.02
423.40	244.80
423.77	246.72
424.15	248.61
424.52	250.61
424.89	252.82
425.26	254.87
425.64	256.71
426.01	258.87
426.38	261.21
426.75	263.64
427.13	266.09
427.50	268.66
427.87	271.20
428.24	273.82
428.61	276.22
428.99	279.16
429.36	282.10
429.73	285.14
430.10	288.08
430.47	291.20
430.85	294.14
431.22	297.52
431.59	301.22
431.96	304.65
432.33	308.40
432.70	312.04
433.08	316.39
433.45	320.57
433.82	324.65
434.19	329.19
434.56	333.59
434.93	337.87
435.30	342.17
435.68	347.09
436.05	351.77
436.42	356.46
436.79	360.80
437.16	365.33
437.53	370.15
437.90	374.96
438.27	379.75
438.64	384.74
439.01	389.42
439.38	393.43
439.75	397.40
440.13	402.05
440.50	406.30
440.87	409.72
441.24	413.37
441.61	417.41
441.98	420.45
442.35	423.95
442.72	427.40
443.09	430.93
443.46	432.95
443.83	434.43
444.20	435.72
444.57	437.55
444.94	438.55
445.31	439.60
445.68	440.86
446.05	441.40
446.42	441.09
446.79	440.67
447.16	440.18
447.53	439.96
447.90	438.32
448.27	436.82
448.64	434.59
449.01	433.11
449.37	430.10
449.74	427.22
450.11	424.01
450.48	420.09
450.85	416.03
451.22	412.67
451.59	409.50
451.96	406.46
452.33	402.24
452.70	398.50
453.07	394.05
453.43	389.25
453.80	384.81
454.17	380.71
454.54	376.78
454.91	372.47
455.28	368.23
455.65	364.34
456.02	360.84
456.38	357.62
456.75	353.41
457.12	349.97
457.49	346.63
457.86	342.91
458.23	340.26
458.59	337.10
458.96	334.00
459.33	331.18
459.70	328.37
460.07	326.22
460.43	323.60
460.80	321.21
461.17	319.13
461.54	316.88
461.91	314.68
462.27	312.43
462.64	310.62
463.01	308.63
463.38	306.70
463.74	304.23
464.11	302.41
464.48	300.93
464.85	299.24
465.21	297.97
465.58	296.70
465.95	294.97
466.32	293.67
466.68	292.22
467.05	290.90
467.42	289.48
467.78	287.92
468.15	286.67
468.52	285.70
468.88	284.31
469.25	283.14
469.62	282.23
469.98	281.15
470.35	280.14
470.72	279.17
471.08	278.08
471.45	277.30
471.82	276.44
472.18	275.54
472.55	274.90
472.92	273.97
473.28	273.21
473.65	272.53
474.02	271.80
474.38	271.30
474.75	270.79
475.11	270.28
475.48	269.96
475.85	269.47
476.21	268.99
476.58	268.61
476.94	268.31
477.31	267.90
477.67	267.61
478.04	267.33
478.41	267.18
478.77	267.36
479.14	267.07
479.50	266.98
479.87	266.82
480.23	266.67
480.60	266.66
480.96	266.56
481.33	266.71
481.69	266.70
482.06	266.64
482.42	266.71
482.79	266.80
483.15	266.80
483.52	267.09
483.88	267.22
484.25	267.40
484.61	267.56
484.98	267.75
485.34	268.02
485.71	268.37
486.07	268.65
486.44	268.67
486.80	269.06
487.17	269.42
487.53	269.95
487.90	270.51
488.26	271.08
488.62	271.72
488.99	272.16
489.35	272.71
489.72	273.40
490.08	273.97
490.44	274.60
490.81	275.46
491.17	276.06
491.54	276.87
491.90	277.80
492.26	278.77
492.63	279.74
492.99	280.64
493.36	281.59
493.72	282.67
494.08	283.73
494.45	284.90
494.81	286.01
495.17	287.14
495.54	288.35
495.90	289.47
496.26	290.64
496.63	291.92
496.99	293.21
497.35	294.51
497.72	295.92
498.08	297.30
498.44	298.54
498.80	300.02
499.17	301.40
499.53	302.69
499.89	304.14
500.26	305.50
500.62	307.07
500.98	308.64
501.34	310.09
501.71	311.73
502.07	313.24
502.43	314.78
502.79	316.35
503.16	317.82
503.52	319.38
503.88	320.96
504.24	322.56
504.60	324.33
504.97	326.01
505.33	327.60
505.69	329.34
506.05	331.06
506.41	332.82
506.78	334.41
507.14	336.11
507.50	337.86
507.86	339.62
508.22	341.35
508.59	342.92
508.95	344.63
509.31	346.45
509.67	348.17
510.03	349.89
510.39	351.61
510.75	353.40
511.12	355.16
511.48	356.95
511.84	358.61
512.20	360.21
512.56	361.89
512.92	363.73
513.28	365.54
513.64	367.21
514.00	368.82
514.37	370.67
514.73	372.51
515.09	374.21
515.45	375.98
515.81	377.75
516.17	379.53
516.53	381.37
516.89	383.05
517.25	384.77
517.61	386.78
517.97	388.50
518.33	390.28
518.69	392.24
519.05	394.14
519.41	396.25
519.77	398.50
520.13	400.53
520.49	402.42
520.85	404.29
521.21	406.60
521.57	408.82
521.93	410.78
522.29	412.95
522.65	415.16
523.01	417.25
523.37	419.30
523.73	421.50
524.09	423.75
524.45	426.00
524.81	428.41
525.17	430.70
525.53	433.28
525.89	435.82
526.25	438.26
526.61	440.75
526.97	443.15
527.33	445.54
527.68	448.53
528.04	451.15
528.40	453.81
528.76	456.34
529.12	458.97
529.48	462.00
529.84	464.61
530.20	467.42
530.56	470.39
530.91	473.52
531.27	476.67
531.63	479.74
531.99	482.73
532.35	485.68
532.71	488.62
533.07	491.72
533.42	495.09
533.78	498.12
534.14	501.25
534.50	504.30
534.86	507.40
535.21	509.97
535.57	513.25
535.93	516.23
536.29	519.43
536.65	522.67
537.00	525.71
537.36	528.86
537.72	531.86
538.08	534.95
538.44	537.93
538.79	540.95
539.15	543.98
539.51	547.18
539.87	550.41
540.22	553.61
540.58	556.79
540.94	559.65
541.29	562.68
541.65	565.65
542.01	568.85
542.37	572.03
542.72	575.23
543.08	578.14
543.44	581.42
543.79	584.26
544.15	587.24
544.51	590.45
544.87	593.73
545.22	596.75
545.58	599.77
545.94	602.63
546.29	605.49
546.65	608.31
547.01	610.92
547.36	613.84
547.72	616.77
548.07	619.49
548.43	622.19
548.79	624.79
549.14	627.33
549.50	629.99
549.86	632.43
550.21	635.05
550.57	637.69
550.92	639.96
551.28	642.43
551.64	644.84
551.99	647.03
552.35	649.21
552.70	651.44
553.06	653.73
553.41	655.96
553.77	658.49
554.13	660.78
554.48	663.29
554.84	665.37
555.19	667.29
555.55	669.30
555.90	671.09
556.26	673.01
556.61	674.88
556.97	676.52
557.32	678.32
557.68	679.87
558.03	681.36
558.39	683.20
558.74	685.06
559.10	686.81
559.45	688.55
559.81	690.33
560.16	692.15
560.52	693.66
560.87	695.37
561.23	696.47
561.58	698.29
561.94	699.44
562.29	700.59
562.64	701.76
563.00	703.03
563.35	704.44
563.71	706.06
564.06	707.43
564.42	708.90
564.77	710.54
565.12	712.00
565.48	713.76
565.83	715.03
566.19	716.33
566.54	717.24
566.89	718.18
567.25	719.22
567.60	720.06
567.96	721.17
568.31	722.19
568.66	723.26
569.02	723.54
569.37	724.08
569.72	724.89
570.08	725.66
570.43	725.99
570.78	726.47
571.14	726.43
571.49	726.80
571.84	727.10
572.20	726.80
572.55	726.89
572.90	726.32
573.26	726.05
573.61	725.89
573.96	725.90
574.31	725.60
574.67	725.14
575.02	724.65
575.37	724.08
575.72	723.31
576.08	722.80
576.43	722.32
576.78	722.11
577.13	721.75
577.49	721.34
577.84	720.88
578.19	720.50
578.54	720.42
578.90	720.03
579.25	719.45
579.60	719.05
579.95	718.40
580.30	718.23
580.66	718.04
581.01	717.32
581.36	716.42
581.71	715.78
582.06	715.32
582.42	714.91
582.77	714.21
583.12	713.69
583.47	713.09
583.82	712.49
584.17	711.72
584.53	711.20
584.88	710.44
585.23	710.01
585.58	709.20
585.93	708.35
586.28	707.69
586.63	706.97
586.98	706.36
587.34	706.03
587.69	705.22
588.04	704.28
588.39	703.55
588.74	702.79
589.09	702.08
589.44	700.92
589.79	700.10
590.14	699.35
590.49	698.32
590.84	697.26
591.19	696.44
591.54	695.55
591.89	694.11
592.25	693.38
592.60	692.08
592.95	690.90
593.30	689.68
593.65	688.22
594.00	686.95
594.35	686.64
594.70	685.20
595.05	684.01
595.40	682.82
595.75	681.44
596.10	680.41
596.45	679.40
596.80	678.52
597.15	677.46
597.50	676.32
597.85	675.36
598.19	674.17
598.54	673.09
598.89	671.87
599.24	671.01
599.59	669.62
599.94	668.85
600.29	667.81
600.64	666.85
600.99	665.83
601.34	664.93
601.69	662.82
602.04	661.60
602.39	660.38
602.74	659.28
603.08	658.34
603.43	657.53
603.78	656.26
604.13	655.06
604.48	653.84
604.83	652.93
605.18	652.00
605.53	651.00
605.87	649.69
606.22	648.58
606.57	647.30
606.92	646.03
607.27	644.55
607.62	643.43
607.96	642.33
608.31	641.34
608.66	639.84
609.01	638.40
609.36	636.99
609.70	635.42
610.05	633.79
610.40	632.43
610.75	630.68
611.10	629.39
611.44	627.84
611.79	626.11
612.14	624.32
612.49	622.30
612.83	620.67
613.18	618.99
613.53	617.31
613.88	615.36
614.22	613.58
614.57	611.79
614.92	609.87
615.27	607.79
615.61	605.78
615.96	604.13
616.31	602.48
616.65	600.97
617.00	599.32
617.35	597.58
617.70	595.73
618.04	593.69
618.39	591.55
618.74	589.70
619.08	587.80
619.43	585.70
619.78	583.88
620.12	581.97
620.47	580.13
620.82	578.03
621.16	576.12
621.51	574.46
621.85	572.61
622.20	570.67
622.55	568.90
622.89	567.06
623.24	564.95
623.59	562.88
623.93	560.86
624.28	559.06
624.62	557.59
624.97	555.73
625.32	553.98
625.66	552.22
626.01	550.31
626.35	548.53
626.70	546.79
627.04	545.18
627.39	543.35
627.73	541.54
628.08	539.98
628.43	538.13
628.77	536.02
629.12	534.09
629.46	532.36
629.81	530.46
630.15	528.45
630.50	526.72
630.84	524.80
631.19	522.94
631.53	521.13
631.88	518.95
632.22	516.83
632.57	515.11
632.91	513.22
633.26	511.35
633.60	509.49
633.95	507.65
634.29	505.58
634.64	503.90
634.98	501.98
635.32	500.22
635.67	498.75
636.01	497.22
636.36	495.41
636.70	493.82
637.05	492.04
637.39	490.41
637.73	488.71
638.08	487.33
638.42	485.72
638.77	484.08
639.11	482.38
639.45	480.84
639.80	478.98
640.14	477.15
640.49	475.50
640.83	473.75
641.17	472.10
641.52	470.45
641.86	468.52
642.20	466.86
642.55	464.92
642.89	462.95
643.23	460.99
643.58	459.58
643.92	457.74
644.26	456.01
644.61	454.22
644.95	452.47
645.29	450.55
645.64	448.83
645.98	446.93
646.32	445.12
646.66	443.23
647.01	441.53
647.35	439.96
647.69	438.18
648.04	436.62
648.38	434.92
648.72	433.22
649.06	431.52
649.41	429.76
649.75	428.03
650.09	426.44
650.43	424.81
650.78	422.70
651.12	420.85
651.46	419.24
651.80	417.67
652.14	416.05
652.49	414.48
652.83	412.63
653.17	410.85
653.51	409.17
653.85	407.70
654.20	405.97
654.54	404.12
654.88	402.34
655.22	400.66
655.56	398.84
655.90	397.16
656.25	395.57
656.59	394.03
656.93	392.51
657.27	391.00
657.61	389.20
657.95	387.80
658.29	386.12
658.64	384.56
658.98	382.97
659.32	381.21
659.66	379.67
660.00	378.10
660.34	376.57
660.68	375.08
661.02	373.55
661.36	372.10
661.70	370.73
662.05	369.34
662.39	367.93
662.73	366.75
663.07	365.58
663.41	364.20
663.75	362.70
664.09	361.23
664.43	359.69
664.77	358.52
665.11	357.14
665.45	355.94
665.79	354.63
666.13	353.30
666.47	352.06
666.81	350.67
667.15	349.44
667.49	348.40
667.83	347.21
668.17	345.85
668.51	344.68
668.85	343.63
669.19	342.73
669.53	341.47
669.87	340.16
670.21	338.83
670.55	337.58
670.89	336.72
671.23	335.80
671.57	334.84
671.91	333.71
672.25	332.66
672.58	331.62
672.92	330.47
673.26	329.45
673.60	328.35
673.94	327.25
674.28	326.26
674.62	325.14
674.96	324.20
675.30	323.26
675.64	322.24
675.97	321.26
676.31	320.17
676.65	319.15
676.99	318.31
677.33	317.34
677.67	316.44
678.01	315.22
678.34	314.19
678.68	313.13
679.02	312.13
679.36	311.14
679.70	310.20
680.04	309.25
680.37	308.27
680.71	307.38
681.05	306.65
681.39	305.76
681.73	304.87
682.06	303.98
682.40	303.13
682.74	302.30
683.08	301.35
683.42	300.32
683.75	299.57
684.09	298.64
684.43	297.83
684.77	296.87
685.10	296.10
685.44	295.18
685.78	294.40
686.12	293.65
686.45	292.90
686.79	292.00
687.13	291.24
687.46	290.40
687.80	289.68
688.14	288.83
688.48	288.07
688.81	287.30
689.15	286.51
689.49	285.74
689.82	284.91
690.16	284.12
690.50	283.39
690.83	282.60
691.17	281.77
691.51	281.00
691.84	280.39
692.18	279.65
692.52	278.96
692.85	278.25
693.19	277.69
693.52	277.02
693.86	276.28
694.20	275.68
694.53	275.07
694.87	274.40
695.21	273.79
695.54	273.09
695.88	272.35
696.21	271.61
696.55	270.99
696.88	270.37
697.22	269.75
697.56	269.17
697.89	268.50
698.23	268.00
698.56	267.37
698.90	266.83
699.23	266.15
699.57	265.60
699.90	265.02
700.24	264.26
700.58	263.66
700.91	263.20
701.25	262.88
701.58	262.43
701.92	261.95
702.25	261.34
702.59	260.76
702.92	260.24
703.26	259.73
703.59	259.18
703.93	259.01
704.26	258.49
704.60	258.01
704.93	257.50
705.26	256.91
705.60	256.44
705.93	255.82
706.27	255.53
706.60	255.13
706.94	254.77
707.27	254.27
707.61	253.85
707.94	253.41
708.27	252.64
708.61	252.09
708.94	251.55
709.28	251.14
709.61	250.76
709.94	250.47
710.28	250.08
710.61	249.67
710.95	248.97
711.28	248.87
711.61	248.36
711.95	248.02
712.28	247.70
712.61	247.35
712.95	247.21
713.28	246.95
713.61	246.56
713.95	246.09
714.28	245.84
714.61	245.48
714.95	245.14
715.28	244.77
715.61	244.41
715.95	244.17
716.28	243.78
716.61	243.44
716.95	242.98
717.28	242.66
717.61	242.38
717.94	242.04
718.28	241.36
718.61	241.14
718.94	240.76
719.27	240.34
719.61	240.11
719.94	239.68
720.27	239.17
720.60	238.92
720.94	238.65
721.27	238.37
721.60	238.07
721.93	237.77
722.27	237.60
722.60	237.41
722.93	237.09
723.26	236.83
723.59	236.49
723.93	236.25
724.26	235.97
724.59	235.54
724.92	235.34
725.25	235.26
725.59	235.00
725.92	234.86
726.25	234.76
726.58	234.41
726.91	234.14
727.24	233.92
727.57	233.59
727.91	233.28
728.24	233.00
728.57	232.82
728.90	232.66
729.23	232.37
729.56	232.29
729.89	232.04
730.22	231.82
730.55	231.61
730.89	231.38
731.22	231.20
731.55	231.10
731.88	230.88
732.21	230.54
732.54	230.26
732.87	230.09
733.20	229.89
733.53	229.72
733.86	229.52
734.19	229.33
734.52	229.20
734.85	229.28
735.18	229.06
735.51	228.91
735.84	228.69
736.17	228.64
736.50	228.28
736.83	228.54
737.16	228.38
737.49	228.27
737.82	228.14
738.15	227.96
738.48	227.80
738.81	227.60
739.14	227.44
739.47	227.33
739.80	227.10
740.13	226.96
740.46	226.73
740.79	226.57
741.12	226.42
741.45	226.15
741.78	225.80
742.11	225.86
742.44	225.61
742.77	225.52
743.10	225.24
743.43	225.12
743.75	224.62
744.08	224.98
744.41	224.86
744.74	224.71
745.07	224.59
745.40	224.53
745.73	224.56
746.06	224.46
746.39	224.39
746.71	224.30
747.04	224.10
747.37	224.03
747.70	223.99
748.03	223.88
748.36	223.88
748.68	223.75
749.01	223.49
749.34	223.41
749.67	223.31
750.00	223.25
750.33	223.39
750.65	223.27
750.98	222.69
751.31	222.53
751.64	222.41
751.97	222.48
752.29	222.36
752.62	222.12
752.95	221.99
753.28	221.80
753.60	221.67
753.93	221.67
754.26	221.60
754.59	221.37
754.91	221.21
755.24	221.15
755.57	221.03
755.90	220.92
756.22	220.78
756.55	220.62
756.88	220.48
757.20	220.09
757.53	219.95
757.86	219.81
758.19	219.77
758.51	219.70
758.84	219.41
759.17	219.24
759.49	219.17
759.82	219.31
760.15	219.27
760.47	219.12
760.80	218.95
761.13	218.86
761.45	218.78
761.78	218.73
762.11	218.55
762.43	218.50
762.76	218.39
763.08	218.36
763.41	218.35
763.74	218.30
764.06	218.24
764.39	218.13
764.71	218.07
765.04	217.91
765.37	217.75
765.69	217.67
766.02	217.55
766.34	217.41
766.67	217.17
767.00	217.19
767.32	217.30
767.65	217.43
767.97	217.35
768.30	217.32
768.62	217.27
768.95	217.17
769.27	217.10
769.60	217.10
769.92	216.98
770.25	216.83
770.57	216.69
770.90	216.66
771.22	216.55
771.55	216.47
771.87	216.45
772.20	216.40
772.52	216.56
772.85	217.00
773.17	216.99
773.50	216.87
773.82	216.78
774.15	216.64
774.47	216.42
774.80	216.41
775.12	216.33
775.45	216.33
775.77	216.28
776.09	216.22
776.42	216.20
776.74	216.28
777.07	216.20
777.39	216.17
777.72	216.10
778.04	216.12
778.36	216.07
778.69	216.06
779.01	216.05
779.33	215.75
779.66	215.34
779.98	215.24
780.31	215.28
780.63	215.35
780.95	215.32
781.28	215.21
781.60	215.05
781.92	215.05
782.25	214.89
782.57	214.86
782.89	214.89
783.22	214.76
783.54	214.64
783.86	214.63
784.19	214.58
784.51	214.62
784.83	214.52
785.16	214.47
785.48	214.42
785.80	214.44
786.12	214.39
786.45	214.30
786.77	214.35
787.09	214.22
787.42	214.05
787.74	214.00
788.06	214.01
788.38	214.02
788.71	214.00
789.03	214.08
789.35	214.14
789.67	214.00
789.99	214.10
790.32	214.01
790.64	214.04
790.96	214.25
791.28	214.11
791.61	214.16
791.93	214.20
792.25	214.18
792.57	214.40
792.89	214.32
793.21	214.34
793.54	214.29
793.86	214.30
794.18	214.33
