SpectraSuite Data File
++++++++++++++++++++++++++++++++++++
Date: Mon Feb 25 16:59:29 EST 2013
User: group
Dark Spectrum Present: No
Reference Spectrum Present: No
Number of Sampled Component Spectra: 1
Spectrometers: USB2E7196
Integration Time (usec): 104000 (USB2E7196)
Spectra Averaged: 20 (USB2E7196)
Boxcar Smoothing: 10 (USB2E7196)
Correct for Electrical Dark: No (USB2E7196)
Strobe/Lamp Enabled: No (USB2E7196)
Correct for Detector Non-linearity: No (USB2E7196)
Correct for Stray Light: No (USB2E7196)
Number of Pixels in Processed Spectrum: 2048
>>>>>Begin Processed Spectral Data<<<<<
339.09	0.00
339.48	198.80
339.86	199.45
340.24	201.60
340.63	202.95
341.01	209.55
341.39	205.65
341.78	208.00
342.16	209.45
342.54	209.50
342.93	198.43
343.31	208.49
343.69	209.01
344.07	209.50
344.46	209.99
344.84	210.36
345.22	210.36
345.60	210.67
345.99	210.82
346.37	210.91
346.75	210.96
347.13	211.03
347.52	211.11
347.90	211.35
348.28	211.38
348.66	211.42
349.05	211.39
349.43	211.48
349.81	211.42
350.19	211.51
350.57	211.61
350.96	211.71
351.34	211.80
351.72	211.86
352.10	211.94
352.48	211.97
352.87	212.04
353.25	212.14
353.63	212.08
354.01	212.07
354.39	212.13
354.77	212.18
355.15	212.30
355.54	212.31
355.92	212.18
356.30	212.26
356.68	212.48
357.06	212.46
357.44	212.40
357.82	212.46
358.20	212.47
358.58	212.43
358.97	212.41
359.35	212.43
359.73	212.60
360.11	212.62
360.49	212.68
360.87	212.74
361.25	212.80
361.63	213.04
362.01	213.21
362.39	213.20
362.77	213.24
363.15	213.33
363.53	213.37
363.91	213.37
364.29	213.40
364.67	213.14
365.05	213.22
365.43	213.29
365.81	213.37
366.19	213.50
366.57	213.64
366.95	213.67
367.33	213.64
367.71	213.58
368.09	213.68
368.47	213.61
368.85	213.54
369.23	213.63
369.61	213.40
369.99	213.46
370.37	213.50
370.75	213.68
371.13	213.48
371.51	213.36
371.89	213.42
372.27	213.35
372.65	213.25
373.03	213.19
373.41	213.12
373.78	213.05
374.16	212.83
374.54	212.81
374.92	212.74
375.30	212.67
375.68	212.58
376.06	212.59
376.44	212.56
376.82	212.56
377.19	212.45
377.57	212.44
377.95	212.21
378.33	212.10
378.71	211.86
379.09	211.89
379.47	211.94
379.84	211.85
380.22	211.81
380.60	211.77
380.98	211.66
381.36	211.69
381.73	211.57
382.11	211.51
382.49	211.39
382.87	211.33
383.25	211.30
383.62	211.57
384.00	211.34
384.38	211.28
384.76	211.28
385.13	211.39
385.51	211.41
385.89	211.27
386.27	211.31
386.64	211.33
387.02	211.30
387.40	211.25
387.78	211.25
388.15	211.26
388.53	211.22
388.91	211.30
389.29	211.21
389.66	211.27
390.04	211.33
390.42	211.29
390.79	211.27
391.17	211.27
391.55	210.98
391.92	211.03
392.30	211.10
392.68	210.97
393.05	210.87
393.43	210.81
393.81	210.98
394.18	210.87
394.56	210.86
394.94	210.90
395.31	210.85
395.69	210.95
396.06	210.99
396.44	211.03
396.82	210.95
397.19	211.17
397.57	211.20
397.95	211.32
398.32	211.30
398.70	211.39
399.07	211.53
399.45	211.53
399.82	211.63
400.20	211.56
400.58	211.70
400.95	211.67
401.33	211.85
401.70	212.12
402.08	212.26
402.45	212.34
402.83	212.55
403.20	212.70
403.58	212.82
403.95	212.95
404.33	213.22
404.71	213.42
405.08	213.70
405.46	213.85
405.83	214.03
406.21	214.22
406.58	214.48
406.96	214.70
407.33	215.00
407.70	215.35
408.08	215.94
408.45	216.41
408.83	216.90
409.20	217.25
409.58	217.52
409.95	218.06
410.33	218.62
410.70	219.01
411.08	219.67
411.45	220.28
411.82	220.91
412.20	221.61
412.57	222.50
412.95	223.01
413.32	223.94
413.69	224.82
414.07	225.83
414.44	226.90
414.82	227.96
415.19	229.26
415.56	230.57
415.94	231.89
416.31	233.44
416.68	235.01
417.06	236.82
417.43	238.63
417.81	240.60
418.18	242.70
418.55	244.92
418.93	247.15
419.30	249.47
419.67	252.03
420.04	254.66
420.42	257.43
420.79	260.79
421.16	264.02
421.54	267.39
421.91	270.93
422.28	274.61
422.66	278.53
423.03	282.42
423.40	286.31
423.77	290.50
424.15	294.72
424.52	299.13
424.89	304.04
425.26	308.77
425.64	313.35
426.01	318.31
426.38	323.55
426.75	328.93
427.13	334.45
427.50	340.18
427.87	346.30
428.24	352.28
428.61	358.01
428.99	364.45
429.36	371.32
429.73	378.19
430.10	385.00
430.47	392.03
430.85	399.35
431.22	407.15
431.59	415.45
431.96	423.30
432.33	432.20
432.70	440.64
433.08	450.50
433.45	459.92
433.82	469.42
434.19	479.95
434.56	490.25
434.93	500.21
435.30	510.25
435.68	521.14
436.05	532.18
436.42	543.40
436.79	553.47
437.16	564.50
437.53	575.93
437.90	587.28
438.27	598.54
438.64	610.18
439.01	621.05
439.38	630.94
439.75	640.60
440.13	651.34
440.50	661.61
440.87	670.14
441.24	678.96
441.61	688.70
441.98	696.11
442.35	704.83
442.72	713.42
443.09	721.89
443.46	727.29
443.83	731.40
444.20	734.66
444.57	739.40
444.94	742.00
445.31	744.73
445.68	747.51
446.05	749.15
446.42	749.00
446.79	748.62
447.16	747.85
447.53	747.61
447.90	744.40
448.27	741.15
448.64	736.25
449.01	732.71
449.37	725.93
449.74	719.37
450.11	711.43
450.48	702.79
450.85	693.79
451.22	686.25
451.59	678.77
451.96	671.85
452.33	662.36
452.70	653.81
453.07	643.37
453.43	632.80
453.80	622.70
454.17	612.80
454.54	603.47
454.91	593.47
455.28	583.75
455.65	574.53
456.02	565.42
456.38	557.59
456.75	547.94
457.12	539.83
457.49	531.85
457.86	523.95
458.23	517.24
458.59	509.92
458.96	502.50
459.33	495.93
459.70	489.25
460.07	483.94
460.43	477.85
460.80	472.16
461.17	467.02
461.54	461.67
461.91	456.77
462.27	451.71
462.64	447.56
463.01	442.69
463.38	438.16
463.74	433.40
464.11	429.36
464.48	425.94
464.85	422.05
465.21	419.09
465.58	415.93
465.95	412.13
466.32	408.97
466.68	405.82
467.05	402.67
467.42	399.49
467.78	396.11
468.15	392.98
468.52	390.75
468.88	387.77
469.25	385.10
469.62	382.89
469.98	380.51
470.35	378.17
470.72	376.16
471.08	373.77
471.45	371.91
471.82	369.86
472.18	367.63
472.55	366.08
472.92	364.16
473.28	362.43
473.65	360.82
474.02	359.12
474.38	357.80
474.75	356.56
475.11	355.34
475.48	354.40
475.85	353.63
476.21	352.70
476.58	351.93
476.94	351.34
477.31	350.65
477.67	350.00
478.04	349.48
478.41	349.03
478.77	349.05
479.14	348.53
479.50	348.35
479.87	348.30
480.23	348.23
480.60	348.06
480.96	347.96
481.33	348.26
481.69	348.53
482.06	348.63
482.42	348.77
482.79	349.00
483.15	349.45
483.52	349.96
483.88	350.38
484.25	350.88
484.61	351.40
484.98	351.89
485.34	352.77
485.71	353.63
486.07	354.53
486.44	355.14
486.80	356.22
487.17	357.26
487.53	358.59
487.90	359.94
488.26	361.55
488.62	363.24
488.99	364.73
489.35	366.23
489.72	367.98
490.08	369.85
490.44	371.66
490.81	373.47
491.17	375.24
491.54	377.35
491.90	379.50
492.26	381.87
492.63	384.33
492.99	386.52
493.36	388.95
493.72	391.54
494.08	394.19
494.45	396.95
494.81	399.90
495.17	402.68
495.54	405.73
495.90	408.65
496.26	411.63
496.63	414.56
496.99	417.85
497.35	421.09
497.72	424.37
498.08	427.84
498.44	431.40
498.80	435.10
499.17	438.60
499.53	442.22
499.89	445.88
500.26	449.40
500.62	453.09
500.98	456.85
501.34	460.56
501.71	464.34
502.07	468.02
502.43	471.64
502.79	475.25
503.16	478.72
503.52	482.29
503.88	485.79
504.24	489.53
504.60	493.10
504.97	496.70
505.33	500.25
505.69	503.93
506.05	507.47
506.41	510.77
506.78	513.98
507.14	517.14
507.50	520.23
507.86	523.47
508.22	526.72
508.59	529.73
508.95	532.64
509.31	535.67
509.67	538.41
510.03	541.22
510.39	544.11
510.75	546.75
511.12	549.40
511.48	552.06
511.84	554.54
512.20	557.02
512.56	559.38
512.92	561.81
513.28	564.05
513.64	566.06
514.00	568.21
514.37	570.34
514.73	572.38
515.09	574.57
515.45	576.35
515.81	578.02
516.17	579.56
516.53	581.05
516.89	582.51
517.25	584.16
517.61	585.68
517.97	586.94
518.33	588.30
518.69	589.46
519.05	590.69
519.41	591.91
519.77	593.13
520.13	594.15
520.49	594.88
520.85	595.75
521.21	596.83
521.57	597.67
521.93	598.52
522.29	599.48
522.65	600.00
523.01	600.78
523.37	601.44
523.73	602.41
524.09	603.27
524.45	603.94
524.81	604.77
525.17	605.68
525.53	606.60
525.89	607.39
526.25	608.27
526.61	608.87
526.97	609.54
527.33	610.09
527.68	611.29
528.04	612.29
528.40	612.92
528.76	613.67
529.12	614.76
529.48	615.84
529.84	616.74
530.20	617.94
530.56	619.14
530.91	620.38
531.27	621.60
531.63	622.89
531.99	624.23
532.35	625.48
532.71	626.72
533.07	628.10
533.42	629.91
533.78	631.42
534.14	633.09
534.50	634.63
534.86	636.54
535.21	637.70
535.57	639.54
535.93	641.38
536.29	643.24
536.65	644.95
537.00	646.62
537.36	648.40
537.72	650.00
538.08	651.71
538.44	653.51
538.79	655.44
539.15	657.35
539.51	659.40
539.87	661.44
540.22	663.29
540.58	665.55
540.94	667.50
541.29	669.65
541.65	671.62
542.01	673.88
542.37	676.11
542.72	678.41
543.08	680.33
543.44	682.65
543.79	684.54
544.15	686.75
544.51	689.32
544.87	691.79
545.22	694.17
545.58	696.63
545.94	698.92
546.29	701.00
546.65	703.27
547.01	705.28
547.36	707.69
547.72	710.23
548.07	712.29
548.43	714.39
548.79	716.65
549.14	719.11
549.50	721.40
549.86	723.48
550.21	725.80
550.57	728.41
550.92	730.57
551.28	733.11
551.64	735.42
551.99	737.65
552.35	739.82
552.70	742.19
553.06	744.44
553.41	746.80
553.77	749.67
554.13	752.21
554.48	755.00
554.84	757.50
555.19	759.71
555.55	762.22
555.90	764.49
556.26	766.58
556.61	768.74
556.97	770.68
557.32	772.91
557.68	775.14
558.03	777.14
558.39	779.27
558.74	781.42
559.10	783.39
559.45	785.50
559.81	787.68
560.16	789.50
560.52	791.65
560.87	793.76
561.23	795.08
561.58	796.99
561.94	798.45
562.29	799.71
562.64	801.52
563.00	802.98
563.35	804.90
563.71	807.01
564.06	808.83
564.42	810.97
564.77	812.91
565.12	814.70
565.48	816.75
565.83	818.47
566.19	820.43
566.54	822.19
566.89	823.58
567.25	825.41
567.60	827.46
567.96	829.16
568.31	831.03
568.66	832.77
569.02	834.08
569.37	835.42
569.72	837.07
570.08	838.34
570.43	839.68
570.78	840.60
571.14	841.28
571.49	842.08
571.84	842.93
572.20	843.38
572.55	844.10
572.90	844.27
573.26	844.78
573.61	844.81
573.96	845.22
574.31	845.34
574.67	845.26
575.02	844.79
575.37	844.37
575.72	843.52
576.08	843.32
576.43	842.85
576.78	842.67
577.13	842.26
577.49	842.07
577.84	841.64
578.19	841.35
578.54	841.39
578.90	841.35
579.25	840.79
579.60	840.05
579.95	839.23
580.30	838.63
580.66	837.94
581.01	837.14
581.36	836.05
581.71	835.22
582.06	834.43
582.42	833.77
582.77	832.81
583.12	832.03
583.47	831.11
583.82	830.33
584.17	829.25
584.53	828.40
584.88	827.09
585.23	826.12
585.58	824.91
585.93	823.44
586.28	822.05
586.63	820.88
586.98	820.05
587.34	819.02
587.69	817.75
588.04	816.73
588.39	815.59
588.74	814.27
589.09	813.39
589.44	811.73
589.79	810.45
590.14	809.46
590.49	808.34
590.84	807.09
591.19	805.95
591.54	804.68
591.89	803.11
592.25	802.03
592.60	800.26
592.95	798.65
593.30	797.01
593.65	795.16
594.00	793.24
594.35	792.61
594.70	790.83
595.05	789.38
595.40	787.54
595.75	785.63
596.10	784.06
596.45	782.19
596.80	780.79
597.15	779.09
597.50	777.13
597.85	775.38
598.19	773.36
598.54	771.42
598.89	769.52
599.24	767.88
599.59	765.81
599.94	763.98
600.29	762.20
600.64	760.22
600.99	758.37
601.34	756.63
601.69	753.45
602.04	751.53
602.39	749.49
602.74	747.46
603.08	745.98
603.43	744.46
603.78	742.57
604.13	740.42
604.48	738.49
604.83	736.93
605.18	735.14
605.53	733.18
605.87	731.20
606.22	729.52
606.57	727.26
606.92	725.14
607.27	723.16
607.62	721.23
607.96	719.41
608.31	717.44
608.66	715.44
609.01	713.24
609.36	711.08
609.70	708.90
610.05	706.57
610.40	704.15
610.75	701.62
611.10	699.58
611.44	697.14
611.79	694.69
612.14	692.15
612.49	689.46
612.83	687.10
613.18	684.48
613.53	681.76
613.88	679.30
614.22	676.80
614.57	674.25
614.92	671.61
615.27	669.20
615.61	666.68
615.96	664.28
616.31	662.16
616.65	659.90
617.00	657.48
617.35	655.35
617.70	652.82
618.04	650.12
618.39	647.19
618.74	645.03
619.08	642.45
619.43	639.91
619.78	637.41
620.12	635.02
620.47	632.72
620.82	630.22
621.16	627.53
621.51	625.21
621.85	622.82
622.20	620.32
622.55	617.57
622.89	615.08
623.24	612.53
623.59	609.81
623.93	607.26
624.28	604.84
624.62	602.62
624.97	600.40
625.32	598.10
625.66	595.81
626.01	593.22
626.35	590.95
626.70	588.42
627.04	586.19
627.39	583.76
627.73	581.46
628.08	579.27
628.43	577.05
628.77	574.54
629.12	572.18
629.46	570.07
629.81	567.89
630.15	565.53
630.50	563.10
630.84	560.76
631.19	558.38
631.53	556.12
631.88	553.45
632.22	550.81
632.57	548.70
632.91	546.58
633.26	544.34
633.60	541.95
633.95	539.78
634.29	537.40
634.64	535.28
634.98	532.85
635.32	530.72
635.67	528.75
636.01	526.68
636.36	524.46
636.70	522.37
637.05	520.22
637.39	518.27
637.73	516.36
638.08	514.57
638.42	512.72
638.77	510.70
639.11	508.71
639.45	506.83
639.80	504.61
640.14	502.27
640.49	500.19
640.83	498.27
641.17	496.27
641.52	494.25
641.86	492.07
642.20	490.20
642.55	487.99
642.89	485.76
643.23	483.70
643.58	481.97
643.92	479.72
644.26	477.80
644.61	475.74
644.95	473.68
645.29	471.52
645.64	469.39
645.98	467.29
646.32	465.34
646.66	463.25
647.01	461.27
647.35	459.53
647.69	457.64
648.04	455.71
648.38	453.78
648.72	451.86
649.06	449.96
649.41	447.86
649.75	445.98
650.09	444.25
650.43	442.27
650.78	440.20
651.12	438.18
651.46	436.28
651.80	434.46
652.14	432.60
652.49	430.83
652.83	429.01
653.17	427.01
653.51	425.11
653.85	423.35
654.20	421.65
654.54	419.74
654.88	417.83
655.22	416.06
655.56	414.14
655.90	412.30
656.25	410.48
656.59	408.64
656.93	406.79
657.27	405.04
657.61	403.13
657.95	401.49
658.29	399.91
658.64	398.18
658.98	396.38
659.32	394.62
659.66	392.90
660.00	391.07
660.34	389.38
660.68	387.59
661.02	385.93
661.36	384.16
661.70	382.56
662.05	380.91
662.39	379.42
662.73	378.04
663.07	376.75
663.41	375.32
663.75	373.85
664.09	372.46
664.43	370.88
664.77	369.54
665.11	368.00
665.45	366.64
665.79	365.18
666.13	363.73
666.47	362.37
666.81	360.89
667.15	359.43
667.49	358.18
667.83	356.94
668.17	355.56
668.51	354.37
668.85	353.12
669.19	352.04
669.53	350.64
669.87	349.19
670.21	347.74
670.55	346.46
670.89	345.44
671.23	344.18
671.57	342.93
671.91	341.82
672.25	340.58
672.58	339.36
672.92	338.18
673.26	337.16
673.60	336.03
673.94	334.79
674.28	333.75
674.62	332.76
674.96	331.61
675.30	330.61
675.64	329.51
675.97	328.40
676.31	327.30
676.65	326.15
676.99	325.35
677.33	324.29
677.67	323.19
678.01	321.98
678.34	320.95
678.68	320.00
679.02	318.87
679.36	317.94
679.70	317.00
680.04	315.95
680.37	314.89
680.71	313.80
681.05	313.02
681.39	312.06
681.73	311.01
682.06	310.17
682.40	309.30
682.74	308.35
683.08	307.58
683.42	306.64
683.75	305.84
684.09	304.74
684.43	303.80
684.77	302.91
685.10	302.00
685.44	301.06
685.78	300.20
686.12	299.45
686.45	298.50
686.79	297.56
687.13	296.80
687.46	295.97
687.80	295.30
688.14	294.44
688.48	293.73
688.81	292.99
689.15	292.19
689.49	291.23
689.82	290.46
690.16	289.47
690.50	288.62
690.83	287.77
691.17	286.97
691.51	286.25
691.84	285.55
692.18	284.80
692.52	284.13
692.85	283.38
693.19	282.75
693.52	282.07
693.86	281.30
694.20	280.60
694.53	279.95
694.87	279.20
695.21	278.43
695.54	277.66
695.88	276.84
696.21	276.07
696.55	275.46
696.88	274.76
697.22	274.10
697.56	273.50
697.89	272.84
698.23	272.25
698.56	271.62
698.90	271.04
699.23	270.46
699.57	269.88
699.90	269.27
700.24	268.50
700.58	267.95
700.91	267.52
701.25	267.15
701.58	266.65
701.92	266.10
702.25	265.59
702.59	265.00
702.92	264.52
703.26	263.91
703.59	263.38
703.93	263.13
704.26	262.67
704.60	262.11
704.93	261.60
705.26	260.98
705.60	260.43
705.93	259.87
706.27	259.47
706.60	258.97
706.94	258.62
707.27	258.06
707.61	257.53
707.94	256.94
708.27	256.18
708.61	255.60
708.94	255.07
709.28	254.61
709.61	254.10
709.94	253.63
710.28	253.27
710.61	252.81
710.95	252.06
711.28	251.73
711.61	251.27
711.95	250.89
712.28	250.42
712.61	250.13
712.95	249.90
713.28	249.55
713.61	249.10
713.95	248.59
714.28	248.35
714.61	247.86
714.95	247.50
715.28	247.00
715.61	246.53
715.95	246.19
716.28	245.78
716.61	245.55
716.95	245.09
717.28	244.68
717.61	244.35
717.94	243.90
718.28	243.36
718.61	243.02
718.94	242.68
719.27	242.44
719.61	242.10
719.94	241.69
720.27	241.18
720.60	240.90
720.94	240.49
721.27	240.14
721.60	239.92
721.93	239.57
722.27	239.56
722.60	239.40
722.93	239.10
723.26	238.87
723.59	238.53
723.93	238.35
724.26	238.09
724.59	237.76
724.92	237.65
725.25	237.52
725.59	237.31
725.92	237.02
726.25	236.73
726.58	236.47
726.91	236.23
727.24	236.07
727.57	235.82
727.91	235.56
728.24	235.30
728.57	235.10
728.90	234.93
729.23	234.55
729.56	234.42
729.89	234.13
730.22	233.85
730.55	233.62
730.89	233.36
731.22	233.12
731.55	232.91
731.88	232.63
732.21	232.33
732.54	232.04
732.87	231.81
733.20	231.69
733.53	231.46
733.86	231.21
734.19	230.97
734.52	230.86
734.85	230.96
735.18	230.75
735.51	230.67
735.84	230.57
736.17	230.45
736.50	230.06
736.83	230.39
737.16	230.20
737.49	230.06
737.82	229.90
738.15	229.76
738.48	229.61
738.81	229.46
739.14	229.29
739.47	229.17
739.80	229.13
740.13	228.91
740.46	228.74
740.79	228.52
741.12	228.33
741.45	228.07
741.78	227.67
742.11	227.66
742.44	227.37
742.77	227.16
743.10	226.95
743.43	226.84
743.75	226.22
744.08	226.56
744.41	226.33
744.74	226.22
745.07	226.02
745.40	225.91
745.73	225.86
746.06	225.68
746.39	225.54
746.71	225.28
747.04	225.13
747.37	224.96
747.70	224.88
748.03	224.75
748.36	224.65
748.68	224.45
749.01	224.23
749.34	224.14
749.67	224.01
750.00	223.99
750.33	224.09
750.65	224.05
750.98	223.44
751.31	223.32
751.64	223.12
751.97	223.26
752.29	223.12
752.62	222.90
752.95	222.78
753.28	222.67
753.60	222.52
753.93	222.44
754.26	222.36
754.59	222.07
754.91	221.98
755.24	221.84
755.57	221.76
755.90	221.59
756.22	221.41
756.55	221.27
756.88	221.05
757.20	220.75
757.53	220.47
757.86	220.40
758.19	220.34
758.51	220.21
758.84	219.95
759.17	219.79
759.49	219.73
759.82	219.83
760.15	219.82
760.47	219.78
760.80	219.61
761.13	219.56
761.45	219.54
761.78	219.34
762.11	219.31
762.43	219.17
762.76	219.07
763.08	219.03
763.41	218.98
763.74	218.93
764.06	218.84
764.39	218.78
764.71	218.65
765.04	218.51
765.37	218.43
765.69	218.30
766.02	218.23
766.34	218.13
766.67	217.90
767.00	217.77
767.32	217.88
767.65	218.00
767.97	217.90
768.30	217.84
768.62	217.78
768.95	217.62
769.27	217.62
769.60	217.63
769.92	217.54
770.25	217.40
770.57	217.27
770.90	217.21
771.22	217.16
771.55	217.17
771.87	217.14
772.20	217.10
772.52	217.36
772.85	217.68
773.17	217.55
773.50	217.54
773.82	217.35
774.15	217.07
774.47	216.74
774.80	216.61
775.12	216.56
775.45	216.60
775.77	216.56
776.09	216.48
776.42	216.45
776.74	216.51
777.07	216.48
777.39	216.46
777.72	216.38
778.04	216.41
778.36	216.27
778.69	216.30
779.01	216.32
779.33	215.93
779.66	215.54
779.98	215.56
780.31	215.54
780.63	215.69
780.95	215.72
781.28	215.68
781.60	215.60
781.92	215.63
782.25	215.49
782.57	215.50
782.89	215.52
783.22	215.37
783.54	215.27
783.86	215.19
784.19	215.13
784.51	215.16
784.83	215.08
785.16	215.11
785.48	215.00
785.80	214.89
786.12	214.96
786.45	214.90
786.77	214.82
787.09	214.73
787.42	214.58
787.74	214.61
788.06	214.62
788.38	214.64
788.71	214.52
789.03	214.58
789.35	214.61
789.67	214.48
789.99	214.59
790.32	214.45
790.64	214.49
790.96	214.77
791.28	214.62
791.61	214.56
791.93	214.50
792.25	214.48
792.57	214.71
792.89	214.60
793.21	214.64
793.54	214.58
793.86	214.54
794.18	214.56
