SpectraSuite Data File
++++++++++++++++++++++++++++++++++++
Date: Mon Feb 25 17:05:43 EST 2013
User: group
Dark Spectrum Present: No
Reference Spectrum Present: No
Number of Sampled Component Spectra: 1
Spectrometers: USB2E7196
Integration Time (usec): 104000 (USB2E7196)
Spectra Averaged: 20 (USB2E7196)
Boxcar Smoothing: 10 (USB2E7196)
Correct for Electrical Dark: No (USB2E7196)
Strobe/Lamp Enabled: No (USB2E7196)
Correct for Detector Non-linearity: No (USB2E7196)
Correct for Stray Light: No (USB2E7196)
Number of Pixels in Processed Spectrum: 2048
>>>>>Begin Processed Spectral Data<<<<<
339.09	0.00
339.48	198.20
339.86	200.40
340.24	201.35
340.63	201.75
341.01	209.65
341.39	205.20
341.78	208.10
342.16	208.65
342.54	207.70
342.93	198.34
343.31	208.35
343.69	208.89
344.07	209.33
344.46	209.83
344.84	210.26
345.22	210.27
345.60	210.52
345.99	210.66
346.37	210.79
346.75	210.87
347.13	210.95
347.52	210.94
347.90	211.12
348.28	210.99
348.66	211.15
349.05	210.98
349.43	211.00
349.81	211.08
350.19	211.13
350.57	211.21
350.96	211.25
351.34	211.31
351.72	211.46
352.10	211.55
352.48	211.57
352.87	211.60
353.25	211.70
353.63	211.78
354.01	211.82
354.39	211.83
354.77	211.95
355.15	212.10
355.54	212.11
355.92	212.00
356.30	212.18
356.68	212.38
357.06	212.46
357.44	212.41
357.82	212.39
358.20	212.40
358.58	212.39
358.97	212.40
359.35	212.48
359.73	212.51
360.11	212.50
360.49	212.55
360.87	212.62
361.25	212.67
361.63	212.83
362.01	212.83
362.39	212.86
362.77	212.90
363.15	212.87
363.53	212.90
363.91	212.99
364.29	212.87
364.67	212.50
365.05	212.52
365.43	212.60
365.81	212.64
366.19	212.77
366.57	212.92
366.95	212.92
367.33	212.88
367.71	212.92
368.09	213.00
368.47	212.90
368.85	212.82
369.23	212.88
369.61	212.69
369.99	212.80
370.37	212.84
370.75	212.97
371.13	212.90
371.51	212.87
371.89	212.83
372.27	212.85
372.65	212.90
373.03	212.86
373.41	212.78
373.78	212.76
374.16	212.55
374.54	212.36
374.92	212.29
375.30	212.21
375.68	212.02
376.06	211.97
376.44	211.90
376.82	211.87
377.19	211.79
377.57	211.77
377.95	211.51
378.33	211.41
378.71	211.13
379.09	211.18
379.47	211.15
379.84	211.07
380.22	211.02
380.60	210.81
380.98	210.73
381.36	210.72
381.73	210.62
382.11	210.65
382.49	210.61
382.87	210.56
383.25	210.56
383.62	210.98
384.00	210.80
384.38	210.78
384.76	210.87
385.13	210.90
385.51	210.86
385.89	210.82
386.27	210.78
386.64	210.82
387.02	210.62
387.40	210.50
387.78	210.44
388.15	210.43
388.53	210.49
388.91	210.43
389.29	210.34
389.66	210.33
390.04	210.33
390.42	210.44
390.79	210.39
391.17	210.25
391.55	209.81
391.92	209.91
392.30	209.97
392.68	209.82
393.05	209.77
393.43	209.76
393.81	209.81
394.18	209.75
394.56	209.72
394.94	209.86
395.31	209.88
395.69	209.97
396.06	210.03
396.44	210.09
396.82	210.12
397.19	210.34
397.57	210.30
397.95	210.31
398.32	210.20
398.70	210.27
399.07	210.45
399.45	210.50
399.82	210.40
400.20	210.36
400.58	210.43
400.95	210.34
401.33	210.42
401.70	210.70
402.08	210.73
402.45	210.80
402.83	210.86
403.20	210.96
403.58	210.95
403.95	211.06
404.33	211.15
404.71	211.25
405.08	211.48
405.46	211.55
405.83	211.65
406.21	211.77
406.58	211.96
406.96	212.00
407.33	212.14
407.70	212.42
408.08	212.90
408.45	213.09
408.83	213.34
409.20	213.48
409.58	213.44
409.95	213.75
410.33	214.09
410.70	214.23
411.08	214.58
411.45	214.90
411.82	215.18
412.20	215.57
412.57	216.15
412.95	216.25
413.32	216.84
413.69	217.29
414.07	217.74
414.44	218.18
414.82	218.88
415.19	219.58
415.56	220.18
415.94	220.68
416.31	221.51
416.68	222.31
417.06	223.30
417.43	224.37
417.81	225.36
418.18	226.27
418.55	227.40
418.93	228.52
419.30	229.71
419.67	230.92
420.04	232.24
420.42	233.39
420.79	235.16
421.16	236.65
421.54	238.43
421.91	240.17
422.28	241.95
422.66	243.78
423.03	245.78
423.40	247.75
423.77	249.82
424.15	251.81
424.52	253.96
424.89	256.24
425.26	258.34
425.64	260.53
426.01	262.89
426.38	265.40
426.75	267.91
427.13	270.57
427.50	273.29
427.87	276.10
428.24	279.05
428.61	281.68
428.99	284.83
429.36	288.04
429.73	291.30
430.10	294.60
430.47	297.93
430.85	301.12
431.22	304.76
431.59	308.69
431.96	312.43
432.33	316.55
432.70	320.56
433.08	325.23
433.45	329.72
433.82	334.14
434.19	339.16
434.56	344.06
434.93	348.72
435.30	353.45
435.68	358.68
436.05	363.73
436.42	368.80
436.79	373.40
437.16	378.41
437.53	383.69
437.90	388.98
438.27	394.19
438.64	399.60
439.01	404.66
439.38	409.06
439.75	413.49
440.13	418.45
440.50	423.13
440.87	427.02
441.24	431.09
441.61	435.56
441.98	438.76
442.35	442.54
442.72	446.56
443.09	450.43
443.46	452.86
443.83	454.61
444.20	456.18
444.57	458.25
444.94	459.50
445.31	460.79
445.68	462.30
446.05	462.96
446.42	462.76
446.79	462.57
447.16	462.15
447.53	461.97
447.90	460.30
448.27	458.73
448.64	456.37
449.01	454.62
449.37	451.45
449.74	448.41
450.11	444.94
450.48	440.72
450.85	436.34
451.22	432.55
451.59	429.19
451.96	425.87
452.33	421.47
452.70	417.24
453.07	412.25
453.43	406.82
453.80	402.00
454.17	397.44
454.54	392.90
454.91	388.25
455.28	383.53
455.65	379.25
456.02	375.36
456.38	371.72
456.75	367.19
457.12	363.38
457.49	359.69
457.86	355.76
458.23	352.65
458.59	349.23
458.96	345.90
459.33	342.74
459.70	339.48
460.07	337.00
460.43	334.13
460.80	331.53
461.17	329.24
461.54	326.76
461.91	324.40
462.27	321.99
462.64	319.99
463.01	317.84
463.38	315.83
463.74	313.18
464.11	311.22
464.48	309.44
464.85	307.62
465.21	306.28
465.58	304.80
465.95	302.90
466.32	301.43
466.68	299.94
467.05	298.47
467.42	297.07
467.78	295.46
468.15	294.07
468.52	292.93
468.88	291.48
469.25	290.22
469.62	289.22
469.98	288.17
470.35	287.00
470.72	286.05
471.08	284.77
471.45	283.93
471.82	283.15
472.18	282.20
472.55	281.43
472.92	280.40
473.28	279.57
473.65	278.81
474.02	278.06
474.38	277.38
474.75	276.83
475.11	276.30
475.48	275.87
475.85	275.36
476.21	274.88
476.58	274.47
476.94	274.18
477.31	273.74
477.67	273.28
478.04	273.03
478.41	272.73
478.77	272.89
479.14	272.56
479.50	272.28
479.87	272.17
480.23	272.13
480.60	271.92
480.96	271.80
481.33	271.94
481.69	271.89
482.06	271.84
482.42	271.78
482.79	271.74
483.15	271.73
483.52	271.99
483.88	272.06
484.25	272.25
484.61	272.33
484.98	272.53
485.34	272.93
485.71	273.28
486.07	273.58
486.44	273.55
486.80	273.90
487.17	274.28
487.53	274.86
487.90	275.38
488.26	276.12
488.62	276.82
488.99	277.21
489.35	277.88
489.72	278.56
490.08	279.20
490.44	279.90
490.81	280.80
491.17	281.41
491.54	282.29
491.90	283.09
492.26	284.02
492.63	285.03
492.99	285.89
493.36	286.80
493.72	287.83
494.08	288.98
494.45	290.10
494.81	291.20
495.17	292.20
495.54	293.19
495.90	294.14
496.26	295.18
496.63	296.49
496.99	297.65
497.35	298.93
497.72	300.31
498.08	301.56
498.44	302.72
498.80	304.06
499.17	305.30
499.53	306.59
499.89	307.98
500.26	309.27
500.62	310.59
500.98	312.05
501.34	313.43
501.71	314.80
502.07	316.11
502.43	317.41
502.79	318.78
503.16	320.21
503.52	321.59
503.88	322.93
504.24	324.21
504.60	325.62
504.97	326.97
505.33	328.26
505.69	329.71
506.05	331.03
506.41	332.42
506.78	333.80
507.14	335.12
507.50	336.40
507.86	337.58
508.22	338.89
508.59	340.04
508.95	341.29
509.31	342.63
509.67	343.83
510.03	345.01
510.39	346.23
510.75	347.37
511.12	348.56
511.48	349.73
511.84	350.85
512.20	352.04
512.56	353.13
512.92	354.27
513.28	355.42
513.64	356.51
514.00	357.58
514.37	358.67
514.73	359.72
515.09	360.75
515.45	361.92
515.81	362.89
516.17	363.96
516.53	364.95
516.89	365.89
517.25	366.92
517.61	368.15
517.97	369.25
518.33	370.36
518.69	371.58
519.05	372.84
519.41	374.06
519.77	375.45
520.13	376.59
520.49	377.75
520.85	378.91
521.21	380.29
521.57	381.70
521.93	382.90
522.29	384.29
522.65	385.66
523.01	386.98
523.37	388.46
523.73	389.95
524.09	391.45
524.45	393.00
524.81	394.54
525.17	396.15
525.53	397.76
525.89	399.48
526.25	401.20
526.61	402.76
526.97	404.58
527.33	406.20
527.68	408.35
528.04	410.25
528.40	412.11
528.76	414.02
529.12	416.05
529.48	418.20
529.84	420.23
530.20	422.41
530.56	424.74
530.91	427.20
531.27	429.41
531.63	431.73
531.99	433.94
532.35	436.36
532.71	438.72
533.07	441.23
533.42	444.06
533.78	446.40
534.14	448.95
534.50	451.33
534.86	453.92
535.21	456.10
535.57	458.69
535.93	461.30
536.29	464.06
536.65	466.64
537.00	469.20
537.36	471.84
537.72	474.48
538.08	477.09
538.44	479.50
538.79	482.28
539.15	484.96
539.51	487.77
539.87	490.53
540.22	493.30
540.58	496.17
540.94	498.65
541.29	501.53
541.65	504.19
542.01	507.12
542.37	509.93
542.72	512.92
543.08	515.74
543.44	518.67
543.79	521.29
544.15	524.19
544.51	527.26
544.87	530.22
545.22	533.10
545.58	535.88
545.94	538.63
546.29	541.41
546.65	544.28
547.01	547.11
547.36	549.98
547.72	552.92
548.07	555.46
548.43	558.09
548.79	560.69
549.14	563.38
549.50	565.98
549.86	568.46
550.21	570.92
550.57	573.59
550.92	576.03
551.28	578.58
551.64	580.93
551.99	583.37
552.35	585.80
552.70	588.07
553.06	590.50
553.41	593.00
553.77	595.46
554.13	597.64
554.48	600.06
554.84	602.53
555.19	604.52
555.55	606.90
555.90	608.86
556.26	611.08
556.61	613.30
556.97	615.18
557.32	617.19
557.68	619.12
558.03	620.99
558.39	622.89
558.74	624.83
559.10	626.73
559.45	628.66
559.81	630.70
560.16	632.60
560.52	634.48
560.87	636.30
561.23	637.75
561.58	639.82
561.94	641.25
562.29	642.52
562.64	644.23
563.00	645.69
563.35	647.50
563.71	649.25
564.06	650.98
564.42	652.62
564.77	654.30
565.12	656.04
565.48	657.84
565.83	659.51
566.19	661.02
566.54	662.35
566.89	663.66
567.25	665.04
567.60	666.56
567.96	667.85
568.31	669.30
568.66	670.75
569.02	671.47
569.37	672.43
569.72	673.52
570.08	674.35
570.43	675.22
570.78	675.94
571.14	676.22
571.49	676.50
571.84	677.15
572.20	677.48
572.55	678.02
572.90	677.95
573.26	678.02
573.61	678.23
573.96	678.40
574.31	678.29
574.67	678.13
575.02	677.70
575.37	677.39
575.72	676.94
576.08	676.81
576.43	676.65
576.78	676.45
577.13	676.42
577.49	676.33
577.84	676.08
578.19	675.90
578.54	676.16
578.90	676.24
579.25	675.96
579.60	675.55
579.95	675.01
580.30	675.05
580.66	674.95
581.01	674.46
581.36	674.15
581.71	673.76
582.06	673.57
582.42	673.40
582.77	672.94
583.12	672.67
583.47	672.16
583.82	671.98
584.17	671.71
584.53	671.37
584.88	670.93
585.23	670.64
585.58	670.06
585.93	669.34
586.28	668.82
586.63	668.33
586.98	668.17
587.34	667.95
587.69	667.07
588.04	666.54
588.39	666.09
588.74	665.50
589.09	665.14
589.44	664.13
589.79	663.42
590.14	663.10
590.49	662.25
590.84	661.63
591.19	660.99
591.54	660.19
591.89	658.94
592.25	658.35
592.60	657.39
592.95	656.57
593.30	655.55
593.65	654.40
594.00	653.45
594.35	653.31
594.70	652.21
595.05	651.48
595.40	650.36
595.75	649.21
596.10	648.22
596.45	647.27
596.80	646.66
597.15	645.90
597.50	644.70
597.85	643.85
598.19	642.81
598.54	641.74
598.89	640.88
599.24	640.28
599.59	639.17
599.94	638.31
600.29	637.37
600.64	636.49
600.99	635.60
601.34	634.75
601.69	632.75
602.04	631.52
602.39	630.31
602.74	629.38
603.08	628.75
603.43	628.20
603.78	627.21
604.13	626.03
604.48	624.97
604.83	624.19
605.18	623.66
605.53	622.61
605.87	621.45
606.22	620.46
606.57	619.44
606.92	618.19
607.27	616.91
607.62	615.86
607.96	614.89
608.31	613.95
608.66	612.86
609.01	611.70
609.36	610.73
609.70	609.59
610.05	608.34
610.40	606.93
610.75	605.12
611.10	603.85
611.44	602.29
611.79	600.57
612.14	598.92
612.49	596.90
612.83	595.54
613.18	593.96
613.53	592.32
613.88	590.51
614.22	589.04
614.57	587.45
614.92	585.90
615.27	584.16
615.61	582.45
615.96	580.69
616.31	579.24
616.65	577.74
617.00	576.29
617.35	574.58
617.70	572.81
618.04	571.14
618.39	569.20
618.74	567.75
619.08	566.10
619.43	564.43
619.78	562.73
620.12	560.82
620.47	559.29
620.82	557.51
621.16	555.70
621.51	554.08
621.85	552.45
622.20	550.61
622.55	548.86
622.89	547.07
623.24	545.35
623.59	543.45
623.93	541.56
624.28	539.82
624.62	538.33
624.97	536.72
625.32	535.09
625.66	533.54
626.01	531.72
626.35	530.22
626.70	528.54
627.04	527.01
627.39	525.40
627.73	523.71
628.08	522.13
628.43	520.43
628.77	518.68
629.12	517.01
629.46	515.39
629.81	513.64
630.15	511.81
630.50	510.06
630.84	508.33
631.19	506.59
631.53	504.83
631.88	502.75
632.22	500.92
632.57	499.35
632.91	497.61
633.26	495.95
633.60	494.24
633.95	492.68
634.29	490.96
634.64	489.37
634.98	487.65
635.32	486.05
635.67	484.65
636.01	483.03
636.36	481.20
636.70	479.58
637.05	478.06
637.39	476.45
637.73	475.05
638.08	473.74
638.42	472.45
638.77	471.02
639.11	469.57
639.45	468.08
639.80	466.25
640.14	464.60
640.49	463.05
640.83	461.36
641.17	459.65
641.52	457.99
641.86	456.29
642.20	454.78
642.55	452.87
642.89	451.05
643.23	449.22
643.58	447.69
643.92	445.96
644.26	444.25
644.61	442.80
644.95	440.98
645.29	439.21
645.64	437.38
645.98	435.45
646.32	433.85
646.66	432.04
647.01	430.43
647.35	428.81
647.69	427.07
648.04	425.45
648.38	423.72
648.72	422.05
649.06	420.39
649.41	418.68
649.75	417.11
650.09	415.70
650.43	414.16
650.78	412.49
651.12	410.77
651.46	409.11
651.80	407.56
652.14	406.01
652.49	404.51
652.83	402.81
653.17	401.32
653.51	399.70
653.85	398.31
654.20	396.94
654.54	395.24
654.88	393.74
655.22	392.30
655.56	390.78
655.90	389.25
656.25	387.64
656.59	385.99
656.93	384.46
657.27	382.84
657.61	381.25
657.95	379.84
658.29	378.38
658.64	377.05
658.98	375.46
659.32	373.85
659.66	372.25
660.00	370.82
660.34	369.24
660.68	367.76
661.02	366.16
661.36	364.67
661.70	363.36
662.05	361.98
662.39	360.57
662.73	359.28
663.07	358.14
663.41	356.87
663.75	355.57
664.09	354.31
664.43	352.93
664.77	351.80
665.11	350.46
665.45	349.32
665.79	348.18
666.13	346.95
666.47	345.73
666.81	344.52
667.15	343.20
667.49	342.21
667.83	341.25
668.17	340.08
668.51	338.91
668.85	337.89
669.19	336.90
669.53	335.67
669.87	334.53
670.21	333.24
670.55	332.25
670.89	331.40
671.23	330.38
671.57	329.47
671.91	328.26
672.25	327.26
672.58	326.32
672.92	325.16
673.26	324.13
673.60	323.18
673.94	322.17
674.28	321.31
674.62	320.28
674.96	319.11
675.30	318.19
675.64	317.23
675.97	316.12
676.31	315.06
676.65	314.20
676.99	313.41
677.33	312.51
677.67	311.53
678.01	310.37
678.34	309.50
678.68	308.58
679.02	307.81
679.36	306.90
679.70	305.92
680.04	305.02
680.37	304.20
680.71	303.34
681.05	302.49
681.39	301.59
681.73	300.68
682.06	299.93
682.40	299.12
682.74	298.33
683.08	297.69
683.42	296.86
683.75	296.10
684.09	295.18
684.43	294.35
684.77	293.53
685.10	292.80
685.44	291.92
685.78	291.01
686.12	290.15
686.45	289.39
686.79	288.56
687.13	287.96
687.46	287.15
687.80	286.50
688.14	285.65
688.48	284.99
688.81	284.23
689.15	283.53
689.49	282.80
689.82	282.08
690.16	281.13
690.50	280.35
690.83	279.53
691.17	278.80
691.51	278.13
691.84	277.53
692.18	276.81
692.52	276.19
692.85	275.70
693.19	275.10
693.52	274.42
693.86	273.75
694.20	272.99
694.53	272.42
694.87	271.67
695.21	271.06
695.54	270.40
695.88	269.70
696.21	268.94
696.55	268.32
696.88	267.68
697.22	267.07
697.56	266.61
697.89	266.08
698.23	265.49
698.56	264.86
698.90	264.25
699.23	263.69
699.57	263.16
699.90	262.51
700.24	261.96
700.58	261.44
700.91	261.00
701.25	260.71
701.58	260.25
701.92	259.86
702.25	259.46
702.59	258.96
702.92	258.60
703.26	258.08
703.59	257.66
703.93	257.45
704.26	257.06
704.60	256.57
704.93	256.05
705.26	255.52
705.60	255.16
705.93	254.69
706.27	254.37
706.60	253.97
706.94	253.66
707.27	253.12
707.61	252.70
707.94	252.22
708.27	251.51
708.61	250.89
708.94	250.42
709.28	249.88
709.61	249.38
709.94	248.96
710.28	248.62
710.61	248.23
710.95	247.58
711.28	247.40
711.61	247.02
711.95	246.80
712.28	246.48
712.61	246.12
712.95	245.92
713.28	245.72
713.61	245.32
713.95	244.90
714.28	244.63
714.61	244.32
714.95	244.05
715.28	243.71
715.61	243.43
715.95	243.05
716.28	242.80
716.61	242.51
716.95	242.17
717.28	241.92
717.61	241.66
717.94	241.30
718.28	240.78
718.61	240.45
718.94	240.00
719.27	239.74
719.61	239.50
719.94	239.12
720.27	238.61
720.60	238.32
720.94	238.00
721.27	237.72
721.60	237.43
721.93	237.14
722.27	237.03
722.60	236.89
722.93	236.68
723.26	236.45
723.59	236.23
723.93	236.00
724.26	235.78
724.59	235.41
724.92	235.21
725.25	235.08
725.59	234.86
725.92	234.76
726.25	234.53
726.58	234.29
726.91	234.00
727.24	233.80
727.57	233.57
727.91	233.30
728.24	233.16
728.57	232.95
728.90	232.76
729.23	232.40
729.56	232.33
729.89	232.11
730.22	231.79
730.55	231.51
730.89	231.39
731.22	231.09
731.55	230.84
731.88	230.64
732.21	230.34
732.54	230.09
732.87	229.84
733.20	229.61
733.53	229.38
733.86	229.27
734.19	229.04
734.52	228.87
734.85	228.99
735.18	228.71
735.51	228.55
735.84	228.38
736.17	228.33
736.50	227.97
736.83	228.20
737.16	228.15
737.49	228.07
737.82	227.82
738.15	227.75
738.48	227.63
738.81	227.49
739.14	227.34
739.47	227.10
739.80	226.98
740.13	226.88
740.46	226.65
740.79	226.44
741.12	226.31
741.45	226.09
741.78	225.73
742.11	225.67
742.44	225.49
742.77	225.32
743.10	225.11
743.43	224.95
743.75	224.45
744.08	224.74
744.41	224.50
744.74	224.34
745.07	224.08
745.40	223.95
745.73	223.95
746.06	223.83
746.39	223.83
746.71	223.58
747.04	223.41
747.37	223.25
747.70	223.15
748.03	222.92
748.36	222.92
748.68	222.84
749.01	222.66
749.34	222.55
749.67	222.48
750.00	222.39
750.33	222.55
750.65	222.44
750.98	221.87
751.31	221.82
751.64	221.74
751.97	221.90
752.29	221.81
752.62	221.50
752.95	221.32
753.28	221.13
753.60	221.10
753.93	221.13
754.26	221.05
754.59	220.85
754.91	220.83
755.24	220.64
755.57	220.41
755.90	220.26
756.22	220.12
756.55	219.91
756.88	219.78
757.20	219.46
757.53	219.32
757.86	219.24
758.19	219.15
758.51	219.03
758.84	218.72
759.17	218.66
759.49	218.65
759.82	218.78
760.15	218.77
760.47	218.66
760.80	218.42
761.13	218.45
761.45	218.37
761.78	218.28
762.11	218.19
762.43	218.11
762.76	218.04
763.08	217.95
763.41	217.86
763.74	217.80
764.06	217.73
764.39	217.65
764.71	217.57
765.04	217.47
765.37	217.41
765.69	217.35
766.02	217.24
766.34	217.16
766.67	216.92
767.00	216.98
767.32	217.18
767.65	217.33
767.97	217.22
768.30	217.21
768.62	217.12
768.95	216.99
769.27	216.97
769.60	216.98
769.92	216.98
770.25	216.95
770.57	216.90
770.90	216.78
771.22	216.70
771.55	216.65
771.87	216.59
772.20	216.50
772.52	216.70
772.85	217.04
773.17	216.97
773.50	216.94
773.82	216.74
774.15	216.43
774.47	216.14
774.80	216.09
775.12	216.01
775.45	216.02
775.77	216.06
776.09	216.05
776.42	215.92
776.74	215.92
777.07	215.89
777.39	215.80
777.72	215.73
778.04	215.68
778.36	215.65
778.69	215.59
779.01	215.59
779.33	215.26
779.66	214.89
779.98	214.82
780.31	214.80
780.63	214.96
780.95	215.05
781.28	215.08
781.60	215.01
781.92	215.01
782.25	214.93
782.57	214.90
782.89	214.82
783.22	214.87
783.54	214.79
783.86	214.78
784.19	214.69
784.51	214.76
784.83	214.73
785.16	214.64
785.48	214.71
785.80	214.69
786.12	214.70
786.45	214.65
786.77	214.65
787.09	214.60
787.42	214.34
787.74	214.27
788.06	214.23
788.38	214.11
788.71	214.06
789.03	214.09
789.35	214.06
789.67	214.04
789.99	213.98
790.32	213.93
790.64	213.89
790.96	214.19
791.28	214.10
791.61	214.07
791.93	214.09
792.25	213.99
792.57	214.26
792.89	214.15
793.21	214.17
793.54	214.14
793.86	214.05
794.18	214.13
