SpectraSuite Data File
++++++++++++++++++++++++++++++++++++
Date: Mon Feb 25 17:12:50 EST 2013
User: group
Dark Spectrum Present: No
Reference Spectrum Present: No
Number of Sampled Component Spectra: 1
Spectrometers: USB2E7196
Integration Time (usec): 104000 (USB2E7196)
Spectra Averaged: 20 (USB2E7196)
Boxcar Smoothing: 10 (USB2E7196)
Correct for Electrical Dark: No (USB2E7196)
Strobe/Lamp Enabled: No (USB2E7196)
Correct for Detector Non-linearity: No (USB2E7196)
Correct for Stray Light: No (USB2E7196)
Number of Pixels in Processed Spectrum: 2048
>>>>>Begin Processed Spectral Data<<<<<
339.09	0.00
339.48	199.70
339.86	199.20
340.24	201.60
340.63	202.35
341.01	210.30
341.39	206.00
341.78	207.10
342.16	209.20
342.54	209.10
342.93	198.32
343.31	208.33
343.69	208.80
344.07	209.28
344.46	209.70
344.84	210.15
345.22	210.14
345.60	210.34
345.99	210.49
346.37	210.56
346.75	210.61
347.13	210.72
347.52	210.76
347.90	210.99
348.28	210.95
348.66	210.97
349.05	210.90
349.43	210.95
349.81	211.00
350.19	210.96
350.57	210.98
350.96	211.11
351.34	211.19
351.72	211.29
352.10	211.39
352.48	211.44
352.87	211.41
353.25	211.50
353.63	211.61
354.01	211.65
354.39	211.75
354.77	211.89
355.15	212.04
355.54	212.05
355.92	211.95
356.30	212.04
356.68	212.35
357.06	212.41
357.44	212.40
357.82	212.51
358.20	212.63
358.58	212.72
358.97	212.68
359.35	212.83
359.73	212.94
360.11	212.95
360.49	213.07
360.87	213.17
361.25	213.29
361.63	213.45
362.01	213.57
362.39	213.53
362.77	213.58
363.15	213.58
363.53	213.63
363.91	213.65
364.29	213.73
364.67	213.42
365.05	213.42
365.43	213.51
365.81	213.46
366.19	213.64
366.57	213.80
366.95	213.81
367.33	213.76
367.71	213.73
368.09	213.87
368.47	213.87
368.85	213.84
369.23	213.85
369.61	213.71
369.99	213.77
370.37	213.91
370.75	214.03
371.13	213.92
371.51	213.90
371.89	214.00
372.27	213.99
372.65	213.95
373.03	213.91
373.41	213.82
373.78	213.82
374.16	213.58
374.54	213.39
374.92	213.35
375.30	213.31
375.68	213.27
376.06	213.21
376.44	213.04
376.82	213.00
377.19	212.94
377.57	212.81
377.95	212.66
378.33	212.50
378.71	212.31
379.09	212.30
379.47	212.23
379.84	212.12
380.22	212.01
380.60	211.94
380.98	212.00
381.36	211.95
381.73	211.82
382.11	211.86
382.49	211.89
382.87	211.87
383.25	211.81
383.62	212.16
384.00	212.00
384.38	212.01
384.76	212.03
385.13	212.14
385.51	212.20
385.89	212.15
386.27	212.15
386.64	212.10
387.02	212.07
387.40	212.03
387.78	212.04
388.15	212.09
388.53	212.05
388.91	211.95
389.29	211.86
389.66	211.92
390.04	211.82
390.42	211.77
390.79	211.72
391.17	211.66
391.55	211.21
391.92	211.30
392.30	211.35
392.68	211.32
393.05	211.22
393.43	211.17
393.81	211.19
394.18	211.10
394.56	211.07
394.94	211.05
395.31	210.97
395.69	211.08
396.06	211.11
396.44	211.15
396.82	211.07
397.19	211.31
397.57	211.23
397.95	211.31
398.32	211.22
398.70	211.24
399.07	211.34
399.45	211.36
399.82	211.32
400.20	211.25
400.58	211.27
400.95	211.18
401.33	211.25
401.70	211.47
402.08	211.55
402.45	211.61
402.83	211.79
403.20	211.88
403.58	211.83
403.95	211.86
404.33	211.92
404.71	212.03
405.08	212.18
405.46	212.27
405.83	212.39
406.21	212.51
406.58	212.63
406.96	212.69
407.33	212.85
407.70	213.01
408.08	213.47
408.45	213.60
408.83	213.80
409.20	213.98
409.58	213.99
409.95	214.23
410.33	214.50
410.70	214.61
411.08	214.93
411.45	215.23
411.82	215.46
412.20	215.90
412.57	216.48
412.95	216.56
413.32	216.99
413.69	217.43
414.07	217.77
414.44	218.19
414.82	218.69
415.19	219.25
415.56	219.73
415.94	220.00
416.31	220.74
416.68	221.39
417.06	222.15
417.43	222.95
417.81	223.79
418.18	224.57
418.55	225.45
418.93	226.42
419.30	227.36
419.67	228.43
420.04	229.35
420.42	230.32
420.79	231.85
421.16	233.17
421.54	234.65
421.91	236.15
422.28	237.56
422.66	239.00
423.03	240.60
423.40	242.15
423.77	243.83
424.15	245.36
424.52	247.08
424.89	248.90
425.26	250.63
425.64	252.30
426.01	254.13
426.38	256.08
426.75	258.11
427.13	260.13
427.50	262.23
427.87	264.54
428.24	266.80
428.61	268.70
428.99	271.09
429.36	273.42
429.73	275.86
430.10	278.41
430.47	281.12
430.85	283.58
431.22	286.35
431.59	289.59
431.96	292.49
432.33	295.60
432.70	298.70
433.08	302.24
433.45	305.73
433.82	309.24
434.19	313.02
434.56	316.72
434.93	320.15
435.30	323.70
435.68	327.57
436.05	331.34
436.42	335.24
436.79	338.80
437.16	342.65
437.53	346.64
437.90	350.58
438.27	354.43
438.64	358.46
439.01	362.29
439.38	365.42
439.75	368.63
440.13	372.50
440.50	375.96
440.87	378.70
441.24	381.53
441.61	384.66
441.98	387.01
442.35	389.52
442.72	392.33
443.09	395.11
443.46	396.63
443.83	397.82
444.20	398.77
444.57	400.10
444.94	400.70
445.31	401.41
445.68	402.40
446.05	402.58
446.42	402.21
446.79	401.77
447.16	401.24
447.53	400.96
447.90	399.34
448.27	397.87
448.64	395.90
449.01	394.40
449.37	391.81
449.74	389.31
450.11	386.67
450.48	383.34
450.85	379.89
451.22	377.08
451.59	374.38
451.96	371.80
452.33	368.27
452.70	365.02
453.07	361.27
453.43	357.06
453.80	353.43
454.17	349.89
454.54	346.47
454.91	342.82
455.28	339.24
455.65	335.91
456.02	333.13
456.38	330.45
456.75	327.02
457.12	324.20
457.49	321.31
457.86	318.32
458.23	316.16
458.59	313.57
458.96	310.92
459.33	308.51
459.70	306.14
460.07	304.24
460.43	302.06
460.80	299.99
461.17	298.38
461.54	296.52
461.91	294.77
462.27	292.97
462.64	291.49
463.01	289.84
463.38	288.33
463.74	286.17
464.11	284.68
464.48	283.49
464.85	282.11
465.21	281.22
465.58	280.20
465.95	278.76
466.32	277.79
466.68	276.77
467.05	275.69
467.42	274.66
467.78	273.50
468.15	272.58
468.52	271.92
468.88	270.79
469.25	269.94
469.62	269.36
469.98	268.64
470.35	267.96
470.72	267.23
471.08	266.43
471.45	265.90
471.82	265.32
472.18	264.68
472.55	264.25
472.92	263.57
473.28	263.04
473.65	262.55
474.02	261.99
474.38	261.69
474.75	261.39
475.11	261.05
475.48	260.85
475.85	260.62
476.21	260.34
476.58	260.21
476.94	260.09
477.31	259.88
477.67	259.73
478.04	259.67
478.41	259.70
478.77	260.00
479.14	259.90
479.50	259.93
479.87	260.01
480.23	260.14
480.60	260.27
480.96	260.48
481.33	260.95
481.69	261.20
482.06	261.40
482.42	261.68
482.79	261.96
483.15	262.34
483.52	262.85
483.88	263.30
484.25	263.72
484.61	264.13
484.98	264.62
485.34	265.43
485.71	266.20
486.07	267.00
486.44	267.57
486.80	268.47
487.17	269.29
487.53	270.35
487.90	271.40
488.26	272.63
488.62	273.79
488.99	274.80
489.35	276.00
489.72	277.38
490.08	278.83
490.44	280.33
490.81	281.92
491.17	283.45
491.54	285.20
491.90	287.03
492.26	289.08
492.63	291.16
492.99	293.11
493.36	295.23
493.72	297.51
494.08	299.79
494.45	302.36
494.81	305.14
495.17	307.80
495.54	310.57
495.90	313.43
496.26	316.42
496.63	319.64
496.99	323.02
497.35	326.44
497.72	330.05
498.08	333.75
498.44	337.56
498.80	341.65
499.17	345.85
499.53	350.19
499.89	354.69
500.26	359.17
500.62	363.88
500.98	368.94
501.34	373.96
501.71	379.28
502.07	384.53
502.43	389.94
502.79	395.58
503.16	401.43
503.52	407.41
503.88	413.62
504.24	420.06
504.60	426.62
504.97	433.30
505.33	440.13
505.69	447.49
506.05	454.80
506.41	462.11
506.78	469.62
507.14	477.24
507.50	485.06
507.86	493.29
508.22	501.63
508.59	509.87
508.95	518.47
509.31	527.33
509.67	536.21
510.03	545.32
510.39	554.55
510.75	564.05
511.12	573.57
511.48	583.45
511.84	593.25
512.20	603.20
512.56	613.66
512.92	624.02
513.28	634.44
513.64	644.87
514.00	655.60
514.37	666.42
514.73	677.57
515.09	688.68
515.45	699.76
515.81	710.95
516.17	722.25
516.53	733.41
516.89	744.71
517.25	756.36
517.61	767.98
517.97	779.71
518.33	791.55
518.69	803.36
519.05	815.09
519.41	827.20
519.77	839.32
520.13	851.12
520.49	863.09
520.85	874.98
521.21	887.28
521.57	899.58
521.93	911.50
522.29	923.74
522.65	936.04
523.01	948.25
523.37	960.05
523.73	972.21
524.09	984.65
524.45	996.87
524.81	1009.07
525.17	1021.61
525.53	1033.83
525.89	1045.95
526.25	1058.17
526.61	1070.01
526.97	1081.81
527.33	1093.88
527.68	1106.18
528.04	1117.87
528.40	1129.39
528.76	1140.98
529.12	1152.52
529.48	1164.75
529.84	1176.08
530.20	1187.24
530.56	1198.66
530.91	1210.69
531.27	1222.40
531.63	1233.66
531.99	1245.07
532.35	1256.09
532.71	1266.67
533.07	1277.97
533.42	1288.65
533.78	1299.50
534.14	1310.07
534.50	1320.03
534.86	1329.95
535.21	1339.50
535.57	1349.90
535.93	1359.49
536.29	1368.94
536.65	1378.62
537.00	1387.36
537.36	1396.33
537.72	1405.31
538.08	1413.98
538.44	1422.58
538.79	1430.99
539.15	1439.38
539.51	1447.46
539.87	1455.87
540.22	1463.72
540.58	1471.75
540.94	1479.42
541.29	1486.69
541.65	1493.61
542.01	1500.97
542.37	1508.13
542.72	1514.95
543.08	1520.95
543.44	1528.15
543.79	1534.34
544.15	1539.89
544.51	1546.21
544.87	1552.36
545.22	1557.87
545.58	1562.98
545.94	1567.52
546.29	1571.70
546.65	1575.86
547.01	1580.02
547.36	1583.82
547.72	1588.06
548.07	1590.97
548.43	1594.21
548.79	1597.03
549.14	1600.29
549.50	1603.25
549.86	1605.21
550.21	1607.44
550.57	1610.31
550.92	1611.80
551.28	1613.71
551.64	1615.71
551.99	1617.17
552.35	1618.45
552.70	1619.85
553.06	1621.35
553.41	1622.82
553.77	1624.40
554.13	1625.48
554.48	1626.67
554.84	1627.83
555.19	1628.13
555.55	1628.60
555.90	1628.47
556.26	1628.60
556.61	1628.28
556.97	1627.72
557.32	1627.92
557.68	1627.27
558.03	1626.38
558.39	1626.03
558.74	1626.00
559.10	1625.82
559.45	1625.26
559.81	1624.63
560.16	1623.52
560.52	1623.06
560.87	1622.13
561.23	1620.53
561.58	1619.98
561.94	1618.51
562.29	1616.67
562.64	1615.09
563.00	1613.86
563.35	1613.11
563.71	1612.50
564.06	1611.45
564.42	1610.40
564.77	1609.51
565.12	1608.82
565.48	1607.58
565.83	1606.37
566.19	1604.84
566.54	1602.42
566.89	1600.49
567.25	1598.85
567.60	1597.48
567.96	1595.10
568.31	1593.20
568.66	1591.27
569.02	1588.41
569.37	1585.48
569.72	1583.08
570.08	1580.84
570.43	1577.67
570.78	1574.56
571.14	1570.79
571.49	1567.48
571.84	1564.95
572.20	1561.19
572.55	1557.82
572.90	1553.93
573.26	1550.01
573.61	1546.11
573.96	1542.54
574.31	1538.25
574.67	1533.75
575.02	1529.07
575.37	1524.77
575.72	1519.74
576.08	1515.85
576.43	1511.39
576.78	1507.32
577.13	1503.31
577.49	1498.98
577.84	1495.01
578.19	1490.92
578.54	1487.43
578.90	1483.82
579.25	1479.00
579.60	1474.16
579.95	1469.17
580.30	1465.18
580.66	1460.95
581.01	1456.24
581.36	1451.48
581.71	1446.91
582.06	1442.59
582.42	1438.24
582.77	1433.67
583.12	1429.60
583.47	1425.06
583.82	1420.90
584.17	1416.45
584.53	1412.14
584.88	1407.85
585.23	1403.36
585.58	1398.90
585.93	1394.01
586.28	1389.63
586.63	1385.33
586.98	1381.35
587.34	1377.74
587.69	1373.28
588.04	1368.96
588.39	1365.04
588.74	1360.95
589.09	1357.23
589.44	1352.91
589.79	1348.95
590.14	1344.82
590.49	1340.41
590.84	1335.87
591.19	1331.90
591.54	1327.83
591.89	1322.65
592.25	1318.10
592.60	1313.55
592.95	1308.71
593.30	1303.63
593.65	1298.60
594.00	1293.80
594.35	1290.22
594.70	1285.28
595.05	1281.13
595.40	1276.71
595.75	1271.55
596.10	1267.27
596.45	1262.96
596.80	1258.76
597.15	1254.54
597.50	1250.17
597.85	1246.07
598.19	1241.71
598.54	1237.36
598.89	1233.19
599.24	1229.87
599.59	1226.02
599.94	1222.71
600.29	1219.24
600.64	1215.71
600.99	1211.67
601.34	1208.02
601.69	1203.17
602.04	1199.05
602.39	1194.70
602.74	1190.70
603.08	1187.57
603.43	1184.19
603.78	1180.08
604.13	1176.12
604.48	1172.18
604.83	1168.79
605.18	1165.54
605.53	1161.85
605.87	1157.65
606.22	1153.92
606.57	1149.74
606.92	1145.56
607.27	1140.97
607.62	1136.52
607.96	1132.86
608.31	1129.24
608.66	1124.90
609.01	1120.56
609.36	1116.50
609.70	1112.18
610.05	1107.61
610.40	1102.98
610.75	1098.04
611.10	1093.95
611.44	1088.77
611.79	1083.98
612.14	1078.69
612.49	1073.05
612.83	1068.02
613.18	1063.01
613.53	1057.99
613.88	1052.60
614.22	1047.68
614.57	1042.67
614.92	1037.83
615.27	1032.57
615.61	1027.53
615.96	1022.58
616.31	1018.09
616.65	1013.75
617.00	1009.19
617.35	1004.46
617.70	999.40
618.04	994.26
618.39	988.76
618.74	984.41
619.08	979.29
619.43	974.77
619.78	970.39
620.12	965.60
620.47	961.17
620.82	955.93
621.16	951.04
621.51	946.27
621.85	941.60
622.20	936.60
622.55	931.73
622.89	926.74
623.24	922.24
623.59	917.41
623.93	912.25
624.28	907.45
624.62	903.12
624.97	898.76
625.32	894.36
625.66	890.11
626.01	885.51
626.35	881.20
626.70	876.58
627.04	872.20
627.39	867.96
627.73	863.59
628.08	859.81
628.43	855.41
628.77	850.79
629.12	846.27
629.46	842.50
629.81	838.42
630.15	834.26
630.50	829.80
630.84	825.50
631.19	821.37
631.53	817.31
631.88	812.53
632.22	807.99
632.57	804.15
632.91	799.70
633.26	795.61
633.60	791.62
633.95	787.55
634.29	783.22
634.64	779.35
634.98	775.02
635.32	770.86
635.67	767.34
636.01	763.73
636.36	759.75
636.70	755.74
637.05	751.71
637.39	747.84
637.73	744.05
638.08	740.40
638.42	736.87
638.77	733.21
639.11	729.63
639.45	725.86
639.80	721.75
640.14	718.05
640.49	714.07
640.83	710.25
641.17	706.45
641.52	702.65
641.86	698.49
642.20	694.86
642.55	690.91
642.89	686.96
643.23	682.97
643.58	679.51
643.92	675.41
644.26	671.60
644.61	667.98
644.95	664.23
645.29	660.28
645.64	656.40
645.98	652.40
646.32	648.79
646.66	644.92
647.01	641.30
647.35	637.76
647.69	634.16
648.04	630.66
648.38	626.95
648.72	623.40
649.06	619.81
649.41	616.13
649.75	612.45
650.09	608.99
650.43	605.45
650.78	601.62
651.12	598.06
651.46	594.47
651.80	590.89
652.14	587.33
652.49	584.02
652.83	580.34
653.17	576.75
653.51	573.18
653.85	570.00
654.20	566.51
654.54	562.85
654.88	559.30
655.22	555.81
655.56	552.37
655.90	548.95
656.25	545.69
656.59	542.33
656.93	539.12
657.27	535.91
657.61	532.47
657.95	529.31
658.29	526.19
658.64	523.24
658.98	519.96
659.32	516.69
659.66	513.53
660.00	510.46
660.34	507.33
660.68	504.07
661.02	501.00
661.36	498.04
661.70	495.22
662.05	492.54
662.39	489.89
662.73	487.26
663.07	484.68
663.41	481.90
663.75	479.20
664.09	476.38
664.43	473.38
664.77	470.74
665.11	468.10
665.45	465.51
665.79	462.83
666.13	460.33
666.47	457.95
666.81	455.33
667.15	452.64
667.49	450.38
667.83	448.32
668.17	445.95
668.51	443.66
668.85	441.40
669.19	439.20
669.53	436.65
669.87	434.20
670.21	431.80
670.55	429.60
670.89	427.60
671.23	425.59
671.57	423.67
671.91	421.62
672.25	419.45
672.58	417.45
672.92	415.39
673.26	413.38
673.60	411.32
673.94	409.27
674.28	407.40
674.62	405.44
674.96	403.31
675.30	401.50
675.64	399.47
675.97	397.50
676.31	395.54
676.65	393.83
676.99	392.38
677.33	390.55
677.67	388.81
678.01	386.85
678.34	385.10
678.68	383.38
679.02	381.68
679.36	379.98
679.70	378.24
680.04	376.49
680.37	374.77
680.71	373.11
681.05	371.60
681.39	370.05
681.73	368.36
682.06	366.80
682.40	365.22
682.74	363.71
683.08	362.34
683.42	360.69
683.75	359.01
684.09	357.24
684.43	355.64
684.77	354.06
685.10	352.55
685.44	350.93
685.78	349.28
686.12	347.82
686.45	346.32
686.79	344.82
687.13	343.55
687.46	342.21
687.80	340.80
688.14	339.29
688.48	338.03
688.81	336.72
689.15	335.36
689.49	333.93
689.82	332.62
690.16	331.04
690.50	329.71
690.83	328.37
691.17	326.91
691.51	325.60
691.84	324.31
692.18	323.00
692.52	321.82
692.85	320.62
693.19	319.50
693.52	318.32
693.86	317.07
694.20	315.82
694.53	314.54
694.87	313.35
695.21	312.12
695.54	310.82
695.88	309.53
696.21	308.28
696.55	307.11
696.88	305.94
697.22	304.86
697.56	303.86
697.89	302.82
698.23	301.88
698.56	300.78
698.90	299.76
699.23	298.72
699.57	297.65
699.90	296.69
700.24	295.55
700.58	294.49
700.91	293.62
701.25	292.84
701.58	292.01
701.92	291.12
702.25	290.26
702.59	289.28
702.92	288.39
703.26	287.51
703.59	286.67
703.93	286.15
704.26	285.35
704.60	284.47
704.93	283.54
705.26	282.61
705.60	281.88
705.93	281.02
706.27	280.31
706.60	279.65
706.94	278.99
707.27	278.20
707.61	277.47
707.94	276.57
708.27	275.62
708.61	274.77
708.94	274.08
709.28	273.37
709.61	272.70
709.94	272.09
710.28	271.43
710.61	270.75
710.95	269.70
711.28	269.24
711.61	268.55
711.95	268.06
712.28	267.50
712.61	266.91
712.95	266.47
713.28	266.00
713.61	265.35
713.95	264.67
714.28	264.10
714.61	263.46
714.95	262.90
715.28	262.33
715.61	261.72
715.95	261.22
716.28	260.64
716.61	260.11
716.95	259.50
717.28	258.97
717.61	258.42
717.94	257.93
718.28	257.14
718.61	256.66
718.94	256.00
719.27	255.43
719.61	254.91
719.94	254.32
720.27	253.61
720.60	253.10
720.94	252.53
721.27	252.06
721.60	251.68
721.93	251.29
722.27	250.94
722.60	250.61
722.93	250.07
723.26	249.71
723.59	249.26
723.93	248.86
724.26	248.49
724.59	248.05
724.92	247.63
725.25	247.43
725.59	247.04
725.92	246.80
726.25	246.43
726.58	246.07
726.91	245.73
727.24	245.52
727.57	245.15
727.91	244.82
728.24	244.50
728.57	244.13
728.90	243.85
729.23	243.40
729.56	243.14
729.89	242.83
730.22	242.44
730.55	241.99
730.89	241.69
731.22	241.28
731.55	240.97
731.88	240.71
732.21	240.23
732.54	239.79
732.87	239.35
733.20	239.07
733.53	238.75
733.86	238.46
734.19	238.07
734.52	237.79
734.85	237.71
735.18	237.40
735.51	237.26
735.84	236.94
736.17	236.67
736.50	236.29
736.83	236.42
737.16	236.08
737.49	235.89
737.82	235.55
738.15	235.36
738.48	235.14
738.81	234.83
739.14	234.59
739.47	234.44
739.80	234.20
740.13	233.99
740.46	233.68
740.79	233.39
741.12	233.12
741.45	232.81
741.78	232.38
742.11	232.19
742.44	231.90
742.77	231.72
743.10	231.53
743.43	231.24
743.75	230.65
744.08	231.07
744.41	230.85
744.74	230.63
745.07	230.35
745.40	230.13
745.73	230.07
746.06	229.91
746.39	229.71
746.71	229.48
747.04	229.22
747.37	229.08
747.70	228.92
748.03	228.74
748.36	228.70
748.68	228.55
749.01	228.34
749.34	228.18
749.67	228.02
750.00	227.88
750.33	228.04
750.65	227.84
750.98	227.09
751.31	226.97
751.64	226.85
751.97	226.91
752.29	226.75
752.62	226.45
752.95	226.24
753.28	226.02
753.60	225.92
753.93	225.85
754.26	225.73
754.59	225.51
754.91	225.32
755.24	225.13
755.57	224.94
755.90	224.81
756.22	224.63
756.55	224.44
756.88	224.23
757.20	223.81
757.53	223.57
757.86	223.44
758.19	223.28
758.51	223.21
758.84	222.92
759.17	222.75
759.49	222.68
759.82	222.69
760.15	222.63
760.47	222.47
760.80	222.22
761.13	222.14
761.45	222.01
761.78	221.93
762.11	221.74
762.43	221.69
762.76	221.51
763.08	221.45
763.41	221.33
763.74	221.17
764.06	221.11
764.39	221.07
764.71	220.97
765.04	220.90
765.37	220.74
765.69	220.61
766.02	220.56
766.34	220.45
766.67	220.22
767.00	220.18
767.32	220.30
767.65	220.48
767.97	220.30
768.30	220.23
768.62	220.13
768.95	220.05
769.27	219.96
769.60	219.85
769.92	219.69
770.25	219.55
770.57	219.45
770.90	219.32
771.22	219.24
771.55	219.19
771.87	219.06
772.20	218.90
772.52	219.15
772.85	219.45
773.17	219.32
773.50	219.20
773.82	219.10
774.15	218.85
774.47	218.52
774.80	218.40
775.12	218.29
775.45	218.21
775.77	218.19
776.09	218.11
776.42	218.10
776.74	218.15
777.07	218.05
777.39	217.97
777.72	217.94
778.04	217.91
778.36	217.78
778.69	217.71
779.01	217.77
779.33	217.34
779.66	216.90
779.98	216.82
780.31	216.87
780.63	216.97
780.95	216.97
781.28	216.89
781.60	216.85
781.92	216.81
782.25	216.68
782.57	216.60
782.89	216.50
783.22	216.47
783.54	216.31
783.86	216.30
784.19	216.21
784.51	216.20
784.83	216.04
785.16	215.91
785.48	215.86
785.80	215.76
786.12	215.71
786.45	215.59
786.77	215.57
787.09	215.47
787.42	215.23
787.74	215.15
788.06	215.17
788.38	215.14
788.71	215.06
