SpectraSuite Data File
++++++++++++++++++++++++++++++++++++
Date: Mon Feb 25 17:01:01 EST 2013
User: group
Dark Spectrum Present: No
Reference Spectrum Present: No
Number of Sampled Component Spectra: 1
Spectrometers: USB2E7196
Integration Time (usec): 104000 (USB2E7196)
Spectra Averaged: 20 (USB2E7196)
Boxcar Smoothing: 10 (USB2E7196)
Correct for Electrical Dark: No (USB2E7196)
Strobe/Lamp Enabled: No (USB2E7196)
Correct for Detector Non-linearity: No (USB2E7196)
Correct for Stray Light: No (USB2E7196)
Number of Pixels in Processed Spectrum: 2048
>>>>>Begin Processed Spectral Data<<<<<
339.09	0.00
339.48	198.30
339.86	200.40
340.24	201.30
340.63	202.40
341.01	210.30
341.39	205.15
341.78	207.95
342.16	209.25
342.54	209.10
342.93	198.49
343.31	208.53
343.69	209.12
344.07	209.56
344.46	209.99
344.84	210.38
345.22	210.41
345.60	210.67
345.99	210.80
346.37	210.90
346.75	210.97
347.13	210.98
347.52	211.00
347.90	211.10
348.28	211.09
348.66	211.13
349.05	210.96
349.43	210.99
349.81	211.01
350.19	211.08
350.57	211.15
350.96	211.19
351.34	211.24
351.72	211.23
352.10	211.30
352.48	211.33
352.87	211.30
353.25	211.31
353.63	211.30
354.01	211.35
354.39	211.43
354.77	211.53
355.15	211.65
355.54	211.72
355.92	211.71
356.30	211.79
356.68	212.06
357.06	212.26
357.44	212.21
357.82	212.35
358.20	212.33
358.58	212.41
358.97	212.45
359.35	212.56
359.73	212.70
360.11	212.72
360.49	212.77
360.87	212.84
361.25	212.92
361.63	213.19
362.01	213.21
362.39	213.21
362.77	213.22
363.15	213.19
363.53	213.15
363.91	213.14
364.29	213.18
364.67	212.93
365.05	212.86
365.43	212.94
365.81	212.95
366.19	213.11
366.57	213.23
366.95	213.29
367.33	213.24
367.71	213.24
368.09	213.44
368.47	213.47
368.85	213.48
369.23	213.56
369.61	213.39
369.99	213.50
370.37	213.48
370.75	213.65
371.13	213.60
371.51	213.56
371.89	213.56
372.27	213.51
372.65	213.40
373.03	213.39
373.41	213.32
373.78	213.20
374.16	212.98
374.54	212.81
374.92	212.70
375.30	212.68
375.68	212.60
376.06	212.51
376.44	212.41
376.82	212.43
377.19	212.33
377.57	212.32
377.95	212.25
378.33	212.20
378.71	211.94
379.09	211.94
379.47	211.91
379.84	211.89
380.22	211.84
380.60	211.73
380.98	211.67
381.36	211.64
381.73	211.58
382.11	211.66
382.49	211.67
382.87	211.60
383.25	211.48
383.62	211.81
384.00	211.66
384.38	211.65
384.76	211.65
385.13	211.80
385.51	211.71
385.89	211.55
386.27	211.54
386.64	211.54
387.02	211.53
387.40	211.47
387.78	211.41
388.15	211.43
388.53	211.48
388.91	211.38
389.29	211.31
389.66	211.35
390.04	211.24
390.42	211.22
390.79	211.20
391.17	211.16
391.55	210.71
391.92	210.68
392.30	210.71
392.68	210.61
393.05	210.56
393.43	210.59
393.81	210.58
394.18	210.52
394.56	210.53
394.94	210.57
395.31	210.61
395.69	210.73
396.06	210.72
396.44	210.72
396.82	210.81
397.19	211.02
397.57	210.93
397.95	211.06
398.32	211.01
398.70	211.11
399.07	211.24
399.45	211.24
399.82	211.30
400.20	211.35
400.58	211.36
400.95	211.22
401.33	211.34
401.70	211.59
402.08	211.69
402.45	211.77
402.83	211.87
403.20	211.89
403.58	211.93
403.95	212.13
404.33	212.31
404.71	212.40
405.08	212.70
405.46	212.91
405.83	213.10
406.21	213.31
406.58	213.50
406.96	213.68
407.33	214.00
407.70	214.27
408.08	214.80
408.45	215.20
408.83	215.58
409.20	215.84
409.58	216.12
409.95	216.51
410.33	216.92
410.70	217.31
411.08	217.83
411.45	218.30
411.82	218.81
412.20	219.50
412.57	220.38
412.95	220.67
413.32	221.50
413.69	222.18
414.07	222.99
414.44	223.93
414.82	224.94
415.19	226.07
415.56	227.24
415.94	228.23
416.31	229.54
416.68	230.92
417.06	232.44
417.43	233.89
417.81	235.60
418.18	237.25
418.55	239.07
418.93	241.08
419.30	243.10
419.67	245.22
420.04	247.32
420.42	249.53
420.79	252.49
421.16	255.13
421.54	258.01
421.91	260.91
422.28	263.88
422.66	267.07
423.03	270.40
423.40	273.65
423.77	277.12
424.15	280.62
424.52	284.41
424.89	288.52
425.26	292.54
425.64	296.37
426.01	300.66
426.38	305.00
426.75	309.44
427.13	313.98
427.50	318.79
427.87	323.80
428.24	328.89
428.61	333.71
428.99	339.03
429.36	344.78
429.73	350.45
430.10	356.17
430.47	361.98
430.85	367.73
431.22	374.15
431.59	381.20
431.96	387.84
432.33	395.10
432.70	402.10
433.08	410.28
433.45	418.01
433.82	425.70
434.19	434.37
434.56	442.88
434.93	451.19
435.30	459.40
435.68	468.64
436.05	477.67
436.42	486.59
436.79	495.00
437.16	504.01
437.53	513.49
437.90	522.91
438.27	532.21
438.64	542.10
439.01	551.09
439.38	559.00
439.75	566.75
440.13	575.45
440.50	583.93
440.87	590.99
441.24	598.27
441.61	606.39
441.98	612.52
442.35	619.48
442.72	626.70
443.09	633.65
443.46	638.10
443.83	641.28
444.20	644.12
444.57	648.05
444.94	650.26
445.31	652.57
445.68	654.90
446.05	656.25
446.42	655.82
446.79	655.55
447.16	655.01
447.53	655.02
447.90	652.38
448.27	649.58
448.64	645.35
449.01	642.70
449.37	637.05
449.74	631.74
450.11	625.57
450.48	618.19
450.85	610.70
451.22	604.29
451.59	598.32
451.96	592.59
452.33	584.53
452.70	577.32
453.07	568.69
453.43	559.81
453.80	551.39
454.17	543.40
454.54	535.66
454.91	527.35
455.28	519.15
455.65	511.66
456.02	504.42
456.38	497.96
456.75	489.79
457.12	483.16
457.49	476.41
457.86	469.58
458.23	464.08
458.59	458.09
458.96	451.92
459.33	446.25
459.70	440.65
460.07	436.37
460.43	431.40
460.80	426.65
461.17	422.48
461.54	418.11
461.91	414.04
462.27	409.78
462.64	406.22
463.01	402.27
463.38	398.49
463.74	394.35
464.11	391.04
464.48	387.99
464.85	384.67
465.21	382.26
465.58	379.76
465.95	376.50
466.32	373.86
466.68	371.25
467.05	368.69
467.42	366.25
467.78	363.46
468.15	360.88
468.52	358.95
468.88	356.39
469.25	354.01
469.62	352.13
469.98	350.15
470.35	348.24
470.72	346.43
471.08	344.40
471.45	342.81
471.82	341.13
472.18	339.37
472.55	338.20
472.92	336.60
473.28	335.10
473.65	333.80
474.02	332.46
474.38	331.36
474.75	330.49
475.11	329.30
475.48	328.53
475.85	327.76
476.21	326.92
476.58	326.31
476.94	325.97
477.31	325.30
477.67	324.76
478.04	324.30
478.41	324.03
478.77	324.04
479.14	323.67
479.50	323.54
479.87	323.48
480.23	323.33
480.60	323.16
480.96	323.06
481.33	323.28
481.69	323.42
482.06	323.48
482.42	323.51
482.79	323.68
483.15	323.86
483.52	324.29
483.88	324.60
484.25	324.90
484.61	325.14
484.98	325.55
485.34	326.15
485.71	326.84
486.07	327.38
486.44	327.72
486.80	328.55
487.17	329.28
487.53	330.28
487.90	331.36
488.26	332.50
488.62	333.70
488.99	334.71
489.35	335.86
489.72	337.12
490.08	338.47
490.44	339.80
490.81	341.20
491.17	342.48
491.54	344.09
491.90	345.78
492.26	347.52
492.63	349.18
492.99	350.94
493.36	352.76
493.72	354.72
494.08	356.70
494.45	358.65
494.81	360.75
495.17	362.80
495.54	364.84
495.90	366.93
496.26	369.05
496.63	371.31
496.99	373.52
497.35	375.83
497.72	378.22
498.08	380.62
498.44	383.09
498.80	385.73
499.17	388.19
499.53	390.53
499.89	393.06
500.26	395.60
500.62	398.03
500.98	400.51
501.34	402.98
501.71	405.48
502.07	407.93
502.43	410.24
502.79	412.43
503.16	414.77
503.52	417.12
503.88	419.40
504.24	421.68
504.60	423.89
504.97	426.19
505.33	428.30
505.69	430.74
506.05	432.87
506.41	434.87
506.78	436.79
507.14	438.74
507.50	440.58
507.86	442.53
508.22	444.41
508.59	446.00
508.95	447.61
509.31	449.27
509.67	450.72
510.03	452.34
510.39	453.92
510.75	455.31
511.12	456.69
511.48	457.96
511.84	459.25
512.20	460.45
512.56	461.54
512.92	462.62
513.28	463.42
513.64	464.30
514.00	465.14
514.37	465.82
514.73	466.63
515.09	467.41
515.45	467.95
515.81	468.36
516.17	468.87
516.53	469.35
516.89	469.83
517.25	470.31
517.61	470.61
517.97	470.74
518.33	471.04
518.69	471.20
519.05	471.40
519.41	471.45
519.77	471.78
520.13	471.86
520.49	471.93
520.85	471.95
521.21	472.14
521.57	472.22
521.93	472.26
522.29	472.33
522.65	472.24
523.01	472.26
523.37	472.24
523.73	472.40
524.09	472.42
524.45	472.41
524.81	472.52
525.17	472.70
525.53	472.98
525.89	473.12
526.25	473.37
526.61	473.43
526.97	473.64
527.33	473.86
527.68	474.52
528.04	474.93
528.40	475.21
528.76	475.64
529.12	476.18
529.48	476.95
529.84	477.61
530.20	478.37
530.56	479.29
530.91	480.41
531.27	481.30
531.63	482.23
531.99	483.12
532.35	484.04
532.71	485.09
533.07	486.25
533.42	487.65
533.78	488.83
534.14	490.23
534.50	491.52
534.86	492.93
535.21	493.90
535.57	495.26
535.93	496.73
536.29	498.35
536.65	499.87
537.00	501.25
537.36	502.79
537.72	504.34
538.08	505.84
538.44	507.34
538.79	509.13
539.15	511.02
539.51	513.01
539.87	514.95
540.22	516.96
540.58	519.01
540.94	520.92
541.29	522.96
541.65	524.92
542.01	527.16
542.37	529.48
542.72	531.70
543.08	533.94
543.44	536.49
543.79	538.61
544.15	541.06
544.51	543.89
544.87	546.55
545.22	549.09
545.58	551.60
545.94	554.23
546.29	556.75
546.65	559.33
547.01	561.70
547.36	564.43
547.72	566.98
548.07	569.70
548.43	572.20
548.79	574.78
549.14	577.60
549.50	580.19
549.86	582.60
550.21	585.35
550.57	588.25
550.92	590.80
551.28	593.41
551.64	596.03
551.99	598.45
552.35	600.94
552.70	603.60
553.06	606.37
553.41	608.90
553.77	611.76
554.13	614.45
554.48	617.38
554.84	620.04
555.19	622.67
555.55	625.29
555.90	627.66
556.26	630.23
556.61	632.60
556.97	635.03
557.32	637.45
557.68	639.76
558.03	641.93
558.39	644.17
558.74	646.65
559.10	648.78
559.45	651.26
559.81	653.52
560.16	655.73
560.52	657.83
560.87	660.20
561.23	662.11
561.58	664.38
561.94	666.23
562.29	668.08
562.64	670.24
563.00	672.22
563.35	674.57
563.71	676.86
564.06	679.09
564.42	681.34
564.77	683.63
565.12	686.02
565.48	688.63
565.83	691.06
566.19	693.13
566.54	695.14
566.89	696.93
567.25	699.14
567.60	701.34
567.96	703.73
568.31	705.79
568.66	707.80
569.02	709.25
569.37	710.86
569.72	712.79
570.08	714.32
570.43	715.75
570.78	717.01
571.14	718.08
571.49	719.19
571.84	720.34
572.20	721.17
572.55	722.04
572.90	722.54
573.26	722.90
573.61	723.33
573.96	724.05
574.31	724.68
574.67	724.88
575.02	724.89
575.37	724.74
575.72	724.48
576.08	724.43
576.43	724.45
576.78	724.66
577.13	724.60
577.49	724.48
577.84	724.46
578.19	724.58
578.54	725.00
578.90	725.29
579.25	725.29
579.60	725.10
579.95	724.85
580.30	724.81
580.66	724.78
581.01	724.69
581.36	724.51
581.71	724.11
582.06	724.07
582.42	723.96
582.77	723.62
583.12	723.42
583.47	723.35
583.82	723.22
584.17	722.92
584.53	722.67
584.88	722.44
585.23	722.16
585.58	721.60
585.93	720.70
586.28	720.10
586.63	719.57
586.98	719.25
587.34	718.97
587.69	718.15
588.04	717.57
588.39	717.20
588.74	716.47
589.09	715.85
589.44	714.90
589.79	714.27
590.14	713.61
590.49	712.88
590.84	711.81
591.19	711.05
591.54	710.19
591.89	708.91
592.25	708.14
592.60	706.84
592.95	705.70
593.30	704.65
593.65	703.32
594.00	702.04
594.35	701.71
594.70	700.20
595.05	699.15
595.40	697.80
595.75	696.14
596.10	694.92
596.45	693.83
596.80	692.71
597.15	691.45
597.50	689.99
597.85	688.95
598.19	687.74
598.54	686.42
598.89	685.07
599.24	684.08
599.59	682.55
599.94	681.49
600.29	680.28
600.64	679.01
600.99	677.73
601.34	676.47
601.69	674.31
602.04	672.85
602.39	671.50
602.74	670.38
603.08	669.37
603.43	668.29
603.78	666.81
604.13	665.30
604.48	663.76
604.83	662.70
605.18	661.30
605.53	659.88
605.87	658.42
606.22	657.10
606.57	655.60
606.92	654.13
607.27	652.57
607.62	651.25
607.96	650.00
608.31	648.73
608.66	647.24
609.01	645.55
609.36	644.20
609.70	642.32
610.05	640.64
610.40	638.93
610.75	637.04
611.10	635.62
611.44	633.82
611.79	632.12
612.14	630.29
612.49	628.15
612.83	626.46
613.18	624.49
613.53	622.61
613.88	620.58
614.22	618.66
614.57	616.85
614.92	614.83
615.27	612.73
615.61	610.68
615.96	608.72
616.31	606.98
616.65	605.09
617.00	603.31
617.35	601.36
617.70	599.37
618.04	597.30
618.39	594.91
618.74	593.08
619.08	590.98
619.43	588.91
619.78	587.05
620.12	585.01
620.47	583.10
620.82	580.95
621.16	578.77
621.51	576.95
621.85	574.96
622.20	572.91
622.55	570.70
622.89	568.59
623.24	566.56
623.59	564.49
623.93	562.52
624.28	560.61
624.62	558.98
624.97	557.10
625.32	555.24
625.66	553.33
626.01	551.28
626.35	549.45
626.70	547.45
627.04	545.75
627.39	543.90
627.73	541.99
628.08	540.25
628.43	538.44
628.77	536.32
629.12	534.28
629.46	532.42
629.81	530.71
630.15	528.85
630.50	526.85
630.84	524.70
631.19	522.75
631.53	520.75
631.88	518.50
632.22	516.44
632.57	514.66
632.91	512.84
633.26	511.12
633.60	509.23
633.95	507.47
634.29	505.36
634.64	503.48
634.98	501.43
635.32	499.74
635.67	498.17
636.01	496.38
636.36	494.52
636.70	492.85
637.05	491.02
637.39	489.18
637.73	487.55
638.08	486.23
638.42	484.55
638.77	482.93
639.11	481.08
639.45	479.32
639.80	477.30
640.14	475.40
640.49	473.51
640.83	471.66
641.17	469.88
641.52	468.17
641.86	466.37
642.20	464.84
642.55	462.69
642.89	460.71
643.23	459.00
643.58	457.52
643.92	455.68
644.26	453.87
644.61	452.28
644.95	450.45
645.29	448.43
645.64	446.70
645.98	444.98
646.32	443.39
646.66	441.65
647.01	440.04
647.35	438.55
647.69	436.85
648.04	435.21
648.38	433.47
648.72	431.65
649.06	429.87
649.41	428.09
649.75	426.44
650.09	424.83
650.43	423.08
650.78	421.13
651.12	419.31
651.46	417.63
651.80	415.83
652.14	414.13
652.49	412.57
652.83	410.76
653.17	408.90
653.51	407.12
653.85	405.50
654.20	403.91
654.54	402.21
654.88	400.50
655.22	398.97
655.56	397.33
655.90	395.70
656.25	394.11
656.59	392.43
656.93	390.99
657.27	389.46
657.61	387.74
657.95	386.25
658.29	384.70
658.64	383.32
658.98	381.73
659.32	380.17
659.66	378.61
660.00	377.14
660.34	375.60
660.68	373.89
661.02	372.36
661.36	370.80
661.70	369.30
662.05	367.96
662.39	366.57
662.73	365.34
663.07	364.15
663.41	362.83
663.75	361.50
664.09	360.06
664.43	358.59
664.77	357.40
665.11	356.05
665.45	354.76
665.79	353.39
666.13	352.22
666.47	350.89
666.81	349.62
667.15	348.18
667.49	347.10
667.83	346.16
668.17	344.98
668.51	343.92
668.85	342.86
669.19	341.76
669.53	340.43
669.87	339.12
670.21	337.85
670.55	336.69
670.89	335.80
671.23	334.76
671.57	333.74
671.91	332.63
672.25	331.55
672.58	330.65
672.92	329.66
673.26	328.53
673.60	327.58
673.94	326.44
674.28	325.55
674.62	324.57
674.96	323.47
675.30	322.52
675.64	321.46
675.97	320.40
676.31	319.32
676.65	318.48
676.99	317.64
677.33	316.64
677.67	315.67
678.01	314.60
678.34	313.71
678.68	312.84
679.02	311.87
679.36	310.92
679.70	309.89
680.04	308.87
680.37	308.00
680.71	307.16
681.05	306.51
681.39	305.66
681.73	304.83
682.06	304.01
682.40	303.19
682.74	302.38
683.08	301.63
683.42	300.77
683.75	299.90
684.09	298.98
684.43	298.22
684.77	297.32
685.10	296.44
685.44	295.53
685.78	294.66
686.12	293.91
686.45	293.13
686.79	292.24
687.13	291.59
687.46	290.94
687.80	290.19
688.14	289.33
688.48	288.61
688.81	287.84
689.15	287.16
689.49	286.31
689.82	285.50
690.16	284.59
690.50	283.82
690.83	283.05
691.17	282.20
691.51	281.40
691.84	280.73
692.18	280.02
692.52	279.31
692.85	278.61
693.19	278.03
693.52	277.35
693.86	276.64
694.20	275.93
694.53	275.10
694.87	274.43
695.21	273.72
695.54	273.03
695.88	272.30
696.21	271.47
696.55	270.87
696.88	270.23
697.22	269.58
697.56	269.07
697.89	268.46
698.23	267.94
698.56	267.31
698.90	266.79
699.23	266.23
699.57	265.58
699.90	264.97
700.24	264.30
700.58	263.63
700.91	263.21
701.25	262.91
701.58	262.44
701.92	261.85
702.25	261.31
702.59	260.78
702.92	260.26
703.26	259.82
703.59	259.29
703.93	259.13
704.26	258.74
704.60	258.30
704.93	257.81
705.26	257.26
705.60	256.94
705.93	256.33
706.27	255.96
706.60	255.71
706.94	255.42
707.27	254.95
707.61	254.66
707.94	254.15
708.27	253.41
708.61	252.93
708.94	252.55
709.28	252.17
709.61	251.67
709.94	251.28
710.28	250.91
710.61	250.55
710.95	249.81
711.28	249.64
711.61	249.16
711.95	248.83
712.28	248.49
712.61	248.07
712.95	247.95
713.28	247.76
713.61	247.27
713.95	246.86
714.28	246.46
714.61	246.05
714.95	245.67
715.28	245.24
715.61	244.88
715.95	244.45
716.28	244.08
716.61	243.77
716.95	243.34
717.28	242.93
717.61	242.57
717.94	242.31
718.28	241.70
718.61	241.31
718.94	240.89
719.27	240.52
719.61	240.14
719.94	239.75
720.27	239.23
720.60	238.86
720.94	238.51
721.27	238.28
721.60	238.03
721.93	237.82
722.27	237.65
722.60	237.40
722.93	237.11
723.26	236.83
723.59	236.64
723.93	236.51
724.26	236.39
724.59	236.09
724.92	235.82
725.25	235.68
725.59	235.49
725.92	235.30
726.25	235.15
726.58	235.00
726.91	234.71
727.24	234.52
727.57	234.31
727.91	233.99
728.24	233.79
728.57	233.50
728.90	233.29
729.23	233.00
729.56	233.00
729.89	232.81
730.22	232.57
730.55	232.31
730.89	232.06
731.22	231.83
731.55	231.65
731.88	231.47
732.21	231.22
732.54	230.95
732.87	230.80
733.20	230.60
733.53	230.42
733.86	230.29
734.19	230.06
734.52	229.96
734.85	230.02
735.18	229.78
735.51	229.71
735.84	229.52
736.17	229.46
736.50	229.09
736.83	229.40
737.16	229.27
737.49	229.09
737.82	228.92
738.15	228.74
738.48	228.53
738.81	228.41
739.14	228.16
739.47	228.01
739.80	227.78
740.13	227.67
740.46	227.44
740.79	227.23
741.12	227.07
741.45	226.88
741.78	226.58
742.11	226.53
742.44	226.33
742.77	226.29
743.10	226.11
743.43	225.91
743.75	225.25
744.08	225.53
744.41	225.32
744.74	225.16
745.07	224.91
745.40	224.84
745.73	224.83
746.06	224.81
746.39	224.75
746.71	224.61
747.04	224.37
747.37	224.21
747.70	224.13
748.03	223.97
748.36	223.86
748.68	223.68
749.01	223.40
749.34	223.23
749.67	223.08
750.00	223.02
750.33	223.16
750.65	223.11
750.98	222.56
751.31	222.54
751.64	222.40
751.97	222.53
752.29	222.38
752.62	222.03
752.95	221.85
753.28	221.63
753.60	221.58
753.93	221.53
754.26	221.46
754.59	221.25
754.91	221.20
755.24	221.09
755.57	221.13
755.90	221.04
756.22	220.99
756.55	220.85
756.88	220.69
757.20	220.41
757.53	220.22
757.86	220.12
758.19	220.03
758.51	219.94
758.84	219.68
759.17	219.63
759.49	219.60
759.82	219.70
760.15	219.70
760.47	219.54
760.80	219.48
761.13	219.42
761.45	219.30
761.78	219.11
762.11	218.96
762.43	218.77
762.76	218.71
763.08	218.65
763.41	218.57
763.74	218.45
764.06	218.31
764.39	218.30
764.71	218.23
765.04	218.10
765.37	217.99
765.69	217.88
766.02	217.77
766.34	217.70
766.67	217.44
767.00	217.51
767.32	217.69
767.65	217.74
767.97	217.66
768.30	217.70
768.62	217.66
768.95	217.61
769.27	217.54
769.60	217.55
769.92	217.39
770.25	217.29
770.57	217.15
770.90	217.11
771.22	217.02
771.55	217.00
771.87	216.95
772.20	216.91
772.52	217.19
772.85	217.55
773.17	217.44
773.50	217.40
773.82	217.20
774.15	216.97
774.47	216.73
774.80	216.68
775.12	216.57
775.45	216.47
775.77	216.50
776.09	216.44
776.42	216.43
776.74	216.55
777.07	216.45
777.39	216.47
777.72	216.38
778.04	216.41
778.36	216.29
778.69	216.25
779.01	216.21
779.33	215.90
779.66	215.40
779.98	215.39
780.31	215.40
780.63	215.52
780.95	215.45
781.28	215.39
781.60	215.31
781.92	215.30
782.25	215.32
782.57	215.25
782.89	215.29
783.22	215.18
783.54	215.03
783.86	215.11
784.19	214.99
784.51	215.07
784.83	214.89
785.16	214.87
785.48	214.83
785.80	214.78
786.12	214.73
786.45	214.68
786.77	214.70
787.09	214.61
787.42	214.42
787.74	214.41
788.06	214.45
788.38	214.36
788.71	214.30
789.03	214.27
789.35	214.29
789.67	214.20
789.99	214.25
790.32	214.18
790.64	214.10
790.96	214.42
791.28	214.28
791.61	214.31
791.93	214.27
792.25	214.25
792.57	214.48
792.89	214.39
793.21	214.41
793.54	214.34
793.86	214.29
794.18	214.32
