SpectraSuite Data File
++++++++++++++++++++++++++++++++++++
Date: Mon Feb 25 17:20:15 EST 2013
User: group
Dark Spectrum Present: No
Reference Spectrum Present: No
Number of Sampled Component Spectra: 1
Spectrometers: USB2E7196
Integration Time (usec): 104000 (USB2E7196)
Spectra Averaged: 20 (USB2E7196)
Boxcar Smoothing: 10 (USB2E7196)
Correct for Electrical Dark: No (USB2E7196)
Strobe/Lamp Enabled: No (USB2E7196)
Correct for Detector Non-linearity: No (USB2E7196)
Correct for Stray Light: No (USB2E7196)
Number of Pixels in Processed Spectrum: 2048
>>>>>Begin Processed Spectral Data<<<<<
339.09	0.00
339.48	199.65
339.86	200.60
340.24	201.35
340.63	203.25
341.01	209.95
341.39	206.05
341.78	206.90
342.16	210.25
342.54	207.80
342.93	198.53
343.31	208.57
343.69	209.08
344.07	209.57
344.46	210.04
344.84	210.52
345.22	210.61
345.60	210.88
345.99	211.16
346.37	211.30
346.75	211.53
347.13	211.68
347.52	211.84
347.90	211.99
348.28	212.12
348.66	212.23
349.05	212.17
349.43	212.27
349.81	212.49
350.19	212.60
350.57	212.69
350.96	212.89
351.34	213.00
351.72	213.16
352.10	213.24
352.48	213.37
352.87	213.36
353.25	213.44
353.63	213.57
354.01	213.63
354.39	213.72
354.77	213.73
355.15	213.90
355.54	213.88
355.92	213.81
356.30	213.85
356.68	214.12
357.06	214.16
357.44	214.16
357.82	214.20
358.20	214.28
358.58	214.25
358.97	214.32
359.35	214.54
359.73	214.64
360.11	214.70
360.49	214.73
360.87	214.81
361.25	214.92
361.63	215.06
362.01	215.12
362.39	215.01
362.77	215.12
363.15	215.11
363.53	215.21
363.91	215.26
364.29	215.31
364.67	215.03
365.05	215.04
365.43	215.08
365.81	215.06
366.19	215.19
366.57	215.44
366.95	215.44
367.33	215.29
367.71	215.23
368.09	215.30
368.47	215.24
368.85	215.23
369.23	215.24
369.61	215.08
369.99	215.18
370.37	215.30
370.75	215.40
371.13	215.33
371.51	215.20
371.89	215.20
372.27	215.21
372.65	215.26
373.03	215.22
373.41	215.16
373.78	215.16
374.16	214.94
374.54	214.72
374.92	214.63
375.30	214.58
375.68	214.43
376.06	214.45
376.44	214.40
376.82	214.30
377.19	214.27
377.57	214.17
377.95	213.97
378.33	213.88
378.71	213.65
379.09	213.62
379.47	213.60
379.84	213.56
380.22	213.45
380.60	213.30
380.98	213.29
381.36	213.23
381.73	213.17
382.11	213.24
382.49	213.30
382.87	213.24
383.25	213.25
383.62	213.61
384.00	213.49
384.38	213.48
384.76	213.58
385.13	213.65
385.51	213.67
385.89	213.60
386.27	213.59
386.64	213.61
387.02	213.51
387.40	213.50
387.78	213.50
388.15	213.50
388.53	213.53
388.91	213.54
389.29	213.54
389.66	213.53
390.04	213.42
390.42	213.41
390.79	213.40
391.17	213.32
391.55	213.02
391.92	212.99
392.30	213.06
392.68	212.99
393.05	212.97
393.43	212.96
393.81	212.97
394.18	212.97
394.56	212.99
394.94	213.17
395.31	213.15
395.69	213.30
396.06	213.31
396.44	213.29
396.82	213.27
397.19	213.42
397.57	213.41
397.95	213.56
398.32	213.48
398.70	213.56
399.07	213.75
399.45	213.79
399.82	213.87
400.20	213.81
400.58	213.85
400.95	213.74
401.33	213.89
401.70	214.26
402.08	214.30
402.45	214.40
402.83	214.50
403.20	214.65
403.58	214.61
403.95	214.83
404.33	215.04
404.71	215.25
405.08	215.63
405.46	215.81
405.83	215.93
406.21	216.10
406.58	216.34
406.96	216.55
407.33	216.76
407.70	217.05
408.08	217.68
408.45	217.98
408.83	218.42
409.20	218.71
409.58	218.88
409.95	219.44
410.33	219.96
410.70	220.36
411.08	220.82
411.45	221.44
411.82	221.98
412.20	222.65
412.57	223.43
412.95	223.79
413.32	224.52
413.69	225.29
414.07	226.17
414.44	227.06
414.82	227.92
415.19	229.03
415.56	230.06
415.94	231.11
416.31	232.46
416.68	233.69
417.06	235.18
417.43	236.61
417.81	238.15
418.18	239.75
418.55	241.55
418.93	243.47
419.30	245.47
419.67	247.56
420.04	249.66
420.42	251.82
420.79	254.60
421.16	257.25
421.54	260.10
421.91	262.88
422.28	265.66
422.66	268.75
423.03	271.95
423.40	275.07
423.77	278.26
424.15	281.62
424.52	285.24
424.89	289.00
425.26	292.71
425.64	296.23
426.01	300.04
426.38	304.01
426.75	308.18
427.13	312.28
427.50	316.69
427.87	321.39
428.24	326.06
428.61	330.43
428.99	335.28
429.36	340.39
429.73	345.56
430.10	350.72
430.47	356.02
430.85	361.23
431.22	366.94
431.59	373.14
431.96	378.86
432.33	385.27
432.70	391.48
433.08	398.75
433.45	405.75
433.82	412.61
434.19	420.22
434.56	427.54
434.93	434.71
435.30	441.63
435.68	449.35
436.05	457.10
436.42	464.63
436.79	471.63
437.16	479.17
437.53	487.03
437.90	494.88
438.27	502.68
438.64	510.83
439.01	518.43
439.38	525.02
439.75	531.63
440.13	538.88
440.50	545.97
440.87	551.77
441.24	557.53
441.61	564.10
441.98	568.76
442.35	574.33
442.72	579.99
443.09	585.55
443.46	588.82
443.83	590.99
444.20	592.80
444.57	595.51
444.94	596.79
445.31	598.25
445.68	599.80
446.05	600.12
446.42	599.15
446.79	598.10
447.16	596.98
447.53	596.09
447.90	592.99
448.27	589.69
448.64	585.29
449.01	582.25
449.37	576.80
449.74	571.78
450.11	565.74
450.48	558.95
450.85	552.14
451.22	546.28
451.59	540.60
451.96	535.30
452.33	528.20
452.70	521.64
453.07	513.85
453.43	505.76
453.80	498.43
454.17	491.42
454.54	484.69
454.91	477.40
455.28	470.26
455.65	463.71
456.02	457.52
456.38	451.87
456.75	444.85
457.12	438.95
457.49	433.02
457.86	427.39
458.23	422.67
458.59	417.38
458.96	412.16
459.33	407.53
459.70	402.86
460.07	399.18
460.43	395.03
460.80	391.23
461.17	387.83
461.54	384.19
461.91	380.69
462.27	377.15
462.64	374.21
463.01	370.99
463.38	368.00
463.74	364.58
464.11	361.91
464.48	359.53
464.85	357.06
465.21	355.29
465.58	353.21
465.95	350.67
466.32	348.61
466.68	346.47
467.05	344.50
467.42	342.53
467.78	340.37
468.15	338.35
468.52	336.87
468.88	334.96
469.25	333.28
469.62	331.98
469.98	330.52
470.35	329.19
470.72	328.01
471.08	326.62
471.45	325.46
471.82	324.41
472.18	323.22
472.55	322.35
472.92	321.34
473.28	320.55
473.65	319.72
474.02	318.96
474.38	318.41
474.75	317.98
475.11	317.47
475.48	317.24
475.85	317.08
476.21	316.77
476.58	316.76
476.94	316.80
477.31	316.79
477.67	316.86
478.04	317.04
478.41	317.35
478.77	317.91
479.14	318.41
479.50	318.85
479.87	319.47
480.23	320.12
480.60	320.67
480.96	321.31
481.33	322.46
481.69	323.46
482.06	324.57
482.42	325.51
482.79	326.68
483.15	327.96
483.52	329.55
483.88	331.03
484.25	332.45
484.61	334.16
484.98	335.97
485.34	338.00
485.71	340.11
486.07	342.25
486.44	344.34
486.80	346.74
487.17	349.32
487.53	352.27
487.90	355.25
488.26	358.55
488.62	362.07
488.99	365.42
489.35	369.09
489.72	373.00
490.08	377.14
490.44	381.50
490.81	386.11
491.17	390.76
491.54	395.86
491.90	401.16
492.26	406.61
492.63	412.40
492.99	418.46
493.36	424.95
493.72	431.83
494.08	438.84
494.45	446.18
494.81	454.13
495.17	462.03
495.54	470.52
495.90	479.25
496.26	488.11
496.63	497.62
496.99	507.44
497.35	517.60
497.72	528.34
498.08	539.28
498.44	550.77
498.80	563.14
499.17	575.66
499.53	588.72
499.89	602.19
500.26	616.03
500.62	630.28
500.98	645.05
501.34	660.37
501.71	676.31
502.07	692.83
502.43	709.33
502.79	726.67
503.16	744.74
503.52	763.37
503.88	782.38
504.24	801.85
504.60	821.66
504.97	842.31
505.33	863.04
505.69	885.31
506.05	907.95
506.41	930.56
506.78	953.63
507.14	977.25
507.50	1001.62
507.86	1026.56
508.22	1051.89
508.59	1077.57
508.95	1104.03
509.31	1130.79
509.67	1158.21
510.03	1186.30
510.39	1215.07
510.75	1243.94
511.12	1273.28
511.48	1303.10
511.84	1333.43
512.20	1363.97
512.56	1395.29
512.92	1427.15
513.28	1458.80
513.64	1490.46
514.00	1522.45
514.37	1554.86
514.73	1587.85
515.09	1620.95
515.45	1653.96
515.81	1687.43
516.17	1721.12
516.53	1754.86
516.89	1788.66
517.25	1822.26
517.61	1856.13
517.97	1889.57
518.33	1923.06
518.69	1956.76
519.05	1990.88
519.41	2025.07
519.77	2060.00
520.13	2093.66
520.49	2127.36
520.85	2161.50
521.21	2196.08
521.57	2230.77
521.93	2264.39
522.29	2299.22
522.65	2333.57
523.01	2367.49
523.37	2400.64
523.73	2434.34
524.09	2467.48
524.45	2501.18
524.81	2534.76
525.17	2568.56
525.53	2602.02
525.89	2635.78
526.25	2668.46
526.61	2699.84
526.97	2731.62
527.33	2762.88
527.68	2794.81
528.04	2825.76
528.40	2855.26
528.76	2885.01
529.12	2915.21
529.48	2946.79
529.84	2976.36
530.20	3005.48
530.56	3035.23
530.91	3065.98
531.27	3095.54
531.63	3124.25
531.99	3152.43
532.35	3179.49
532.71	3205.88
533.07	3233.56
533.42	3259.13
533.78	3285.87
534.14	3312.63
534.50	3336.61
534.86	3361.70
535.21	3385.09
535.57	3410.19
535.93	3434.28
536.29	3457.32
536.65	3480.14
537.00	3500.84
537.36	3521.20
537.72	3541.33
538.08	3561.10
538.44	3580.52
538.79	3600.02
539.15	3619.30
539.51	3638.21
539.87	3657.99
540.22	3676.85
540.58	3695.29
540.94	3713.48
541.29	3729.30
541.65	3744.04
542.01	3760.72
542.37	3775.65
542.72	3791.02
543.08	3804.39
543.44	3819.41
543.79	3832.10
544.15	3843.91
544.51	3857.30
544.87	3870.56
545.22	3882.80
545.58	3893.34
545.94	3902.39
546.29	3910.68
546.65	3918.46
547.01	3925.95
547.36	3932.79
547.72	3939.76
548.07	3944.60
548.43	3949.63
548.79	3954.21
549.14	3959.91
549.50	3964.62
549.86	3967.93
550.21	3971.40
550.57	3975.58
550.92	3976.96
551.28	3979.59
551.64	3982.06
551.99	3984.30
552.35	3984.88
552.70	3985.62
553.06	3987.28
553.41	3988.96
553.77	3989.94
554.13	3990.76
554.48	3991.48
554.84	3991.95
555.19	3990.72
555.55	3989.10
555.90	3987.08
556.26	3985.64
556.61	3983.56
556.97	3980.36
557.32	3978.52
557.68	3974.81
558.03	3970.75
558.39	3967.84
558.74	3965.71
559.10	3962.81
559.45	3958.45
559.81	3955.37
560.16	3950.61
560.52	3946.50
560.87	3941.45
561.23	3935.57
561.58	3931.18
561.94	3924.99
562.29	3917.87
562.64	3912.95
563.00	3907.94
563.35	3903.36
563.71	3899.30
564.06	3893.89
564.42	3889.77
564.77	3884.95
565.12	3880.79
565.48	3875.35
565.83	3869.84
566.19	3864.24
566.54	3856.68
566.89	3849.47
567.25	3842.68
567.60	3837.03
567.96	3829.70
568.31	3823.17
568.66	3816.08
569.02	3807.31
569.37	3798.77
569.72	3791.45
570.08	3782.23
570.43	3773.38
570.78	3763.75
571.14	3753.28
571.49	3743.64
571.84	3734.14
572.20	3722.98
572.55	3712.88
572.90	3701.64
573.26	3689.91
573.61	3677.75
573.96	3666.86
574.31	3654.78
574.67	3641.86
575.02	3628.26
575.37	3615.52
575.72	3601.60
576.08	3589.87
576.43	3576.45
576.78	3564.65
577.13	3552.81
577.49	3541.38
577.84	3528.87
578.19	3517.34
578.54	3506.54
578.90	3495.46
579.25	3482.22
579.60	3469.20
579.95	3455.13
580.30	3443.61
580.66	3432.37
581.01	3419.57
581.36	3406.15
581.71	3393.13
582.06	3380.80
582.42	3368.66
582.77	3355.03
583.12	3342.19
583.47	3329.56
583.82	3318.58
584.17	3305.63
584.53	3293.07
584.88	3279.60
585.23	3267.06
585.58	3254.00
585.93	3240.45
586.28	3227.52
586.63	3215.01
586.98	3202.99
587.34	3191.50
587.69	3178.42
588.04	3165.32
588.39	3153.31
588.74	3140.67
589.09	3128.98
589.44	3116.05
589.79	3104.47
590.14	3093.36
590.49	3081.43
590.84	3068.77
591.19	3057.24
591.54	3045.19
591.89	3030.82
592.25	3018.22
592.60	3004.79
592.95	2991.49
593.30	2977.05
593.65	2962.63
594.00	2949.35
594.35	2937.49
594.70	2924.51
595.05	2912.06
595.40	2899.53
595.75	2885.97
596.10	2874.19
596.45	2862.42
596.80	2851.59
597.15	2839.77
597.50	2827.17
597.85	2815.40
598.19	2803.28
598.54	2790.87
598.89	2779.49
599.24	2769.69
599.59	2759.02
599.94	2749.27
600.29	2738.55
600.64	2728.47
600.99	2717.27
601.34	2706.63
601.69	2694.39
602.04	2682.60
602.39	2671.17
602.74	2660.21
603.08	2650.17
603.43	2640.04
603.78	2628.97
604.13	2617.26
604.48	2606.00
604.83	2596.63
605.18	2587.47
605.53	2576.61
605.87	2565.33
606.22	2554.65
606.57	2543.22
606.92	2531.65
607.27	2519.96
607.62	2508.66
607.96	2498.02
608.31	2488.34
608.66	2476.80
609.01	2465.65
609.36	2454.19
609.70	2442.36
610.05	2430.23
610.40	2418.60
610.75	2406.20
611.10	2394.95
611.44	2381.90
611.79	2368.90
612.14	2355.09
612.49	2340.88
612.83	2328.66
613.18	2315.32
613.53	2302.01
613.88	2288.53
614.22	2275.99
614.57	2263.16
614.92	2250.47
615.27	2237.09
615.61	2223.88
615.96	2211.83
616.31	2200.10
616.65	2189.04
617.00	2177.40
617.35	2165.57
617.70	2152.85
618.04	2139.83
618.39	2126.28
618.74	2114.56
619.08	2102.34
619.43	2090.66
619.78	2079.12
620.12	2066.98
620.47	2055.96
620.82	2043.34
621.16	2031.30
621.51	2018.85
621.85	2006.80
622.20	1994.43
622.55	1982.51
622.89	1970.02
623.24	1957.58
623.59	1944.75
623.93	1932.35
624.28	1920.35
624.62	1908.58
624.97	1897.12
625.32	1886.04
625.66	1875.36
626.01	1864.10
626.35	1853.41
626.70	1841.87
627.04	1830.87
627.39	1820.00
627.73	1808.74
628.08	1798.91
628.43	1787.68
628.77	1776.57
629.12	1765.37
629.46	1755.49
629.81	1745.19
630.15	1735.12
630.50	1724.28
630.84	1713.60
631.19	1702.65
631.53	1692.37
631.88	1681.02
632.22	1669.77
632.57	1659.34
632.91	1648.15
633.26	1637.67
633.60	1627.05
633.95	1617.12
634.29	1606.54
634.64	1596.29
634.98	1585.37
635.32	1575.03
635.67	1565.80
636.01	1556.28
636.36	1546.01
636.70	1535.87
637.05	1525.62
637.39	1515.86
637.73	1506.75
638.08	1498.10
638.42	1489.42
638.77	1479.75
639.11	1470.46
639.45	1461.44
639.80	1451.38
640.14	1441.60
640.49	1431.69
640.83	1422.06
641.17	1412.13
641.52	1402.13
641.86	1392.19
642.20	1382.92
642.55	1372.75
642.89	1362.54
643.23	1352.54
643.58	1343.64
643.92	1333.60
644.26	1324.02
644.61	1314.31
644.95	1304.29
645.29	1294.37
645.64	1284.11
645.98	1274.41
646.32	1265.32
646.66	1255.63
647.01	1246.88
647.35	1238.10
647.69	1228.63
648.04	1219.37
648.38	1210.10
648.72	1200.97
649.06	1191.65
649.41	1182.53
649.75	1173.52
650.09	1164.73
650.43	1155.86
650.78	1146.50
651.12	1137.37
651.46	1128.54
651.80	1119.70
652.14	1110.91
652.49	1101.98
652.83	1093.10
653.17	1083.70
653.51	1074.60
653.85	1065.69
654.20	1056.81
654.54	1047.82
654.88	1039.38
655.22	1030.45
655.56	1021.81
655.90	1013.42
656.25	1004.88
656.59	996.56
656.93	988.34
657.27	980.30
657.61	971.55
657.95	963.39
658.29	955.50
658.64	947.74
658.98	939.69
659.32	931.64
659.66	923.85
660.00	915.99
660.34	908.40
660.68	900.42
661.02	892.68
661.36	885.26
661.70	878.08
662.05	870.95
662.39	864.33
662.73	857.46
663.07	850.62
663.41	843.91
663.75	837.01
664.09	830.03
664.43	822.89
664.77	816.61
665.11	809.81
665.45	803.41
665.79	796.79
666.13	790.43
666.47	784.07
666.81	777.58
667.15	771.38
667.49	765.65
667.83	760.07
668.17	754.32
668.51	748.42
668.85	742.86
669.19	737.20
669.53	731.34
669.87	725.38
670.21	719.92
670.55	714.25
670.89	708.95
671.23	703.97
671.57	698.89
671.91	693.56
672.25	688.49
672.58	683.11
672.92	678.05
673.26	673.13
673.60	668.23
673.94	663.31
674.28	658.48
674.62	653.87
674.96	649.07
675.30	644.50
675.64	639.75
675.97	634.94
676.31	630.46
676.65	625.99
676.99	622.01
677.33	617.26
677.67	613.08
678.01	608.44
678.34	603.96
678.68	599.60
679.02	595.20
679.36	591.09
679.70	587.05
680.04	582.79
680.37	578.37
680.71	574.37
681.05	570.43
681.39	566.55
681.73	562.47
682.06	558.82
682.40	554.97
682.74	551.14
683.08	547.33
683.42	543.36
683.75	539.45
684.09	535.58
684.43	531.93
684.77	528.06
685.10	524.50
685.44	520.79
685.78	517.15
686.12	513.80
686.45	510.22
686.79	506.78
687.13	503.55
687.46	500.40
687.80	497.13
688.14	493.70
688.48	490.46
688.81	486.94
689.15	483.46
689.49	480.15
689.82	476.99
690.16	473.36
690.50	470.06
690.83	467.02
691.17	463.73
691.51	460.57
691.84	457.62
692.18	454.67
692.52	451.89
692.85	449.12
693.19	446.31
693.52	443.43
693.86	440.47
694.20	437.48
694.53	434.65
694.87	431.72
695.21	428.99
695.54	426.04
695.88	423.20
696.21	420.42
696.55	417.96
696.88	415.35
697.22	412.97
697.56	410.51
697.89	407.90
698.23	405.45
698.56	403.06
698.90	400.75
699.23	398.29
699.57	395.85
699.90	393.29
700.24	390.85
700.58	388.54
700.91	386.37
701.25	384.41
701.58	382.24
701.92	380.04
702.25	377.85
702.59	375.79
702.92	373.94
703.26	371.96
703.59	369.82
703.93	368.09
704.26	366.09
704.60	364.22
704.93	362.26
705.26	360.27
705.60	358.41
705.93	356.45
706.27	354.75
706.60	352.99
706.94	351.59
707.27	349.81
707.61	348.10
707.94	346.41
708.27	344.63
708.61	342.92
708.94	341.30
709.28	339.71
709.61	338.17
709.94	336.68
710.28	335.13
710.61	333.80
710.95	331.96
711.28	330.85
711.61	329.38
711.95	328.05
712.28	326.71
712.61	325.33
712.95	324.16
713.28	322.91
713.61	321.54
713.95	320.04
714.28	318.86
714.61	317.61
714.95	316.24
715.28	314.91
715.61	313.68
715.95	312.44
716.28	311.13
716.61	309.89
716.95	308.57
717.28	307.49
717.61	306.20
717.94	305.11
718.28	303.75
718.61	302.58
718.94	301.43
719.27	300.39
719.61	299.36
719.94	298.21
720.27	296.89
720.60	295.89
720.94	294.81
721.27	293.69
721.60	292.76
721.93	291.87
722.27	290.97
722.60	290.12
722.93	289.23
723.26	288.44
723.59	287.53
723.93	286.74
724.26	285.77
724.59	284.93
724.92	284.12
725.25	283.40
725.59	282.67
725.92	281.97
726.25	281.14
726.58	280.36
726.91	279.55
727.24	278.95
727.57	278.06
727.91	277.27
728.24	276.63
728.57	275.78
728.90	275.17
729.23	274.41
729.56	273.78
729.89	273.09
730.22	272.34
730.55	271.64
730.89	270.95
731.22	270.28
731.55	269.60
731.88	268.94
732.21	268.13
732.54	267.46
732.87	266.76
733.20	266.11
733.53	265.47
733.86	264.84
734.19	264.05
734.52	263.58
734.85	263.30
735.18	262.59
735.51	262.24
735.84	261.58
736.17	261.05
736.50	260.38
736.83	260.27
737.16	259.87
737.49	259.39
737.82	258.80
738.15	258.25
738.48	257.65
738.81	257.11
739.14	256.57
739.47	255.98
739.80	255.47
740.13	254.98
740.46	254.43
740.79	253.87
741.12	253.47
741.45	252.90
741.78	252.19
742.11	251.87
742.44	251.22
742.77	250.84
743.10	250.34
743.43	249.90
743.75	249.06
744.08	248.95
744.41	248.38
744.74	247.97
745.07	247.49
745.40	247.18
745.73	246.90
746.06	246.60
746.39	246.27
746.71	245.80
747.04	245.36
747.37	244.95
747.70	244.67
748.03	244.30
748.36	243.99
748.68	243.63
749.01	243.19
749.34	242.84
749.67	242.46
750.00	242.19
750.33	241.97
750.65	241.62
750.98	240.90
751.31	240.67
751.64	240.36
751.97	240.27
752.29	239.83
752.62	239.39
752.95	239.06
753.28	238.68
753.60	238.39
753.93	238.22
754.26	237.87
754.59	237.50
754.91	237.19
755.24	236.86
755.57	236.54
755.90	236.32
756.22	236.04
756.55	235.60
756.88	235.18
757.20	234.65
757.53	234.26
757.86	234.01
758.19	233.70
758.51	233.41
758.84	232.93
759.17	232.73
759.49	232.50
759.82	232.38
760.15	232.14
760.47	231.89
760.80	231.54
761.13	231.38
761.45	231.03
761.78	230.81
762.11	230.54
762.43	230.25
762.76	229.97
763.08	229.72
763.41	229.61
763.74	229.37
764.06	229.18
764.39	229.00
764.71	228.75
765.04	228.58
765.37	228.29
765.69	228.19
766.02	227.94
766.34	227.68
766.67	227.33
767.00	227.19
767.32	227.14
767.65	227.15
767.97	226.94
768.30	226.84
768.62	226.64
768.95	226.46
769.27	226.37
769.60	226.25
769.92	226.03
770.25	225.82
770.57	225.67
770.90	225.58
771.22	225.32
771.55	225.18
771.87	225.01
772.20	224.87
772.52	224.99
772.85	225.25
773.17	225.15
773.50	224.93
773.82	224.72
774.15	224.41
774.47	223.98
774.80	223.87
775.12	223.74
775.45	223.62
775.77	223.54
776.09	223.36
776.42	223.24
776.74	223.26
777.07	223.19
777.39	223.05
777.72	222.88
778.04	222.85
778.36	222.64
778.69	222.53
779.01	222.43
779.33	222.02
779.66	221.52
779.98	221.36
780.31	221.27
780.63	221.32
780.95	221.28
781.28	221.22
781.60	221.06
781.92	220.93
782.25	220.78
782.57	220.66
782.89	220.56
783.22	220.40
783.54	220.24
783.86	220.05
784.19	220.00
784.51	219.95
784.83	219.84
785.16	219.82
