SpectraSuite Data File
++++++++++++++++++++++++++++++++++++
Date: Mon Feb 25 17:02:50 EST 2013
User: group
Dark Spectrum Present: No
Reference Spectrum Present: No
Number of Sampled Component Spectra: 1
Spectrometers: USB2E7196
Integration Time (usec): 104000 (USB2E7196)
Spectra Averaged: 20 (USB2E7196)
Boxcar Smoothing: 10 (USB2E7196)
Correct for Electrical Dark: No (USB2E7196)
Strobe/Lamp Enabled: No (USB2E7196)
Correct for Detector Non-linearity: No (USB2E7196)
Correct for Stray Light: No (USB2E7196)
Number of Pixels in Processed Spectrum: 2048
>>>>>Begin Processed Spectral Data<<<<<
339.09	0.00
339.48	198.40
339.86	199.90
340.24	200.40
340.63	201.85
341.01	208.70
341.39	204.55
341.78	206.55
342.16	208.40
342.54	207.05
342.93	197.58
343.31	207.52
343.69	207.98
344.07	208.40
344.46	208.83
344.84	209.26
345.22	209.35
345.60	209.59
345.99	209.77
346.37	209.85
346.75	210.04
347.13	210.02
347.52	210.06
347.90	210.30
348.28	210.29
348.66	210.37
349.05	210.18
349.43	210.24
349.81	210.26
350.19	210.30
350.57	210.31
350.96	210.40
351.34	210.50
351.72	210.64
352.10	210.72
352.48	210.79
352.87	210.85
353.25	210.89
353.63	211.05
354.01	211.15
354.39	211.22
354.77	211.27
355.15	211.48
355.54	211.49
355.92	211.37
356.30	211.47
356.68	211.75
357.06	211.99
357.44	211.93
357.82	212.07
358.20	212.20
358.58	212.27
358.97	212.32
359.35	212.45
359.73	212.62
360.11	212.73
360.49	212.75
360.87	212.75
361.25	212.85
361.63	212.87
362.01	212.95
362.39	212.95
362.77	213.01
363.15	213.00
363.53	213.07
363.91	213.17
364.29	213.22
364.67	212.90
365.05	212.93
365.43	212.99
365.81	213.01
366.19	213.15
366.57	213.27
366.95	213.28
367.33	213.26
367.71	213.25
368.09	213.27
368.47	213.34
368.85	213.35
369.23	213.38
369.61	213.32
369.99	213.35
370.37	213.46
370.75	213.66
371.13	213.59
371.51	213.54
371.89	213.47
372.27	213.42
372.65	213.48
373.03	213.48
373.41	213.47
373.78	213.47
374.16	213.33
374.54	213.26
374.92	213.24
375.30	213.14
375.68	212.98
376.06	212.95
376.44	212.88
376.82	212.88
377.19	212.84
377.57	212.75
377.95	212.63
378.33	212.51
378.71	212.15
379.09	212.16
379.47	212.17
379.84	212.09
380.22	212.01
380.60	211.88
380.98	211.74
381.36	211.64
381.73	211.50
382.11	211.48
382.49	211.41
382.87	211.30
383.25	211.31
383.62	211.76
384.00	211.67
384.38	211.59
384.76	211.61
385.13	211.63
385.51	211.64
385.89	211.51
386.27	211.50
386.64	211.53
387.02	211.45
387.40	211.35
387.78	211.34
388.15	211.37
388.53	211.30
388.91	211.31
389.29	211.40
389.66	211.34
390.04	211.28
390.42	211.27
390.79	211.22
391.17	211.21
391.55	210.67
391.92	210.67
392.30	210.75
392.68	210.61
393.05	210.54
393.43	210.54
393.81	210.60
394.18	210.59
394.56	210.57
394.94	210.56
395.31	210.58
395.69	210.73
396.06	210.72
396.44	210.75
396.82	210.64
397.19	210.69
397.57	210.71
397.95	210.73
398.32	210.69
398.70	210.78
399.07	210.84
399.45	210.89
399.82	210.89
400.20	210.87
400.58	210.91
400.95	210.84
401.33	210.84
401.70	211.12
402.08	211.09
402.45	211.16
402.83	211.31
403.20	211.36
403.58	211.39
403.95	211.55
404.33	211.66
404.71	211.82
405.08	212.18
405.46	212.28
405.83	212.45
406.21	212.55
406.58	212.70
406.96	212.83
407.33	213.07
407.70	213.28
408.08	213.82
408.45	214.11
408.83	214.51
409.20	214.83
409.58	214.90
409.95	215.30
410.33	215.72
410.70	215.98
411.08	216.45
411.45	216.84
411.82	217.16
412.20	217.70
412.57	218.46
412.95	218.65
413.32	219.34
413.69	219.94
414.07	220.62
414.44	221.38
414.82	222.19
415.19	223.10
415.56	224.10
415.94	224.80
416.31	225.92
416.68	226.97
417.06	228.14
417.43	229.38
417.81	230.72
418.18	232.10
418.55	233.60
418.93	235.08
419.30	236.70
419.67	238.52
420.04	240.32
420.42	242.07
420.79	244.44
421.16	246.58
421.54	248.93
421.91	251.26
422.28	253.66
422.66	256.27
423.03	258.88
423.40	261.51
423.77	264.35
424.15	267.17
424.52	270.07
424.89	273.38
425.26	276.53
425.64	279.55
426.01	282.80
426.38	286.29
426.75	289.93
427.13	293.64
427.50	297.45
427.87	301.41
428.24	305.50
428.61	309.27
428.99	313.56
429.36	318.12
429.73	322.66
430.10	327.30
430.47	331.92
430.85	336.61
431.22	341.69
431.59	347.34
431.96	352.55
432.33	358.39
432.70	363.98
433.08	370.62
433.45	376.81
433.82	383.19
434.19	390.20
434.56	397.04
434.93	403.64
435.30	410.23
435.68	417.58
436.05	424.80
436.42	431.88
436.79	438.45
437.16	445.60
437.53	453.26
437.90	460.61
438.27	468.04
438.64	475.84
439.01	483.00
439.38	489.08
439.75	495.41
440.13	502.51
440.50	509.23
440.87	514.70
441.24	520.65
441.61	527.03
441.98	531.82
442.35	537.34
442.72	542.98
443.09	548.46
443.46	551.93
443.83	554.50
444.20	556.90
444.57	560.02
444.94	561.63
445.31	563.34
445.68	565.27
446.05	566.30
446.42	565.97
446.79	565.58
447.16	565.11
447.53	565.04
447.90	562.88
448.27	560.80
448.64	557.50
449.01	555.00
449.37	550.40
449.74	546.07
450.11	540.92
450.48	535.04
450.85	529.04
451.22	523.89
451.59	518.99
451.96	514.24
452.33	507.80
452.70	502.13
453.07	495.13
453.43	487.95
453.80	481.20
454.17	474.81
454.54	468.73
454.91	462.24
455.28	455.50
455.65	449.44
456.02	443.69
456.38	438.63
456.75	432.39
457.12	427.11
457.49	421.85
457.86	416.49
458.23	412.21
458.59	407.27
458.96	402.55
459.33	398.14
459.70	393.94
460.07	390.60
460.43	386.70
460.80	383.11
461.17	379.87
461.54	376.41
461.91	373.18
462.27	369.78
462.64	366.96
463.01	363.88
463.38	360.88
463.74	357.42
464.11	354.62
464.48	352.28
464.85	349.69
465.21	347.68
465.58	345.76
465.95	343.15
466.32	341.15
466.68	338.85
467.05	336.78
467.42	334.44
467.78	332.17
468.15	330.07
468.52	328.50
468.88	326.39
469.25	324.61
469.62	323.07
469.98	321.41
470.35	319.85
470.72	318.45
471.08	316.84
471.45	315.52
471.82	314.15
472.18	312.62
472.55	311.49
472.92	310.19
473.28	308.87
473.65	307.72
474.02	306.62
474.38	305.77
474.75	305.01
475.11	304.23
475.48	303.61
475.85	302.89
476.21	302.22
476.58	301.75
476.94	301.27
477.31	300.77
477.67	300.36
478.04	299.96
478.41	299.63
478.77	299.70
479.14	299.31
479.50	299.12
479.87	298.95
480.23	298.86
480.60	298.66
480.96	298.66
481.33	298.78
481.69	298.77
482.06	298.80
482.42	298.71
482.79	298.82
483.15	298.91
483.52	299.25
483.88	299.39
484.25	299.54
484.61	299.69
484.98	299.90
485.34	300.43
485.71	300.93
486.07	301.38
486.44	301.39
486.80	301.96
487.17	302.52
487.53	303.23
487.90	303.94
488.26	304.92
488.62	305.82
488.99	306.54
489.35	307.44
489.72	308.35
490.08	309.26
490.44	310.16
490.81	311.23
491.17	312.17
491.54	313.29
491.90	314.42
492.26	315.60
492.63	316.91
492.99	318.00
493.36	319.25
493.72	320.59
494.08	322.10
494.45	323.58
494.81	325.22
495.17	326.71
495.54	328.19
495.90	329.60
496.26	331.00
496.63	332.63
496.99	334.24
497.35	335.90
497.72	337.58
498.08	339.23
498.44	340.90
498.80	342.59
499.17	344.34
499.53	346.05
499.89	347.77
500.26	349.28
500.62	350.95
500.98	352.75
501.34	354.39
501.71	356.14
502.07	357.74
502.43	359.15
502.79	360.58
503.16	362.08
503.52	363.51
503.88	364.85
504.24	366.18
504.60	367.54
504.97	368.94
505.33	370.22
505.69	371.79
506.05	372.93
506.41	374.14
506.78	375.15
507.14	376.17
507.50	377.13
507.86	378.19
508.22	379.16
508.59	379.79
508.95	380.67
509.31	381.54
509.67	382.30
510.03	383.18
510.39	383.93
510.75	384.68
511.12	385.32
511.48	385.94
511.84	386.49
512.20	386.89
512.56	387.26
512.92	387.67
513.28	387.91
513.64	388.25
514.00	388.49
514.37	388.69
514.73	388.95
515.09	389.36
515.45	389.43
515.81	389.40
516.17	389.54
516.53	389.45
516.89	389.23
517.25	389.12
517.61	388.99
517.97	388.89
518.33	388.64
518.69	388.43
519.05	388.30
519.41	388.20
519.77	388.38
520.13	388.19
520.49	387.98
520.85	387.69
521.21	387.53
521.57	387.45
521.93	387.34
522.29	387.18
522.65	386.85
523.01	386.87
523.37	386.79
523.73	386.78
524.09	386.75
524.45	386.80
524.81	386.82
525.17	386.90
525.53	387.10
525.89	387.30
526.25	387.58
526.61	387.68
526.97	387.91
527.33	388.08
527.68	388.78
528.04	389.30
528.40	389.73
528.76	390.28
529.12	390.83
529.48	391.58
529.84	392.26
530.20	393.13
530.56	393.96
530.91	394.99
531.27	395.89
531.63	396.94
531.99	397.95
532.35	398.98
532.71	400.06
533.07	401.33
533.42	402.91
533.78	404.25
534.14	405.65
534.50	406.90
534.86	408.48
535.21	409.71
535.57	411.33
535.93	412.85
536.29	414.65
536.65	416.37
537.00	417.97
537.36	419.82
537.72	421.46
538.08	423.18
538.44	424.89
538.79	426.87
539.15	428.78
539.51	430.77
539.87	432.81
540.22	434.77
540.58	436.87
540.94	438.70
541.29	440.99
541.65	443.23
542.01	445.64
542.37	447.95
542.72	450.27
543.08	452.57
543.44	455.34
543.79	457.38
544.15	459.91
544.51	462.55
544.87	465.04
545.22	467.73
545.58	470.46
545.94	473.17
546.29	475.71
546.65	478.36
547.01	480.94
547.36	483.86
547.72	486.61
548.07	489.26
548.43	491.90
548.79	494.37
549.14	496.99
549.50	499.75
549.86	502.21
550.21	504.93
550.57	507.74
550.92	510.26
551.28	513.25
551.64	515.92
551.99	518.68
552.35	521.24
552.70	523.78
553.06	526.40
553.41	529.11
553.77	532.02
554.13	534.68
554.48	537.53
554.84	540.07
555.19	542.76
555.55	545.59
555.90	548.12
556.26	550.68
556.61	553.25
556.97	555.73
557.32	558.38
557.68	560.70
558.03	563.03
558.39	565.19
558.74	567.60
559.10	570.00
559.45	572.35
559.81	574.84
560.16	577.33
560.52	579.65
560.87	581.98
561.23	583.95
561.58	586.56
561.94	588.66
562.29	590.78
562.64	592.96
563.00	594.89
563.35	597.13
563.71	599.36
564.06	601.57
564.42	603.71
564.77	605.80
565.12	608.12
565.48	610.55
565.83	612.79
566.19	614.89
566.54	616.78
566.89	618.69
567.25	620.70
567.60	622.77
567.96	624.77
568.31	626.69
568.66	628.56
569.02	629.75
569.37	631.16
569.72	632.83
570.08	634.27
570.43	635.83
570.78	637.10
571.14	638.26
571.49	639.39
571.84	640.50
572.20	641.37
572.55	642.28
572.90	642.84
573.26	643.58
573.61	644.12
573.96	644.78
574.31	645.37
574.67	645.91
575.02	646.06
575.37	646.26
575.72	646.16
576.08	646.49
576.43	646.79
576.78	647.18
577.13	647.32
577.49	647.71
577.84	647.78
578.19	648.21
578.54	648.75
578.90	649.20
579.25	649.33
579.60	649.52
579.95	649.51
580.30	649.57
580.66	649.85
581.01	649.88
581.36	649.82
581.71	649.77
582.06	649.90
582.42	650.05
582.77	649.91
583.12	650.21
583.47	650.17
583.82	650.28
584.17	650.33
584.53	650.37
584.88	650.26
585.23	650.29
585.58	650.08
585.93	649.59
586.28	649.32
586.63	649.26
586.98	649.03
587.34	648.81
587.69	648.45
588.04	648.11
588.39	648.00
588.74	647.60
589.09	647.33
589.44	646.52
589.79	646.08
590.14	645.78
590.49	645.24
590.84	644.63
591.19	644.26
591.54	643.68
591.89	642.85
592.25	642.28
592.60	641.17
592.95	640.34
593.30	639.57
593.65	638.71
594.00	637.56
594.35	637.57
594.70	636.53
595.05	635.77
595.40	634.86
595.75	633.70
596.10	633.10
596.45	632.22
596.80	631.60
597.15	630.70
597.50	629.76
597.85	628.88
598.19	628.01
598.54	626.99
598.89	626.08
599.24	625.41
599.59	624.42
599.94	623.90
600.29	623.00
600.64	621.99
600.99	620.91
601.34	620.30
601.69	618.41
602.04	617.54
602.39	616.52
602.74	615.74
603.08	615.06
603.43	614.35
603.78	613.32
604.13	612.23
604.48	611.37
604.83	610.72
605.18	609.91
605.53	609.00
605.87	608.07
606.22	607.05
606.57	606.02
606.92	604.79
607.27	603.58
607.62	602.39
607.96	601.57
608.31	600.75
608.66	599.54
609.01	598.51
609.36	597.44
609.70	596.36
610.05	594.92
610.40	593.69
610.75	592.12
611.10	591.00
611.44	589.57
611.79	588.03
612.14	586.51
612.49	584.85
612.83	583.40
613.18	581.70
613.53	580.15
613.88	578.49
614.22	577.08
614.57	575.58
614.92	574.20
615.27	572.58
615.61	570.83
615.96	569.26
616.31	567.72
616.65	566.19
617.00	564.49
617.35	562.93
617.70	561.17
618.04	559.46
618.39	557.50
618.74	556.01
619.08	554.26
619.43	552.44
619.78	550.95
620.12	549.31
620.47	547.78
620.82	545.95
621.16	544.14
621.51	542.57
621.85	540.84
622.20	539.03
622.55	537.27
622.89	535.50
623.24	533.87
623.59	531.95
623.93	530.37
624.28	528.83
624.62	527.52
624.97	525.95
625.32	524.28
625.66	522.76
626.01	521.02
626.35	519.49
626.70	517.78
627.04	516.29
627.39	514.68
627.73	513.23
628.08	511.83
628.43	510.17
628.77	508.35
629.12	506.70
629.46	505.13
629.81	503.62
630.15	501.99
630.50	500.19
630.84	498.56
631.19	496.77
631.53	495.10
631.88	492.97
632.22	491.19
632.57	489.70
632.91	488.03
633.26	486.53
633.60	484.84
633.95	483.38
634.29	481.64
634.64	480.11
634.98	478.23
635.32	476.79
635.67	475.40
636.01	473.97
636.36	472.34
636.70	470.96
637.05	469.32
637.39	467.91
637.73	466.52
638.08	465.35
638.42	464.02
638.77	462.61
639.11	461.30
639.45	459.83
639.80	458.10
640.14	456.51
640.49	454.83
640.83	453.27
641.17	451.64
641.52	449.87
641.86	448.10
642.20	446.70
642.55	444.80
642.89	443.06
643.23	441.29
643.58	439.97
643.92	438.18
644.26	436.61
644.61	435.03
644.95	433.34
645.29	431.64
645.64	429.96
645.98	428.12
646.32	426.44
646.66	424.72
647.01	423.16
647.35	421.73
647.69	420.20
648.04	418.69
648.38	417.14
648.72	415.73
649.06	414.20
649.41	412.54
649.75	411.11
650.09	409.77
650.43	408.44
650.78	406.67
651.12	405.11
651.46	403.53
651.80	401.99
652.14	400.60
652.49	399.16
652.83	397.68
653.17	396.26
653.51	394.70
653.85	393.40
654.20	392.09
654.54	390.41
654.88	388.88
655.22	387.58
655.56	386.10
655.90	384.56
656.25	383.08
656.59	381.57
656.93	380.18
657.27	378.76
657.61	377.02
657.95	375.72
658.29	374.36
658.64	373.03
658.98	371.61
659.32	370.12
659.66	368.58
660.00	367.15
660.34	365.70
660.68	364.34
661.02	362.86
661.36	361.37
661.70	360.01
662.05	358.71
662.39	357.41
662.73	356.18
663.07	355.10
663.41	353.84
663.75	352.57
664.09	351.23
664.43	349.79
664.77	348.68
665.11	347.41
665.45	346.26
665.79	345.09
666.13	343.86
666.47	342.69
666.81	341.54
667.15	340.19
667.49	339.13
667.83	338.08
668.17	337.00
668.51	335.86
668.85	334.92
669.19	334.04
669.53	332.72
669.87	331.63
670.21	330.38
670.55	329.36
670.89	328.60
671.23	327.63
671.57	326.63
671.91	325.63
672.25	324.58
672.58	323.61
672.92	322.55
673.26	321.60
673.60	320.62
673.94	319.61
674.28	318.77
674.62	317.84
674.96	316.85
675.30	315.87
675.64	315.04
675.97	314.08
676.31	313.05
676.65	312.19
676.99	311.35
677.33	310.46
677.67	309.70
678.01	308.54
678.34	307.65
678.68	306.86
679.02	305.91
679.36	305.08
679.70	304.18
680.04	303.35
680.37	302.51
680.71	301.68
681.05	300.92
681.39	300.12
681.73	299.22
682.06	298.50
682.40	297.79
682.74	296.96
683.08	296.25
683.42	295.43
683.75	294.74
684.09	293.89
684.43	293.15
684.77	292.16
685.10	291.50
685.44	290.70
685.78	289.93
686.12	289.32
686.45	288.52
686.79	287.69
687.13	286.98
687.46	286.22
687.80	285.55
688.14	284.78
688.48	284.10
688.81	283.44
689.15	282.79
689.49	281.98
689.82	281.24
690.16	280.42
690.50	279.74
690.83	278.92
691.17	278.05
691.51	277.33
691.84	276.79
692.18	276.02
692.52	275.38
692.85	274.77
693.19	274.20
693.52	273.59
693.86	273.00
694.20	272.35
694.53	271.75
694.87	271.15
695.21	270.55
695.54	269.93
695.88	269.24
696.21	268.45
696.55	267.92
696.88	267.30
697.22	266.66
697.56	266.15
697.89	265.67
698.23	265.21
698.56	264.63
698.90	264.07
699.23	263.51
699.57	263.00
699.90	262.44
700.24	261.76
700.58	261.28
700.91	260.71
701.25	260.41
701.58	259.96
701.92	259.51
702.25	258.99
702.59	258.51
702.92	258.11
703.26	257.68
703.59	257.23
703.93	257.20
704.26	256.77
704.60	256.26
704.93	255.72
705.26	255.25
705.60	254.85
705.93	254.36
706.27	254.03
706.60	253.68
706.94	253.34
707.27	252.90
707.61	252.43
707.94	251.98
708.27	251.29
708.61	250.85
708.94	250.31
709.28	249.91
709.61	249.45
709.94	249.06
710.28	248.62
710.61	248.18
710.95	247.38
711.28	247.30
711.61	246.93
711.95	246.70
712.28	246.39
712.61	246.00
712.95	245.78
713.28	245.57
713.61	245.13
713.95	244.72
714.28	244.30
714.61	243.96
714.95	243.68
715.28	243.26
715.61	242.93
715.95	242.72
716.28	242.39
716.61	242.12
716.95	241.75
717.28	241.48
717.61	241.17
717.94	240.92
718.28	240.26
718.61	240.02
718.94	239.61
719.27	239.27
719.61	238.91
719.94	238.53
720.27	237.98
720.60	237.71
720.94	237.42
721.27	237.26
721.60	236.98
721.93	236.67
722.27	236.61
722.60	236.36
722.93	235.94
723.26	235.74
723.59	235.43
723.93	235.24
724.26	235.03
724.59	234.79
724.92	234.57
725.25	234.43
725.59	234.08
725.92	233.92
726.25	233.69
726.58	233.55
726.91	233.28
727.24	233.17
727.57	232.92
727.91	232.66
728.24	232.47
728.57	232.26
728.90	232.09
729.23	231.81
729.56	231.76
729.89	231.59
730.22	231.34
730.55	231.17
730.89	230.95
731.22	230.74
731.55	230.55
731.88	230.35
732.21	230.20
732.54	230.02
732.87	229.89
733.20	229.73
733.53	229.49
733.86	229.50
734.19	229.25
734.52	229.19
734.85	229.28
735.18	229.01
735.51	228.92
735.84	228.79
736.17	228.70
736.50	228.32
736.83	228.57
737.16	228.43
737.49	228.27
737.82	228.09
738.15	227.89
738.48	227.74
738.81	227.57
739.14	227.37
739.47	227.21
739.80	227.00
740.13	226.91
740.46	226.70
740.79	226.49
741.12	226.39
741.45	226.16
741.78	225.78
742.11	225.78
742.44	225.59
742.77	225.50
743.10	225.30
743.43	225.23
743.75	224.75
744.08	225.02
744.41	224.81
744.74	224.61
745.07	224.44
745.40	224.36
745.73	224.32
746.06	224.21
746.39	224.12
746.71	223.98
747.04	223.74
747.37	223.67
747.70	223.50
748.03	223.35
748.36	223.23
748.68	223.06
749.01	222.89
749.34	222.77
749.67	222.59
750.00	222.51
750.33	222.53
750.65	222.43
750.98	221.90
751.31	221.81
751.64	221.83
751.97	221.92
752.29	221.75
752.62	221.43
752.95	221.24
753.28	221.11
753.60	220.97
753.93	220.99
754.26	220.89
754.59	220.70
754.91	220.60
755.24	220.53
755.57	220.54
755.90	220.39
756.22	220.24
756.55	220.16
756.88	220.00
757.20	219.76
757.53	219.56
757.86	219.51
758.19	219.45
758.51	219.35
758.84	219.18
759.17	219.06
759.49	219.11
759.82	219.18
760.15	219.07
760.47	219.00
760.80	218.84
761.13	218.80
761.45	218.67
761.78	218.48
762.11	218.40
762.43	218.27
762.76	218.27
763.08	218.25
763.41	218.18
763.74	218.18
764.06	218.06
764.39	218.05
764.71	217.94
765.04	217.90
765.37	217.77
765.69	217.70
766.02	217.66
766.34	217.58
766.67	217.42
767.00	217.50
767.32	217.59
767.65	217.74
767.97	217.70
768.30	217.73
768.62	217.76
768.95	217.64
769.27	217.53
769.60	217.51
769.92	217.48
770.25	217.36
770.57	217.24
770.90	217.25
771.22	217.13
771.55	217.11
771.87	216.98
772.20	216.94
772.52	217.18
772.85	217.49
773.17	217.42
773.50	217.39
773.82	217.24
774.15	217.03
774.47	216.72
774.80	216.61
775.12	216.59
775.45	216.61
775.77	216.63
776.09	216.64
776.42	216.57
776.74	216.62
777.07	216.50
777.39	216.43
777.72	216.30
778.04	216.30
778.36	216.22
778.69	216.21
779.01	216.22
779.33	215.81
779.66	215.40
779.98	215.32
780.31	215.24
780.63	215.35
780.95	215.37
781.28	215.37
781.60	215.30
781.92	215.19
782.25	215.07
782.57	214.97
782.89	214.92
783.22	214.78
783.54	214.59
783.86	214.66
784.19	214.55
784.51	214.68
784.83	214.53
785.16	214.46
785.48	214.43
785.80	214.30
786.12	214.30
786.45	214.23
786.77	214.27
787.09	214.31
787.42	214.10
787.74	214.06
788.06	213.98
788.38	213.98
788.71	213.98
789.03	214.02
789.35	214.07
789.67	214.00
789.99	214.01
790.32	213.94
790.64	213.90
790.96	214.25
791.28	214.05
791.61	214.04
791.93	214.05
792.25	214.07
792.57	214.33
792.89	214.27
793.21	214.38
793.54	214.28
793.86	214.22
794.18	214.28
