SpectraSuite Data File
++++++++++++++++++++++++++++++++++++
Date: Mon Feb 25 17:03:58 EST 2013
User: group
Dark Spectrum Present: No
Reference Spectrum Present: No
Number of Sampled Component Spectra: 1
Spectrometers: USB2E7196
Integration Time (usec): 104000 (USB2E7196)
Spectra Averaged: 20 (USB2E7196)
Boxcar Smoothing: 10 (USB2E7196)
Correct for Electrical Dark: No (USB2E7196)
Strobe/Lamp Enabled: No (USB2E7196)
Correct for Detector Non-linearity: No (USB2E7196)
Correct for Stray Light: No (USB2E7196)
Number of Pixels in Processed Spectrum: 2048
>>>>>Begin Processed Spectral Data<<<<<
339.09	0.00
339.48	198.35
339.86	200.90
340.24	202.10
340.63	203.75
341.01	210.40
341.39	205.25
341.78	207.55
342.16	209.10
342.54	209.60
342.93	198.41
343.31	208.44
343.69	209.02
344.07	209.39
344.46	209.84
344.84	210.20
345.22	210.15
345.60	210.37
345.99	210.47
346.37	210.60
346.75	210.62
347.13	210.66
347.52	210.65
347.90	210.84
348.28	210.84
348.66	210.78
349.05	210.67
349.43	210.71
349.81	210.72
350.19	210.67
350.57	210.70
350.96	210.69
351.34	210.70
351.72	210.70
352.10	210.82
352.48	210.78
352.87	210.77
353.25	210.81
353.63	210.86
354.01	210.96
354.39	210.96
354.77	211.05
355.15	211.22
355.54	211.30
355.92	211.25
356.30	211.26
356.68	211.59
357.06	211.70
357.44	211.69
357.82	211.72
358.20	211.86
358.58	211.90
358.97	212.02
359.35	212.12
359.73	212.29
360.11	212.29
360.49	212.37
360.87	212.41
361.25	212.54
361.63	212.71
362.01	212.71
362.39	212.70
362.77	212.73
363.15	212.72
363.53	212.72
363.91	212.74
364.29	212.85
364.67	212.55
365.05	212.50
365.43	212.65
365.81	212.72
366.19	212.87
366.57	213.03
366.95	213.00
367.33	212.96
367.71	212.91
368.09	213.08
368.47	213.10
368.85	213.11
369.23	213.20
369.61	213.09
369.99	213.18
370.37	213.21
370.75	213.37
371.13	213.33
371.51	213.25
371.89	213.24
372.27	213.19
372.65	213.13
373.03	213.12
373.41	213.01
373.78	212.96
374.16	212.71
374.54	212.60
374.92	212.53
375.30	212.49
375.68	212.40
376.06	212.33
376.44	212.25
376.82	212.23
377.19	212.17
377.57	212.04
377.95	211.93
378.33	211.88
378.71	211.58
379.09	211.54
379.47	211.53
379.84	211.45
380.22	211.39
380.60	211.27
380.98	211.27
381.36	211.26
381.73	211.20
382.11	211.28
382.49	211.19
382.87	211.17
383.25	211.13
383.62	211.48
384.00	211.30
384.38	211.23
384.76	211.26
385.13	211.35
385.51	211.41
385.89	211.32
386.27	211.32
386.64	211.33
387.02	211.27
387.40	211.24
387.78	211.24
388.15	211.24
388.53	211.31
388.91	211.23
389.29	211.17
389.66	211.17
390.04	211.10
390.42	211.12
390.79	211.13
391.17	211.09
391.55	210.74
391.92	210.77
392.30	210.81
392.68	210.74
393.05	210.62
393.43	210.64
393.81	210.66
394.18	210.54
394.56	210.61
394.94	210.70
395.31	210.70
395.69	210.73
396.06	210.74
396.44	210.71
396.82	210.65
397.19	210.91
397.57	210.90
397.95	211.01
398.32	210.95
398.70	210.95
399.07	211.07
399.45	211.09
399.82	211.06
400.20	211.06
400.58	211.00
400.95	210.91
401.33	210.96
401.70	211.22
402.08	211.35
402.45	211.37
402.83	211.41
403.20	211.46
403.58	211.54
403.95	211.64
404.33	211.79
404.71	211.94
405.08	212.09
405.46	212.22
405.83	212.28
406.21	212.34
406.58	212.50
406.96	212.59
407.33	212.66
407.70	212.94
408.08	213.45
408.45	213.74
408.83	214.00
409.20	214.12
409.58	214.16
409.95	214.50
410.33	214.81
410.70	215.02
411.08	215.45
411.45	215.78
411.82	216.07
412.20	216.48
412.57	217.11
412.95	217.37
413.32	217.89
413.69	218.37
414.07	219.06
414.44	219.65
414.82	220.26
415.19	221.02
415.56	221.74
415.94	222.34
416.31	223.29
416.68	224.19
417.06	225.36
417.43	226.46
417.81	227.51
418.18	228.65
418.55	230.00
418.93	231.40
419.30	232.83
419.67	234.42
420.04	235.95
420.42	237.49
420.79	239.57
421.16	241.45
421.54	243.65
421.91	245.63
422.28	247.79
422.66	250.06
423.03	252.49
423.40	254.81
423.77	257.23
424.15	259.62
424.52	262.27
424.89	265.09
425.26	267.76
425.64	270.50
426.01	273.41
426.38	276.39
426.75	279.42
427.13	282.57
427.50	285.84
427.87	289.27
428.24	292.74
428.61	295.91
428.99	299.61
429.36	303.40
429.73	307.39
430.10	311.35
430.47	315.40
430.85	319.41
431.22	323.83
431.59	328.66
431.96	333.20
432.33	338.22
432.70	343.11
433.08	348.85
433.45	354.21
433.82	359.59
434.19	365.64
434.56	371.40
434.93	377.08
435.30	382.83
435.68	389.10
436.05	395.25
436.42	401.36
436.79	407.10
437.16	413.31
437.53	419.73
437.90	426.10
438.27	432.47
438.64	439.15
439.01	445.36
439.38	450.70
439.75	456.06
440.13	462.15
440.50	467.84
440.87	472.65
441.24	477.67
441.61	483.05
441.98	487.20
442.35	492.12
442.72	497.02
443.09	501.65
443.46	504.68
443.83	506.83
444.20	508.70
444.57	511.20
444.94	512.66
445.31	514.35
445.68	516.09
446.05	516.92
446.42	516.66
446.79	516.49
447.16	516.08
447.53	516.14
447.90	514.12
448.27	512.32
448.64	509.39
449.01	507.31
449.37	503.55
449.74	499.82
450.11	495.43
450.48	490.27
450.85	485.10
451.22	480.78
451.59	476.67
451.96	472.76
452.33	467.33
452.70	462.35
453.07	456.25
453.43	449.94
453.80	444.16
454.17	438.63
454.54	433.15
454.91	427.45
455.28	421.63
455.65	416.44
456.02	411.52
456.38	407.13
456.75	401.62
457.12	397.03
457.49	392.36
457.86	387.66
458.23	384.03
458.59	379.83
458.96	375.45
459.33	371.64
459.70	367.77
460.07	364.78
460.43	361.31
460.80	358.06
461.17	355.34
461.54	352.28
461.91	349.45
462.27	346.55
462.64	344.12
463.01	341.46
463.38	338.94
463.74	335.80
464.11	333.38
464.48	331.30
464.85	328.99
465.21	327.30
465.58	325.54
465.95	323.20
466.32	321.47
466.68	319.72
467.05	317.85
467.42	316.14
467.78	314.19
468.15	312.36
468.52	310.95
468.88	309.04
469.25	307.45
469.62	306.17
469.98	304.75
470.35	303.50
470.72	302.23
471.08	300.81
471.45	299.78
471.82	298.70
472.18	297.39
472.55	296.51
472.92	295.43
473.28	294.48
473.65	293.49
474.02	292.60
474.38	291.89
474.75	291.35
475.11	290.57
475.48	290.11
475.85	289.60
476.21	289.16
476.58	288.72
476.94	288.35
477.31	287.92
477.67	287.61
478.04	287.22
478.41	287.02
478.77	287.10
479.14	286.80
479.50	286.56
479.87	286.55
480.23	286.51
480.60	286.37
480.96	286.19
481.33	286.36
481.69	286.32
482.06	286.28
482.42	286.18
482.79	286.14
483.15	286.18
483.52	286.37
483.88	286.47
484.25	286.63
484.61	286.81
484.98	286.95
485.34	287.40
485.71	287.82
486.07	288.18
486.44	288.21
486.80	288.60
487.17	289.03
487.53	289.67
487.90	290.25
488.26	291.00
488.62	291.67
488.99	292.25
489.35	292.99
489.72	293.74
490.08	294.49
490.44	295.38
490.81	296.20
491.17	296.98
491.54	297.96
491.90	298.92
492.26	299.94
492.63	301.00
492.99	301.85
493.36	302.81
493.72	303.96
494.08	305.17
494.45	306.37
494.81	307.71
495.17	308.90
495.54	310.16
495.90	311.28
496.26	312.59
496.63	314.05
496.99	315.34
497.35	316.69
497.72	318.20
498.08	319.54
498.44	320.96
498.80	322.53
499.17	323.91
499.53	325.33
499.89	326.89
500.26	328.22
500.62	329.52
500.98	331.04
501.34	332.35
501.71	333.70
502.07	335.05
502.43	336.27
502.79	337.41
503.16	338.63
503.52	340.00
503.88	341.15
504.24	342.20
504.60	343.40
504.97	344.64
505.33	345.62
505.69	347.07
506.05	348.22
506.41	349.17
506.78	350.16
507.14	351.11
507.50	351.90
507.86	352.87
508.22	353.89
508.59	354.68
508.95	355.53
509.31	356.52
509.67	357.35
510.03	358.13
510.39	358.93
510.75	359.60
511.12	360.14
511.48	360.81
511.84	361.40
512.20	361.86
512.56	362.18
512.92	362.66
513.28	362.90
513.64	363.14
514.00	363.51
514.37	363.74
514.73	364.15
515.09	364.44
515.45	364.55
515.81	364.56
516.17	364.70
516.53	364.80
516.89	364.75
517.25	364.87
517.61	365.12
517.97	365.14
518.33	365.26
518.69	365.33
519.05	365.45
519.41	365.59
519.77	366.01
520.13	366.25
520.49	366.32
520.85	366.42
521.21	366.78
521.57	366.92
521.93	367.16
522.29	367.28
522.65	367.53
523.01	367.94
523.37	368.34
523.73	368.68
524.09	369.08
524.45	369.48
524.81	369.90
525.17	370.23
525.53	370.89
525.89	371.45
526.25	372.19
526.61	372.72
526.97	373.44
527.33	373.97
527.68	375.08
528.04	376.02
528.40	376.80
528.76	377.68
529.12	378.69
529.48	379.78
529.84	380.83
530.20	381.89
530.56	383.00
530.91	384.45
531.27	385.75
531.63	387.08
531.99	388.49
532.35	389.82
532.71	391.29
533.07	392.81
533.42	394.74
533.78	396.28
534.14	397.98
534.50	399.50
534.86	401.31
535.21	402.68
535.57	404.58
535.93	406.41
536.29	408.37
536.65	410.39
537.00	412.29
537.36	414.27
537.72	416.26
538.08	418.43
538.44	420.44
538.79	422.52
539.15	424.65
539.51	426.79
539.87	429.00
540.22	431.17
540.58	433.47
540.94	435.53
541.29	437.90
541.65	440.26
542.01	442.87
542.37	445.32
542.72	447.87
543.08	450.16
543.44	452.83
543.79	455.15
544.15	457.72
544.51	460.51
544.87	463.24
545.22	466.19
545.58	468.80
545.94	471.37
546.29	474.10
546.65	476.83
547.01	479.51
547.36	482.32
547.72	485.12
548.07	487.80
548.43	490.24
548.79	492.82
549.14	495.48
549.50	498.15
549.86	500.68
550.21	503.41
550.57	506.20
550.92	508.79
551.28	511.63
551.64	514.35
551.99	517.04
552.35	519.57
552.70	521.79
553.06	524.43
553.41	527.06
553.77	529.80
554.13	532.42
554.48	535.07
554.84	537.66
555.19	540.26
555.55	542.90
555.90	545.47
556.26	547.90
556.61	550.29
556.97	552.47
557.32	554.99
557.68	557.20
558.03	559.47
558.39	561.64
558.74	563.86
559.10	566.13
559.45	568.14
559.81	570.45
560.16	572.73
560.52	574.93
560.87	577.15
561.23	579.08
561.58	581.39
561.94	583.34
562.29	585.35
562.64	587.34
563.00	589.23
563.35	591.34
563.71	593.50
564.06	595.63
564.42	597.69
564.77	599.50
565.12	601.59
565.48	603.92
565.83	606.00
566.19	607.85
566.54	609.42
566.89	611.37
567.25	613.23
567.60	615.23
567.96	616.95
568.31	618.77
568.66	620.40
569.02	621.70
569.37	622.97
569.72	624.25
570.08	625.58
570.43	626.86
570.78	628.03
571.14	628.96
571.49	629.80
571.84	630.87
572.20	631.75
572.55	632.60
572.90	632.89
573.26	633.34
573.61	633.83
573.96	634.45
574.31	634.80
574.67	635.04
575.02	635.20
575.37	635.39
575.72	635.32
576.08	635.50
576.43	635.49
576.78	635.99
577.13	636.26
577.49	636.45
577.84	636.51
578.19	636.90
578.54	637.34
578.90	637.77
579.25	637.93
579.60	638.03
579.95	637.93
580.30	638.20
580.66	638.49
581.01	638.61
581.36	638.45
581.71	638.30
582.06	638.48
582.42	638.40
582.77	638.30
583.12	638.35
583.47	638.38
583.82	638.40
584.17	638.19
584.53	638.35
584.88	638.16
585.23	638.15
585.58	637.83
585.93	637.35
586.28	637.10
586.63	636.78
586.98	636.54
587.34	636.37
587.69	635.96
588.04	635.77
588.39	635.53
588.74	635.23
589.09	635.08
589.44	634.52
589.79	634.28
590.14	633.99
590.49	633.44
590.84	632.86
591.19	632.57
591.54	632.13
591.89	631.06
592.25	630.75
592.60	629.86
592.95	628.92
593.30	628.05
593.65	627.02
594.00	626.17
594.35	626.38
594.70	625.60
595.05	624.80
595.40	623.77
595.75	622.72
596.10	622.09
596.45	621.16
596.80	620.45
597.15	619.51
597.50	618.50
597.85	617.72
598.19	616.79
598.54	615.85
598.89	614.96
599.24	614.40
599.59	613.34
599.94	612.62
600.29	611.86
600.64	611.19
600.99	610.41
601.34	609.77
601.69	607.83
602.04	606.76
602.39	605.85
602.74	605.11
603.08	604.60
603.43	603.95
603.78	603.16
604.13	602.27
604.48	601.49
604.83	600.81
605.18	600.10
605.53	599.33
605.87	598.36
606.22	597.62
606.57	596.59
606.92	595.63
607.27	594.65
607.62	593.62
607.96	592.71
608.31	591.84
608.66	590.54
609.01	589.61
609.36	588.64
609.70	587.67
610.05	586.31
610.40	585.03
610.75	583.52
611.10	582.50
611.44	581.07
611.79	579.74
612.14	578.29
612.49	576.67
612.83	575.34
613.18	573.87
613.53	572.30
613.88	570.75
614.22	569.24
614.57	567.70
614.92	566.29
615.27	564.72
615.61	563.32
615.96	562.09
616.31	560.57
616.65	559.35
617.00	557.80
617.35	556.42
617.70	554.83
618.04	553.10
618.39	551.16
618.74	549.82
619.08	548.03
619.43	546.52
619.78	545.08
620.12	543.47
620.47	541.98
620.82	540.13
621.16	538.39
621.51	536.89
621.85	535.41
622.20	533.76
622.55	532.08
622.89	530.37
623.24	528.65
623.59	526.81
623.93	525.08
624.28	523.51
624.62	522.14
624.97	520.61
625.32	518.96
625.66	517.53
626.01	515.78
626.35	514.35
626.70	512.68
627.04	511.15
627.39	509.49
627.73	507.99
628.08	506.70
628.43	505.27
628.77	503.47
629.12	501.74
629.46	500.27
629.81	498.77
630.15	497.03
630.50	495.40
630.84	493.84
631.19	492.15
631.53	490.45
631.88	488.47
632.22	486.73
632.57	485.45
632.91	483.79
633.26	482.28
633.60	480.65
633.95	479.25
634.29	477.57
634.64	476.23
634.98	474.49
635.32	472.91
635.67	471.43
636.01	469.97
636.36	468.46
636.70	467.06
637.05	465.44
637.39	464.03
637.73	462.66
638.08	461.43
638.42	460.02
638.77	458.64
639.11	457.25
639.45	455.79
639.80	454.04
640.14	452.49
640.49	450.91
640.83	449.35
641.17	447.67
641.52	446.05
641.86	444.34
642.20	442.89
642.55	441.11
642.89	439.56
643.23	438.10
643.58	436.82
643.92	434.90
644.26	433.50
644.61	432.03
644.95	430.41
645.29	428.77
645.64	427.15
645.98	425.61
646.32	423.96
646.66	422.29
647.01	420.81
647.35	419.33
647.69	417.74
648.04	416.26
648.38	414.92
648.72	413.51
649.06	412.00
649.41	410.46
649.75	409.04
650.09	407.60
650.43	405.95
650.78	404.17
651.12	402.84
651.46	401.30
651.80	399.79
652.14	398.26
652.49	396.77
652.83	395.34
653.17	393.64
653.51	392.21
653.85	390.83
654.20	389.55
654.54	388.02
654.88	386.50
655.22	385.07
655.56	383.30
655.90	381.79
656.25	380.23
656.59	378.73
656.93	377.36
657.27	375.95
657.61	374.62
657.95	373.44
658.29	372.03
658.64	370.75
658.98	369.26
659.32	367.78
659.66	366.38
660.00	365.03
660.34	363.72
660.68	362.23
661.02	360.96
661.36	359.49
661.70	358.15
662.05	356.99
662.39	355.65
662.73	354.63
663.07	353.53
663.41	352.41
663.75	351.10
664.09	349.79
664.43	348.41
664.77	347.12
665.11	345.70
665.45	344.49
665.79	343.33
666.13	342.17
666.47	341.02
666.81	339.83
667.15	338.51
667.49	337.42
667.83	336.54
668.17	335.39
668.51	334.32
668.85	333.38
669.19	332.39
669.53	331.26
669.87	330.13
670.21	329.07
670.55	327.96
670.89	327.16
671.23	326.30
671.57	325.37
671.91	324.37
672.25	323.43
672.58	322.55
672.92	321.40
673.26	320.45
673.60	319.50
673.94	318.54
674.28	317.65
674.62	316.81
674.96	315.80
675.30	314.79
675.64	313.85
675.97	312.90
676.31	311.93
676.65	311.07
676.99	310.33
677.33	309.32
677.67	308.48
678.01	307.45
678.34	306.50
678.68	305.65
679.02	304.81
679.36	303.91
679.70	302.97
680.04	302.13
680.37	301.24
680.71	300.32
681.05	299.56
681.39	298.68
681.73	297.84
682.06	297.06
682.40	296.38
682.74	295.68
683.08	295.01
683.42	294.19
683.75	293.55
684.09	292.62
684.43	291.78
684.77	290.96
685.10	290.25
685.44	289.42
685.78	288.66
686.12	287.89
686.45	287.09
686.79	286.34
687.13	285.60
687.46	284.86
687.80	284.28
688.14	283.54
688.48	282.98
688.81	282.22
689.15	281.52
689.49	280.79
689.82	280.04
690.16	279.16
690.50	278.41
690.83	277.56
691.17	276.82
691.51	276.09
691.84	275.49
692.18	274.90
692.52	274.30
692.85	273.69
693.19	273.23
693.52	272.64
693.86	271.91
694.20	271.34
694.53	270.82
694.87	270.21
695.21	269.63
695.54	268.91
695.88	268.27
696.21	267.65
696.55	267.13
696.88	266.45
697.22	265.84
697.56	265.37
697.89	264.77
698.23	264.31
698.56	263.82
698.90	263.35
699.23	262.70
699.57	262.19
699.90	261.57
700.24	260.86
700.58	260.35
700.91	260.00
701.25	259.74
701.58	259.30
701.92	258.82
702.25	258.30
702.59	257.84
702.92	257.47
703.26	257.00
703.59	256.42
703.93	256.34
704.26	255.96
704.60	255.50
704.93	255.07
705.26	254.55
705.60	254.16
705.93	253.57
706.27	253.25
706.60	252.89
706.94	252.70
707.27	252.21
707.61	251.77
707.94	251.34
708.27	250.68
708.61	250.15
708.94	249.66
709.28	249.26
709.61	248.88
709.94	248.48
710.28	248.07
710.61	247.76
710.95	247.03
711.28	246.82
711.61	246.42
711.95	246.24
712.28	245.93
712.61	245.56
712.95	245.46
713.28	245.20
713.61	244.83
713.95	244.32
714.28	244.08
714.61	243.77
714.95	243.43
715.28	243.08
715.61	242.78
715.95	242.43
716.28	242.11
716.61	241.78
716.95	241.39
717.28	241.11
717.61	240.80
717.94	240.56
718.28	240.09
718.61	239.85
718.94	239.45
719.27	239.06
719.61	238.80
719.94	238.39
720.27	237.97
720.60	237.68
720.94	237.37
721.27	237.09
721.60	236.87
721.93	236.59
722.27	236.47
722.60	236.27
722.93	236.09
723.26	235.89
723.59	235.63
723.93	235.40
724.26	235.08
724.59	234.81
724.92	234.55
725.25	234.40
725.59	234.11
725.92	233.95
726.25	233.74
726.58	233.39
726.91	233.16
727.24	233.00
727.57	232.76
727.91	232.49
728.24	232.36
728.57	232.07
728.90	231.87
729.23	231.52
729.56	231.45
729.89	231.27
730.22	230.93
730.55	230.72
730.89	230.58
731.22	230.47
731.55	230.31
731.88	230.18
732.21	229.89
732.54	229.62
732.87	229.46
733.20	229.25
733.53	229.22
733.86	229.09
734.19	228.87
734.52	228.70
734.85	228.76
735.18	228.56
735.51	228.53
735.84	228.40
736.17	228.24
736.50	227.84
736.83	228.07
737.16	227.96
737.49	227.82
737.82	227.60
738.15	227.47
738.48	227.31
738.81	227.10
739.14	226.89
739.47	226.77
739.80	226.54
740.13	226.45
740.46	226.19
740.79	225.89
741.12	225.72
741.45	225.47
741.78	225.15
742.11	225.00
742.44	224.78
742.77	224.67
743.10	224.59
743.43	224.47
743.75	223.92
744.08	224.27
744.41	224.06
744.74	223.94
745.07	223.75
745.40	223.65
745.73	223.63
746.06	223.65
746.39	223.55
746.71	223.46
747.04	223.36
747.37	223.28
747.70	223.25
748.03	223.12
748.36	223.13
748.68	223.07
749.01	222.88
749.34	222.73
749.67	222.63
750.00	222.51
750.33	222.69
750.65	222.62
750.98	221.99
751.31	221.98
751.64	221.88
751.97	222.03
752.29	221.89
752.62	221.63
752.95	221.39
753.28	221.23
753.60	221.09
753.93	221.09
754.26	221.06
754.59	220.86
754.91	220.73
755.24	220.60
755.57	220.50
755.90	220.45
756.22	220.39
756.55	220.11
756.88	219.96
757.20	219.59
757.53	219.47
757.86	219.49
758.19	219.35
758.51	219.31
758.84	218.92
759.17	218.82
759.49	218.75
759.82	218.85
760.15	218.80
760.47	218.72
760.80	218.48
761.13	218.40
761.45	218.43
761.78	218.34
762.11	218.25
762.43	218.13
762.76	218.01
763.08	218.01
763.41	218.03
763.74	218.00
764.06	217.95
764.39	217.84
764.71	217.80
765.04	217.67
765.37	217.58
765.69	217.55
766.02	217.47
766.34	217.41
766.67	217.26
767.00	217.28
767.32	217.40
767.65	217.49
767.97	217.42
768.30	217.33
768.62	217.30
768.95	217.24
769.27	217.16
769.60	217.11
769.92	216.92
770.25	216.89
770.57	216.77
770.90	216.71
771.22	216.63
771.55	216.53
771.87	216.57
772.20	216.51
772.52	216.70
772.85	217.09
773.17	217.03
773.50	216.96
773.82	216.87
774.15	216.63
774.47	216.42
774.80	216.30
775.12	216.23
775.45	216.18
775.77	216.15
776.09	216.13
776.42	216.14
776.74	216.23
777.07	216.13
777.39	216.13
777.72	215.98
778.04	215.93
778.36	215.84
778.69	215.76
779.01	215.71
779.33	215.42
779.66	214.98
779.98	214.94
780.31	214.88
780.63	214.96
780.95	214.95
781.28	214.89
781.60	214.76
781.92	214.71
782.25	214.65
782.57	214.55
782.89	214.47
783.22	214.41
783.54	214.27
783.86	214.28
784.19	214.20
784.51	214.31
784.83	214.29
785.16	214.27
785.48	214.24
785.80	214.24
786.12	214.20
786.45	214.16
786.77	214.07
787.09	213.97
787.42	213.83
787.74	213.77
788.06	213.77
788.38	213.80
788.71	213.78
789.03	213.78
789.35	213.84
789.67	213.80
789.99	213.83
790.32	213.76
790.64	213.72
790.96	214.00
791.28	213.91
791.61	213.84
791.93	213.80
792.25	213.82
792.57	214.02
792.89	213.92
793.21	213.92
793.54	213.97
793.86	213.98
794.18	214.02
