SpectraSuite Data File
++++++++++++++++++++++++++++++++++++
Date: Mon Feb 25 16:58:30 EST 2013
User: group
Dark Spectrum Present: No
Reference Spectrum Present: No
Number of Sampled Component Spectra: 1
Spectrometers: USB2E7196
Integration Time (usec): 104000 (USB2E7196)
Spectra Averaged: 20 (USB2E7196)
Boxcar Smoothing: 10 (USB2E7196)
Correct for Electrical Dark: No (USB2E7196)
Strobe/Lamp Enabled: No (USB2E7196)
Correct for Detector Non-linearity: No (USB2E7196)
Correct for Stray Light: No (USB2E7196)
Number of Pixels in Processed Spectrum: 2048
>>>>>Begin Processed Spectral Data<<<<<
339.09	0.00
339.48	197.90
339.86	200.70
340.24	201.70
340.63	203.00
341.01	209.50
341.39	205.15
341.78	208.85
342.16	208.80
342.54	208.05
342.93	198.48
343.31	208.53
343.69	209.11
344.07	209.57
344.46	210.07
344.84	210.45
345.22	210.53
345.60	210.85
345.99	210.99
346.37	211.12
346.75	211.25
347.13	211.34
347.52	211.41
347.90	211.55
348.28	211.50
348.66	211.66
349.05	211.59
349.43	211.62
349.81	211.71
350.19	211.74
350.57	211.78
350.96	211.87
351.34	211.91
351.72	212.03
352.10	212.12
352.48	212.17
352.87	212.27
353.25	212.36
353.63	212.38
354.01	212.49
354.39	212.59
354.77	212.65
355.15	212.80
355.54	212.78
355.92	212.81
356.30	212.94
356.68	213.20
357.06	213.19
357.44	213.21
357.82	213.19
358.20	213.30
358.58	213.34
358.97	213.41
359.35	213.56
359.73	213.64
360.11	213.63
360.49	213.65
360.87	213.62
361.25	213.66
361.63	213.82
362.01	213.76
362.39	213.72
362.77	213.77
363.15	213.75
363.53	213.80
363.91	213.87
364.29	213.89
364.67	213.58
365.05	213.64
365.43	213.70
365.81	213.83
366.19	213.97
366.57	214.13
366.95	214.10
367.33	213.98
367.71	214.02
368.09	214.12
368.47	214.11
368.85	214.09
369.23	214.08
369.61	213.93
369.99	214.04
370.37	214.05
370.75	214.22
371.13	214.05
371.51	213.96
371.89	213.85
372.27	213.78
372.65	213.80
373.03	213.76
373.41	213.67
373.78	213.55
374.16	213.29
374.54	213.12
374.92	213.05
375.30	213.01
375.68	212.78
376.06	212.71
376.44	212.61
376.82	212.54
377.19	212.50
377.57	212.45
377.95	212.29
378.33	212.21
378.71	212.00
379.09	212.02
379.47	211.97
379.84	211.90
380.22	211.90
380.60	211.71
380.98	211.66
381.36	211.65
381.73	211.53
382.11	211.59
382.49	211.51
382.87	211.44
383.25	211.39
383.62	211.87
384.00	211.79
384.38	211.80
384.76	211.83
385.13	211.95
385.51	211.96
385.89	211.90
386.27	211.90
386.64	211.85
387.02	211.77
387.40	211.85
387.78	211.84
388.15	211.77
388.53	211.78
388.91	211.75
389.29	211.72
389.66	211.82
390.04	211.76
390.42	211.82
390.79	211.87
391.17	211.90
391.55	211.43
391.92	211.36
392.30	211.35
392.68	211.30
393.05	211.26
393.43	211.23
393.81	211.25
394.18	211.18
394.56	211.21
394.94	211.38
395.31	211.30
395.69	211.46
396.06	211.52
396.44	211.59
396.82	211.55
397.19	211.66
397.57	211.70
397.95	211.78
398.32	211.72
398.70	211.80
399.07	211.91
399.45	211.96
399.82	212.06
400.20	212.12
400.58	212.27
400.95	212.21
401.33	212.33
401.70	212.66
402.08	212.84
402.45	212.87
402.83	212.99
403.20	213.16
403.58	213.23
403.95	213.41
404.33	213.61
404.71	213.82
405.08	214.20
405.46	214.32
405.83	214.48
406.21	214.75
406.58	214.99
406.96	215.17
407.33	215.58
407.70	215.94
408.08	216.64
408.45	217.00
408.83	217.47
409.20	217.90
409.58	218.21
409.95	218.78
410.33	219.44
410.70	219.98
411.08	220.73
411.45	221.39
411.82	222.07
412.20	222.89
412.57	224.03
412.95	224.73
413.32	225.83
413.69	226.92
414.07	228.06
414.44	229.27
414.82	230.66
415.19	232.12
415.56	233.66
415.94	234.99
416.31	236.86
416.68	238.67
417.06	240.73
417.43	242.73
417.81	244.87
418.18	247.17
418.55	249.69
418.93	252.26
419.30	255.09
419.67	258.03
420.04	261.00
420.42	264.03
420.79	267.76
421.16	271.40
421.54	275.35
421.91	279.30
422.28	283.50
422.66	287.84
423.03	292.25
423.40	296.72
423.77	301.61
424.15	306.43
424.52	311.62
424.89	317.23
425.26	322.57
425.64	327.89
426.01	333.60
426.38	339.47
426.75	345.50
427.13	351.78
427.50	358.41
427.87	365.28
428.24	372.14
428.61	378.74
428.99	385.98
429.36	393.79
429.73	401.63
430.10	409.32
430.47	417.40
430.85	425.65
431.22	434.55
431.59	443.90
431.96	452.98
432.33	462.93
432.70	472.54
433.08	484.00
433.45	494.59
433.82	505.45
434.19	517.40
434.56	529.07
434.93	540.40
435.30	551.87
435.68	564.74
436.05	577.33
436.42	589.83
436.79	601.40
437.16	613.76
437.53	626.91
437.90	639.99
438.27	652.98
438.64	666.28
439.01	678.66
439.38	689.84
439.75	700.97
440.13	713.49
440.50	725.25
440.87	735.15
441.24	745.50
441.61	756.78
441.98	765.38
442.35	775.49
442.72	785.31
443.09	794.75
443.46	800.78
443.83	805.34
444.20	809.27
444.57	814.64
444.94	817.82
445.31	820.97
445.68	823.95
446.05	825.69
446.42	825.57
446.79	825.13
447.16	824.46
447.53	823.89
447.90	820.07
448.27	816.33
448.64	810.49
449.01	806.71
449.37	798.74
449.74	791.39
450.11	782.27
450.48	772.43
450.85	762.36
451.22	753.63
451.59	745.31
451.96	737.46
452.33	726.60
452.70	716.82
453.07	704.96
453.43	693.05
453.80	681.52
454.17	670.34
454.54	659.72
454.91	648.49
455.28	637.54
455.65	627.08
456.02	616.78
456.38	607.87
456.75	596.53
457.12	587.44
457.49	578.38
457.86	569.45
458.23	561.87
458.59	553.52
458.96	545.05
459.33	537.50
459.70	529.99
460.07	524.05
460.43	517.16
460.80	510.68
461.17	504.94
461.54	498.89
461.91	493.14
462.27	487.44
462.64	482.49
463.01	476.96
463.38	471.66
463.74	466.25
464.11	461.63
464.48	457.76
464.85	453.29
465.21	449.80
465.58	446.29
465.95	441.79
466.32	438.10
466.68	434.49
467.05	430.94
467.42	427.30
467.78	423.57
468.15	419.87
468.52	417.28
468.88	413.76
469.25	410.66
469.62	408.28
469.98	405.47
470.35	402.82
470.72	400.36
471.08	397.68
471.45	395.45
471.82	393.29
472.18	390.78
472.55	389.05
472.92	386.85
473.28	384.88
473.65	383.05
474.02	381.25
474.38	379.77
474.75	378.43
475.11	377.01
475.48	375.93
475.85	375.04
476.21	373.95
476.58	373.16
476.94	372.63
477.31	371.91
477.67	371.39
478.04	370.80
478.41	370.61
478.77	370.67
479.14	370.25
479.50	369.90
479.87	369.86
480.23	369.80
480.60	369.68
480.96	369.58
481.33	370.08
481.69	370.43
482.06	370.55
482.42	370.70
482.79	370.96
483.15	371.41
483.52	372.17
483.88	372.62
484.25	373.27
484.61	373.80
484.98	374.27
485.34	375.17
485.71	376.35
486.07	377.34
486.44	378.27
486.80	379.59
487.17	381.08
487.53	382.65
487.90	384.36
488.26	386.28
488.62	388.24
488.99	390.05
489.35	391.87
489.72	394.11
490.08	396.40
490.44	398.63
490.81	401.05
491.17	403.28
491.54	406.01
491.90	408.68
492.26	411.56
492.63	414.52
492.99	417.40
493.36	420.40
493.72	423.60
494.08	426.81
494.45	430.30
494.81	433.91
495.17	437.40
495.54	441.17
495.90	444.89
496.26	448.65
496.63	452.48
496.99	456.52
497.35	460.68
497.72	464.92
498.08	469.30
498.44	473.67
498.80	478.33
499.17	482.91
499.53	487.47
499.89	492.13
500.26	496.83
500.62	501.46
500.98	506.41
501.34	511.11
501.71	516.06
502.07	520.84
502.43	525.45
502.79	530.22
503.16	534.88
503.52	539.67
503.88	544.55
504.24	549.47
504.60	554.43
504.97	559.26
505.33	563.94
505.69	569.10
506.05	573.95
506.41	578.50
506.78	582.90
507.14	587.34
507.50	591.97
507.86	596.41
508.22	601.09
508.59	605.38
508.95	609.71
509.31	614.03
509.67	618.35
510.03	622.65
510.39	627.04
510.75	631.17
511.12	635.21
511.48	639.17
511.84	643.10
512.20	646.96
512.56	650.89
512.92	654.83
513.28	658.50
513.64	662.01
514.00	665.59
514.37	669.06
514.73	672.68
515.09	675.95
515.45	679.35
515.81	682.50
516.17	685.42
516.53	688.57
516.89	691.40
517.25	694.06
517.61	696.90
517.97	699.38
518.33	701.73
518.69	704.30
519.05	706.74
519.41	709.01
519.77	711.50
520.13	713.51
520.49	715.29
520.85	717.16
521.21	719.37
521.57	721.29
521.93	723.11
522.29	725.09
522.65	726.91
523.01	728.79
523.37	730.39
523.73	732.27
524.09	733.84
524.45	735.63
524.81	737.55
525.17	739.28
525.53	741.06
525.89	742.87
526.25	744.42
526.61	745.86
526.97	747.26
527.33	748.85
527.68	750.72
528.04	752.45
528.40	753.73
528.76	755.03
529.12	756.73
529.48	758.58
529.84	760.07
530.20	761.69
530.56	763.32
530.91	765.12
531.27	766.98
531.63	768.78
531.99	770.40
532.35	771.92
532.71	773.51
533.07	775.45
533.42	777.61
533.78	779.58
534.14	781.52
534.50	783.25
534.86	785.05
535.21	786.49
535.57	788.56
535.93	790.73
536.29	792.76
536.65	794.67
537.00	796.46
537.36	798.40
537.72	800.28
538.08	802.11
538.44	804.00
538.79	805.89
539.15	807.75
539.51	809.86
539.87	812.08
540.22	814.18
540.58	816.36
540.94	818.31
541.29	820.25
541.65	822.01
542.01	824.31
542.37	826.44
542.72	828.68
543.08	830.66
543.44	832.80
543.79	834.69
544.15	836.82
544.51	839.30
544.87	841.62
545.22	843.93
545.58	846.12
545.94	848.23
546.29	850.03
546.65	852.13
547.01	854.01
547.36	855.91
547.72	857.90
548.07	859.63
548.43	861.23
548.79	863.15
549.14	865.40
549.50	867.39
549.86	868.91
550.21	870.78
550.57	873.00
550.92	874.82
551.28	876.74
551.64	878.69
551.99	880.49
552.35	882.16
552.70	883.64
553.06	885.51
553.41	887.42
553.77	889.46
554.13	891.59
554.48	893.59
554.84	895.99
555.19	897.93
555.55	900.21
555.90	902.25
556.26	903.81
556.61	905.26
556.97	906.82
557.32	908.76
557.68	910.36
558.03	911.60
558.39	913.00
558.74	914.87
559.10	916.33
559.45	917.88
559.81	919.42
560.16	921.00
560.52	922.35
560.87	923.81
561.23	925.10
561.58	926.58
561.94	927.81
562.29	928.35
562.64	929.75
563.00	930.77
563.35	931.97
563.71	933.75
564.06	935.27
564.42	937.03
564.77	938.61
565.12	940.17
565.48	941.93
565.83	943.41
566.19	944.68
566.54	945.94
566.89	947.18
567.25	948.71
567.60	950.23
567.96	951.73
568.31	953.19
568.66	954.50
569.02	955.08
569.37	955.81
569.72	956.92
570.08	957.53
570.43	958.08
570.78	958.68
571.14	959.01
571.49	959.30
571.84	959.58
572.20	959.55
572.55	959.68
572.90	959.15
573.26	958.99
573.61	958.71
573.96	958.54
574.31	957.87
574.67	957.11
575.02	956.05
575.37	955.11
575.72	954.02
576.08	953.15
576.43	952.21
576.78	951.51
577.13	950.78
577.49	949.81
577.84	948.66
578.19	947.95
578.54	947.21
578.90	946.72
579.25	945.72
579.60	944.43
579.95	943.03
580.30	942.09
580.66	941.00
581.01	939.60
581.36	938.10
581.71	936.72
582.06	935.39
582.42	934.34
582.77	932.76
583.12	931.19
583.47	929.71
583.82	928.36
584.17	926.68
584.53	925.14
584.88	923.55
585.23	921.83
585.58	919.80
585.93	917.78
586.28	915.88
586.63	914.01
586.98	912.58
587.34	911.21
587.69	909.58
588.04	907.90
588.39	906.29
588.74	904.36
589.09	902.99
589.44	900.90
589.79	899.13
590.14	897.52
590.49	895.66
590.84	893.65
591.19	892.14
591.54	890.34
591.89	887.92
592.25	886.12
592.60	884.14
592.95	882.23
593.30	879.80
593.65	877.19
594.00	874.80
594.35	873.36
594.70	870.87
595.05	868.55
595.40	866.07
595.75	863.52
596.10	861.52
596.45	859.03
596.80	857.03
597.15	854.86
597.50	852.30
597.85	850.04
598.19	847.69
598.54	845.01
598.89	842.69
599.24	840.72
599.59	838.33
599.94	836.08
600.29	833.57
600.64	831.40
600.99	829.13
601.34	826.73
601.69	823.40
602.04	820.74
602.39	818.22
602.74	815.95
603.08	813.88
603.43	811.71
603.78	809.25
604.13	806.86
604.48	804.30
604.83	802.30
605.18	800.16
605.53	797.75
605.87	795.31
606.22	792.89
606.57	790.20
606.92	787.67
607.27	785.14
607.62	782.72
607.96	780.32
608.31	777.86
608.66	775.22
609.01	772.35
609.36	769.91
609.70	767.23
610.05	764.32
610.40	761.50
610.75	758.38
611.10	755.92
611.44	752.74
611.79	749.62
612.14	746.42
612.49	743.08
612.83	740.12
613.18	736.92
613.53	733.74
613.88	730.69
614.22	727.50
614.57	724.48
614.92	721.44
615.27	718.25
615.61	715.41
615.96	712.65
616.31	710.00
616.65	707.18
617.00	704.19
617.35	701.37
617.70	698.34
618.04	695.23
618.39	691.78
618.74	688.92
619.08	685.97
619.43	683.07
619.78	680.41
620.12	677.58
620.47	675.00
620.82	672.07
621.16	668.90
621.51	666.01
621.85	663.11
622.20	660.15
622.55	657.26
622.89	654.05
623.24	650.98
623.59	647.76
623.93	644.88
624.28	642.04
624.62	639.43
624.97	636.68
625.32	633.88
625.66	631.37
626.01	628.56
626.35	625.86
626.70	623.11
627.04	620.39
627.39	617.66
627.73	615.14
628.08	612.68
628.43	610.13
628.77	607.57
629.12	604.83
629.46	602.25
629.81	599.66
630.15	597.20
630.50	594.50
630.84	591.92
631.19	589.26
631.53	586.71
631.88	583.60
632.22	580.79
632.57	578.41
632.91	575.72
633.26	573.27
633.60	570.75
633.95	568.31
634.29	565.55
634.64	563.12
634.98	560.16
635.32	557.73
635.67	555.50
636.01	553.02
636.36	550.50
636.70	548.16
637.05	545.62
637.39	543.32
637.73	541.15
638.08	539.21
638.42	536.97
638.77	534.81
639.11	532.73
639.45	530.50
639.80	528.12
640.14	525.75
640.49	523.45
640.83	521.07
641.17	518.78
641.52	516.58
641.86	514.16
642.20	511.99
642.55	509.47
642.89	507.16
643.23	504.76
643.58	502.80
643.92	500.35
644.26	498.26
644.61	496.06
644.95	493.82
645.29	491.39
645.64	489.17
645.98	486.81
646.32	484.59
646.66	482.46
647.01	480.31
647.35	478.01
647.69	475.85
648.04	473.78
648.38	471.47
648.72	469.30
649.06	467.21
649.41	464.99
649.75	462.90
650.09	460.76
650.43	458.84
650.78	456.54
651.12	454.56
651.46	452.38
651.80	450.34
652.14	448.21
652.49	446.12
652.83	443.97
653.17	441.82
653.51	439.82
653.85	437.79
654.20	435.71
654.54	433.57
654.88	431.52
655.22	429.60
655.56	427.57
655.90	425.52
656.25	423.37
656.59	421.39
656.93	419.47
657.27	417.67
657.61	415.55
657.95	413.65
658.29	411.71
658.64	410.03
658.98	408.01
659.32	406.16
659.66	404.32
660.00	402.44
660.34	400.60
660.68	398.62
661.02	396.75
661.36	394.97
661.70	393.45
662.05	391.68
662.39	390.08
662.73	388.62
663.07	387.23
663.41	385.70
663.75	384.10
664.09	382.43
664.43	380.60
664.77	379.07
665.11	377.52
665.45	376.02
665.79	374.41
666.13	372.84
666.47	371.22
666.81	369.73
667.15	368.29
667.49	366.99
667.83	365.73
668.17	364.36
668.51	362.99
668.85	361.56
669.19	360.47
669.53	358.85
669.87	357.42
670.21	355.89
670.55	354.50
670.89	353.49
671.23	352.29
671.57	351.10
671.91	349.78
672.25	348.51
672.58	347.27
672.92	345.98
673.26	344.88
673.60	343.71
673.94	342.50
674.28	341.23
674.62	340.03
674.96	338.83
675.30	337.65
675.64	336.50
675.97	335.38
676.31	334.15
676.65	333.07
676.99	332.13
677.33	330.90
677.67	329.84
678.01	328.49
678.34	327.40
678.68	326.41
679.02	325.32
679.36	324.29
679.70	323.20
680.04	322.12
680.37	321.07
680.71	319.99
681.05	318.94
681.39	317.99
681.73	316.98
682.06	316.00
682.40	314.98
682.74	314.06
683.08	313.14
683.42	312.07
683.75	311.12
684.09	309.97
684.43	309.13
684.77	308.14
685.10	307.27
685.44	306.24
685.78	305.24
686.12	304.40
686.45	303.44
686.79	302.47
687.13	301.69
687.46	300.79
687.80	300.04
688.14	299.20
688.48	298.32
688.81	297.34
689.15	296.48
689.49	295.64
689.82	294.77
690.16	293.81
690.50	292.90
690.83	292.00
691.17	291.04
691.51	290.16
691.84	289.40
692.18	288.58
692.52	287.85
692.85	287.16
693.19	286.50
693.52	285.67
693.86	284.78
694.20	283.97
694.53	283.19
694.87	282.34
695.21	281.50
695.54	280.72
695.88	279.95
696.21	279.16
696.55	278.49
696.88	277.73
697.22	276.96
697.56	276.30
697.89	275.51
698.23	274.94
698.56	274.20
698.90	273.50
699.23	272.80
699.57	272.13
699.90	271.36
700.24	270.45
700.58	269.84
700.91	269.38
701.25	269.02
701.58	268.49
701.92	267.99
702.25	267.38
702.59	266.75
702.92	266.18
703.26	265.60
703.59	264.94
703.93	264.67
704.26	264.23
704.60	263.74
704.93	263.25
705.26	262.64
705.60	262.13
705.93	261.56
706.27	261.07
706.60	260.56
706.94	260.17
707.27	259.75
707.61	259.20
707.94	258.56
708.27	257.78
708.61	257.17
708.94	256.65
709.28	256.23
709.61	255.79
709.94	255.43
710.28	254.98
710.61	254.61
710.95	253.80
711.28	253.57
711.61	253.00
711.95	252.68
712.28	252.33
712.61	252.04
712.95	251.75
713.28	251.46
713.61	251.01
713.95	250.52
714.28	250.11
714.61	249.75
714.95	249.42
715.28	249.00
715.61	248.67
715.95	248.30
716.28	247.85
716.61	247.50
716.95	246.95
717.28	246.59
717.61	246.19
717.94	245.89
718.28	245.25
718.61	244.99
718.94	244.58
719.27	244.19
719.61	243.72
719.94	243.38
720.27	242.94
720.60	242.66
720.94	242.28
721.27	242.00
721.60	241.75
721.93	241.50
722.27	241.36
722.60	241.05
722.93	240.68
723.26	240.43
723.59	240.18
723.93	240.00
724.26	239.82
724.59	239.54
724.92	239.22
725.25	239.11
725.59	238.83
725.92	238.61
726.25	238.33
726.58	238.14
726.91	237.83
727.24	237.56
727.57	237.26
727.91	236.99
728.24	236.80
728.57	236.49
728.90	236.31
729.23	235.89
729.56	235.90
729.89	235.66
730.22	235.46
730.55	235.10
730.89	234.81
731.22	234.46
731.55	234.22
731.88	233.99
732.21	233.68
732.54	233.35
732.87	233.14
733.20	232.97
733.53	232.77
733.86	232.62
734.19	232.40
734.52	232.26
734.85	232.28
735.18	231.93
735.51	231.90
735.84	231.64
736.17	231.55
736.50	231.16
736.83	231.41
737.16	231.24
737.49	231.14
737.82	231.01
738.15	230.93
738.48	230.67
738.81	230.51
739.14	230.25
739.47	230.12
739.80	229.86
740.13	229.71
740.46	229.41
740.79	229.08
741.12	228.86
741.45	228.61
741.78	228.22
742.11	228.18
742.44	227.85
742.77	227.75
743.10	227.54
743.43	227.27
743.75	226.67
744.08	226.88
744.41	226.69
744.74	226.47
745.07	226.20
745.40	226.15
745.73	226.14
746.06	225.98
746.39	225.85
746.71	225.74
747.04	225.55
747.37	225.43
747.70	225.40
748.03	225.27
748.36	225.12
748.68	225.06
749.01	224.81
749.34	224.65
749.67	224.42
750.00	224.36
750.33	224.50
750.65	224.42
750.98	223.85
751.31	223.65
751.64	223.52
751.97	223.61
752.29	223.46
752.62	223.17
752.95	223.02
753.28	222.89
753.60	222.70
753.93	222.66
754.26	222.59
754.59	222.33
754.91	222.21
755.24	222.18
755.57	222.03
755.90	221.91
756.22	221.83
756.55	221.69
756.88	221.51
757.20	221.22
757.53	220.98
757.86	220.93
758.19	220.95
758.51	220.82
758.84	220.46
759.17	220.30
759.49	220.25
759.82	220.35
760.15	220.30
760.47	220.21
760.80	220.00
761.13	220.00
761.45	219.93
761.78	219.83
762.11	219.65
762.43	219.56
762.76	219.50
763.08	219.45
763.41	219.43
763.74	219.41
764.06	219.30
764.39	219.33
764.71	219.21
765.04	219.07
765.37	219.02
765.69	218.99
766.02	218.93
766.34	218.80
766.67	218.59
767.00	218.58
767.32	218.66
767.65	218.78
767.97	218.61
768.30	218.59
768.62	218.51
768.95	218.42
769.27	218.32
769.60	218.26
769.92	218.09
770.25	217.97
770.57	217.77
770.90	217.63
771.22	217.48
771.55	217.41
771.87	217.38
772.20	217.32
772.52	217.61
772.85	217.98
773.17	217.95
773.50	217.91
773.82	217.73
774.15	217.51
774.47	217.15
774.80	217.05
775.12	217.04
775.45	216.93
775.77	216.90
776.09	216.90
776.42	216.86
776.74	216.92
777.07	216.82
777.39	216.85
777.72	216.87
778.04	216.86
778.36	216.81
778.69	216.82
779.01	216.78
779.33	216.35
779.66	215.86
779.98	215.76
780.31	215.71
780.63	215.81
780.95	215.84
781.28	215.89
781.60	215.80
781.92	215.69
782.25	215.68
782.57	215.60
782.89	215.50
783.22	215.33
783.54	215.16
783.86	215.17
784.19	215.07
784.51	215.12
784.83	215.00
785.16	214.93
785.48	214.87
785.80	214.83
786.12	214.84
786.45	214.88
786.77	214.91
787.09	214.91
787.42	214.77
787.74	214.79
788.06	214.78
788.38	214.81
788.71	214.72
789.03	214.72
789.35	214.75
789.67	214.65
789.99	214.80
790.32	214.76
790.64	214.77
790.96	215.11
791.28	214.90
791.61	214.90
791.93	214.83
792.25	214.77
792.57	214.98
792.89	214.95
793.21	214.90
793.54	214.81
793.86	214.72
794.18	214.66
