SpectraSuite Data File
++++++++++++++++++++++++++++++++++++
Date: Mon Feb 25 16:57:46 EST 2013
User: group
Dark Spectrum Present: No
Reference Spectrum Present: No
Number of Sampled Component Spectra: 1
Spectrometers: USB2E7196
Integration Time (usec): 104000 (USB2E7196)
Spectra Averaged: 20 (USB2E7196)
Boxcar Smoothing: 10 (USB2E7196)
Correct for Electrical Dark: No (USB2E7196)
Strobe/Lamp Enabled: No (USB2E7196)
Correct for Detector Non-linearity: No (USB2E7196)
Correct for Stray Light: No (USB2E7196)
Number of Pixels in Processed Spectrum: 2048
>>>>>Begin Processed Spectral Data<<<<<
339.09	0.00
339.48	198.45
339.86	200.25
340.24	201.45
340.63	203.50
341.01	208.85
341.39	205.90
341.78	207.10
342.16	209.85
342.54	209.20
342.93	198.40
343.31	208.36
343.69	208.91
344.07	209.36
344.46	209.84
344.84	210.20
345.22	210.35
345.60	210.62
345.99	210.82
346.37	210.85
346.75	210.98
347.13	211.00
347.52	211.01
347.90	211.25
348.28	211.28
348.66	211.36
349.05	211.29
349.43	211.30
349.81	211.38
350.19	211.44
350.57	211.53
350.96	211.67
351.34	211.90
351.72	211.99
352.10	212.14
352.48	212.22
352.87	212.27
353.25	212.23
353.63	212.24
354.01	212.36
354.39	212.47
354.77	212.42
355.15	212.60
355.54	212.65
355.92	212.58
356.30	212.70
356.68	212.93
357.06	213.01
357.44	213.01
357.82	213.10
358.20	213.22
358.58	213.20
358.97	213.21
359.35	213.25
359.73	213.41
360.11	213.44
360.49	213.49
360.87	213.48
361.25	213.65
361.63	213.81
362.01	213.88
362.39	213.97
362.77	214.12
363.15	214.18
363.53	214.24
363.91	214.25
364.29	214.26
364.67	213.97
365.05	213.98
365.43	214.04
365.81	214.11
366.19	214.25
366.57	214.39
366.95	214.40
367.33	214.36
367.71	214.39
368.09	214.39
368.47	214.38
368.85	214.44
369.23	214.49
369.61	214.37
369.99	214.35
370.37	214.27
370.75	214.37
371.13	214.27
371.51	214.28
371.89	214.28
372.27	214.20
372.65	214.20
373.03	214.16
373.41	214.17
373.78	214.11
374.16	213.81
374.54	213.69
374.92	213.60
375.30	213.59
375.68	213.39
376.06	213.37
376.44	213.26
376.82	213.27
377.19	213.15
377.57	213.09
377.95	212.96
378.33	212.93
378.71	212.73
379.09	212.72
379.47	212.62
379.84	212.52
380.22	212.44
380.60	212.34
380.98	212.25
381.36	212.14
381.73	212.09
382.11	212.18
382.49	212.29
382.87	212.20
383.25	212.12
383.62	212.52
384.00	212.42
384.38	212.46
384.76	212.45
385.13	212.62
385.51	212.59
385.89	212.61
386.27	212.54
386.64	212.48
387.02	212.46
387.40	212.43
387.78	212.42
388.15	212.50
388.53	212.45
388.91	212.50
389.29	212.50
389.66	212.51
390.04	212.43
390.42	212.37
390.79	212.39
391.17	212.35
391.55	211.95
391.92	211.91
392.30	211.86
392.68	211.78
393.05	211.73
393.43	211.72
393.81	211.70
394.18	211.71
394.56	211.78
394.94	211.80
395.31	211.74
395.69	211.88
396.06	211.90
396.44	211.99
396.82	211.99
397.19	212.27
397.57	212.29
397.95	212.35
398.32	212.26
398.70	212.31
399.07	212.41
399.45	212.41
399.82	212.51
400.20	212.55
400.58	212.63
400.95	212.50
401.33	212.70
401.70	213.00
402.08	213.07
402.45	213.19
402.83	213.30
403.20	213.51
403.58	213.60
403.95	213.85
404.33	214.05
404.71	214.23
405.08	214.56
405.46	214.71
405.83	215.01
406.21	215.33
406.58	215.63
406.96	216.00
407.33	216.38
407.70	216.79
408.08	217.46
408.45	217.96
408.83	218.55
409.20	218.98
409.58	219.36
409.95	220.03
410.33	220.71
410.70	221.38
411.08	222.11
411.45	222.92
411.82	223.56
412.20	224.57
412.57	225.74
412.95	226.39
413.32	227.57
413.69	228.68
414.07	229.93
414.44	231.31
414.82	232.75
415.19	234.37
415.56	236.04
415.94	237.69
416.31	239.70
416.68	241.64
417.06	243.96
417.43	246.07
417.81	248.58
418.18	251.18
418.55	253.94
418.93	256.82
419.30	259.83
419.67	263.15
420.04	266.41
420.42	269.83
420.79	274.05
421.16	278.15
421.54	282.49
421.91	286.85
422.28	291.48
422.66	296.23
423.03	301.08
423.40	306.04
423.77	311.35
424.15	316.74
424.52	322.40
424.89	328.54
425.26	334.59
425.64	340.40
426.01	346.75
426.38	353.36
426.75	360.13
427.13	367.08
427.50	374.46
427.87	382.11
428.24	389.91
428.61	397.17
428.99	405.18
429.36	413.94
429.73	422.56
430.10	431.05
430.47	440.01
430.85	449.02
431.22	458.77
431.59	469.19
431.96	479.15
432.33	490.21
432.70	500.97
433.08	513.50
433.45	525.23
433.82	536.92
434.19	550.12
434.56	563.14
434.93	575.70
435.30	588.26
435.68	602.32
436.05	616.15
436.42	630.10
436.79	642.90
437.16	656.61
437.53	671.36
437.90	685.93
438.27	700.39
438.64	715.56
439.01	729.42
439.38	741.92
439.75	754.24
440.13	768.08
440.50	781.16
440.87	792.22
441.24	803.66
441.61	816.33
441.98	825.96
442.35	837.00
442.72	848.00
443.09	858.60
443.46	865.56
443.83	870.53
444.20	874.84
444.57	880.71
444.94	884.23
445.31	887.76
445.68	891.14
446.05	893.12
446.42	892.73
446.79	892.27
447.16	891.60
447.53	891.31
447.90	887.29
448.27	883.09
448.64	876.68
449.01	872.55
449.37	863.91
449.74	855.60
450.11	845.60
450.48	834.74
450.85	823.52
451.22	813.66
451.59	804.50
451.96	795.85
452.33	783.93
452.70	772.95
453.07	759.57
453.43	746.34
453.80	733.44
454.17	720.98
454.54	709.28
454.91	696.47
455.28	684.08
455.65	672.46
456.02	660.97
456.38	651.25
456.75	638.83
457.12	628.70
457.49	618.55
457.86	608.65
458.23	600.09
458.59	590.78
458.96	581.50
459.33	573.02
459.70	564.62
460.07	558.04
460.43	550.43
460.80	543.29
461.17	536.81
461.54	530.20
461.91	524.10
462.27	517.79
462.64	512.48
463.01	506.51
463.38	500.70
463.74	494.75
464.11	489.59
464.48	484.97
464.85	480.07
465.21	476.46
465.58	472.41
465.95	467.48
466.32	463.53
466.68	459.56
467.05	455.54
467.42	451.55
467.78	447.37
468.15	443.45
468.52	440.56
468.88	436.86
469.25	433.35
469.62	430.46
469.98	427.37
470.35	424.48
470.72	421.72
471.08	418.74
471.45	416.29
471.82	413.85
472.18	411.11
472.55	409.04
472.92	406.65
473.28	404.59
473.65	402.69
474.02	400.67
474.38	398.99
474.75	397.58
475.11	396.08
475.48	394.91
475.85	393.90
476.21	392.85
476.58	391.98
476.94	391.38
477.31	390.59
477.67	389.90
478.04	389.27
478.41	388.88
478.77	388.91
479.14	388.53
479.50	388.29
479.87	388.42
480.23	388.55
480.60	388.34
480.96	388.31
481.33	388.78
481.69	389.28
482.06	389.50
482.42	389.86
482.79	390.30
483.15	390.83
483.52	391.69
483.88	392.41
484.25	393.05
484.61	393.84
484.98	394.71
485.34	395.77
485.71	397.07
486.07	398.46
486.44	399.57
486.80	401.06
487.17	402.65
487.53	404.52
487.90	406.40
488.26	408.72
488.62	410.92
488.99	413.17
489.35	415.34
489.72	418.03
490.08	420.66
490.44	423.22
490.81	426.05
491.17	428.88
491.54	431.95
491.90	435.18
492.26	438.48
492.63	442.06
492.99	445.54
493.36	449.18
493.72	452.84
494.08	456.68
494.45	460.87
494.81	465.17
495.17	469.23
495.54	473.73
495.90	478.05
496.26	482.62
496.63	487.23
496.99	492.05
497.35	496.86
497.72	502.01
498.08	507.15
498.44	512.50
498.80	517.93
499.17	523.38
499.53	529.03
499.89	534.79
500.26	540.36
500.62	546.06
500.98	552.00
501.34	557.83
501.71	563.84
502.07	569.63
502.43	575.54
502.79	581.46
503.16	587.41
503.52	593.56
503.88	599.59
504.24	605.43
504.60	611.38
504.97	617.58
505.33	623.50
505.69	630.03
506.05	636.16
506.41	642.08
506.78	647.99
507.14	653.72
507.50	659.54
507.86	665.48
508.22	671.55
508.59	677.22
508.95	683.16
509.31	688.99
509.67	694.88
510.03	700.50
510.39	706.55
510.75	712.11
511.12	717.61
511.48	723.15
511.84	728.71
512.20	734.13
512.56	739.39
512.92	744.90
513.28	750.05
513.64	755.05
514.00	760.06
514.37	765.13
514.73	770.15
515.09	775.09
515.45	779.65
515.81	784.12
516.17	788.53
516.53	792.70
516.89	797.02
517.25	801.09
517.61	805.13
517.97	809.00
518.33	812.77
518.69	816.47
519.05	820.26
519.41	823.91
519.77	827.76
520.13	831.24
520.49	834.34
520.85	837.53
521.21	840.78
521.57	844.06
521.93	846.87
522.29	849.97
522.65	852.82
523.01	855.83
523.37	858.43
523.73	861.51
524.09	864.20
524.45	866.82
524.81	869.56
525.17	872.36
525.53	875.05
525.89	877.78
526.25	880.37
526.61	882.53
526.97	884.82
527.33	887.17
527.68	889.70
528.04	892.24
528.40	894.19
528.76	896.50
529.12	899.01
529.48	901.65
529.84	903.79
530.20	906.18
530.56	908.49
530.91	911.01
531.27	913.37
531.63	915.71
531.99	918.01
532.35	920.03
532.71	922.25
533.07	924.64
533.42	927.10
533.78	929.48
534.14	932.08
534.50	934.26
534.86	936.48
535.21	938.45
535.57	940.78
535.93	943.03
536.29	945.32
536.65	947.25
537.00	949.03
537.36	951.08
537.72	953.00
538.08	955.13
538.44	957.28
538.79	959.29
539.15	961.57
539.51	963.64
539.87	965.84
540.22	967.91
540.58	970.30
540.94	972.44
541.29	974.45
541.65	976.13
542.01	978.21
542.37	980.11
542.72	982.01
543.08	983.53
543.44	986.03
543.79	987.78
544.15	989.59
544.51	991.96
544.87	994.18
545.22	996.26
545.58	998.04
545.94	999.51
546.29	1001.03
546.65	1002.57
547.01	1004.00
547.36	1005.60
547.72	1007.18
548.07	1008.16
548.43	1009.03
548.79	1010.16
549.14	1011.70
549.50	1013.18
549.86	1014.55
550.21	1015.97
550.57	1017.88
550.92	1018.70
551.28	1020.02
551.64	1021.42
551.99	1022.53
552.35	1023.86
552.70	1025.01
553.06	1026.45
553.41	1028.22
553.77	1029.75
554.13	1031.20
554.48	1032.83
554.84	1034.53
555.19	1035.92
555.55	1037.49
555.90	1039.00
556.26	1040.15
556.61	1041.03
556.97	1042.02
557.32	1043.21
557.68	1044.18
558.03	1045.07
558.39	1046.05
558.74	1047.06
559.10	1048.11
559.45	1049.05
559.81	1050.02
560.16	1050.64
560.52	1051.55
560.87	1052.20
561.23	1052.65
561.58	1053.75
561.94	1054.27
562.29	1054.28
562.64	1055.13
563.00	1055.61
563.35	1056.53
563.71	1057.72
564.06	1058.82
564.42	1060.01
564.77	1061.15
565.12	1062.36
565.48	1063.15
565.83	1064.19
566.19	1065.35
566.54	1065.71
566.89	1066.41
567.25	1067.21
567.60	1068.29
567.96	1069.06
568.31	1069.80
568.66	1070.72
569.02	1070.75
569.37	1071.07
569.72	1071.93
570.08	1071.99
570.43	1071.98
570.78	1071.84
571.14	1071.54
571.49	1071.26
571.84	1070.90
572.20	1070.35
572.55	1069.90
572.90	1069.00
573.26	1068.01
573.61	1066.90
573.96	1066.27
574.31	1065.30
574.67	1063.87
575.02	1062.13
575.37	1060.48
575.72	1058.72
576.08	1057.17
576.43	1055.59
576.78	1054.07
577.13	1052.47
577.49	1050.98
577.84	1049.53
578.19	1048.20
578.54	1047.02
578.90	1046.01
579.25	1044.22
579.60	1042.15
579.95	1039.94
580.30	1038.45
580.66	1036.96
581.01	1035.02
581.36	1032.93
581.71	1030.83
582.06	1029.04
582.42	1027.49
582.77	1025.30
583.12	1023.26
583.47	1021.20
583.82	1019.23
584.17	1017.10
584.53	1015.12
584.88	1012.70
585.23	1010.35
585.58	1007.83
585.93	1005.20
586.28	1002.58
586.63	1000.36
586.98	998.27
587.34	996.40
587.69	993.85
588.04	991.61
588.39	989.36
588.74	986.95
589.09	984.96
589.44	982.21
589.79	979.76
590.14	977.69
590.49	975.43
590.84	972.83
591.19	970.74
591.54	968.40
591.89	965.32
592.25	963.07
592.60	960.30
592.95	957.42
593.30	954.36
593.65	951.04
594.00	948.02
594.35	945.95
594.70	942.87
595.05	940.29
595.40	937.10
595.75	933.89
596.10	931.38
596.45	928.21
596.80	925.59
597.15	922.86
597.50	919.70
597.85	916.79
598.19	913.87
598.54	910.65
598.89	907.54
599.24	905.23
599.59	902.02
599.94	899.44
600.29	896.56
600.64	893.85
600.99	891.03
601.34	888.43
601.69	884.35
602.04	881.10
602.39	878.04
602.74	875.20
603.08	872.52
603.43	869.64
603.78	866.71
604.13	863.59
604.48	860.64
604.83	858.13
605.18	855.38
605.53	852.46
605.87	849.46
606.22	846.75
606.57	843.32
606.92	840.28
607.27	837.11
607.62	834.25
607.96	831.35
608.31	828.80
608.66	825.49
609.01	822.68
609.36	819.93
609.70	816.63
610.05	813.30
610.40	810.24
610.75	806.69
611.10	803.80
611.44	800.38
611.79	796.87
612.14	793.33
612.49	789.68
612.83	786.22
613.18	782.78
613.53	779.14
613.88	775.73
614.22	772.35
614.57	768.85
614.92	765.42
615.27	761.92
615.61	758.24
615.96	755.11
616.31	751.83
616.65	748.51
617.00	745.18
617.35	741.97
617.70	738.26
618.04	734.87
618.39	730.94
618.74	727.73
619.08	724.30
619.43	720.79
619.78	717.60
620.12	714.52
620.47	711.46
620.82	708.01
621.16	704.39
621.51	701.07
621.85	697.80
622.20	694.33
622.55	690.82
622.89	687.21
623.24	683.65
623.59	680.15
623.93	676.83
624.28	673.87
624.62	670.88
624.97	667.90
625.32	664.62
625.66	661.69
626.01	658.51
626.35	655.41
626.70	652.20
627.04	649.13
627.39	645.94
627.73	642.71
628.08	640.05
628.43	637.22
628.77	634.25
629.12	631.41
629.46	628.71
629.81	625.91
630.15	623.32
630.50	620.34
630.84	617.31
631.19	614.50
631.53	611.47
631.88	608.20
632.22	605.20
632.57	602.59
632.91	599.65
633.26	596.85
633.60	594.07
633.95	591.49
634.29	588.63
634.64	586.11
634.98	583.20
635.32	580.39
635.67	577.92
636.01	575.16
636.36	572.23
636.70	569.69
637.05	566.98
637.39	564.50
637.73	562.16
638.08	560.08
638.42	557.41
638.77	554.97
639.11	552.64
639.45	550.10
639.80	547.50
640.14	545.01
640.49	542.52
640.83	540.01
641.17	537.41
641.52	534.94
641.86	532.24
642.20	529.89
642.55	527.26
642.89	524.64
643.23	522.28
643.58	520.05
643.92	517.38
644.26	515.17
644.61	512.71
644.95	510.10
645.29	507.40
645.64	505.12
645.98	502.75
646.32	500.36
646.66	497.84
647.01	495.47
647.35	493.30
647.69	490.86
648.04	488.65
648.38	486.43
648.72	484.20
649.06	481.71
649.41	479.35
649.75	477.05
650.09	474.83
650.43	472.49
650.78	470.14
651.12	467.87
651.46	465.50
651.80	463.21
652.14	461.22
652.49	459.06
652.83	456.69
653.17	454.19
653.51	451.90
653.85	450.06
654.20	448.02
654.54	445.76
654.88	443.61
655.22	441.36
655.56	439.11
655.90	436.80
656.25	434.88
656.59	432.81
656.93	430.75
657.27	428.79
657.61	426.67
657.95	424.72
658.29	422.59
658.64	420.76
658.98	418.74
659.32	416.57
659.66	414.64
660.00	412.67
660.34	410.82
660.68	408.83
661.02	406.67
661.36	404.71
661.70	402.90
662.05	401.17
662.39	399.50
662.73	397.93
663.07	396.45
663.41	394.66
663.75	392.79
664.09	391.09
664.43	389.32
664.77	387.72
665.11	385.87
665.45	384.33
665.79	382.58
666.13	380.97
666.47	379.40
666.81	377.73
667.15	376.09
667.49	374.55
667.83	373.11
668.17	371.69
668.51	370.22
668.85	368.76
669.19	367.41
669.53	365.73
669.87	364.11
670.21	362.57
670.55	361.23
670.89	360.21
671.23	358.88
671.57	357.50
671.91	356.11
672.25	354.79
672.58	353.56
672.92	352.24
673.26	351.02
673.60	349.68
673.94	348.43
674.28	347.25
674.62	346.09
674.96	344.88
675.30	343.72
675.64	342.43
675.97	341.16
676.31	339.87
676.65	338.75
676.99	337.77
677.33	336.58
677.67	335.35
678.01	333.94
678.34	332.78
678.68	331.77
679.02	330.61
679.36	329.46
679.70	328.35
680.04	327.13
680.37	325.97
680.71	324.91
681.05	323.92
681.39	322.85
681.73	321.68
682.06	320.72
682.40	319.67
682.74	318.70
683.08	317.78
683.42	316.72
683.75	315.80
684.09	314.64
684.43	313.62
684.77	312.61
685.10	311.67
685.44	310.62
685.78	309.54
686.12	308.55
686.45	307.62
686.79	306.49
687.13	305.76
687.46	304.82
687.80	304.04
688.14	303.10
688.48	302.23
688.81	301.34
689.15	300.47
689.49	299.61
689.82	298.72
690.16	297.64
690.50	296.70
690.83	295.80
691.17	294.81
691.51	293.90
691.84	293.01
692.18	292.15
692.52	291.38
692.85	290.55
693.19	289.90
693.52	289.18
693.86	288.40
694.20	287.54
694.53	286.72
694.87	285.78
695.21	284.92
695.54	284.13
695.88	283.33
696.21	282.40
696.55	281.56
696.88	280.78
697.22	280.04
697.56	279.31
697.89	278.52
698.23	277.94
698.56	277.26
698.90	276.64
699.23	275.90
699.57	275.18
699.90	274.47
700.24	273.71
700.58	272.97
700.91	272.47
701.25	272.05
701.58	271.52
701.92	270.93
702.25	270.21
702.59	269.54
702.92	268.89
703.26	268.27
703.59	267.69
703.93	267.39
704.26	266.90
704.60	266.43
704.93	265.92
705.26	265.34
705.60	264.89
705.93	264.24
706.27	263.85
706.60	263.38
706.94	262.95
707.27	262.34
707.61	261.84
707.94	261.16
708.27	260.38
708.61	259.70
708.94	259.08
709.28	258.68
709.61	258.20
709.94	257.79
710.28	257.33
710.61	256.83
710.95	255.96
711.28	255.63
711.61	255.08
711.95	254.66
712.28	254.07
712.61	253.59
712.95	253.32
713.28	252.98
713.61	252.44
713.95	251.89
714.28	251.55
714.61	251.20
714.95	250.88
715.28	250.44
715.61	250.12
715.95	249.83
716.28	249.44
716.61	249.03
716.95	248.63
717.28	248.25
717.61	247.90
717.94	247.55
718.28	246.99
718.61	246.63
718.94	246.21
719.27	245.89
719.61	245.45
719.94	245.00
720.27	244.42
720.60	244.09
720.94	243.69
721.27	243.37
721.60	242.97
721.93	242.58
722.27	242.35
722.60	242.05
722.93	241.66
723.26	241.42
723.59	241.10
723.93	240.85
724.26	240.55
724.59	240.22
724.92	240.06
725.25	239.90
725.59	239.60
725.92	239.37
726.25	239.15
726.58	238.96
726.91	238.70
727.24	238.55
727.57	238.26
727.91	237.98
728.24	237.74
728.57	237.55
728.90	237.32
729.23	236.98
729.56	236.91
729.89	236.61
730.22	236.29
730.55	236.04
730.89	235.77
731.22	235.53
731.55	235.33
731.88	235.03
732.21	234.73
732.54	234.44
732.87	234.24
733.20	233.99
733.53	233.77
733.86	233.57
734.19	233.26
734.52	233.20
734.85	233.23
735.18	232.89
735.51	232.74
735.84	232.61
736.17	232.56
736.50	232.09
736.83	232.36
737.16	232.20
737.49	232.05
737.82	231.77
738.15	231.60
738.48	231.36
738.81	231.15
739.14	230.86
739.47	230.65
739.80	230.43
740.13	230.27
740.46	229.93
740.79	229.62
741.12	229.44
741.45	229.11
741.78	228.72
742.11	228.67
742.44	228.41
742.77	228.22
743.10	227.89
743.43	227.72
743.75	227.18
744.08	227.39
744.41	227.15
744.74	226.94
745.07	226.76
745.40	226.68
745.73	226.67
746.06	226.51
746.39	226.45
746.71	226.22
747.04	226.06
747.37	225.98
747.70	225.92
748.03	225.73
748.36	225.62
748.68	225.52
749.01	225.29
749.34	225.09
749.67	224.92
750.00	224.91
750.33	225.07
750.65	224.90
750.98	224.40
751.31	224.27
751.64	224.17
751.97	224.19
752.29	224.10
752.62	223.83
752.95	223.66
753.28	223.43
753.60	223.31
753.93	223.23
754.26	223.10
754.59	222.85
754.91	222.72
755.24	222.68
755.57	222.54
755.90	222.42
756.22	222.27
756.55	222.12
756.88	221.86
757.20	221.52
757.53	221.27
757.86	221.08
758.19	220.93
758.51	220.81
758.84	220.50
759.17	220.28
759.49	220.14
759.82	220.30
760.15	220.23
760.47	220.10
760.80	219.89
761.13	219.87
761.45	219.83
761.78	219.75
762.11	219.56
762.43	219.44
762.76	219.27
763.08	219.27
763.41	219.23
763.74	219.16
764.06	219.10
764.39	219.11
764.71	219.01
765.04	218.97
765.37	218.90
765.69	218.84
766.02	218.75
766.34	218.65
766.67	218.31
767.00	218.34
767.32	218.44
767.65	218.63
767.97	218.51
768.30	218.47
768.62	218.49
768.95	218.41
769.27	218.33
769.60	218.36
769.92	218.25
770.25	218.05
770.57	217.92
770.90	217.88
771.22	217.77
771.55	217.78
771.87	217.68
772.20	217.58
772.52	217.92
772.85	218.25
773.17	218.22
773.50	218.27
773.82	218.16
774.15	217.97
774.47	217.68
774.80	217.54
775.12	217.45
775.45	217.27
775.77	217.22
776.09	217.25
776.42	217.24
776.74	217.26
777.07	217.25
777.39	217.30
777.72	217.17
778.04	217.19
778.36	217.11
778.69	217.14
779.01	217.10
779.33	216.70
779.66	216.25
779.98	216.15
780.31	216.16
780.63	216.23
780.95	216.27
781.28	216.20
781.60	216.18
781.92	216.19
782.25	216.17
782.57	216.18
782.89	216.05
783.22	215.96
783.54	215.84
783.86	215.81
784.19	215.69
784.51	215.79
784.83	215.72
785.16	215.65
785.48	215.66
785.80	215.66
786.12	215.63
786.45	215.60
786.77	215.60
787.09	215.53
787.42	215.38
787.74	215.32
788.06	215.26
788.38	215.23
788.71	215.10
789.03	215.11
789.35	215.05
789.67	215.03
789.99	215.01
790.32	215.00
790.64	214.97
790.96	215.27
791.28	215.06
791.61	214.88
791.93	214.83
