SpectraSuite Data File
++++++++++++++++++++++++++++++++++++
Date: Mon Feb 25 17:03:17 EST 2013
User: group
Dark Spectrum Present: No
Reference Spectrum Present: No
Number of Sampled Component Spectra: 1
Spectrometers: USB2E7196
Integration Time (usec): 104000 (USB2E7196)
Spectra Averaged: 20 (USB2E7196)
Boxcar Smoothing: 10 (USB2E7196)
Correct for Electrical Dark: No (USB2E7196)
Strobe/Lamp Enabled: No (USB2E7196)
Correct for Detector Non-linearity: No (USB2E7196)
Correct for Stray Light: No (USB2E7196)
Number of Pixels in Processed Spectrum: 2048
>>>>>Begin Processed Spectral Data<<<<<
339.09	0.00
339.48	196.75
339.86	199.50
340.24	200.70
340.63	202.05
341.01	208.85
341.39	204.10
341.78	208.30
342.16	207.35
342.54	208.90
342.93	197.53
343.31	207.53
343.69	208.12
344.07	208.57
344.46	209.07
344.84	209.44
345.22	209.45
345.60	209.73
345.99	209.84
346.37	210.02
346.75	210.07
347.13	210.12
347.52	210.24
347.90	210.45
348.28	210.47
348.66	210.56
349.05	210.46
349.43	210.50
349.81	210.54
350.19	210.62
350.57	210.65
350.96	210.70
351.34	210.75
351.72	210.81
352.10	210.90
352.48	210.93
352.87	211.01
353.25	211.16
353.63	211.23
354.01	211.28
354.39	211.33
354.77	211.43
355.15	211.64
355.54	211.67
355.92	211.60
356.30	211.72
356.68	211.97
357.06	212.10
357.44	212.15
357.82	212.22
358.20	212.35
358.58	212.53
358.97	212.58
359.35	212.85
359.73	213.04
360.11	213.11
360.49	213.22
360.87	213.32
361.25	213.42
361.63	213.65
362.01	213.74
362.39	213.75
362.77	213.77
363.15	213.84
363.53	213.90
363.91	213.94
364.29	213.97
364.67	213.65
365.05	213.65
365.43	213.72
365.81	213.76
366.19	213.91
366.57	213.96
366.95	213.94
367.33	213.79
367.71	213.72
368.09	213.82
368.47	213.77
368.85	213.72
369.23	213.80
369.61	213.62
369.99	213.74
370.37	213.77
370.75	213.96
371.13	213.82
371.51	213.80
371.89	213.85
372.27	213.80
372.65	213.85
373.03	213.73
373.41	213.69
373.78	213.54
374.16	213.32
374.54	213.15
374.92	213.13
375.30	213.12
375.68	213.05
376.06	212.94
376.44	212.82
376.82	212.79
377.19	212.70
377.57	212.69
377.95	212.50
378.33	212.46
378.71	212.17
379.09	212.18
379.47	212.10
379.84	211.99
380.22	211.89
380.60	211.85
380.98	211.90
381.36	211.81
381.73	211.78
382.11	211.80
382.49	211.78
382.87	211.62
383.25	211.50
383.62	211.87
384.00	211.80
384.38	211.79
384.76	211.85
385.13	211.89
385.51	211.79
385.89	211.70
386.27	211.55
386.64	211.54
387.02	211.45
387.40	211.40
387.78	211.32
388.15	211.35
388.53	211.23
388.91	211.22
389.29	211.15
389.66	211.16
390.04	211.07
390.42	211.11
390.79	211.15
391.17	211.13
391.55	210.69
391.92	210.66
392.30	210.65
392.68	210.52
393.05	210.48
393.43	210.44
393.81	210.37
394.18	210.43
394.56	210.48
394.94	210.61
395.31	210.51
395.69	210.67
396.06	210.70
396.44	210.79
396.82	210.73
397.19	210.94
397.57	210.93
397.95	210.94
398.32	210.89
398.70	210.89
399.07	210.96
399.45	210.94
399.82	210.94
400.20	211.00
400.58	211.00
400.95	210.89
401.33	210.99
401.70	211.34
402.08	211.33
402.45	211.38
402.83	211.40
403.20	211.56
403.58	211.51
403.95	211.62
404.33	211.76
404.71	211.85
405.08	212.11
405.46	212.19
405.83	212.41
406.21	212.56
406.58	212.75
406.96	212.91
407.33	213.22
407.70	213.50
408.08	213.93
408.45	214.19
408.83	214.52
409.20	214.74
409.58	214.79
409.95	215.28
410.33	215.66
410.70	215.92
411.08	216.29
411.45	216.77
411.82	217.14
412.20	217.63
412.57	218.33
412.95	218.57
413.32	219.20
413.69	219.73
414.07	220.33
414.44	221.00
414.82	221.71
415.19	222.58
415.56	223.36
415.94	224.06
416.31	225.18
416.68	226.14
417.06	227.43
417.43	228.70
417.81	230.00
418.18	231.26
418.55	232.70
418.93	234.24
419.30	235.73
419.67	237.37
420.04	238.91
420.42	240.51
420.79	242.70
421.16	244.86
421.54	247.10
421.91	249.40
422.28	251.71
422.66	254.18
423.03	256.61
423.40	259.17
423.77	261.85
424.15	264.53
424.52	267.46
424.89	270.48
425.26	273.34
425.64	276.04
426.01	279.16
426.38	282.40
426.75	285.80
427.13	289.34
427.50	293.01
427.87	296.89
428.24	300.67
428.61	304.18
428.99	308.25
429.36	312.50
429.73	316.74
430.10	321.11
430.47	325.54
430.85	329.94
431.22	334.80
431.59	340.16
431.96	344.95
432.33	350.33
432.70	355.66
433.08	361.84
433.45	367.73
433.82	373.63
434.19	380.16
434.56	386.54
434.93	392.70
435.30	398.93
435.68	405.74
436.05	412.57
436.42	419.39
436.79	425.71
437.16	432.40
437.53	439.58
437.90	446.60
438.27	453.64
438.64	460.85
439.01	467.72
439.38	473.60
439.75	479.62
440.13	486.20
440.50	492.42
440.87	497.79
441.24	503.39
441.61	509.47
441.98	514.05
442.35	519.25
442.72	524.58
443.09	529.78
443.46	533.27
443.83	535.66
444.20	537.99
444.57	540.65
444.94	542.40
445.31	544.05
445.68	545.89
446.05	546.84
446.42	546.80
446.79	546.39
447.16	545.95
447.53	545.89
447.90	544.04
448.27	541.99
448.64	538.73
449.01	536.41
449.37	532.06
449.74	527.99
450.11	523.31
450.48	517.78
450.85	512.10
451.22	507.15
451.59	502.59
451.96	498.02
452.33	492.20
452.70	486.75
453.07	480.23
453.43	473.28
453.80	466.84
454.17	460.57
454.54	454.72
454.91	448.53
455.28	442.27
455.65	436.40
456.02	431.01
456.38	426.15
456.75	420.15
457.12	415.19
457.49	410.30
457.86	405.15
458.23	401.09
458.59	396.56
458.96	391.92
459.33	387.81
459.70	383.65
460.07	380.35
460.43	376.45
460.80	372.91
461.17	369.87
461.54	366.58
461.91	363.57
462.27	360.47
462.64	357.74
463.01	354.78
463.38	352.05
463.74	348.78
464.11	346.23
464.48	344.05
464.85	341.61
465.21	339.78
465.58	337.82
465.95	335.25
466.32	333.16
466.68	331.22
467.05	329.24
467.42	327.28
467.78	325.10
468.15	323.19
468.52	321.72
468.88	319.74
469.25	317.99
469.62	316.60
469.98	315.06
470.35	313.59
470.72	312.19
471.08	310.53
471.45	309.33
471.82	308.12
472.18	306.59
472.55	305.50
472.92	304.12
473.28	303.07
473.65	302.15
474.02	301.10
474.38	300.21
474.75	299.45
475.11	298.59
475.48	297.92
475.85	297.32
476.21	296.72
476.58	296.30
476.94	295.82
477.31	295.32
477.67	294.81
478.04	294.44
478.41	294.19
478.77	294.31
479.14	293.93
479.50	293.73
479.87	293.71
480.23	293.50
480.60	293.33
480.96	293.16
481.33	293.21
481.69	293.22
482.06	293.20
482.42	293.22
482.79	293.29
483.15	293.46
483.52	293.81
483.88	293.89
484.25	293.98
484.61	294.33
484.98	294.50
485.34	294.87
485.71	295.23
486.07	295.63
486.44	295.77
486.80	296.25
487.17	296.77
487.53	297.45
487.90	298.17
488.26	299.02
488.62	299.78
488.99	300.47
489.35	301.26
489.72	302.09
490.08	302.92
490.44	303.80
490.81	304.74
491.17	305.55
491.54	306.60
491.90	307.75
492.26	308.67
492.63	309.79
492.99	311.05
493.36	312.28
493.72	313.58
494.08	314.74
494.45	316.17
494.81	317.61
495.17	318.95
495.54	320.41
495.90	321.68
496.26	323.10
496.63	324.58
496.99	326.10
497.35	327.67
497.72	329.24
498.08	330.80
498.44	332.27
498.80	334.00
499.17	335.61
499.53	337.11
499.89	338.84
500.26	340.43
500.62	341.91
500.98	343.59
501.34	345.07
501.71	346.71
502.07	348.27
502.43	349.66
502.79	350.98
503.16	352.28
503.52	353.72
503.88	354.94
504.24	356.21
504.60	357.48
504.97	358.66
505.33	359.81
505.69	361.18
506.05	362.40
506.41	363.39
506.78	364.42
507.14	365.40
507.50	366.42
507.86	367.38
508.22	368.21
508.59	368.84
508.95	369.60
509.31	370.48
509.67	371.20
510.03	371.86
510.39	372.66
510.75	373.36
511.12	374.00
511.48	374.65
511.84	375.14
512.20	375.62
512.56	376.06
512.92	376.52
513.28	376.73
513.64	376.99
514.00	377.19
514.37	377.47
514.73	377.67
515.09	377.88
515.45	377.90
515.81	378.10
516.17	378.20
516.53	378.14
516.89	377.96
517.25	377.85
517.61	377.81
517.97	377.64
518.33	377.47
518.69	377.30
519.05	377.22
519.41	377.17
519.77	377.16
520.13	377.10
520.49	376.91
520.85	376.82
521.21	376.83
521.57	376.84
521.93	376.54
522.29	376.61
522.65	376.38
523.01	376.43
523.37	376.25
523.73	376.36
524.09	376.56
524.45	376.80
524.81	376.80
525.17	376.97
525.53	377.26
525.89	377.55
526.25	377.99
526.61	378.22
526.97	378.49
527.33	378.93
527.68	379.80
528.04	380.43
528.40	380.96
528.76	381.55
529.12	382.24
529.48	383.14
529.84	383.78
530.20	384.74
530.56	385.71
530.91	386.87
531.27	387.82
531.63	388.91
531.99	389.92
532.35	391.24
532.71	392.37
533.07	393.65
533.42	395.33
533.78	396.55
534.14	398.04
534.50	399.50
534.86	401.07
535.21	402.15
535.57	403.73
535.93	405.31
536.29	407.17
536.65	408.97
537.00	410.69
537.36	412.55
537.72	414.30
538.08	416.17
538.44	417.98
538.79	420.06
539.15	421.87
539.51	424.03
539.87	426.10
540.22	428.41
540.58	430.61
540.94	432.69
541.29	434.99
541.65	437.24
542.01	439.65
542.37	442.01
542.72	444.42
543.08	446.75
543.44	449.45
543.79	451.68
544.15	454.10
544.51	456.85
544.87	459.57
545.22	462.35
545.58	465.02
545.94	467.76
546.29	470.36
546.65	473.15
547.01	475.75
547.36	478.53
547.72	481.29
548.07	483.97
548.43	486.41
548.79	489.09
549.14	491.73
549.50	494.44
549.86	496.99
550.21	499.76
550.57	502.56
550.92	504.98
551.28	507.73
551.64	510.48
551.99	513.12
552.35	515.49
552.70	517.98
553.06	520.71
553.41	523.21
553.77	525.86
554.13	528.44
554.48	531.15
554.84	533.77
555.19	536.23
555.55	539.15
555.90	541.65
556.26	544.14
556.61	546.56
556.97	549.06
557.32	551.41
557.68	553.78
558.03	556.20
558.39	558.65
558.74	560.98
559.10	563.26
559.45	565.48
559.81	568.07
560.16	570.37
560.52	572.48
560.87	574.87
561.23	576.98
561.58	579.57
561.94	581.57
562.29	583.55
562.64	585.67
563.00	587.54
563.35	589.73
563.71	591.95
564.06	594.15
564.42	596.24
564.77	598.43
565.12	600.56
565.48	602.94
565.83	604.97
566.19	607.08
566.54	609.01
566.89	610.80
567.25	612.78
567.60	614.79
567.96	616.82
568.31	618.78
568.66	620.56
569.02	621.84
569.37	623.22
569.72	624.73
570.08	626.20
570.43	627.45
570.78	628.86
571.14	629.78
571.49	630.89
571.84	631.88
572.20	632.74
572.55	633.75
572.90	634.16
573.26	634.89
573.61	635.37
573.96	636.08
574.31	636.58
574.67	636.91
575.02	637.18
575.37	637.18
575.72	637.11
576.08	637.46
576.43	637.66
576.78	638.10
577.13	638.51
577.49	638.91
577.84	639.10
578.19	639.30
578.54	639.96
578.90	640.43
579.25	640.66
579.60	640.95
579.95	640.74
580.30	640.92
580.66	641.14
581.01	641.25
581.36	641.25
581.71	641.43
582.06	641.51
582.42	641.54
582.77	641.59
583.12	641.60
583.47	641.67
583.82	641.74
584.17	641.70
584.53	641.80
584.88	641.52
585.23	641.55
585.58	641.26
585.93	640.94
586.28	640.81
586.63	640.60
586.98	640.34
587.34	640.43
587.69	640.12
588.04	639.81
588.39	639.67
588.74	639.26
589.09	638.98
589.44	638.38
589.79	637.97
590.14	637.81
590.49	637.48
590.84	636.88
591.19	636.55
591.54	636.15
591.89	635.21
592.25	634.83
592.60	633.99
592.95	633.35
593.30	632.45
593.65	631.40
594.00	630.47
594.35	630.53
594.70	629.60
595.05	628.82
595.40	627.87
595.75	626.83
596.10	625.97
596.45	625.13
596.80	624.53
597.15	623.85
597.50	622.77
597.85	621.99
598.19	621.04
598.54	620.17
598.89	619.20
599.24	618.63
599.59	617.54
599.94	616.75
600.29	615.84
600.64	614.98
600.99	614.07
601.34	613.43
601.69	611.68
602.04	610.70
602.39	609.84
602.74	609.10
603.08	608.41
603.43	607.92
603.78	607.02
604.13	605.93
604.48	604.95
604.83	604.31
605.18	603.40
605.53	602.47
605.87	601.43
606.22	600.64
606.57	599.65
606.92	598.70
607.27	597.77
607.62	596.72
607.96	596.01
608.31	595.10
608.66	593.97
609.01	592.98
609.36	591.90
609.70	590.69
610.05	589.42
610.40	588.26
610.75	586.82
611.10	585.79
611.44	584.43
611.79	583.03
612.14	581.50
612.49	579.96
612.83	578.70
613.18	577.12
613.53	575.43
613.88	573.68
614.22	572.23
614.57	570.56
614.92	569.12
615.27	567.39
615.61	565.79
615.96	564.19
616.31	562.67
616.65	561.30
617.00	559.73
617.35	558.05
617.70	556.27
618.04	554.50
618.39	552.52
618.74	551.06
619.08	549.30
619.43	547.76
619.78	546.14
620.12	544.54
620.47	543.02
620.82	541.35
621.16	539.58
621.51	537.96
621.85	536.36
622.20	534.68
622.55	532.93
622.89	531.32
623.24	529.73
623.59	527.85
623.93	526.11
624.28	524.57
624.62	523.41
624.97	521.85
625.32	520.24
625.66	518.82
626.01	517.24
626.35	515.88
626.70	514.14
627.04	512.74
627.39	511.01
627.73	509.53
628.08	508.17
628.43	506.64
628.77	505.00
629.12	503.34
629.46	501.81
629.81	500.32
630.15	498.63
630.50	496.96
630.84	495.40
631.19	493.84
631.53	492.22
631.88	490.22
632.22	488.52
632.57	487.10
632.91	485.42
633.26	483.74
633.60	482.15
633.95	480.59
634.29	478.85
634.64	477.37
634.98	475.59
635.32	473.96
635.67	472.63
636.01	471.07
636.36	469.59
636.70	468.07
637.05	466.40
637.39	464.88
637.73	463.49
638.08	462.30
638.42	460.83
638.77	459.38
639.11	458.04
639.45	456.62
639.80	454.77
640.14	453.15
640.49	451.65
640.83	449.96
641.17	448.53
641.52	447.00
641.86	445.42
642.20	444.07
642.55	442.35
642.89	440.66
643.23	439.05
643.58	437.66
643.92	435.95
644.26	434.46
644.61	433.00
644.95	431.41
645.29	429.62
645.64	428.07
645.98	426.43
646.32	424.86
646.66	423.20
647.01	421.96
647.35	420.57
647.69	419.01
648.04	417.59
648.38	415.93
648.72	414.45
649.06	412.89
649.41	411.15
649.75	409.72
650.09	408.33
650.43	406.80
650.78	405.17
651.12	403.70
651.46	402.25
651.80	400.74
652.14	399.10
652.49	397.80
652.83	396.32
653.17	394.76
653.51	393.22
653.85	391.80
654.20	390.25
654.54	388.70
654.88	387.20
655.22	385.71
655.56	384.30
655.90	382.75
656.25	381.23
656.59	379.85
656.93	378.44
657.27	377.02
657.61	375.54
657.95	374.14
658.29	372.80
658.64	371.50
658.98	370.09
659.32	368.63
659.66	367.08
660.00	365.54
660.34	364.19
660.68	362.76
661.02	361.30
661.36	359.99
661.70	358.71
662.05	357.41
662.39	356.20
662.73	354.99
663.07	353.90
663.41	352.75
663.75	351.56
664.09	350.32
664.43	348.95
664.77	347.79
665.11	346.50
665.45	345.26
665.79	343.94
666.13	342.74
666.47	341.56
666.81	340.33
667.15	339.12
667.49	338.02
667.83	336.97
668.17	335.92
668.51	334.76
668.85	333.73
669.19	332.80
669.53	331.64
669.87	330.48
670.21	329.36
670.55	328.17
670.89	327.24
671.23	326.21
671.57	325.20
671.91	324.18
672.25	323.23
672.58	322.33
672.92	321.37
673.26	320.44
673.60	319.55
673.94	318.64
674.28	317.80
674.62	316.90
674.96	315.94
675.30	315.06
675.64	314.17
675.97	313.16
676.31	312.20
676.65	311.33
676.99	310.64
677.33	309.68
677.67	308.81
678.01	307.81
678.34	306.91
678.68	306.10
679.02	305.28
679.36	304.49
679.70	303.54
680.04	302.69
680.37	301.81
680.71	301.04
681.05	300.31
681.39	299.53
681.73	298.64
682.06	297.85
682.40	296.99
682.74	296.15
683.08	295.46
683.42	294.59
683.75	293.83
684.09	292.82
684.43	292.14
684.77	291.44
685.10	290.69
685.44	289.99
685.78	289.24
686.12	288.49
686.45	287.69
686.79	287.01
687.13	286.32
687.46	285.64
687.80	284.94
688.14	284.04
688.48	283.32
688.81	282.62
689.15	282.00
689.49	281.35
689.82	280.76
690.16	280.00
690.50	279.24
690.83	278.52
691.17	277.89
691.51	277.08
691.84	276.40
692.18	275.72
692.52	275.02
692.85	274.46
693.19	273.94
693.52	273.29
693.86	272.56
694.20	271.89
694.53	271.21
694.87	270.59
695.21	270.09
695.54	269.45
695.88	268.84
696.21	268.16
696.55	267.52
696.88	266.90
697.22	266.32
697.56	265.96
697.89	265.34
698.23	264.78
698.56	264.28
698.90	263.79
699.23	263.25
699.57	262.72
699.90	262.09
700.24	261.40
700.58	260.91
700.91	260.54
701.25	260.23
701.58	259.79
701.92	259.34
702.25	258.83
702.59	258.25
702.92	257.78
703.26	257.29
703.59	256.87
703.93	256.69
704.26	256.19
704.60	255.62
704.93	255.21
705.26	254.67
705.60	254.25
705.93	253.70
706.27	253.36
706.60	252.95
706.94	252.67
707.27	252.15
707.61	251.66
707.94	251.22
708.27	250.59
708.61	250.09
708.94	249.62
709.28	249.25
709.61	248.91
709.94	248.51
710.28	248.11
710.61	247.68
710.95	246.97
711.28	246.85
711.61	246.46
711.95	246.17
712.28	245.89
712.61	245.55
712.95	245.29
713.28	245.05
713.61	244.63
713.95	244.25
714.28	244.00
714.61	243.64
714.95	243.22
715.28	242.80
715.61	242.51
715.95	242.14
716.28	241.77
716.61	241.52
716.95	241.18
717.28	240.85
717.61	240.55
717.94	240.31
718.28	239.72
718.61	239.44
718.94	239.09
719.27	238.77
719.61	238.46
719.94	238.23
720.27	237.76
720.60	237.44
720.94	237.11
721.27	236.85
721.60	236.72
721.93	236.57
722.27	236.51
722.60	236.26
722.93	236.05
723.26	235.87
723.59	235.54
723.93	235.39
724.26	235.20
724.59	234.96
724.92	234.80
725.25	234.69
725.59	234.50
725.92	234.35
726.25	234.16
726.58	233.97
726.91	233.68
727.24	233.52
727.57	233.40
727.91	233.12
728.24	232.93
728.57	232.73
728.90	232.48
729.23	232.11
729.56	232.10
729.89	231.93
730.22	231.65
730.55	231.47
730.89	231.24
731.22	230.99
731.55	230.81
731.88	230.51
732.21	230.27
732.54	230.05
732.87	229.74
733.20	229.53
733.53	229.30
733.86	229.18
734.19	228.95
734.52	228.83
734.85	228.91
735.18	228.73
735.51	228.63
735.84	228.48
736.17	228.40
736.50	228.10
736.83	228.33
737.16	228.23
737.49	228.00
737.82	227.79
738.15	227.73
738.48	227.64
738.81	227.45
739.14	227.25
739.47	227.07
739.80	226.91
740.13	226.78
740.46	226.59
740.79	226.41
741.12	226.30
741.45	226.09
741.78	225.80
742.11	225.81
742.44	225.59
742.77	225.50
743.10	225.38
743.43	225.18
743.75	224.63
744.08	224.90
744.41	224.80
744.74	224.66
745.07	224.49
745.40	224.38
745.73	224.42
746.06	224.28
746.39	224.21
746.71	224.06
747.04	223.91
747.37	223.83
747.70	223.72
748.03	223.52
748.36	223.37
748.68	223.19
749.01	222.86
749.34	222.67
749.67	222.57
750.00	222.53
750.33	222.68
750.65	222.59
750.98	222.03
751.31	221.92
751.64	221.80
751.97	221.90
752.29	221.73
752.62	221.50
752.95	221.45
753.28	221.25
753.60	221.15
753.93	221.12
754.26	221.00
754.59	220.80
754.91	220.65
755.24	220.59
755.57	220.52
755.90	220.50
756.22	220.40
756.55	220.23
756.88	220.05
757.20	219.78
757.53	219.60
757.86	219.55
758.19	219.51
758.51	219.43
758.84	219.07
759.17	219.01
759.49	218.90
759.82	218.90
760.15	218.85
760.47	218.86
760.80	218.69
761.13	218.63
761.45	218.50
761.78	218.43
762.11	218.43
762.43	218.33
762.76	218.20
763.08	218.20
763.41	218.09
763.74	217.99
764.06	217.85
764.39	217.79
764.71	217.65
765.04	217.52
765.37	217.46
765.69	217.45
766.02	217.31
766.34	217.26
766.67	217.10
767.00	217.10
767.32	217.19
767.65	217.33
767.97	217.23
768.30	217.23
768.62	217.20
768.95	217.05
769.27	216.91
769.60	216.91
769.92	216.79
770.25	216.64
770.57	216.51
770.90	216.50
771.22	216.40
771.55	216.38
771.87	216.34
772.20	216.29
772.52	216.47
772.85	216.83
773.17	216.80
773.50	216.71
773.82	216.62
774.15	216.27
774.47	216.02
774.80	215.95
775.12	215.95
775.45	215.90
775.77	215.82
776.09	215.86
776.42	215.76
776.74	215.84
777.07	215.83
777.39	215.84
777.72	215.71
778.04	215.71
778.36	215.68
778.69	215.65
779.01	215.62
779.33	215.34
779.66	214.91
779.98	214.85
780.31	214.85
780.63	214.90
780.95	215.07
781.28	215.04
781.60	214.99
781.92	214.92
782.25	214.90
782.57	214.88
782.89	214.81
783.22	214.78
783.54	214.60
783.86	214.60
784.19	214.56
784.51	214.68
784.83	214.63
785.16	214.57
785.48	214.53
785.80	214.45
786.12	214.48
786.45	214.50
786.77	214.40
787.09	214.37
787.42	214.31
787.74	214.27
788.06	214.28
788.38	214.15
788.71	214.13
789.03	214.07
789.35	214.13
789.67	214.01
789.99	214.00
790.32	213.99
790.64	214.03
790.96	214.24
791.28	214.13
791.61	214.05
791.93	214.06
792.25	214.00
792.57	214.21
792.89	214.11
793.21	214.14
793.54	214.13
793.86	214.14
794.18	214.12
