SpectraSuite Data File
++++++++++++++++++++++++++++++++++++
Date: Mon Feb 25 16:55:30 EST 2013
User: group
Dark Spectrum Present: No
Reference Spectrum Present: No
Number of Sampled Component Spectra: 1
Spectrometers: USB2E7196
Integration Time (usec): 104000 (USB2E7196)
Spectra Averaged: 20 (USB2E7196)
Boxcar Smoothing: 10 (USB2E7196)
Correct for Electrical Dark: No (USB2E7196)
Strobe/Lamp Enabled: No (USB2E7196)
Correct for Detector Non-linearity: No (USB2E7196)
Correct for Stray Light: No (USB2E7196)
Number of Pixels in Processed Spectrum: 2048
>>>>>Begin Processed Spectral Data<<<<<
339.09	0.00
339.48	198.40
339.86	199.80
340.24	201.85
340.63	203.45
341.01	209.40
341.39	204.80
341.78	207.15
342.16	208.85
342.54	208.00
342.93	198.56
343.31	208.57
343.69	209.17
344.07	209.64
344.46	210.12
344.84	210.53
345.22	210.59
345.60	210.96
345.99	211.20
346.37	211.30
346.75	211.50
347.13	211.61
347.52	211.66
347.90	211.88
348.28	211.84
348.66	211.95
349.05	211.95
349.43	212.02
349.81	212.10
350.19	212.11
350.57	212.17
350.96	212.21
351.34	212.37
351.72	212.45
352.10	212.58
352.48	212.57
352.87	212.61
353.25	212.71
353.63	212.71
354.01	212.69
354.39	212.84
354.77	212.90
355.15	213.09
355.54	213.09
355.92	213.02
356.30	213.08
356.68	213.43
357.06	213.51
357.44	213.58
357.82	213.72
358.20	213.83
358.58	213.84
358.97	213.91
359.35	213.97
359.73	214.13
360.11	214.14
360.49	214.28
360.87	214.26
361.25	214.34
361.63	214.49
362.01	214.62
362.39	214.62
362.77	214.62
363.15	214.52
363.53	214.65
363.91	214.63
364.29	214.66
364.67	214.24
365.05	214.17
365.43	214.23
365.81	214.22
366.19	214.29
366.57	214.43
366.95	214.40
367.33	214.33
367.71	214.23
368.09	214.32
368.47	214.30
368.85	214.34
369.23	214.44
369.61	214.33
369.99	214.43
370.37	214.46
370.75	214.68
371.13	214.63
371.51	214.45
371.89	214.51
372.27	214.56
372.65	214.63
373.03	214.66
373.41	214.54
373.78	214.43
374.16	214.22
374.54	214.08
374.92	213.98
375.30	214.01
375.68	213.90
376.06	213.93
376.44	213.90
376.82	213.88
377.19	213.73
377.57	213.69
377.95	213.47
378.33	213.36
378.71	213.06
379.09	213.11
379.47	213.19
379.84	213.11
380.22	212.95
380.60	212.81
380.98	212.76
381.36	212.70
381.73	212.60
382.11	212.66
382.49	212.60
382.87	212.60
383.25	212.53
383.62	212.91
384.00	212.80
384.38	212.75
384.76	212.75
385.13	212.83
385.51	212.80
385.89	212.79
386.27	212.80
386.64	212.82
387.02	212.74
387.40	212.69
387.78	212.62
388.15	212.66
388.53	212.64
388.91	212.57
389.29	212.57
389.66	212.59
390.04	212.50
390.42	212.58
390.79	212.55
391.17	212.52
391.55	212.15
391.92	212.08
392.30	212.14
392.68	212.03
393.05	212.06
393.43	212.06
393.81	212.14
394.18	212.07
394.56	212.12
394.94	212.15
395.31	212.14
395.69	212.27
396.06	212.34
396.44	212.43
396.82	212.52
397.19	212.69
397.57	212.71
397.95	212.91
398.32	212.85
398.70	212.95
399.07	213.12
399.45	213.20
399.82	213.31
400.20	213.35
400.58	213.46
400.95	213.43
401.33	213.61
401.70	213.90
402.08	214.13
402.45	214.30
402.83	214.52
403.20	214.79
403.58	214.97
403.95	215.28
404.33	215.55
404.71	215.73
405.08	216.26
405.46	216.61
405.83	216.81
406.21	217.10
406.58	217.56
406.96	217.87
407.33	218.33
407.70	218.81
408.08	219.59
408.45	220.25
408.83	220.94
409.20	221.53
409.58	222.05
409.95	222.79
410.33	223.57
410.70	224.38
411.08	225.29
411.45	226.31
411.82	227.25
412.20	228.41
412.57	229.95
412.95	230.94
413.32	232.31
413.69	233.79
414.07	235.40
414.44	237.13
414.82	238.95
415.19	241.00
415.56	243.11
415.94	245.10
416.31	247.58
416.68	250.01
417.06	252.91
417.43	255.72
417.81	258.90
418.18	262.10
418.55	265.56
418.93	269.30
419.30	273.05
419.67	277.22
420.04	281.44
420.42	285.80
420.79	290.93
421.16	296.15
421.54	301.52
421.91	307.03
422.28	312.69
422.66	318.81
423.03	324.86
423.40	331.16
423.77	337.95
424.15	344.63
424.52	351.79
424.89	359.46
425.26	366.92
425.64	374.14
426.01	382.13
426.38	390.43
426.75	398.77
427.13	407.55
427.50	416.70
427.87	426.26
428.24	435.82
428.61	445.02
428.99	455.07
429.36	466.24
429.73	477.15
430.10	488.00
430.47	499.07
430.85	510.51
431.22	522.61
431.59	535.46
431.96	548.06
432.33	561.99
432.70	575.46
433.08	591.38
433.45	606.25
433.82	621.38
434.19	638.03
434.56	654.51
434.93	670.38
435.30	686.24
435.68	703.98
436.05	721.47
436.42	738.83
436.79	755.16
437.16	772.28
437.53	790.78
437.90	809.15
438.27	827.37
438.64	846.32
439.01	864.16
439.38	880.08
439.75	895.56
440.13	913.14
440.50	929.84
440.87	943.56
441.24	958.05
441.61	973.74
441.98	986.00
442.35	999.96
442.72	1013.79
443.09	1027.05
443.46	1035.66
443.83	1041.96
444.20	1047.66
444.57	1055.07
444.94	1059.63
445.31	1063.99
445.68	1068.19
446.05	1070.77
446.42	1070.51
446.79	1069.76
447.16	1068.85
447.53	1068.55
447.90	1063.23
448.27	1057.98
448.64	1050.03
449.01	1044.43
449.37	1033.58
449.74	1023.00
450.11	1010.07
450.48	996.32
450.85	982.20
451.22	970.16
451.59	958.53
451.96	947.41
452.33	932.29
452.70	918.41
453.07	901.80
453.43	884.82
453.80	868.67
454.17	853.03
454.54	838.05
454.91	822.17
455.28	806.49
455.65	791.91
456.02	777.14
456.38	764.71
456.75	749.20
457.12	736.27
457.49	723.39
457.86	711.10
458.23	700.33
458.59	688.58
458.96	676.70
459.33	666.18
459.70	655.64
460.07	647.18
460.43	637.77
460.80	628.74
461.17	620.81
461.54	612.34
461.91	604.26
462.27	596.37
462.64	589.51
463.01	581.96
463.38	574.58
463.74	567.24
464.11	560.85
464.48	555.22
464.85	549.11
465.21	544.57
465.58	539.56
465.95	533.51
466.32	528.61
466.68	523.50
467.05	518.67
467.42	513.76
467.78	508.62
468.15	503.63
468.52	499.93
468.88	495.39
469.25	491.10
469.62	487.76
469.98	483.99
470.35	480.38
470.72	477.02
471.08	473.50
471.45	470.48
471.82	467.27
472.18	463.96
472.55	461.50
472.92	458.43
473.28	455.84
473.65	453.38
474.02	450.95
474.38	449.04
474.75	447.26
475.11	445.55
475.48	444.15
475.85	442.88
476.21	441.65
476.58	440.52
476.94	439.86
477.31	438.91
477.67	438.17
478.04	437.64
478.41	437.33
478.77	437.29
479.14	436.82
479.50	436.70
479.87	436.90
480.23	437.16
480.60	437.26
480.96	437.40
481.33	438.14
481.69	438.84
482.06	439.36
482.42	439.83
482.79	440.28
483.15	441.26
483.52	442.55
483.88	443.73
484.25	444.82
484.61	445.94
484.98	447.23
485.34	448.85
485.71	450.75
486.07	452.69
486.44	454.43
486.80	456.57
487.17	458.95
487.53	461.56
487.90	464.27
488.26	467.34
488.62	470.45
488.99	473.51
489.35	476.69
489.72	480.20
490.08	484.02
490.44	487.78
490.81	491.70
491.17	495.51
491.54	499.70
491.90	504.15
492.26	508.93
492.63	513.93
492.99	518.92
493.36	524.12
493.72	529.50
494.08	535.01
494.45	541.08
494.81	547.30
495.17	553.34
495.54	559.61
495.90	565.97
496.26	572.66
496.63	579.41
496.99	586.35
497.35	593.53
497.72	600.83
498.08	608.59
498.44	616.23
498.80	624.54
499.17	632.87
499.53	641.27
499.89	649.91
500.26	658.51
500.62	667.03
500.98	675.90
501.34	684.76
501.71	693.93
502.07	703.01
502.43	712.35
502.79	721.49
503.16	730.97
503.52	740.45
503.88	749.96
504.24	759.58
504.60	769.30
504.97	779.27
505.33	789.22
505.69	799.64
506.05	809.87
506.41	819.71
506.78	829.38
507.14	839.14
507.50	849.14
507.86	858.96
508.22	869.14
508.59	878.91
508.95	888.98
509.31	898.91
509.67	908.98
510.03	918.80
510.39	929.26
510.75	939.42
511.12	949.47
511.48	959.66
511.84	969.71
512.20	979.65
512.56	989.48
512.92	999.29
513.28	1008.74
513.64	1018.29
514.00	1027.80
514.37	1037.30
514.73	1047.09
515.09	1056.25
515.45	1065.43
515.81	1074.49
516.17	1083.30
516.53	1092.11
516.89	1100.85
517.25	1109.25
517.61	1117.41
517.97	1125.06
518.33	1132.72
518.69	1140.28
519.05	1147.90
519.41	1155.59
519.77	1163.42
520.13	1170.71
520.49	1177.48
520.85	1184.36
521.21	1191.50
521.57	1198.61
521.93	1205.13
522.29	1211.87
522.65	1218.48
523.01	1225.22
523.37	1231.05
523.73	1237.49
524.09	1243.35
524.45	1249.37
524.81	1255.32
525.17	1261.57
525.53	1267.74
525.89	1273.46
526.25	1279.39
526.61	1284.24
526.97	1289.27
527.33	1294.22
527.68	1299.35
528.04	1304.34
528.40	1308.93
528.76	1313.50
529.12	1318.13
529.48	1323.07
529.84	1327.34
530.20	1331.80
530.56	1336.11
530.91	1341.43
531.27	1345.80
531.63	1350.24
531.99	1354.38
532.35	1358.28
532.71	1361.82
533.07	1365.95
533.42	1369.96
533.78	1373.70
534.14	1377.72
534.50	1381.02
534.86	1384.62
535.21	1387.34
535.57	1391.09
535.93	1394.35
536.29	1397.22
536.65	1400.10
537.00	1402.65
537.36	1405.02
537.72	1407.44
538.08	1409.50
538.44	1411.53
538.79	1414.21
539.15	1416.47
539.51	1418.75
539.87	1421.26
540.22	1423.75
540.58	1426.15
540.94	1428.52
541.29	1430.29
541.65	1431.71
542.01	1433.80
542.37	1435.26
542.72	1437.23
543.08	1438.68
543.44	1440.75
543.79	1441.88
544.15	1443.12
544.51	1445.15
544.87	1446.98
545.22	1448.19
545.58	1449.47
545.94	1449.81
546.29	1450.15
546.65	1450.69
547.01	1451.06
547.36	1451.39
547.72	1451.54
548.07	1451.44
548.43	1450.99
548.79	1450.72
549.14	1451.18
549.50	1451.28
549.86	1451.12
550.21	1451.39
550.57	1451.57
550.92	1450.87
551.28	1451.20
551.64	1450.89
551.99	1450.55
552.35	1449.98
552.70	1449.51
553.06	1449.39
553.41	1449.30
553.77	1449.23
554.13	1448.97
554.48	1448.84
554.84	1449.17
555.19	1449.04
555.55	1448.51
555.90	1448.24
556.26	1447.80
556.61	1447.06
556.97	1446.06
557.32	1445.60
557.68	1444.35
558.03	1443.27
558.39	1442.32
558.74	1441.33
559.10	1440.49
559.45	1439.21
559.81	1438.59
560.16	1437.54
560.52	1436.42
560.87	1435.78
561.23	1434.27
561.58	1433.64
561.94	1432.16
562.29	1429.91
562.64	1428.52
563.00	1427.33
563.35	1426.37
563.71	1425.98
564.06	1424.84
564.42	1424.26
564.77	1423.48
565.12	1423.03
565.48	1422.45
565.83	1421.72
566.19	1420.97
566.54	1419.91
566.89	1418.79
567.25	1417.69
567.60	1417.01
567.96	1416.08
568.31	1415.18
568.66	1414.21
569.02	1412.40
569.37	1410.82
569.72	1409.93
570.08	1408.54
570.43	1406.69
570.78	1404.75
571.14	1402.43
571.49	1400.60
571.84	1398.65
572.20	1396.36
572.55	1393.92
572.90	1390.87
573.26	1388.17
573.61	1385.16
573.96	1382.77
574.31	1379.80
574.67	1376.54
575.02	1372.70
575.37	1369.52
575.72	1365.75
576.08	1362.55
576.43	1358.85
576.78	1355.51
577.13	1351.95
577.49	1348.73
577.84	1345.53
578.19	1342.40
578.54	1339.51
578.90	1336.80
579.25	1333.15
579.60	1329.40
579.95	1325.63
580.30	1322.49
580.66	1319.23
581.01	1315.74
581.36	1311.60
581.71	1307.68
582.06	1304.09
582.42	1300.85
582.77	1296.56
583.12	1292.63
583.47	1288.82
583.82	1285.21
584.17	1281.70
584.53	1277.92
584.88	1273.53
585.23	1269.31
585.58	1265.09
585.93	1260.77
586.28	1256.45
586.63	1252.46
586.98	1248.57
587.34	1244.94
587.69	1240.71
588.04	1236.78
588.39	1232.93
588.74	1228.78
589.09	1225.12
589.44	1220.59
589.79	1216.59
590.14	1212.89
590.49	1208.87
590.84	1204.51
591.19	1201.09
591.54	1197.18
591.89	1192.68
592.25	1188.66
592.60	1184.45
592.95	1179.81
593.30	1175.00
593.65	1169.97
594.00	1165.28
594.35	1161.85
594.70	1157.07
595.05	1152.82
595.40	1148.19
595.75	1143.46
596.10	1139.24
596.45	1135.10
596.80	1131.32
597.15	1127.17
597.50	1122.57
597.85	1118.32
598.19	1113.97
598.54	1109.32
598.89	1104.76
599.24	1101.03
599.59	1096.81
599.94	1092.67
600.29	1088.57
600.64	1084.48
600.99	1080.14
601.34	1076.23
601.69	1070.73
602.04	1066.51
602.39	1062.11
602.74	1057.80
603.08	1053.75
603.43	1050.01
603.78	1045.55
604.13	1041.17
604.48	1036.91
604.83	1033.19
605.18	1029.37
605.53	1025.20
605.87	1020.67
606.22	1016.73
606.57	1011.80
606.92	1007.19
607.27	1002.74
607.62	998.47
607.96	994.42
608.31	990.72
608.66	986.05
609.01	981.79
609.36	977.18
609.70	972.44
610.05	967.72
610.40	963.14
610.75	958.15
611.10	953.84
611.44	948.71
611.79	943.70
612.14	938.65
612.49	933.47
612.83	928.84
613.18	924.02
613.53	918.90
613.88	914.33
614.22	909.81
614.57	904.89
614.92	900.01
615.27	895.08
615.61	890.09
615.96	885.65
616.31	881.15
616.65	877.08
617.00	872.61
617.35	868.34
617.70	863.80
618.04	858.96
618.39	853.80
618.74	849.49
619.08	845.02
619.43	840.62
619.78	836.46
620.12	832.25
620.47	828.05
620.82	823.59
621.16	818.98
621.51	814.45
621.85	810.39
622.20	805.98
622.55	801.54
622.89	796.98
623.24	792.60
623.59	788.05
623.93	783.55
624.28	779.61
624.62	775.54
624.97	771.25
625.32	767.08
625.66	763.18
626.01	759.10
626.35	755.03
626.70	750.85
627.04	746.71
627.39	742.43
627.73	738.50
628.08	734.90
628.43	730.99
628.77	727.19
629.12	723.07
629.46	719.48
629.81	715.87
630.15	712.14
630.50	708.35
630.84	704.58
631.19	700.75
631.53	696.83
631.88	692.70
632.22	688.88
632.57	685.77
632.91	682.06
633.26	678.63
633.60	675.03
633.95	671.51
634.29	667.92
634.64	664.61
634.98	660.91
635.32	657.35
635.67	654.14
636.01	650.75
636.36	647.52
636.70	644.26
637.05	640.85
637.39	637.75
637.73	634.66
638.08	631.98
638.42	629.11
638.77	626.15
639.11	623.15
639.45	620.16
639.80	616.56
640.14	613.39
640.49	610.13
640.83	606.98
641.17	603.84
641.52	600.68
641.86	597.41
642.20	594.61
642.55	591.10
642.89	587.91
643.23	584.68
643.58	581.80
643.92	578.60
644.26	575.60
644.61	572.66
644.95	569.43
645.29	565.99
645.64	562.74
645.98	559.53
646.32	556.64
646.66	553.65
647.01	550.84
647.35	548.18
647.69	545.24
648.04	542.50
648.38	539.69
648.72	536.88
649.06	533.95
649.41	530.98
649.75	528.27
650.09	525.46
650.43	522.72
650.78	519.61
651.12	516.74
651.46	513.98
651.80	511.24
652.14	508.65
652.49	506.17
652.83	503.49
653.17	500.69
653.51	497.96
653.85	495.46
654.20	492.77
654.54	489.85
654.88	487.26
655.22	484.73
655.56	481.98
655.90	479.21
656.25	476.69
656.59	474.06
656.93	471.67
657.27	469.34
657.61	466.69
657.95	464.38
658.29	462.00
658.64	459.73
658.98	457.15
659.32	454.53
659.66	451.95
660.00	449.42
660.34	446.99
660.68	444.48
661.02	441.80
661.36	439.50
661.70	437.32
662.05	434.94
662.39	432.80
662.73	430.86
663.07	428.94
663.41	426.70
663.75	424.48
664.09	422.41
664.43	420.10
664.77	418.25
665.11	416.09
665.45	414.10
665.79	412.08
666.13	410.12
666.47	408.29
666.81	406.35
667.15	404.42
667.49	402.70
667.83	401.11
668.17	399.48
668.51	397.69
668.85	396.08
669.19	394.66
669.53	392.69
669.87	390.70
670.21	388.91
670.55	387.32
670.89	385.94
671.23	384.32
671.57	382.89
671.91	381.26
672.25	379.84
672.58	378.30
672.92	376.52
673.26	375.07
673.60	373.44
673.94	371.90
674.28	370.46
674.62	368.99
674.96	367.38
675.30	365.95
675.64	364.47
675.97	362.86
676.31	361.33
676.65	359.89
676.99	358.77
677.33	357.39
677.67	356.03
678.01	354.41
678.34	353.02
678.68	351.63
679.02	350.12
679.36	348.61
679.70	347.17
680.04	345.90
680.37	344.55
680.71	343.29
681.05	342.04
681.39	340.75
681.73	339.48
682.06	338.33
682.40	337.05
682.74	335.89
683.08	334.83
683.42	333.55
683.75	332.35
684.09	330.99
684.43	329.77
684.77	328.51
685.10	327.43
685.44	326.12
685.78	324.83
686.12	323.78
686.45	322.69
686.79	321.58
687.13	320.64
687.46	319.56
687.80	318.49
688.14	317.30
688.48	316.32
688.81	315.25
689.15	314.17
689.49	313.04
689.82	311.99
690.16	310.74
690.50	309.60
690.83	308.55
691.17	307.44
691.51	306.27
691.84	305.34
692.18	304.33
692.52	303.45
692.85	302.60
693.19	301.76
693.52	300.86
693.86	299.86
694.20	298.78
694.53	297.91
694.87	296.94
695.21	296.02
695.54	295.06
695.88	294.01
696.21	292.97
696.55	292.09
696.88	291.13
697.22	290.25
697.56	289.51
697.89	288.68
698.23	287.82
698.56	287.00
698.90	286.19
699.23	285.34
699.57	284.45
699.90	283.52
700.24	282.60
700.58	281.74
700.91	280.99
701.25	280.43
701.58	279.64
701.92	278.97
702.25	278.34
702.59	277.50
702.92	276.84
703.26	276.06
703.59	275.22
703.93	274.78
704.26	274.11
704.60	273.39
704.93	272.65
705.26	271.96
705.60	271.34
705.93	270.57
706.27	270.03
706.60	269.51
706.94	269.05
707.27	268.38
707.61	267.76
707.94	267.12
708.27	266.35
708.61	265.63
708.94	264.96
709.28	264.35
709.61	263.79
709.94	263.16
710.28	262.74
710.61	262.34
710.95	261.50
711.28	261.27
711.61	260.76
711.95	260.37
712.28	259.93
712.61	259.46
712.95	259.14
713.28	258.71
713.61	258.10
713.95	257.51
714.28	257.10
714.61	256.60
714.95	256.12
715.28	255.52
715.61	255.04
715.95	254.56
716.28	253.95
716.61	253.58
716.95	253.13
717.28	252.64
717.61	252.19
717.94	251.79
718.28	251.07
718.61	250.57
718.94	250.00
719.27	249.58
719.61	249.16
719.94	248.68
720.27	248.05
720.60	247.74
720.94	247.37
721.27	246.93
721.60	246.61
721.93	246.32
722.27	246.16
722.60	245.94
722.93	245.64
723.26	245.36
723.59	244.94
723.93	244.59
724.26	244.31
724.59	243.92
724.92	243.62
725.25	243.38
725.59	243.14
725.92	242.90
726.25	242.57
726.58	242.29
726.91	241.93
727.24	241.67
727.57	241.38
727.91	240.95
728.24	240.73
728.57	240.43
728.90	240.19
729.23	239.75
729.56	239.57
729.89	239.34
730.22	239.06
730.55	238.76
730.89	238.56
731.22	238.27
731.55	238.05
731.88	237.72
732.21	237.38
732.54	236.98
732.87	236.70
733.20	236.39
733.53	236.14
733.86	235.88
734.19	235.67
734.52	235.43
734.85	235.46
735.18	235.19
735.51	235.05
735.84	234.77
736.17	234.67
736.50	234.25
736.83	234.36
737.16	234.13
737.49	233.98
737.82	233.77
738.15	233.54
738.48	233.30
738.81	233.17
739.14	232.86
739.47	232.68
739.80	232.53
740.13	232.36
740.46	232.03
740.79	231.78
741.12	231.55
741.45	231.32
741.78	230.96
742.11	230.80
742.44	230.47
742.77	230.34
743.10	230.10
743.43	229.86
743.75	229.29
744.08	229.58
744.41	229.35
744.74	229.18
745.07	228.92
745.40	228.84
745.73	228.77
746.06	228.65
746.39	228.56
746.71	228.29
747.04	228.11
747.37	228.03
747.70	227.86
748.03	227.68
748.36	227.52
748.68	227.39
749.01	227.19
749.34	227.07
749.67	226.82
750.00	226.69
750.33	226.85
750.65	226.76
750.98	226.24
751.31	226.01
751.64	225.76
751.97	225.84
752.29	225.62
752.62	225.36
752.95	225.16
753.28	224.89
753.60	224.84
753.93	224.81
754.26	224.62
754.59	224.40
754.91	224.22
755.24	224.10
755.57	223.90
755.90	223.71
756.22	223.49
756.55	223.30
756.88	223.04
757.20	222.69
757.53	222.40
757.86	222.20
758.19	222.14
758.51	222.18
758.84	221.82
759.17	221.63
759.49	221.48
759.82	221.53
760.15	221.50
760.47	221.26
760.80	221.04
761.13	220.96
761.45	220.83
761.78	220.71
762.11	220.63
762.43	220.55
762.76	220.42
763.08	220.48
763.41	220.52
763.74	220.47
764.06	220.33
764.39	220.28
764.71	220.20
765.04	220.06
765.37	219.84
765.69	219.85
766.02	219.79
766.34	219.62
766.67	219.47
767.00	219.40
767.32	219.55
767.65	219.68
767.97	219.61
768.30	219.62
768.62	219.57
768.95	219.34
769.27	219.18
769.60	219.17
769.92	218.97
770.25	218.78
770.57	218.64
770.90	218.60
771.22	218.52
771.55	218.45
771.87	218.41
772.20	218.35
772.52	218.50
772.85	218.82
773.17	218.78
773.50	218.68
773.82	218.53
774.15	218.25
774.47	217.92
774.80	217.75
775.12	217.65
775.45	217.51
775.77	217.50
776.09	217.46
776.42	217.42
776.74	217.46
777.07	217.35
777.39	217.35
777.72	217.16
778.04	217.09
778.36	216.95
778.69	216.90
779.01	216.83
779.33	216.50
779.66	216.05
779.98	215.98
780.31	215.92
780.63	216.00
780.95	216.15
781.28	216.07
781.60	216.06
781.92	216.05
782.25	216.03
782.57	216.01
782.89	215.99
783.22	215.87
783.54	215.78
783.86	215.81
784.19	215.74
784.51	215.87
784.83	215.77
785.16	215.78
785.48	215.78
785.80	215.76
786.12	215.72
786.45	215.70
786.77	215.70
787.09	215.62
787.42	215.49
787.74	215.32
788.06	215.30
