SpectraSuite Data File
++++++++++++++++++++++++++++++++++++
Date: Mon Feb 25 17:16:22 EST 2013
User: group
Dark Spectrum Present: No
Reference Spectrum Present: No
Number of Sampled Component Spectra: 1
Spectrometers: USB2E7196
Integration Time (usec): 104000 (USB2E7196)
Spectra Averaged: 20 (USB2E7196)
Boxcar Smoothing: 10 (USB2E7196)
Correct for Electrical Dark: No (USB2E7196)
Strobe/Lamp Enabled: No (USB2E7196)
Correct for Detector Non-linearity: No (USB2E7196)
Correct for Stray Light: No (USB2E7196)
Number of Pixels in Processed Spectrum: 2048
>>>>>Begin Processed Spectral Data<<<<<
339.09	0.00
339.48	197.80
339.86	199.45
340.24	200.55
340.63	203.30
341.01	208.90
341.39	206.45
341.78	208.50
342.16	209.00
342.54	208.20
342.93	198.27
343.31	208.27
343.69	208.86
344.07	209.37
344.46	209.82
344.84	210.21
345.22	210.29
345.60	210.54
345.99	210.68
346.37	210.80
346.75	210.86
347.13	210.95
347.52	210.96
347.90	211.11
348.28	211.16
348.66	211.36
349.05	211.28
349.43	211.37
349.81	211.44
350.19	211.57
350.57	211.64
350.96	211.78
351.34	211.90
351.72	212.00
352.10	212.03
352.48	212.19
352.87	212.21
353.25	212.29
353.63	212.32
354.01	212.36
354.39	212.47
354.77	212.58
355.15	212.73
355.54	212.75
355.92	212.72
356.30	212.71
356.68	212.92
357.06	213.08
357.44	213.09
357.82	213.18
358.20	213.23
358.58	213.34
358.97	213.40
359.35	213.49
359.73	213.64
360.11	213.74
360.49	213.74
360.87	213.78
361.25	213.87
361.63	213.99
362.01	214.06
362.39	214.07
362.77	214.19
363.15	214.16
363.53	214.21
363.91	214.28
364.29	214.31
364.67	213.99
365.05	214.01
365.43	214.03
365.81	214.00
366.19	214.07
366.57	214.18
366.95	214.09
367.33	214.05
367.71	214.03
368.09	214.10
368.47	214.11
368.85	214.15
369.23	214.26
369.61	214.15
369.99	214.23
370.37	214.22
370.75	214.32
371.13	214.27
371.51	214.23
371.89	214.14
372.27	214.09
372.65	214.09
373.03	213.99
373.41	213.99
373.78	213.93
374.16	213.86
374.54	213.72
374.92	213.73
375.30	213.66
375.68	213.48
376.06	213.46
376.44	213.37
376.82	213.33
377.19	213.20
377.57	213.15
377.95	213.03
378.33	213.03
378.71	212.87
379.09	212.84
379.47	212.85
379.84	212.84
380.22	212.80
380.60	212.77
380.98	212.72
381.36	212.67
381.73	212.68
382.11	212.58
382.49	212.59
382.87	212.47
383.25	212.45
383.62	212.83
384.00	212.72
384.38	212.70
384.76	212.69
385.13	212.79
385.51	212.77
385.89	212.72
386.27	212.65
386.64	212.56
387.02	212.51
387.40	212.45
387.78	212.40
388.15	212.44
388.53	212.40
388.91	212.38
389.29	212.31
389.66	212.28
390.04	212.28
390.42	212.23
390.79	212.25
391.17	212.24
391.55	211.85
391.92	211.82
392.30	211.84
392.68	211.85
393.05	211.77
393.43	211.74
393.81	211.71
394.18	211.60
394.56	211.65
394.94	211.75
395.31	211.72
395.69	211.87
396.06	211.87
396.44	211.85
396.82	211.83
397.19	212.03
397.57	211.95
397.95	211.93
398.32	211.89
398.70	211.92
399.07	212.00
399.45	211.98
399.82	212.03
400.20	212.03
400.58	212.00
400.95	211.99
401.33	212.04
401.70	212.35
402.08	212.46
402.45	212.49
402.83	212.50
403.20	212.56
403.58	212.58
403.95	212.69
404.33	212.81
404.71	212.93
405.08	213.29
405.46	213.48
405.83	213.66
406.21	213.76
406.58	213.94
406.96	214.08
407.33	214.28
407.70	214.47
408.08	214.89
408.45	215.17
408.83	215.34
409.20	215.64
409.58	215.71
409.95	216.03
410.33	216.32
410.70	216.58
411.08	216.88
411.45	217.23
411.82	217.59
412.20	218.01
412.57	218.62
412.95	218.70
413.32	219.18
413.69	219.66
414.07	220.27
414.44	220.86
414.82	221.42
415.19	222.14
415.56	222.85
415.94	223.49
416.31	224.34
416.68	225.25
417.06	226.26
417.43	227.21
417.81	228.29
418.18	229.37
418.55	230.56
418.93	231.81
419.30	233.07
419.67	234.44
420.04	235.74
420.42	237.11
420.79	239.01
421.16	240.75
421.54	242.68
421.91	244.52
422.28	246.29
422.66	248.32
423.03	250.45
423.40	252.52
423.77	254.63
424.15	256.79
424.52	259.10
424.89	261.51
425.26	263.80
425.64	266.11
426.01	268.69
426.38	271.27
426.75	274.03
427.13	276.80
427.50	279.72
427.87	282.81
428.24	285.78
428.61	288.40
428.99	291.59
429.36	294.85
429.73	298.13
430.10	301.67
430.47	305.02
430.85	308.44
431.22	312.23
431.59	316.42
431.96	320.22
432.33	324.36
432.70	328.47
433.08	333.24
433.45	337.67
433.82	342.06
434.19	346.99
434.56	351.80
434.93	356.47
435.30	361.02
435.68	366.13
436.05	371.29
436.42	376.32
436.79	381.03
437.16	385.92
437.53	391.17
437.90	396.23
438.27	401.35
438.64	406.59
439.01	411.44
439.38	415.49
439.75	419.56
440.13	424.44
440.50	428.87
440.87	432.59
441.24	436.36
441.61	440.54
441.98	443.71
442.35	447.29
442.72	450.97
443.09	454.51
443.46	456.58
443.83	457.82
444.20	459.09
444.57	460.67
444.94	461.49
445.31	462.37
445.68	463.42
446.05	463.67
446.42	463.08
446.79	462.37
447.16	461.66
447.53	461.28
447.90	459.17
448.27	457.21
448.64	454.52
449.01	452.50
449.37	449.10
449.74	445.60
450.11	441.73
450.48	437.25
450.85	432.74
451.22	428.86
451.59	425.33
451.96	421.81
452.33	417.19
452.70	413.00
453.07	407.96
453.43	402.65
453.80	397.81
454.17	393.21
454.54	388.80
454.91	384.15
455.28	379.50
455.65	375.14
456.02	371.30
456.38	367.59
456.75	363.15
457.12	359.34
457.49	355.76
457.86	352.02
458.23	348.91
458.59	345.51
458.96	342.11
459.33	338.95
459.70	335.95
460.07	333.55
460.43	330.77
460.80	328.16
461.17	325.90
461.54	323.58
461.91	321.29
462.27	318.99
462.64	317.01
463.01	314.86
463.38	312.96
463.74	310.41
464.11	308.62
464.48	307.02
464.85	305.21
465.21	303.88
465.58	302.51
465.95	300.87
466.32	299.52
466.68	298.20
467.05	296.95
467.42	295.67
467.78	294.24
468.15	292.90
468.52	291.96
468.88	290.65
469.25	289.54
469.62	288.74
469.98	287.73
470.35	286.92
470.72	286.15
471.08	285.16
471.45	284.44
471.82	283.78
472.18	282.97
472.55	282.52
472.92	281.80
473.28	281.21
473.65	280.65
474.02	280.18
474.38	279.87
474.75	279.58
475.11	279.13
475.48	278.97
475.85	278.77
476.21	278.52
476.58	278.50
476.94	278.45
477.31	278.34
477.67	278.38
478.04	278.39
478.41	278.46
478.77	278.97
479.14	279.13
479.50	279.32
479.87	279.64
480.23	279.89
480.60	280.24
480.96	280.63
481.33	281.32
481.69	281.91
482.06	282.40
482.42	282.88
482.79	283.69
483.15	284.42
483.52	285.39
483.88	286.32
484.25	287.15
484.61	288.07
484.98	289.15
485.34	290.35
485.71	291.62
486.07	292.90
486.44	293.99
486.80	295.53
487.17	296.97
487.53	298.70
487.90	300.54
488.26	302.57
488.62	304.66
488.99	306.66
489.35	308.77
489.72	311.10
490.08	313.57
490.44	316.05
490.81	318.77
491.17	321.51
491.54	324.57
491.90	327.84
492.26	331.21
492.63	334.65
492.99	338.20
493.36	341.92
493.72	346.01
494.08	350.10
494.45	354.39
494.81	359.09
495.17	363.81
495.54	368.88
495.90	373.83
496.26	379.12
496.63	384.76
496.99	390.67
497.35	396.81
497.72	403.20
498.08	409.76
498.44	416.64
498.80	423.95
499.17	431.35
499.53	439.00
499.89	446.96
500.26	455.23
500.62	463.60
500.98	472.53
501.34	481.75
501.71	491.36
502.07	501.15
502.43	511.17
502.79	521.32
503.16	532.01
503.52	543.05
503.88	554.26
504.24	565.79
504.60	577.47
504.97	589.65
505.33	602.02
505.69	615.35
506.05	628.68
506.41	642.04
506.78	655.79
507.14	669.75
507.50	684.30
507.86	699.01
508.22	714.40
508.59	729.70
508.95	745.48
509.31	761.45
509.67	777.82
510.03	794.59
510.39	811.91
510.75	829.10
511.12	846.85
511.48	864.83
511.84	883.10
512.20	901.61
512.56	920.75
512.92	940.05
513.28	959.13
513.64	978.39
514.00	998.23
514.37	1018.16
514.73	1038.58
515.09	1058.79
515.45	1079.00
515.81	1099.37
516.17	1120.04
516.53	1140.64
516.89	1161.47
517.25	1182.61
517.61	1203.75
517.97	1224.66
518.33	1245.82
518.69	1267.02
519.05	1288.50
519.41	1310.19
519.77	1332.29
520.13	1353.51
520.49	1374.68
520.85	1396.09
521.21	1418.04
521.57	1440.01
521.93	1461.22
522.29	1483.39
522.65	1505.57
523.01	1527.38
523.37	1548.75
523.73	1570.31
524.09	1591.82
524.45	1613.49
524.81	1634.65
525.17	1655.95
525.53	1677.51
525.89	1698.86
526.25	1720.09
526.61	1740.38
526.97	1760.94
527.33	1781.14
527.68	1801.65
528.04	1821.99
528.40	1841.39
528.76	1860.84
529.12	1880.44
529.48	1901.01
529.84	1920.03
530.20	1938.87
530.56	1958.06
530.91	1977.73
531.27	1997.16
531.63	2015.96
531.99	2034.35
532.35	2052.74
532.71	2070.57
533.07	2088.79
533.42	2106.14
533.78	2123.87
534.14	2141.00
534.50	2156.98
534.86	2173.78
535.21	2189.54
535.57	2205.93
535.93	2222.04
536.29	2237.45
536.65	2252.79
537.00	2266.81
537.36	2280.45
537.72	2294.01
538.08	2307.83
538.44	2321.43
538.79	2334.87
539.15	2347.77
539.51	2360.67
539.87	2373.89
540.22	2386.63
540.58	2399.39
540.94	2411.67
541.29	2422.28
541.65	2433.21
542.01	2444.52
542.37	2454.55
542.72	2465.04
543.08	2474.19
543.44	2484.80
543.79	2493.56
544.15	2502.01
544.51	2511.24
544.87	2520.90
545.22	2529.15
545.58	2536.56
545.94	2542.89
546.29	2548.40
546.65	2554.12
547.01	2559.81
547.36	2564.87
547.72	2569.76
548.07	2573.29
548.43	2576.87
548.79	2580.45
549.14	2584.32
549.50	2587.73
549.86	2590.52
550.21	2593.13
550.57	2596.56
550.92	2597.53
551.28	2599.45
551.64	2601.19
551.99	2602.95
552.35	2603.91
552.70	2604.85
553.06	2606.01
553.41	2607.18
553.77	2608.23
554.13	2609.44
554.48	2610.24
554.84	2610.75
555.19	2610.40
555.55	2609.66
555.90	2608.85
556.26	2608.40
556.61	2607.49
556.97	2605.73
557.32	2604.77
557.68	2602.38
558.03	2599.96
558.39	2598.48
558.74	2597.59
559.10	2596.12
559.45	2593.60
559.81	2591.61
560.16	2589.10
560.52	2587.04
560.87	2584.44
561.23	2581.22
561.58	2578.10
561.94	2574.13
562.29	2569.92
562.64	2566.74
563.00	2563.77
563.35	2561.34
563.71	2559.10
564.06	2555.93
564.42	2553.55
564.77	2550.73
565.12	2548.57
565.48	2545.36
565.83	2542.17
566.19	2538.89
566.54	2534.33
566.89	2530.01
567.25	2525.85
567.60	2521.90
567.96	2517.09
568.31	2512.98
568.66	2508.35
569.02	2503.07
569.37	2497.91
569.72	2493.15
570.08	2487.74
570.43	2482.17
570.78	2475.99
571.14	2469.05
571.49	2462.93
571.84	2457.08
572.20	2449.64
572.55	2443.50
572.90	2436.50
573.26	2428.71
573.61	2421.16
573.96	2413.91
574.31	2406.19
574.67	2397.81
575.02	2389.73
575.37	2381.67
575.72	2372.69
576.08	2365.48
576.43	2357.38
576.78	2349.65
577.13	2342.24
577.49	2334.57
577.84	2326.61
578.19	2319.27
578.54	2312.58
578.90	2305.39
579.25	2297.05
579.60	2289.05
579.95	2280.07
580.30	2272.57
580.66	2265.62
581.01	2257.27
581.36	2248.85
581.71	2240.81
582.06	2232.89
582.42	2225.35
582.77	2217.19
583.12	2209.23
583.47	2201.26
583.82	2194.02
584.17	2186.10
584.53	2178.23
584.88	2170.24
585.23	2162.73
585.58	2154.79
585.93	2146.03
586.28	2138.15
586.63	2130.18
586.98	2122.65
587.34	2115.54
587.69	2107.58
588.04	2099.38
588.39	2092.05
588.74	2084.38
589.09	2077.28
589.44	2069.60
589.79	2062.39
590.14	2055.17
590.49	2047.49
590.84	2039.84
591.19	2032.58
591.54	2025.19
591.89	2016.16
592.25	2008.32
592.60	1999.96
592.95	1991.29
593.30	1982.56
593.65	1973.65
594.00	1965.23
594.35	1958.56
594.70	1950.43
595.05	1942.91
595.40	1935.22
595.75	1926.61
596.10	1919.47
596.45	1911.58
596.80	1904.62
597.15	1897.08
597.50	1889.28
597.85	1882.34
598.19	1874.48
598.54	1866.94
598.89	1859.65
599.24	1853.80
599.59	1846.81
599.94	1840.46
600.29	1834.15
600.64	1827.57
600.99	1820.40
601.34	1813.95
601.69	1805.61
602.04	1798.15
602.39	1790.72
602.74	1784.04
603.08	1778.06
603.43	1771.40
603.78	1764.61
604.13	1757.39
604.48	1750.43
604.83	1744.61
605.18	1738.43
605.53	1731.62
605.87	1724.48
606.22	1717.99
606.57	1710.72
606.92	1703.69
607.27	1696.20
607.62	1688.75
607.96	1682.46
608.31	1676.42
608.66	1669.15
609.01	1662.28
609.36	1655.28
609.70	1647.80
610.05	1639.88
610.40	1632.14
610.75	1624.14
611.10	1617.04
611.44	1608.55
611.79	1600.10
612.14	1591.21
612.49	1582.54
612.83	1574.75
613.18	1566.10
613.53	1557.49
613.88	1548.49
614.22	1540.44
614.57	1532.17
614.92	1524.08
615.27	1515.42
615.61	1506.85
615.96	1498.77
616.31	1490.82
616.65	1483.55
617.00	1476.01
617.35	1468.39
617.70	1460.31
618.04	1452.15
618.39	1443.40
618.74	1435.90
619.08	1427.82
619.43	1419.96
619.78	1412.15
620.12	1404.13
620.47	1396.86
620.82	1388.57
621.16	1380.90
621.51	1372.88
621.85	1365.16
622.20	1357.24
622.55	1349.28
622.89	1341.17
623.24	1333.19
623.59	1325.00
623.93	1316.66
624.28	1308.88
624.62	1301.27
624.97	1293.55
625.32	1286.30
625.66	1279.00
626.01	1271.49
626.35	1264.72
626.70	1257.44
627.04	1250.61
627.39	1243.53
627.73	1236.44
628.08	1229.83
628.43	1222.59
628.77	1215.15
629.12	1207.73
629.46	1201.29
629.81	1194.39
630.15	1187.55
630.50	1180.75
630.84	1173.80
631.19	1166.97
631.53	1159.93
631.88	1152.51
632.22	1145.38
632.57	1138.62
632.91	1131.82
633.26	1125.02
633.60	1118.22
633.95	1111.76
634.29	1104.71
634.64	1098.32
634.98	1091.29
635.32	1084.65
635.67	1078.55
636.01	1072.62
636.36	1066.21
636.70	1059.63
637.05	1053.23
637.39	1046.97
637.73	1040.90
638.08	1035.39
638.42	1029.66
638.77	1023.94
639.11	1018.00
639.45	1012.08
639.80	1005.61
640.14	999.20
640.49	993.20
640.83	986.95
641.17	980.85
641.52	974.80
641.86	968.17
642.20	962.18
642.55	955.78
642.89	949.19
643.23	942.63
643.58	936.99
643.92	930.56
644.26	924.63
644.61	918.58
644.95	912.43
645.29	905.92
645.64	899.49
645.98	893.12
646.32	887.40
646.66	881.27
647.01	875.54
647.35	869.87
647.69	863.68
648.04	857.76
648.38	851.61
648.72	845.63
649.06	840.06
649.41	834.30
649.75	828.70
650.09	823.34
650.43	817.61
650.78	811.50
651.12	805.65
651.46	799.89
651.80	794.43
652.14	788.91
652.49	783.44
652.83	777.74
653.17	772.02
653.51	766.23
653.85	761.00
654.20	755.52
654.54	749.90
654.88	744.49
655.22	739.05
655.56	733.61
655.90	728.14
656.25	722.54
656.59	717.25
656.93	712.02
657.27	707.00
657.61	701.77
657.95	696.77
658.29	691.73
658.64	687.02
658.98	681.87
659.32	676.57
659.66	671.54
660.00	666.60
660.34	661.69
660.68	656.69
661.02	651.48
661.36	646.75
661.70	642.19
662.05	637.64
662.39	633.43
662.73	629.26
663.07	625.01
663.41	620.86
663.75	616.56
664.09	612.17
664.43	607.53
664.77	603.37
665.11	599.16
665.45	595.04
665.79	590.73
666.13	586.60
666.47	582.66
666.81	578.82
667.15	574.88
667.49	571.24
667.83	567.50
668.17	563.99
668.51	560.51
668.85	556.95
669.19	553.70
669.53	549.80
669.87	546.05
670.21	542.47
670.55	538.96
670.89	535.90
671.23	532.55
671.57	529.40
671.91	526.11
672.25	522.87
672.58	519.72
672.92	516.48
673.26	513.39
673.60	510.32
673.94	507.15
674.28	504.13
674.62	501.15
674.96	498.25
675.30	495.15
675.64	492.03
675.97	489.09
676.31	486.07
676.65	483.37
676.99	480.74
677.33	477.91
677.67	475.14
678.01	472.08
678.34	469.44
678.68	466.67
679.02	463.92
679.36	461.14
679.70	458.54
680.04	455.82
680.37	453.11
680.71	450.49
681.05	448.00
681.39	445.52
681.73	442.89
682.06	440.54
682.40	438.24
682.74	435.71
683.08	433.36
683.42	430.92
683.75	428.48
684.09	425.94
684.43	423.64
684.77	421.10
685.10	418.55
685.44	416.08
685.78	413.65
686.12	411.55
686.45	409.30
686.79	407.05
687.13	404.96
687.46	402.96
687.80	400.82
688.14	398.53
688.48	396.35
688.81	394.18
689.15	391.94
689.49	389.87
689.82	387.88
690.16	385.53
690.50	383.33
690.83	381.24
691.17	379.12
691.51	376.98
691.84	375.09
692.18	373.25
692.52	371.46
692.85	369.73
693.19	367.92
693.52	366.00
693.86	363.95
694.20	362.11
694.53	360.27
694.87	358.47
695.21	356.76
695.54	355.03
695.88	353.23
696.21	351.40
696.55	349.71
696.88	348.03
697.22	346.45
697.56	344.94
697.89	343.26
698.23	341.76
698.56	340.19
698.90	338.76
699.23	337.25
699.57	335.66
699.90	334.12
700.24	332.38
700.58	330.95
700.91	329.66
701.25	328.40
701.58	327.04
701.92	325.69
702.25	324.27
702.59	322.81
702.92	321.54
703.26	320.26
703.59	318.88
703.93	317.82
704.26	316.66
704.60	315.35
704.93	314.08
705.26	312.73
705.60	311.56
705.93	310.27
706.27	309.10
706.60	308.04
706.94	307.09
707.27	306.02
707.61	304.91
707.94	303.71
708.27	302.36
708.61	301.21
708.94	300.04
709.28	298.98
709.61	297.94
709.94	296.94
710.28	295.94
710.61	295.08
710.95	293.77
711.28	293.02
711.61	292.01
711.95	291.16
712.28	290.37
712.61	289.50
712.95	288.75
713.28	287.94
713.61	286.92
713.95	285.89
714.28	285.11
714.61	284.19
714.95	283.36
715.28	282.55
715.61	281.70
715.95	280.89
716.28	280.07
716.61	279.29
716.95	278.41
717.28	277.55
717.61	276.72
717.94	275.95
718.28	274.89
718.61	274.18
718.94	273.49
719.27	272.66
719.61	271.96
719.94	271.22
720.27	270.41
720.60	269.68
720.94	268.94
721.27	268.12
721.60	267.57
721.93	266.88
722.27	266.36
722.60	265.73
722.93	265.05
723.26	264.48
723.59	263.80
723.93	263.30
724.26	262.79
724.59	262.09
724.92	261.62
725.25	261.21
725.59	260.67
725.92	260.10
726.25	259.63
726.58	259.07
726.91	258.46
727.24	258.04
727.57	257.54
727.91	257.01
728.24	256.67
728.57	256.13
728.90	255.72
729.23	255.15
729.56	254.85
729.89	254.50
730.22	254.02
730.55	253.61
730.89	253.15
731.22	252.63
731.55	252.29
731.88	251.81
732.21	251.29
732.54	250.76
732.87	250.32
733.20	249.89
733.53	249.44
733.86	248.96
734.19	248.49
734.52	248.19
734.85	248.02
735.18	247.50
735.51	247.20
735.84	246.80
736.17	246.50
736.50	245.90
736.83	245.80
737.16	245.45
737.49	245.16
737.82	244.72
738.15	244.41
738.48	244.00
738.81	243.68
739.14	243.30
739.47	243.00
739.80	242.59
740.13	242.19
740.46	241.79
740.79	241.39
741.12	240.97
741.45	240.56
741.78	240.08
742.11	239.89
742.44	239.52
742.77	239.29
743.10	238.86
743.43	238.56
743.75	237.94
744.08	238.00
744.41	237.57
744.74	237.32
745.07	236.95
745.40	236.67
745.73	236.52
746.06	236.19
746.39	235.95
746.71	235.72
747.04	235.49
747.37	235.26
747.70	235.15
748.03	234.94
748.36	234.75
748.68	234.46
749.01	234.04
749.34	233.80
749.67	233.60
750.00	233.48
750.33	233.50
750.65	233.21
750.98	232.64
751.31	232.48
751.64	232.27
751.97	232.15
752.29	231.89
752.62	231.37
752.95	231.16
753.28	230.82
753.60	230.59
753.93	230.45
754.26	230.23
754.59	229.93
754.91	229.72
755.24	229.41
755.57	229.16
755.90	229.01
756.22	228.74
756.55	228.43
756.88	228.13
757.20	227.73
757.53	227.45
757.86	227.17
758.19	226.96
758.51	226.66
758.84	226.39
759.17	226.26
759.49	226.12
759.82	226.06
760.15	225.97
760.47	225.71
760.80	225.42
761.13	225.29
761.45	225.11
761.78	224.84
762.11	224.84
762.43	224.62
762.76	224.50
763.08	224.41
763.41	224.27
763.74	224.10
764.06	223.87
764.39	223.78
764.71	223.60
765.04	223.38
765.37	223.27
765.69	223.08
766.02	222.86
766.34	222.76
766.67	222.45
767.00	222.36
767.32	222.46
767.65	222.55
767.97	222.43
768.30	222.27
768.62	222.20
768.95	221.96
769.27	221.85
769.60	221.74
769.92	221.48
770.25	221.25
770.57	221.03
770.90	220.98
771.22	220.87
771.55	220.81
771.87	220.81
772.20	220.68
772.52	220.89
772.85	221.24
773.17	221.12
773.50	221.02
773.82	220.95
774.15	220.62
774.47	220.36
774.80	220.25
775.12	220.12
775.45	220.06
775.77	220.00
776.09	219.94
776.42	219.84
776.74	219.94
777.07	219.88
777.39	219.90
777.72	219.76
778.04	219.68
778.36	219.49
778.69	219.35
779.01	219.31
779.33	218.96
779.66	218.44
779.98	218.37
780.31	218.35
780.63	218.33
780.95	218.29
781.28	218.10
781.60	217.95
781.92	217.96
782.25	217.86
782.57	217.81
782.89	217.74
783.22	217.62
783.54	217.46
783.86	217.45
784.19	217.35
784.51	217.35
784.83	217.26
785.16	217.18
785.48	217.15
785.80	217.05
786.12	216.94
786.45	216.97
