SpectraSuite Data File
++++++++++++++++++++++++++++++++++++
Date: Mon Feb 25 17:03:38 EST 2013
User: group
Dark Spectrum Present: No
Reference Spectrum Present: No
Number of Sampled Component Spectra: 1
Spectrometers: USB2E7196
Integration Time (usec): 104000 (USB2E7196)
Spectra Averaged: 20 (USB2E7196)
Boxcar Smoothing: 10 (USB2E7196)
Correct for Electrical Dark: No (USB2E7196)
Strobe/Lamp Enabled: No (USB2E7196)
Correct for Detector Non-linearity: No (USB2E7196)
Correct for Stray Light: No (USB2E7196)
Number of Pixels in Processed Spectrum: 2048
>>>>>Begin Processed Spectral Data<<<<<
339.09	0.00
339.48	198.95
339.86	199.95
340.24	201.00
340.63	201.40
341.01	209.35
341.39	204.80
341.78	207.00
342.16	208.40
342.54	208.40
342.93	197.93
343.31	207.91
343.69	208.45
344.07	208.93
344.46	209.42
344.84	209.83
345.22	209.84
345.60	210.09
345.99	210.30
346.37	210.45
346.75	210.51
347.13	210.59
347.52	210.67
347.90	210.82
348.28	210.91
348.66	210.99
349.05	210.83
349.43	210.90
349.81	210.90
350.19	210.88
350.57	211.00
350.96	211.05
351.34	211.12
351.72	211.14
352.10	211.20
352.48	211.19
352.87	211.27
353.25	211.39
353.63	211.50
354.01	211.61
354.39	211.73
354.77	211.80
355.15	211.93
355.54	211.95
355.92	211.94
356.30	211.99
356.68	212.27
357.06	212.45
357.44	212.40
357.82	212.49
358.20	212.61
358.58	212.64
358.97	212.77
359.35	212.88
359.73	213.04
360.11	213.11
360.49	213.20
360.87	213.24
361.25	213.29
361.63	213.40
362.01	213.39
362.39	213.31
362.77	213.41
363.15	213.43
363.53	213.54
363.91	213.61
364.29	213.60
364.67	213.29
365.05	213.24
365.43	213.31
365.81	213.37
366.19	213.54
366.57	213.62
366.95	213.54
367.33	213.53
367.71	213.52
368.09	213.60
368.47	213.55
368.85	213.50
369.23	213.56
369.61	213.45
369.99	213.50
370.37	213.51
370.75	213.67
371.13	213.53
371.51	213.37
371.89	213.34
372.27	213.33
372.65	213.25
373.03	213.24
373.41	213.19
373.78	213.08
374.16	212.79
374.54	212.64
374.92	212.53
375.30	212.43
375.68	212.25
376.06	212.17
376.44	212.05
376.82	212.05
377.19	212.01
377.57	211.96
377.95	211.79
378.33	211.78
378.71	211.48
379.09	211.59
379.47	211.60
379.84	211.52
380.22	211.42
380.60	211.32
380.98	211.20
381.36	211.11
381.73	211.06
382.11	211.09
382.49	211.10
382.87	211.06
383.25	211.03
383.62	211.44
384.00	211.29
384.38	211.30
384.76	211.30
385.13	211.37
385.51	211.33
385.89	211.26
386.27	211.18
386.64	211.15
387.02	210.97
387.40	210.97
387.78	210.98
388.15	210.98
388.53	210.98
388.91	210.98
389.29	211.02
389.66	211.02
390.04	210.95
390.42	210.96
390.79	210.91
391.17	210.91
391.55	210.46
391.92	210.52
392.30	210.55
392.68	210.45
393.05	210.34
393.43	210.36
393.81	210.45
394.18	210.43
394.56	210.39
394.94	210.48
395.31	210.37
395.69	210.44
396.06	210.45
396.44	210.52
396.82	210.56
397.19	210.70
397.57	210.65
397.95	210.71
398.32	210.57
398.70	210.68
399.07	210.77
399.45	210.85
399.82	210.90
400.20	210.92
400.58	211.00
400.95	210.92
401.33	210.96
401.70	211.19
402.08	211.22
402.45	211.30
402.83	211.40
403.20	211.48
403.58	211.48
403.95	211.65
404.33	211.77
404.71	211.86
405.08	212.04
405.46	212.16
405.83	212.35
406.21	212.53
406.58	212.63
406.96	212.74
407.33	212.95
407.70	213.11
408.08	213.54
408.45	213.83
408.83	214.14
409.20	214.42
409.58	214.46
409.95	214.82
410.33	215.13
410.70	215.37
411.08	215.82
411.45	216.21
411.82	216.52
412.20	217.06
412.57	217.70
412.95	217.95
413.32	218.59
413.69	219.09
414.07	219.70
414.44	220.41
414.82	221.05
415.19	221.81
415.56	222.60
415.94	223.30
416.31	224.23
416.68	225.17
417.06	226.15
417.43	227.29
417.81	228.39
418.18	229.70
418.55	231.04
418.93	232.47
419.30	233.93
419.67	235.55
420.04	237.12
420.42	238.73
420.79	240.86
421.16	242.72
421.54	244.98
421.91	247.08
422.28	249.21
422.66	251.55
423.03	253.93
423.40	256.29
423.77	258.83
424.15	261.41
424.52	264.11
424.89	267.11
425.26	269.89
425.64	272.67
426.01	275.63
426.38	278.80
426.75	281.95
427.13	285.24
427.50	288.57
427.87	292.20
428.24	295.83
428.61	299.20
428.99	303.20
429.36	307.20
429.73	311.21
430.10	315.35
430.47	319.61
430.85	323.87
431.22	328.47
431.59	333.53
431.96	338.22
432.33	343.44
432.70	348.44
433.08	354.44
433.45	359.99
433.82	365.64
434.19	371.91
434.56	378.01
434.93	383.87
435.30	389.91
435.68	396.40
436.05	402.92
436.42	409.28
436.79	415.24
437.16	421.60
437.53	428.53
437.90	435.30
438.27	441.95
438.64	448.94
439.01	455.40
439.38	460.85
439.75	466.53
440.13	472.89
440.50	479.03
440.87	483.99
441.24	489.26
441.61	494.99
441.98	499.27
442.35	504.26
442.72	509.45
443.09	514.32
443.46	517.47
443.83	519.64
444.20	521.63
444.57	524.07
444.94	525.64
445.31	527.25
445.68	528.95
446.05	529.93
446.42	529.61
446.79	529.32
447.16	529.12
447.53	528.92
447.90	526.80
448.27	524.76
448.64	521.83
449.01	519.80
449.37	515.76
449.74	512.00
450.11	507.52
450.48	502.20
450.85	496.81
451.22	492.15
451.59	487.85
451.96	483.76
452.33	478.19
452.70	472.93
453.07	466.66
453.43	460.10
453.80	453.98
454.17	448.16
454.54	442.56
454.91	436.57
455.28	430.69
455.65	425.32
456.02	420.05
456.38	415.28
456.75	409.48
457.12	404.66
457.49	399.80
457.86	394.86
458.23	390.86
458.59	386.51
458.96	382.21
459.33	378.24
459.70	374.37
460.07	371.36
460.43	367.85
460.80	364.52
461.17	361.62
461.54	358.50
461.91	355.53
462.27	352.58
462.64	349.94
463.01	347.14
463.38	344.52
463.74	341.50
464.11	339.17
464.48	336.97
464.85	334.67
465.21	332.94
465.58	331.12
465.95	328.95
466.32	326.98
466.68	325.10
467.05	323.20
467.42	321.21
467.78	319.12
468.15	317.24
468.52	315.88
468.88	314.03
469.25	312.31
469.62	311.01
469.98	309.64
470.35	308.29
470.72	306.99
471.08	305.55
471.45	304.51
471.82	303.33
472.18	302.07
472.55	301.18
472.92	299.90
473.28	298.85
473.65	297.78
474.02	296.88
474.38	296.06
474.75	295.28
475.11	294.57
475.48	294.00
475.85	293.40
476.21	292.74
476.58	292.22
476.94	291.91
477.31	291.46
477.67	290.93
478.04	290.60
478.41	290.34
478.77	290.38
479.14	289.92
479.50	289.70
479.87	289.54
480.23	289.36
480.60	289.22
480.96	289.05
481.33	289.20
481.69	289.21
482.06	289.18
482.42	289.24
482.79	289.26
483.15	289.33
483.52	289.58
483.88	289.65
484.25	289.77
484.61	289.85
484.98	289.99
485.34	290.45
485.71	290.87
486.07	291.15
486.44	291.21
486.80	291.72
487.17	292.31
487.53	293.00
487.90	293.57
488.26	294.30
488.62	295.18
488.99	295.70
489.35	296.45
489.72	297.26
490.08	298.03
490.44	298.85
490.81	299.71
491.17	300.60
491.54	301.66
491.90	302.78
492.26	303.83
492.63	304.97
492.99	305.84
493.36	306.91
493.72	308.22
494.08	309.42
494.45	310.73
494.81	311.91
495.17	313.13
495.54	314.51
495.90	315.79
496.26	317.10
496.63	318.55
496.99	319.93
497.35	321.34
497.72	322.85
498.08	324.34
498.44	325.87
498.80	327.43
499.17	328.91
499.53	330.22
499.89	331.73
500.26	333.16
500.62	334.68
500.98	336.14
501.34	337.46
501.71	338.94
502.07	340.40
502.43	341.79
502.79	343.02
503.16	344.36
503.52	345.60
503.88	346.79
504.24	348.07
504.60	349.29
504.97	350.51
505.33	351.65
505.69	352.92
506.05	353.97
506.41	354.98
506.78	355.86
507.14	356.96
507.50	358.05
507.86	359.02
508.22	359.96
508.59	360.82
508.95	361.63
509.31	362.39
509.67	362.95
510.03	363.62
510.39	364.44
510.75	365.01
511.12	365.64
511.48	366.12
511.84	366.52
512.20	367.03
512.56	367.46
512.92	367.89
513.28	368.20
513.64	368.64
514.00	368.95
514.37	369.27
514.73	369.54
515.09	369.71
515.45	369.78
515.81	369.88
516.17	369.93
516.53	370.04
516.89	370.12
517.25	370.24
517.61	370.24
517.97	370.12
518.33	370.05
518.69	370.05
519.05	370.15
519.41	370.23
519.77	370.43
520.13	370.41
520.49	370.35
520.85	370.29
521.21	370.39
521.57	370.35
521.93	370.35
522.29	370.40
522.65	370.38
523.01	370.55
523.37	370.58
523.73	370.82
524.09	371.04
524.45	371.22
524.81	371.56
525.17	372.04
525.53	372.52
525.89	372.94
526.25	373.43
526.61	373.79
526.97	374.29
527.33	374.69
527.68	375.59
528.04	376.28
528.40	376.97
528.76	377.62
529.12	378.55
529.48	379.55
529.84	380.42
530.20	381.37
530.56	382.40
530.91	383.71
531.27	384.87
531.63	386.10
531.99	387.35
532.35	388.50
532.71	389.68
533.07	391.11
533.42	392.99
533.78	394.49
534.14	396.06
534.50	397.51
534.86	399.22
535.21	400.50
535.57	402.31
535.93	404.05
536.29	406.04
536.65	407.79
537.00	409.51
537.36	411.30
537.72	413.37
538.08	415.46
538.44	417.34
538.79	419.41
539.15	421.43
539.51	423.63
539.87	425.90
540.22	428.04
540.58	430.40
540.94	432.31
541.29	434.64
541.65	436.97
542.01	439.59
542.37	442.01
542.72	444.58
543.08	447.05
543.44	449.68
543.79	451.90
544.15	454.55
544.51	457.45
544.87	460.31
545.22	462.96
545.58	465.50
545.94	468.16
546.29	470.83
546.65	473.56
547.01	476.14
547.36	478.88
547.72	481.70
548.07	484.26
548.43	486.84
548.79	489.41
549.14	492.05
549.50	494.74
549.86	497.27
550.21	500.00
550.57	502.76
550.92	505.34
551.28	508.14
551.64	510.69
551.99	513.19
552.35	515.76
552.70	518.33
553.06	520.98
553.41	523.73
553.77	526.30
554.13	528.79
554.48	531.58
554.84	534.23
555.19	536.81
555.55	539.47
555.90	542.02
556.26	544.54
556.61	547.04
556.97	549.19
557.32	551.61
557.68	553.82
558.03	556.21
558.39	558.49
558.74	560.69
559.10	563.00
559.45	565.28
559.81	567.62
560.16	569.75
560.52	572.01
560.87	574.27
561.23	576.48
561.58	578.88
561.94	580.99
562.29	582.91
562.64	584.97
563.00	587.00
563.35	589.20
563.71	591.40
564.06	593.44
564.42	595.68
564.77	597.83
565.12	599.94
565.48	602.00
565.83	604.09
566.19	606.11
566.54	607.93
566.89	609.73
567.25	611.73
567.60	613.81
567.96	615.85
568.31	617.61
568.66	619.20
569.02	620.58
569.37	621.80
569.72	623.29
570.08	624.74
570.43	625.91
570.78	626.93
571.14	627.89
571.49	628.87
571.84	629.72
572.20	630.52
572.55	631.38
572.90	631.78
573.26	632.31
573.61	632.99
573.96	633.70
574.31	634.11
574.67	634.28
575.02	634.46
575.37	634.60
575.72	634.70
576.08	634.92
576.43	635.24
576.78	635.72
577.13	635.93
577.49	636.11
577.84	636.33
578.19	636.72
578.54	637.08
578.90	637.53
579.25	637.79
579.60	637.80
579.95	637.76
580.30	637.98
580.66	638.21
581.01	638.15
581.36	638.02
581.71	638.09
582.06	638.25
582.42	638.13
582.77	637.85
583.12	637.80
583.47	637.84
583.82	637.67
584.17	637.47
584.53	637.57
584.88	637.35
585.23	637.41
585.58	637.14
585.93	636.85
586.28	636.70
586.63	636.52
586.98	636.53
587.34	636.56
587.69	636.31
588.04	636.02
588.39	635.74
588.74	635.47
589.09	635.21
589.44	634.53
589.79	634.25
590.14	633.84
590.49	633.42
590.84	632.87
591.19	632.53
591.54	632.02
591.89	631.01
592.25	630.55
592.60	629.62
592.95	628.87
593.30	627.95
593.65	627.12
594.00	626.20
594.35	626.25
594.70	625.28
595.05	624.62
595.40	623.84
595.75	622.86
596.10	622.09
596.45	621.33
596.80	620.80
597.15	620.00
597.50	619.06
597.85	618.19
598.19	617.45
598.54	616.60
598.89	615.82
599.24	615.35
599.59	614.43
599.94	613.82
600.29	613.16
600.64	612.43
600.99	611.51
601.34	610.77
601.69	608.97
602.04	607.91
602.39	606.85
602.74	606.05
603.08	605.48
603.43	604.80
603.78	603.87
604.13	602.85
604.48	601.91
604.83	601.42
605.18	600.58
605.53	599.68
605.87	598.69
606.22	597.81
606.57	596.86
606.92	595.84
607.27	594.74
607.62	593.62
607.96	592.86
608.31	592.08
608.66	591.09
609.01	590.02
609.36	589.15
609.70	587.96
610.05	586.62
610.40	585.30
610.75	583.84
611.10	582.75
611.44	581.26
611.79	579.87
612.14	578.34
612.49	576.91
612.83	575.52
613.18	574.08
613.53	572.51
613.88	570.87
614.22	569.35
614.57	567.72
614.92	566.44
615.27	564.79
615.61	562.99
615.96	561.49
616.31	560.02
616.65	558.70
617.00	557.25
617.35	555.84
617.70	554.16
618.04	552.70
618.39	550.91
618.74	549.59
619.08	547.89
619.43	546.46
619.78	544.95
620.12	543.35
620.47	541.81
620.82	540.03
621.16	538.28
621.51	536.92
621.85	535.40
622.20	533.55
622.55	531.79
622.89	530.05
623.24	528.43
623.59	526.71
623.93	524.88
624.28	523.35
624.62	522.05
624.97	520.68
625.32	519.03
625.66	517.46
626.01	515.84
626.35	514.65
626.70	512.80
627.04	511.28
627.39	509.64
627.73	508.15
628.08	506.85
628.43	505.40
628.77	503.59
629.12	502.11
629.46	500.73
629.81	499.19
630.15	497.61
630.50	495.99
630.84	494.20
631.19	492.61
631.53	490.92
631.88	488.84
632.22	487.04
632.57	485.57
632.91	483.85
633.26	482.25
633.60	480.48
633.95	479.02
634.29	477.24
634.64	475.70
634.98	473.84
635.32	472.23
635.67	470.74
636.01	469.21
636.36	467.61
636.70	465.83
637.05	464.28
637.39	462.98
637.73	461.53
638.08	460.53
638.42	459.17
638.77	457.75
639.11	456.36
639.45	454.83
639.80	453.19
640.14	451.75
640.49	450.16
640.83	448.58
641.17	447.07
641.52	445.65
641.86	444.02
642.20	442.75
642.55	441.13
642.89	439.53
643.23	437.99
643.58	436.58
643.92	435.01
644.26	433.63
644.61	432.05
644.95	430.39
645.29	428.69
645.64	427.09
645.98	425.57
646.32	424.08
646.66	422.55
647.01	420.95
647.35	419.45
647.69	417.94
648.04	416.51
648.38	414.92
648.72	413.38
649.06	411.85
649.41	410.15
649.75	408.67
650.09	407.13
650.43	405.61
650.78	404.00
651.12	402.50
651.46	400.90
651.80	399.38
652.14	397.90
652.49	396.45
652.83	394.92
653.17	393.30
653.51	391.77
653.85	390.45
654.20	389.20
654.54	387.74
654.88	386.15
655.22	384.69
655.56	383.25
655.90	381.75
656.25	380.34
656.59	378.99
656.93	377.58
657.27	376.27
657.61	374.74
657.95	373.40
658.29	372.08
658.64	370.84
658.98	369.35
659.32	367.85
659.66	366.38
660.00	365.05
660.34	363.58
660.68	362.12
661.02	360.74
661.36	359.27
661.70	358.00
662.05	356.84
662.39	355.69
662.73	354.57
663.07	353.44
663.41	352.25
663.75	351.00
664.09	349.73
664.43	348.40
664.77	347.25
665.11	345.98
665.45	344.72
665.79	343.46
666.13	342.38
666.47	341.31
666.81	340.11
667.15	338.80
667.49	337.84
667.83	336.90
668.17	335.75
668.51	334.65
668.85	333.55
669.19	332.58
669.53	331.30
669.87	330.17
670.21	329.00
670.55	327.92
670.89	327.07
671.23	326.09
671.57	325.14
671.91	324.16
672.25	323.17
672.58	322.29
672.92	321.23
673.26	320.28
673.60	319.34
673.94	318.38
674.28	317.50
674.62	316.66
674.96	315.69
675.30	314.82
675.64	314.01
675.97	313.13
676.31	312.14
676.65	311.25
676.99	310.48
677.33	309.57
677.67	308.76
678.01	307.65
678.34	306.82
678.68	305.92
679.02	305.02
679.36	304.16
679.70	303.26
680.04	302.40
680.37	301.51
680.71	300.63
681.05	299.88
681.39	299.02
681.73	298.10
682.06	297.29
682.40	296.50
682.74	295.58
683.08	294.87
683.42	294.01
683.75	293.33
684.09	292.38
684.43	291.62
684.77	290.78
685.10	290.12
685.44	289.22
685.78	288.50
686.12	287.80
686.45	287.06
686.79	286.31
687.13	285.65
687.46	284.85
687.80	284.16
688.14	283.26
688.48	282.65
688.81	281.97
689.15	281.37
689.49	280.57
689.82	279.95
690.16	279.08
690.50	278.33
690.83	277.55
691.17	276.79
691.51	276.12
691.84	275.50
692.18	274.74
692.52	274.15
692.85	273.60
693.19	273.05
693.52	272.38
693.86	271.71
694.20	271.14
694.53	270.56
694.87	270.02
695.21	269.58
695.54	268.98
695.88	268.22
696.21	267.51
696.55	266.98
696.88	266.40
697.22	265.85
697.56	265.42
697.89	264.90
698.23	264.44
698.56	263.85
698.90	263.40
699.23	262.89
699.57	262.37
699.90	261.80
700.24	261.16
700.58	260.64
700.91	260.29
701.25	259.91
701.58	259.53
701.92	259.06
702.25	258.52
702.59	257.98
702.92	257.66
703.26	257.23
703.59	256.73
703.93	256.55
704.26	256.10
704.60	255.66
704.93	255.20
705.26	254.71
705.60	254.29
705.93	253.80
706.27	253.44
706.60	253.10
706.94	252.79
707.27	252.41
707.61	251.99
707.94	251.49
708.27	250.94
708.61	250.42
708.94	250.06
709.28	249.65
709.61	249.27
709.94	248.89
710.28	248.57
710.61	248.30
710.95	247.54
711.28	247.51
711.61	247.12
711.95	246.90
712.28	246.61
712.61	246.30
712.95	246.06
713.28	245.84
713.61	245.45
713.95	244.93
714.28	244.60
714.61	244.25
714.95	243.92
715.28	243.58
715.61	243.25
715.95	242.91
716.28	242.57
716.61	242.32
716.95	241.99
717.28	241.55
717.61	241.22
717.94	240.99
718.28	240.35
718.61	240.02
718.94	239.55
719.27	239.22
719.61	238.95
719.94	238.57
720.27	238.13
720.60	237.85
720.94	237.62
721.27	237.40
721.60	237.17
721.93	236.85
722.27	236.72
722.60	236.45
722.93	236.15
723.26	235.96
723.59	235.59
723.93	235.35
724.26	235.17
724.59	234.91
724.92	234.62
725.25	234.51
725.59	234.32
725.92	234.21
726.25	234.01
726.58	233.80
726.91	233.51
727.24	233.38
727.57	233.10
727.91	232.81
728.24	232.58
728.57	232.35
728.90	232.23
729.23	231.82
729.56	231.85
729.89	231.58
730.22	231.33
730.55	231.20
730.89	231.02
731.22	230.76
731.55	230.47
731.88	230.32
732.21	229.98
732.54	229.70
732.87	229.45
733.20	229.25
733.53	229.12
733.86	228.97
734.19	228.66
734.52	228.57
734.85	228.61
735.18	228.43
735.51	228.40
735.84	228.27
736.17	228.23
736.50	227.91
736.83	228.20
737.16	228.08
737.49	227.91
737.82	227.73
738.15	227.68
738.48	227.55
738.81	227.46
739.14	227.47
739.47	227.34
739.80	227.20
740.13	227.08
740.46	226.85
740.79	226.74
741.12	226.59
741.45	226.31
741.78	226.00
742.11	225.91
742.44	225.59
742.77	225.49
743.10	225.29
743.43	225.19
743.75	224.73
744.08	225.05
744.41	224.92
744.74	224.72
745.07	224.51
745.40	224.47
745.73	224.48
746.06	224.29
746.39	224.19
746.71	223.95
747.04	223.82
747.37	223.71
747.70	223.60
748.03	223.47
748.36	223.45
748.68	223.23
749.01	223.01
749.34	222.92
749.67	222.80
750.00	222.71
750.33	222.75
750.65	222.60
750.98	221.95
751.31	221.83
751.64	221.78
751.97	221.83
752.29	221.71
752.62	221.33
752.95	221.22
753.28	221.08
753.60	221.04
753.93	221.00
754.26	220.85
754.59	220.59
754.91	220.49
755.24	220.34
755.57	220.32
755.90	220.21
756.22	220.11
756.55	219.91
756.88	219.75
757.20	219.36
757.53	219.13
757.86	219.11
758.19	218.94
758.51	218.81
758.84	218.59
759.17	218.42
759.49	218.37
759.82	218.36
760.15	218.30
760.47	218.14
760.80	217.91
761.13	217.89
761.45	217.84
761.78	217.69
762.11	217.68
762.43	217.55
762.76	217.50
763.08	217.41
763.41	217.35
763.74	217.20
764.06	217.18
764.39	217.14
764.71	217.07
765.04	216.99
765.37	216.90
765.69	216.79
766.02	216.75
766.34	216.67
766.67	216.47
767.00	216.50
767.32	216.70
767.65	216.84
767.97	216.75
768.30	216.79
768.62	216.79
768.95	216.58
769.27	216.54
769.60	216.48
769.92	216.36
770.25	216.26
770.57	216.25
770.90	216.20
771.22	216.20
771.55	216.13
771.87	216.15
772.20	216.09
772.52	216.31
772.85	216.64
773.17	216.62
773.50	216.61
773.82	216.50
774.15	216.26
774.47	216.01
774.80	215.94
775.12	215.81
775.45	215.77
775.77	215.83
776.09	215.83
776.42	215.81
776.74	215.94
777.07	215.92
777.39	215.83
777.72	215.75
778.04	215.67
778.36	215.63
778.69	215.59
779.01	215.62
779.33	215.28
779.66	214.89
779.98	214.82
780.31	214.73
780.63	214.80
780.95	214.84
781.28	214.85
781.60	214.83
781.92	214.82
782.25	214.82
782.57	214.75
782.89	214.70
783.22	214.70
783.54	214.58
783.86	214.56
784.19	214.60
784.51	214.72
784.83	214.64
785.16	214.61
785.48	214.61
785.80	214.52
786.12	214.54
786.45	214.50
786.77	214.51
787.09	214.52
787.42	214.40
787.74	214.35
788.06	214.38
788.38	214.40
788.71	214.30
789.03	214.23
789.35	214.31
789.67	214.22
789.99	214.17
790.32	214.12
790.64	214.16
790.96	214.37
791.28	214.21
791.61	214.21
791.93	214.19
792.25	214.11
792.57	214.38
792.89	214.36
793.21	214.33
793.54	214.25
793.86	214.23
794.18	214.17
