SpectraSuite Data File
++++++++++++++++++++++++++++++++++++
Date: Mon Feb 25 17:07:40 EST 2013
User: group
Dark Spectrum Present: No
Reference Spectrum Present: No
Number of Sampled Component Spectra: 1
Spectrometers: USB2E7196
Integration Time (usec): 104000 (USB2E7196)
Spectra Averaged: 20 (USB2E7196)
Boxcar Smoothing: 10 (USB2E7196)
Correct for Electrical Dark: No (USB2E7196)
Strobe/Lamp Enabled: No (USB2E7196)
Correct for Detector Non-linearity: No (USB2E7196)
Correct for Stray Light: No (USB2E7196)
Number of Pixels in Processed Spectrum: 2048
>>>>>Begin Processed Spectral Data<<<<<
339.09	0.00
339.48	198.25
339.86	199.20
340.24	201.10
340.63	200.85
341.01	208.45
341.39	204.75
341.78	206.55
342.16	208.35
342.54	209.20
342.93	197.80
343.31	207.74
343.69	208.32
344.07	208.82
344.46	209.30
344.84	209.70
345.22	209.79
345.60	210.06
345.99	210.23
346.37	210.33
346.75	210.39
347.13	210.50
347.52	210.54
347.90	210.64
348.28	210.65
348.66	210.81
349.05	210.72
349.43	210.75
349.81	210.86
350.19	210.84
350.57	210.85
350.96	210.91
351.34	211.00
351.72	211.05
352.10	211.11
352.48	211.14
352.87	211.32
353.25	211.43
353.63	211.54
354.01	211.64
354.39	211.74
354.77	211.84
355.15	211.97
355.54	212.06
355.92	212.04
356.30	212.18
356.68	212.47
357.06	212.54
357.44	212.60
357.82	212.61
358.20	212.72
358.58	212.74
358.97	212.81
359.35	212.99
359.73	213.08
360.11	213.15
360.49	213.18
360.87	213.20
361.25	213.23
361.63	213.29
362.01	213.37
362.39	213.36
362.77	213.35
363.15	213.25
363.53	213.24
363.91	213.27
364.29	213.32
364.67	212.98
365.05	213.01
365.43	213.02
365.81	213.10
366.19	213.32
366.57	213.46
366.95	213.53
367.33	213.45
367.71	213.49
368.09	213.55
368.47	213.56
368.85	213.50
369.23	213.58
369.61	213.49
369.99	213.54
370.37	213.58
370.75	213.79
371.13	213.75
371.51	213.73
371.89	213.74
372.27	213.63
372.65	213.64
373.03	213.53
373.41	213.45
373.78	213.33
374.16	213.05
374.54	212.87
374.92	212.75
375.30	212.67
375.68	212.56
376.06	212.49
376.44	212.39
376.82	212.40
377.19	212.38
377.57	212.33
377.95	212.20
378.33	212.10
378.71	211.83
379.09	211.82
379.47	211.81
379.84	211.71
380.22	211.65
380.60	211.60
380.98	211.56
381.36	211.55
381.73	211.41
382.11	211.44
382.49	211.40
382.87	211.30
383.25	211.30
383.62	211.60
384.00	211.50
384.38	211.46
384.76	211.42
385.13	211.47
385.51	211.39
385.89	211.28
386.27	211.24
386.64	211.21
387.02	211.25
387.40	211.17
387.78	211.12
388.15	211.09
388.53	210.98
388.91	211.05
389.29	210.94
389.66	211.03
390.04	210.95
390.42	211.01
390.79	211.05
391.17	210.98
391.55	210.56
391.92	210.60
392.30	210.62
392.68	210.53
393.05	210.40
393.43	210.48
393.81	210.45
394.18	210.45
394.56	210.48
394.94	210.47
395.31	210.41
395.69	210.57
396.06	210.61
396.44	210.66
396.82	210.55
397.19	210.75
397.57	210.64
397.95	210.75
398.32	210.66
398.70	210.63
399.07	210.77
399.45	210.79
399.82	210.71
400.20	210.63
400.58	210.61
400.95	210.57
401.33	210.58
401.70	210.88
402.08	210.85
402.45	210.80
402.83	210.94
403.20	210.89
403.58	210.84
403.95	210.94
404.33	210.99
404.71	211.02
405.08	211.24
405.46	211.38
405.83	211.40
406.21	211.54
406.58	211.63
406.96	211.68
407.33	211.80
407.70	212.01
408.08	212.45
408.45	212.63
408.83	212.76
409.20	212.90
409.58	212.92
409.95	213.23
410.33	213.54
410.70	213.67
411.08	214.08
411.45	214.35
411.82	214.63
412.20	215.05
412.57	215.62
412.95	215.67
413.32	216.10
413.69	216.45
414.07	216.77
414.44	217.24
414.82	217.72
415.19	218.31
415.56	218.87
415.94	219.33
416.31	220.05
416.68	220.88
417.06	221.68
417.43	222.46
417.81	223.22
418.18	224.07
418.55	224.88
418.93	225.81
419.30	226.80
419.67	227.81
420.04	228.88
420.42	229.94
420.79	231.53
421.16	232.83
421.54	234.42
421.91	235.99
422.28	237.40
422.66	238.96
423.03	240.74
423.40	242.31
423.77	244.01
424.15	245.65
424.52	247.41
424.89	249.49
425.26	251.26
425.64	253.16
426.01	255.10
426.38	257.30
426.75	259.50
427.13	261.77
427.50	264.06
427.87	266.50
428.24	268.92
428.61	271.05
428.99	273.78
429.36	276.35
429.73	278.99
430.10	281.85
430.47	284.70
430.85	287.35
431.22	290.55
431.59	293.96
431.96	297.17
432.33	300.59
432.70	303.84
433.08	307.85
433.45	311.59
433.82	315.35
434.19	319.53
434.56	323.63
434.93	327.41
435.30	331.31
435.68	335.62
436.05	339.97
436.42	344.21
436.79	348.01
437.16	352.27
437.53	356.77
437.90	361.11
438.27	365.46
438.64	369.95
439.01	374.10
439.38	377.71
439.75	381.39
440.13	385.48
440.50	389.35
440.87	392.60
441.24	395.89
441.61	399.57
441.98	402.25
442.35	405.33
442.72	408.61
443.09	411.92
443.46	413.80
443.83	415.09
444.20	416.33
444.57	418.04
444.94	418.79
445.31	419.66
445.68	420.88
446.05	421.30
446.42	421.15
446.79	420.83
447.16	420.44
447.53	420.29
447.90	418.95
448.27	417.62
448.64	415.58
449.01	414.15
449.37	411.55
449.74	408.85
450.11	406.03
450.48	402.52
450.85	398.78
451.22	395.71
451.59	392.79
451.96	389.89
452.33	386.12
452.70	382.83
453.07	378.76
453.43	374.26
453.80	370.23
454.17	366.31
454.54	362.59
454.91	358.65
455.28	354.69
455.65	351.10
456.02	347.86
456.38	344.79
456.75	340.96
457.12	337.69
457.49	334.61
457.86	331.19
458.23	328.65
458.59	325.76
458.96	322.88
459.33	320.29
459.70	317.77
460.07	315.70
460.43	313.37
460.80	311.17
461.17	309.33
461.54	307.34
461.91	305.48
462.27	303.58
462.64	301.80
463.01	299.97
463.38	298.15
463.74	295.85
464.11	294.17
464.48	292.77
464.85	291.20
465.21	290.12
465.58	289.02
465.95	287.46
466.32	286.35
466.68	285.07
467.05	283.82
467.42	282.55
467.78	281.25
468.15	279.95
468.52	278.99
468.88	277.68
469.25	276.56
469.62	275.64
469.98	274.66
470.35	273.77
470.72	272.93
471.08	272.04
471.45	271.36
471.82	270.75
472.18	269.91
472.55	269.36
472.92	268.50
473.28	267.79
473.65	267.10
474.02	266.39
474.38	265.91
474.75	265.57
475.11	265.18
475.48	264.77
475.85	264.44
476.21	264.07
476.58	263.88
476.94	263.58
477.31	263.30
477.67	262.99
478.04	262.86
478.41	262.68
478.77	262.83
479.14	262.58
479.50	262.40
479.87	262.39
480.23	262.35
480.60	262.33
480.96	262.26
481.33	262.42
481.69	262.50
482.06	262.58
482.42	262.56
482.79	262.64
483.15	262.71
483.52	262.97
483.88	263.10
484.25	263.20
484.61	263.43
484.98	263.68
485.34	264.12
485.71	264.49
486.07	264.81
486.44	264.84
486.80	265.25
487.17	265.59
487.53	266.02
487.90	266.55
488.26	267.17
488.62	267.79
488.99	268.36
489.35	268.95
489.72	269.55
490.08	270.23
490.44	270.78
490.81	271.62
491.17	272.39
491.54	273.25
491.90	274.14
492.26	275.10
492.63	275.97
492.99	276.74
493.36	277.73
493.72	278.86
494.08	279.94
494.45	281.16
494.81	282.51
495.17	283.68
495.54	284.95
495.90	286.15
496.26	287.52
496.63	288.86
496.99	290.25
497.35	291.74
497.72	293.18
498.08	294.72
498.44	296.28
498.80	297.89
499.17	299.46
499.53	301.11
499.89	302.78
500.26	304.51
500.62	306.35
500.98	308.12
501.34	309.90
501.71	311.81
502.07	313.62
502.43	315.30
502.79	317.13
503.16	319.00
503.52	321.02
503.88	322.90
504.24	324.93
504.60	327.04
504.97	329.17
505.33	331.31
505.69	333.70
506.05	335.89
506.41	338.16
506.78	340.34
507.14	342.57
507.50	344.80
507.86	347.16
508.22	349.52
508.59	351.93
508.95	354.39
509.31	356.93
509.67	359.45
510.03	362.06
510.39	364.66
510.75	367.38
511.12	369.90
511.48	372.50
511.84	375.14
512.20	377.69
512.56	380.28
512.92	383.07
513.28	385.79
513.64	388.37
514.00	391.04
514.37	393.96
514.73	396.87
515.09	399.89
515.45	402.67
515.81	405.43
516.17	408.19
516.53	411.07
516.89	413.75
517.25	416.63
517.61	419.63
517.97	422.47
518.33	425.34
518.69	428.38
519.05	431.44
519.41	434.54
519.77	438.07
520.13	441.20
520.49	444.21
520.85	447.38
521.21	450.86
521.57	454.10
521.93	457.19
522.29	460.35
522.65	463.48
523.01	466.91
523.37	470.20
523.73	473.71
524.09	477.02
524.45	480.46
524.81	483.91
525.17	487.40
525.53	491.12
525.89	494.64
526.25	498.17
526.61	501.68
526.97	505.26
527.33	508.69
527.68	512.68
528.04	516.33
528.40	519.90
528.76	523.55
529.12	527.40
529.48	531.27
529.84	535.19
530.20	539.15
530.56	542.95
530.91	547.02
531.27	550.92
531.63	554.86
531.99	558.88
532.35	562.65
532.71	566.43
533.07	570.53
533.42	574.82
533.78	578.89
534.14	582.76
534.50	586.49
534.86	590.34
535.21	593.91
535.57	597.93
535.93	601.72
536.29	605.69
536.65	609.42
537.00	612.98
537.36	616.67
537.72	620.25
538.08	624.04
538.44	627.75
538.79	631.49
539.15	635.19
539.51	638.94
539.87	642.90
540.22	646.59
540.58	650.39
540.94	653.83
541.29	657.36
541.65	660.91
542.01	664.52
542.37	668.10
542.72	671.48
543.08	674.85
543.44	678.56
543.79	681.70
544.15	685.16
544.51	688.97
544.87	692.46
545.22	695.83
545.58	698.96
545.94	702.12
546.29	705.07
546.65	708.10
547.01	710.90
547.36	713.78
547.72	717.02
548.07	719.52
548.43	722.02
548.79	724.46
549.14	727.14
549.50	729.87
549.86	732.19
550.21	734.62
550.57	737.14
550.92	739.12
551.28	741.60
551.64	743.70
551.99	745.82
552.35	747.78
552.70	749.77
553.06	751.93
553.41	753.86
553.77	755.98
554.13	757.97
554.48	760.22
554.84	762.22
555.19	763.70
555.55	765.57
555.90	767.30
556.26	769.04
556.61	770.60
556.97	771.91
557.32	773.58
557.68	775.11
558.03	776.45
558.39	777.78
558.74	779.28
559.10	780.87
559.45	782.16
559.81	783.66
560.16	784.89
560.52	786.13
560.87	787.33
561.23	788.47
561.58	789.80
561.94	790.67
562.29	791.56
562.64	792.69
563.00	793.65
563.35	794.79
563.71	796.04
564.06	797.17
564.42	798.30
564.77	799.26
565.12	800.33
565.48	801.73
565.83	802.96
566.19	803.73
566.54	804.31
566.89	804.89
567.25	805.65
567.60	806.64
567.96	807.57
568.31	808.34
568.66	808.79
569.02	808.86
569.37	808.97
569.72	809.20
570.08	809.37
570.43	809.42
570.78	809.50
571.14	809.28
571.49	808.89
571.84	808.81
572.20	808.39
572.55	808.17
572.90	807.31
573.26	806.73
573.61	806.13
573.96	805.50
574.31	804.83
574.67	803.76
575.02	802.57
575.37	801.31
575.72	800.19
576.08	799.39
576.43	798.58
576.78	797.68
577.13	796.96
577.49	796.26
577.84	795.26
578.19	794.35
578.54	793.55
578.90	793.04
579.25	791.95
579.60	790.79
579.95	789.57
580.30	788.59
580.66	787.69
581.01	786.66
581.36	785.56
581.71	784.46
582.06	783.71
582.42	782.96
582.77	781.80
583.12	780.98
583.47	780.02
583.82	779.20
584.17	778.31
584.53	777.29
584.88	775.95
585.23	774.98
585.58	773.94
585.93	772.85
586.28	771.87
586.63	770.96
586.98	770.19
587.34	769.33
587.69	768.20
588.04	767.05
588.39	766.01
588.74	764.84
589.09	763.86
589.44	762.46
589.79	761.31
590.14	760.33
590.49	758.91
590.84	757.53
591.19	756.45
591.54	755.25
591.89	753.79
592.25	752.57
592.60	751.10
592.95	749.44
593.30	747.77
593.65	746.00
594.00	744.26
594.35	743.76
594.70	742.15
595.05	740.82
595.40	739.20
595.75	737.34
596.10	736.02
596.45	734.53
596.80	733.34
597.15	731.96
597.50	730.46
597.85	729.17
598.19	727.61
598.54	726.07
598.89	724.39
599.24	723.27
599.59	721.87
599.94	720.69
600.29	719.50
600.64	718.15
600.99	716.79
601.34	715.73
601.69	713.25
602.04	711.78
602.39	710.20
602.74	708.91
603.08	707.88
603.43	706.76
603.78	705.40
604.13	704.00
604.48	702.48
604.83	701.36
605.18	700.18
605.53	698.82
605.87	697.03
606.22	695.85
606.57	694.12
606.92	692.47
607.27	690.89
607.62	689.27
607.96	688.00
608.31	686.53
608.66	684.85
609.01	683.31
609.36	681.65
609.70	680.02
610.05	678.23
610.40	676.51
610.75	674.52
611.10	673.02
611.44	670.86
611.79	668.82
612.14	666.68
612.49	664.40
612.83	662.64
613.18	660.63
613.53	658.61
613.88	656.52
614.22	654.80
614.57	652.53
614.92	650.50
615.27	648.33
615.61	646.33
615.96	644.19
616.31	642.23
616.65	640.42
617.00	638.41
617.35	636.48
617.70	634.20
618.04	631.95
618.39	629.30
618.74	627.41
619.08	625.28
619.43	623.10
619.78	621.04
620.12	618.69
620.47	616.81
620.82	614.40
621.16	612.08
621.51	609.83
621.85	607.84
622.20	605.53
622.55	603.20
622.89	600.88
623.24	598.79
623.59	596.26
623.93	593.97
624.28	591.70
624.62	589.75
624.97	587.71
625.32	585.70
625.66	583.83
626.01	581.65
626.35	579.58
626.70	577.35
627.04	575.35
627.39	573.35
627.73	571.20
628.08	569.40
628.43	567.43
628.77	565.17
629.12	562.99
629.46	561.34
629.81	559.40
630.15	557.22
630.50	555.01
630.84	553.14
631.19	551.05
631.53	549.07
631.88	546.55
632.22	544.30
632.57	542.33
632.91	540.28
633.26	538.27
633.60	536.29
633.95	534.43
634.29	532.26
634.64	530.33
634.98	528.22
635.32	526.17
635.67	524.43
636.01	522.58
636.36	520.61
636.70	518.52
637.05	516.53
637.39	514.69
637.73	512.97
638.08	511.32
638.42	509.53
638.77	507.76
639.11	505.91
639.45	504.06
639.80	501.87
640.14	499.83
640.49	497.95
640.83	495.90
641.17	493.98
641.52	492.08
641.86	489.97
642.20	488.03
642.55	486.03
642.89	483.90
643.23	481.84
643.58	480.16
643.92	478.03
644.26	476.06
644.61	474.20
644.95	472.16
645.29	470.05
645.64	468.12
645.98	466.09
646.32	464.34
646.66	462.33
647.01	460.56
647.35	458.69
647.69	456.61
648.04	454.72
648.38	452.73
648.72	450.95
649.06	449.16
649.41	447.23
649.75	445.35
650.09	443.43
650.43	441.58
650.78	439.46
651.12	437.51
651.46	435.77
651.80	433.98
652.14	432.10
652.49	430.28
652.83	428.46
653.17	426.48
653.51	424.53
653.85	422.74
654.20	420.99
654.54	419.23
654.88	417.36
655.22	415.70
655.56	413.97
655.90	412.05
656.25	410.10
656.59	408.35
656.93	406.66
657.27	404.99
657.61	403.17
657.95	401.53
658.29	399.89
658.64	398.25
658.98	396.42
659.32	394.74
659.66	392.98
660.00	391.07
660.34	389.50
660.68	387.82
661.02	386.23
661.36	384.64
661.70	383.02
662.05	381.53
662.39	379.97
662.73	378.49
663.07	377.11
663.41	375.79
663.75	374.24
664.09	372.53
664.43	370.91
664.77	369.56
665.11	368.02
665.45	366.56
665.79	365.04
666.13	363.66
666.47	362.20
666.81	360.80
667.15	359.42
667.49	358.05
667.83	356.84
668.17	355.50
668.51	354.09
668.85	352.82
669.19	351.67
669.53	350.24
669.87	348.81
670.21	347.45
670.55	346.10
670.89	345.11
671.23	344.06
671.57	342.91
671.91	341.64
672.25	340.51
672.58	339.42
672.92	338.19
673.26	337.02
673.60	335.89
673.94	334.83
674.28	333.87
674.62	332.79
674.96	331.56
675.30	330.52
675.64	329.40
675.97	328.28
676.31	327.06
676.65	326.09
676.99	325.20
677.33	323.98
677.67	322.91
678.01	321.66
678.34	320.55
678.68	319.55
679.02	318.55
679.36	317.41
679.70	316.36
680.04	315.33
680.37	314.32
680.71	313.31
681.05	312.26
681.39	311.19
681.73	310.16
682.06	309.30
682.40	308.25
682.74	307.45
683.08	306.64
683.42	305.64
683.75	304.81
684.09	303.83
684.43	303.00
684.77	302.08
685.10	301.21
685.44	300.30
685.78	299.36
686.12	298.49
686.45	297.77
686.79	296.90
687.13	296.17
687.46	295.30
687.80	294.53
688.14	293.73
688.48	292.92
688.81	292.11
689.15	291.32
689.49	290.50
689.82	289.59
690.16	288.58
690.50	287.90
690.83	287.01
691.17	286.12
691.51	285.35
691.84	284.65
692.18	283.89
692.52	283.11
692.85	282.46
693.19	281.80
693.52	281.00
693.86	280.19
694.20	279.50
694.53	278.85
694.87	278.10
695.21	277.43
695.54	276.69
695.88	275.95
696.21	275.10
696.55	274.51
696.88	273.88
697.22	273.24
697.56	272.55
697.89	271.85
698.23	271.29
698.56	270.65
698.90	270.06
699.23	269.43
699.57	268.90
699.90	268.21
700.24	267.55
700.58	267.00
700.91	266.48
701.25	266.02
701.58	265.49
701.92	264.99
702.25	264.34
702.59	263.79
702.92	263.35
703.26	262.91
703.59	262.30
703.93	261.93
704.26	261.38
704.60	260.89
704.93	260.45
705.26	259.88
705.60	259.38
705.93	258.77
706.27	258.45
706.60	258.00
706.94	257.74
707.27	257.14
707.61	256.63
707.94	256.10
708.27	255.39
708.61	254.88
708.94	254.33
709.28	253.89
709.61	253.39
709.94	252.92
710.28	252.37
710.61	252.02
710.95	251.30
711.28	251.16
711.61	250.74
711.95	250.36
712.28	249.91
712.61	249.56
712.95	249.42
713.28	249.01
713.61	248.57
713.95	247.92
714.28	247.61
714.61	247.21
714.95	246.81
715.28	246.47
715.61	245.98
715.95	245.67
716.28	245.22
716.61	244.95
716.95	244.48
717.28	244.16
717.61	243.71
717.94	243.44
718.28	242.84
718.61	242.47
718.94	242.04
719.27	241.75
719.61	241.38
719.94	240.88
720.27	240.36
720.60	240.04
720.94	239.74
721.27	239.38
721.60	239.13
721.93	238.85
722.27	238.63
722.60	238.43
722.93	238.07
723.26	237.83
723.59	237.45
723.93	237.29
724.26	237.08
724.59	236.83
724.92	236.57
725.25	236.45
725.59	236.20
725.92	235.94
726.25	235.74
726.58	235.53
726.91	235.24
727.24	235.05
727.57	234.80
727.91	234.49
728.24	234.39
728.57	234.14
728.90	234.00
729.23	233.67
729.56	233.57
729.89	233.39
730.22	233.14
730.55	232.91
730.89	232.66
731.22	232.44
731.55	232.20
731.88	231.97
732.21	231.64
732.54	231.40
732.87	231.27
733.20	230.95
733.53	230.84
733.86	230.71
734.19	230.46
734.52	230.27
734.85	230.44
735.18	230.12
735.51	230.03
735.84	229.82
736.17	229.71
736.50	229.35
736.83	229.61
737.16	229.46
737.49	229.32
737.82	229.16
738.15	228.96
738.48	228.83
738.81	228.60
739.14	228.43
739.47	228.20
739.80	228.01
740.13	227.93
740.46	227.56
740.79	227.30
741.12	227.14
741.45	226.94
741.78	226.57
742.11	226.53
742.44	226.26
742.77	226.15
743.10	226.00
743.43	225.85
743.75	225.29
744.08	225.65
744.41	225.49
744.74	225.30
745.07	225.26
745.40	225.22
745.73	225.29
746.06	225.13
746.39	225.05
746.71	224.91
747.04	224.70
747.37	224.59
747.70	224.56
748.03	224.46
748.36	224.34
748.68	224.23
749.01	224.00
749.34	223.90
749.67	223.80
750.00	223.70
750.33	223.80
750.65	223.74
750.98	223.10
751.31	222.98
751.64	222.86
751.97	222.87
752.29	222.64
752.62	222.30
752.95	222.23
753.28	222.09
753.60	221.90
753.93	221.95
754.26	221.85
754.59	221.60
754.91	221.45
755.24	221.40
755.57	221.31
755.90	221.13
756.22	220.94
756.55	220.81
756.88	220.58
757.20	220.26
757.53	219.94
757.86	219.87
758.19	219.84
758.51	219.71
758.84	219.46
759.17	219.46
759.49	219.43
759.82	219.50
760.15	219.48
760.47	219.43
760.80	219.24
761.13	219.19
761.45	219.13
761.78	219.07
762.11	219.01
762.43	218.78
762.76	218.75
763.08	218.72
763.41	218.61
763.74	218.57
764.06	218.54
764.39	218.58
764.71	218.48
765.04	218.40
765.37	218.33
765.69	218.20
766.02	217.95
766.34	217.85
766.67	217.61
767.00	217.58
767.32	217.61
767.65	217.74
767.97	217.61
768.30	217.56
768.62	217.45
768.95	217.27
769.27	217.23
769.60	217.21
769.92	217.10
770.25	216.98
770.57	216.80
770.90	216.77
771.22	216.70
771.55	216.69
771.87	216.63
772.20	216.54
772.52	216.74
772.85	217.20
773.17	217.18
773.50	217.12
773.82	216.97
774.15	216.77
774.47	216.48
774.80	216.48
775.12	216.43
775.45	216.37
775.77	216.32
776.09	216.33
776.42	216.27
776.74	216.37
777.07	216.30
777.39	216.36
777.72	216.23
778.04	216.19
778.36	216.06
778.69	215.94
779.01	216.01
779.33	215.62
779.66	215.13
779.98	215.02
780.31	215.03
780.63	215.19
780.95	215.24
781.28	215.21
781.60	215.14
781.92	215.15
782.25	215.14
782.57	215.08
782.89	215.01
783.22	214.97
783.54	214.77
783.86	214.79
784.19	214.70
784.51	214.76
784.83	214.67
785.16	214.66
785.48	214.70
785.80	214.65
786.12	214.67
786.45	214.65
786.77	214.69
787.09	214.60
787.42	214.39
787.74	214.38
788.06	214.40
788.38	214.25
788.71	214.09
789.03	214.13
789.35	214.17
789.67	214.09
789.99	214.14
790.32	214.08
790.64	214.10
790.96	214.35
791.28	214.20
791.61	214.18
791.93	214.22
792.25	214.11
792.57	214.30
792.89	214.23
793.21	214.27
793.54	214.18
793.86	214.09
794.18	214.14
