SpectraSuite Data File
++++++++++++++++++++++++++++++++++++
Date: Mon Feb 25 17:07:37 EST 2013
User: group
Dark Spectrum Present: No
Reference Spectrum Present: No
Number of Sampled Component Spectra: 1
Spectrometers: USB2E7196
Integration Time (usec): 104000 (USB2E7196)
Spectra Averaged: 20 (USB2E7196)
Boxcar Smoothing: 10 (USB2E7196)
Correct for Electrical Dark: No (USB2E7196)
Strobe/Lamp Enabled: No (USB2E7196)
Correct for Detector Non-linearity: No (USB2E7196)
Correct for Stray Light: No (USB2E7196)
Number of Pixels in Processed Spectrum: 2048
>>>>>Begin Processed Spectral Data<<<<<
339.09	0.00
339.48	198.05
339.86	200.00
340.24	201.75
340.63	202.70
341.01	208.00
341.39	204.50
341.78	206.75
342.16	208.10
342.54	207.20
342.93	197.65
343.31	207.58
343.69	208.14
344.07	208.53
344.46	208.94
344.84	209.33
345.22	209.39
345.60	209.66
345.99	209.79
346.37	209.91
346.75	210.01
347.13	210.00
347.52	210.02
347.90	210.15
348.28	210.11
348.66	210.13
349.05	210.01
349.43	210.01
349.81	210.08
350.19	210.16
350.57	210.21
350.96	210.33
351.34	210.42
351.72	210.42
352.10	210.51
352.48	210.44
352.87	210.42
353.25	210.55
353.63	210.63
354.01	210.72
354.39	210.82
354.77	210.89
355.15	211.07
355.54	211.14
355.92	211.15
356.30	211.25
356.68	211.60
357.06	211.72
357.44	211.69
357.82	211.80
358.20	211.84
358.58	211.90
358.97	211.98
359.35	212.11
359.73	212.30
360.11	212.35
360.49	212.52
360.87	212.60
361.25	212.65
361.63	212.81
362.01	212.94
362.39	212.91
362.77	213.04
363.15	212.99
363.53	213.03
363.91	213.05
364.29	213.12
364.67	212.83
365.05	212.89
365.43	212.96
365.81	213.06
366.19	213.24
366.57	213.40
366.95	213.36
367.33	213.39
367.71	213.37
368.09	213.48
368.47	213.51
368.85	213.51
369.23	213.58
369.61	213.39
369.99	213.47
370.37	213.53
370.75	213.69
371.13	213.68
371.51	213.57
371.89	213.62
372.27	213.54
372.65	213.48
373.03	213.42
373.41	213.50
373.78	213.37
374.16	213.16
374.54	213.02
374.92	212.97
375.30	212.85
375.68	212.76
376.06	212.75
376.44	212.66
376.82	212.67
377.19	212.60
377.57	212.56
377.95	212.29
378.33	212.25
378.71	211.95
379.09	211.96
379.47	211.96
379.84	211.90
380.22	211.88
380.60	211.79
380.98	211.76
381.36	211.63
381.73	211.53
382.11	211.58
382.49	211.56
382.87	211.48
383.25	211.43
383.62	211.73
384.00	211.66
384.38	211.70
384.76	211.76
385.13	211.84
385.51	211.82
385.89	211.77
386.27	211.64
386.64	211.69
387.02	211.55
387.40	211.51
387.78	211.45
388.15	211.41
388.53	211.37
388.91	211.31
389.29	211.28
389.66	211.32
390.04	211.18
390.42	211.12
390.79	211.10
391.17	211.00
391.55	210.62
391.92	210.53
392.30	210.40
392.68	210.29
393.05	210.22
393.43	210.17
393.81	210.17
394.18	210.20
394.56	210.16
394.94	210.25
395.31	210.21
395.69	210.30
396.06	210.33
396.44	210.39
396.82	210.41
397.19	210.57
397.57	210.55
397.95	210.63
398.32	210.58
398.70	210.61
399.07	210.81
399.45	210.79
399.82	210.85
400.20	210.90
400.58	210.86
400.95	210.70
401.33	210.80
401.70	211.11
402.08	211.09
402.45	211.09
402.83	211.20
403.20	211.30
403.58	211.29
403.95	211.41
404.33	211.55
404.71	211.61
405.08	211.89
405.46	212.01
405.83	212.10
406.21	212.11
406.58	212.27
406.96	212.28
407.33	212.48
407.70	212.66
408.08	213.10
408.45	213.41
408.83	213.75
409.20	213.90
409.58	213.85
409.95	214.14
410.33	214.40
410.70	214.52
411.08	214.83
411.45	215.13
411.82	215.39
412.20	215.71
412.57	216.25
412.95	216.24
413.32	216.63
413.69	217.00
414.07	217.51
414.44	218.00
414.82	218.49
415.19	219.02
415.56	219.51
415.94	219.92
416.31	220.58
416.68	221.26
417.06	222.08
417.43	223.01
417.81	223.89
418.18	224.80
418.55	225.68
418.93	226.62
419.30	227.58
419.67	228.66
420.04	229.73
420.42	230.80
420.79	232.36
421.16	233.69
421.54	235.29
421.91	236.74
422.28	238.20
422.66	239.85
423.03	241.68
423.40	243.23
423.77	244.87
424.15	246.53
424.52	248.35
424.89	250.34
425.26	252.12
425.64	253.88
426.01	255.80
426.38	258.00
426.75	260.20
427.13	262.51
427.50	264.70
427.87	267.16
428.24	269.52
428.61	271.74
428.99	274.45
429.36	277.08
429.73	279.79
430.10	282.63
430.47	285.46
430.85	288.22
431.22	291.46
431.59	295.07
431.96	298.24
432.33	301.68
432.70	305.03
433.08	309.04
433.45	312.75
433.82	316.58
434.19	320.69
434.56	324.84
434.93	328.62
435.30	332.62
435.68	336.94
436.05	341.25
436.42	345.44
436.79	349.34
437.16	353.52
437.53	358.01
437.90	362.40
438.27	366.72
438.64	371.15
439.01	375.41
439.38	378.85
439.75	382.50
440.13	386.65
440.50	390.60
440.87	393.74
441.24	397.18
441.61	400.83
441.98	403.57
442.35	406.74
442.72	410.03
443.09	413.30
443.46	415.22
443.83	416.68
444.20	417.95
444.57	419.35
444.94	420.26
445.31	421.16
445.68	422.34
446.05	422.72
446.42	422.40
446.79	421.98
447.16	421.72
447.53	421.62
447.90	420.22
448.27	418.69
448.64	416.69
449.01	415.17
449.37	412.47
449.74	409.81
450.11	406.84
450.48	403.26
450.85	399.37
451.22	396.15
451.59	393.09
451.96	390.28
452.33	386.60
452.70	383.14
453.07	378.90
453.43	374.33
453.80	370.47
454.17	366.67
454.54	362.96
454.91	358.95
455.28	354.91
455.65	351.21
456.02	348.08
456.38	344.95
456.75	341.17
457.12	337.94
457.49	334.77
457.86	331.37
458.23	328.77
458.59	325.98
458.96	323.26
459.33	320.69
459.70	317.97
460.07	315.90
460.43	313.54
460.80	311.34
461.17	309.54
461.54	307.26
461.91	305.31
462.27	303.26
462.64	301.51
463.01	299.58
463.38	297.86
463.74	295.56
464.11	293.91
464.48	292.48
464.85	290.94
465.21	289.88
465.58	288.74
465.95	287.20
466.32	286.02
466.68	284.69
467.05	283.44
467.42	282.29
467.78	281.01
468.15	279.77
468.52	278.91
468.88	277.56
469.25	276.60
469.62	275.72
469.98	274.91
470.35	273.99
470.72	273.30
471.08	272.31
471.45	271.65
471.82	271.02
472.18	270.16
472.55	269.49
472.92	268.65
473.28	267.89
473.65	267.18
474.02	266.51
474.38	266.06
474.75	265.68
475.11	265.12
475.48	264.73
475.85	264.38
476.21	264.06
476.58	263.83
476.94	263.54
477.31	263.23
477.67	262.90
478.04	262.73
478.41	262.48
478.77	262.59
479.14	262.23
479.50	262.05
479.87	262.05
480.23	262.08
480.60	261.97
480.96	261.91
481.33	262.18
481.69	262.18
482.06	262.16
482.42	262.16
482.79	262.28
483.15	262.40
483.52	262.62
483.88	262.75
484.25	262.80
484.61	263.06
484.98	263.26
485.34	263.67
485.71	264.00
486.07	264.33
486.44	264.42
486.80	264.84
487.17	265.19
487.53	265.69
487.90	266.12
488.26	266.84
488.62	267.50
488.99	268.02
489.35	268.70
489.72	269.35
490.08	270.03
490.44	270.70
490.81	271.57
491.17	272.30
491.54	273.14
491.90	274.13
492.26	275.00
492.63	275.95
492.99	276.75
493.36	277.78
493.72	278.88
494.08	279.96
494.45	281.21
494.81	282.50
495.17	283.69
495.54	285.06
495.90	286.18
496.26	287.46
496.63	288.80
496.99	290.18
497.35	291.61
497.72	293.13
498.08	294.62
498.44	296.10
498.80	297.70
499.17	299.37
499.53	300.88
499.89	302.67
500.26	304.38
500.62	306.22
500.98	308.03
501.34	309.82
501.71	311.78
502.07	313.64
502.43	315.50
502.79	317.36
503.16	319.28
503.52	321.30
503.88	323.29
504.24	325.29
504.60	327.37
504.97	329.58
505.33	331.64
505.69	334.03
506.05	336.15
506.41	338.45
506.78	340.65
507.14	342.94
507.50	345.19
507.86	347.50
508.22	349.79
508.59	352.05
508.95	354.60
509.31	357.13
509.67	359.57
510.03	361.89
510.39	364.37
510.75	366.90
511.12	369.48
511.48	372.07
511.84	374.73
512.20	377.25
512.56	379.86
512.92	382.53
513.28	385.11
513.64	387.75
514.00	390.39
514.37	392.84
514.73	395.73
515.09	398.57
515.45	401.23
515.81	404.04
516.17	406.88
516.53	409.41
516.89	412.06
517.25	414.89
517.61	418.04
517.97	420.95
518.33	423.83
518.69	426.77
519.05	429.70
519.41	432.81
519.77	436.26
520.13	439.38
520.49	442.38
520.85	445.45
521.21	448.81
521.57	452.10
521.93	455.27
522.29	458.47
522.65	461.58
523.01	464.96
523.37	468.20
523.73	471.60
524.09	475.14
524.45	478.55
524.81	481.86
525.17	485.27
525.53	488.83
525.89	492.38
526.25	495.97
526.61	499.45
526.97	502.91
527.33	506.28
527.68	510.19
528.04	513.86
528.40	517.43
528.76	520.96
529.12	524.51
529.48	528.63
529.84	532.35
530.20	536.37
530.56	540.29
530.91	544.39
531.27	548.41
531.63	552.17
531.99	556.09
532.35	560.20
532.71	564.06
533.07	568.08
533.42	572.28
533.78	576.17
534.14	580.14
534.50	583.93
534.86	587.85
535.21	591.33
535.57	595.43
535.93	599.37
536.29	603.34
536.65	607.45
537.00	611.05
537.36	614.82
537.72	618.17
538.08	621.90
538.44	625.43
538.79	629.08
539.15	632.89
539.51	636.50
539.87	640.14
540.22	643.75
540.58	647.54
540.94	650.89
541.29	654.39
541.65	657.76
542.01	661.29
542.37	664.73
542.72	668.19
543.08	671.45
543.44	674.92
543.79	678.16
544.15	681.33
544.51	685.08
544.87	688.44
545.22	692.00
545.58	695.17
545.94	698.29
546.29	701.21
546.65	704.23
547.01	707.29
547.36	710.31
547.72	713.17
548.07	715.79
548.43	718.45
548.79	720.92
549.14	723.73
549.50	726.45
549.86	728.88
550.21	731.59
550.57	734.06
550.92	736.26
551.28	738.69
551.64	741.12
551.99	743.15
552.35	745.35
552.70	747.24
553.06	749.42
553.41	751.52
553.77	753.79
554.13	755.62
554.48	757.66
554.84	759.46
555.19	761.23
555.55	763.20
555.90	764.91
556.26	766.69
556.61	768.18
556.97	769.41
557.32	770.92
557.68	772.01
558.03	773.34
558.39	774.87
558.74	776.41
559.10	777.66
559.45	778.95
559.81	780.33
560.16	781.61
560.52	782.92
560.87	784.31
561.23	785.27
561.58	786.89
561.94	787.81
562.29	788.87
562.64	790.11
563.00	790.91
563.35	791.97
563.71	793.26
564.06	794.41
564.42	795.62
564.77	796.68
565.12	798.01
565.48	799.33
565.83	800.17
566.19	800.98
566.54	801.71
566.89	802.36
567.25	803.14
567.60	804.12
567.96	804.87
568.31	805.37
568.66	805.82
569.02	805.75
569.37	805.84
569.72	806.20
570.08	805.98
570.43	806.11
570.78	806.12
571.14	805.93
571.49	805.72
571.84	805.57
572.20	805.39
572.55	805.05
572.90	804.19
573.26	803.65
573.61	802.91
573.96	802.17
574.31	801.40
574.67	800.58
575.02	799.34
575.37	798.06
575.72	797.00
576.08	796.28
576.43	795.44
576.78	794.63
577.13	793.74
577.49	793.09
577.84	792.17
578.19	791.52
578.54	790.93
578.90	790.21
579.25	789.40
579.60	788.25
579.95	786.99
580.30	786.29
580.66	785.66
581.01	784.74
581.36	783.77
581.71	782.71
582.06	781.80
582.42	781.00
582.77	779.98
583.12	778.90
583.47	777.96
583.82	777.01
584.17	776.19
584.53	775.41
584.88	774.45
585.23	773.28
585.58	772.14
585.93	770.81
586.28	769.81
586.63	768.64
586.98	767.72
587.34	766.98
587.69	765.80
588.04	764.74
588.39	763.70
588.74	762.55
589.09	761.56
589.44	760.18
589.79	759.15
590.14	758.05
590.49	756.76
590.84	755.25
591.19	754.14
591.54	752.82
591.89	750.92
592.25	749.67
592.60	748.17
592.95	746.60
593.30	744.90
593.65	743.18
594.00	741.78
594.35	741.24
594.70	739.50
595.05	737.92
595.40	736.29
595.75	734.46
596.10	733.12
596.45	731.76
596.80	730.49
597.15	729.07
597.50	727.61
597.85	726.30
598.19	724.96
598.54	723.43
598.89	722.04
599.24	721.10
599.59	719.67
599.94	718.65
600.29	717.32
600.64	716.08
600.99	714.65
601.34	713.19
601.69	710.65
602.04	709.15
602.39	707.93
602.74	706.65
603.08	705.72
603.43	704.65
603.78	703.13
604.13	701.74
604.48	700.14
604.83	699.04
605.18	697.86
605.53	696.58
605.87	695.18
606.22	693.79
606.57	692.15
606.92	690.52
607.27	688.86
607.62	687.35
607.96	686.11
608.31	684.84
608.66	683.37
609.01	682.00
609.36	680.49
609.70	678.68
610.05	676.75
610.40	674.97
610.75	672.93
611.10	671.47
611.44	669.44
611.79	667.49
612.14	665.39
612.49	663.15
612.83	661.08
613.18	658.87
613.53	656.90
613.88	654.81
614.22	652.90
614.57	650.88
614.92	648.86
615.27	646.53
615.61	644.39
615.96	642.27
616.31	640.32
616.65	638.48
617.00	636.44
617.35	634.34
617.70	632.03
618.04	629.80
618.39	627.25
618.74	625.28
619.08	623.20
619.43	621.08
619.78	619.05
620.12	617.01
620.47	614.99
620.82	612.54
621.16	610.20
621.51	608.19
621.85	605.98
622.20	603.76
622.55	601.48
622.89	599.29
623.24	597.03
623.59	594.60
623.93	592.37
624.28	590.25
624.62	588.48
624.97	586.52
625.32	584.44
625.66	582.45
626.01	580.18
626.35	578.28
626.70	576.17
627.04	574.31
627.39	572.11
627.73	570.11
628.08	568.29
628.43	566.22
628.77	563.92
629.12	561.78
629.46	559.93
629.81	558.11
630.15	555.92
630.50	553.97
630.84	552.01
631.19	549.81
631.53	547.85
631.88	545.51
632.22	543.22
632.57	541.45
632.91	539.50
633.26	537.62
633.60	535.40
633.95	533.45
634.29	531.19
634.64	529.30
634.98	527.12
635.32	525.33
635.67	523.58
636.01	521.76
636.36	519.90
636.70	518.06
637.05	516.10
637.39	514.30
637.73	512.60
638.08	510.95
638.42	509.30
638.77	507.45
639.11	505.61
639.45	503.85
639.80	501.60
640.14	499.65
640.49	497.65
640.83	495.66
641.17	493.84
641.52	491.93
641.86	490.12
642.20	488.49
642.55	486.23
642.89	484.23
643.23	482.13
643.58	480.40
643.92	478.15
644.26	476.17
644.61	474.23
644.95	472.07
645.29	469.87
645.64	467.88
645.98	465.82
646.32	463.91
646.66	461.84
647.01	460.05
647.35	458.11
647.69	455.99
648.04	454.36
648.38	452.30
648.72	450.56
649.06	448.47
649.41	446.38
649.75	444.50
650.09	442.64
650.43	440.82
650.78	438.74
651.12	436.77
651.46	434.86
651.80	433.04
652.14	431.20
652.49	429.45
652.83	427.59
653.17	425.67
653.51	423.76
653.85	422.14
654.20	420.32
654.54	418.36
654.88	416.70
655.22	414.89
655.56	413.00
655.90	410.99
656.25	409.12
656.59	407.41
656.93	405.73
657.27	404.14
657.61	402.31
657.95	400.65
658.29	399.09
658.64	397.51
658.98	395.73
659.32	393.95
659.66	392.25
660.00	390.43
660.34	388.71
660.68	386.98
661.02	385.15
661.36	383.45
661.70	381.86
662.05	380.30
662.39	378.77
662.73	377.40
663.07	376.19
663.41	374.79
663.75	373.11
664.09	371.56
664.43	369.93
664.77	368.44
665.11	366.84
665.45	365.30
665.79	363.90
666.13	362.46
666.47	361.01
666.81	359.61
667.15	358.25
667.49	357.12
667.83	355.93
668.17	354.61
668.51	353.42
668.85	352.33
669.19	351.20
669.53	349.85
669.87	348.56
670.21	347.11
670.55	345.83
670.89	344.89
671.23	343.83
671.57	342.60
671.91	341.43
672.25	340.32
672.58	339.27
672.92	337.95
673.26	336.85
673.60	335.79
673.94	334.62
674.28	333.49
674.62	332.33
674.96	331.18
675.30	330.19
675.64	329.04
675.97	327.89
676.31	326.80
676.65	325.66
676.99	324.79
677.33	323.71
677.67	322.63
678.01	321.39
678.34	320.26
678.68	319.21
679.02	318.22
679.36	317.14
679.70	316.05
680.04	315.14
680.37	314.17
680.71	313.17
681.05	312.26
681.39	311.37
681.73	310.34
682.06	309.38
682.40	308.42
682.74	307.44
683.08	306.66
683.42	305.64
683.75	304.85
684.09	303.81
684.43	302.81
684.77	301.91
685.10	301.00
685.44	300.11
685.78	299.30
686.12	298.53
686.45	297.75
686.79	296.94
687.13	296.06
687.46	295.23
687.80	294.50
688.14	293.64
688.48	292.77
688.81	292.02
689.15	291.25
689.49	290.41
689.82	289.61
690.16	288.62
690.50	287.71
690.83	286.83
691.17	285.95
691.51	285.23
691.84	284.48
692.18	283.75
692.52	282.95
692.85	282.24
693.19	281.52
693.52	280.70
693.86	279.85
694.20	279.13
694.53	278.41
694.87	277.65
695.21	276.86
695.54	276.16
695.88	275.37
696.21	274.56
696.55	273.90
696.88	273.23
697.22	272.47
697.56	271.89
697.89	271.15
698.23	270.60
698.56	269.93
698.90	269.40
699.23	268.72
699.57	268.15
699.90	267.47
700.24	266.71
700.58	266.19
700.91	265.68
701.25	265.43
701.58	264.92
701.92	264.43
702.25	263.93
702.59	263.35
702.92	262.92
703.26	262.41
703.59	261.85
703.93	261.65
704.26	261.19
704.60	260.67
704.93	260.19
705.26	259.53
705.60	259.09
705.93	258.44
706.27	258.14
706.60	257.63
706.94	257.27
707.27	256.77
707.61	256.20
707.94	255.72
708.27	254.86
708.61	254.26
708.94	253.76
709.28	253.29
709.61	252.83
709.94	252.33
710.28	251.87
710.61	251.45
710.95	250.61
711.28	250.44
711.61	250.01
711.95	249.72
712.28	249.31
712.61	248.87
712.95	248.70
713.28	248.32
713.61	247.90
713.95	247.39
714.28	247.08
714.61	246.72
714.95	246.26
715.28	245.87
715.61	245.49
715.95	245.09
716.28	244.63
716.61	244.27
716.95	243.86
717.28	243.48
717.61	243.19
717.94	242.86
718.28	242.32
718.61	242.00
718.94	241.57
719.27	241.27
719.61	241.06
719.94	240.61
720.27	240.18
720.60	239.85
720.94	239.60
721.27	239.25
721.60	239.07
721.93	238.87
722.27	238.74
722.60	238.48
722.93	238.21
723.26	238.02
723.59	237.64
723.93	237.45
724.26	237.23
724.59	236.88
724.92	236.72
725.25	236.50
725.59	236.28
725.92	236.02
726.25	235.83
726.58	235.60
726.91	235.32
727.24	235.08
727.57	234.93
727.91	234.67
728.24	234.50
728.57	234.27
728.90	234.12
729.23	233.89
729.56	233.86
729.89	233.65
730.22	233.41
730.55	233.29
730.89	233.00
731.22	232.79
731.55	232.63
731.88	232.38
732.21	232.10
732.54	231.84
732.87	231.70
733.20	231.46
733.53	231.21
733.86	231.08
734.19	230.85
734.52	230.70
734.85	230.72
735.18	230.46
735.51	230.31
735.84	230.15
736.17	229.96
736.50	229.59
736.83	229.81
737.16	229.69
737.49	229.57
737.82	229.42
738.15	229.33
738.48	229.19
738.81	229.06
739.14	228.89
739.47	228.76
739.80	228.52
740.13	228.43
740.46	228.24
740.79	228.05
741.12	227.92
741.45	227.65
741.78	227.27
742.11	227.25
742.44	227.00
742.77	226.79
743.10	226.63
743.43	226.52
743.75	226.05
744.08	226.35
744.41	226.14
744.74	225.94
745.07	225.65
745.40	225.57
745.73	225.59
746.06	225.48
746.39	225.31
746.71	225.24
747.04	224.99
747.37	224.88
747.70	224.81
748.03	224.65
748.36	224.58
748.68	224.48
749.01	224.24
749.34	224.10
749.67	223.97
750.00	223.89
750.33	223.96
750.65	223.90
750.98	223.27
751.31	223.15
751.64	223.13
751.97	223.29
752.29	223.10
752.62	222.85
752.95	222.69
753.28	222.59
753.60	222.46
753.93	222.50
754.26	222.29
754.59	222.05
754.91	221.95
755.24	221.80
755.57	221.69
755.90	221.60
756.22	221.51
756.55	221.35
756.88	221.14
757.20	220.73
757.53	220.49
757.86	220.38
758.19	220.33
758.51	220.13
758.84	219.82
759.17	219.66
759.49	219.52
759.82	219.65
760.15	219.65
760.47	219.53
760.80	219.30
761.13	219.38
761.45	219.31
761.78	219.21
762.11	219.12
762.43	218.99
762.76	218.92
763.08	218.88
763.41	218.81
763.74	218.85
764.06	218.84
764.39	218.75
764.71	218.66
765.04	218.54
765.37	218.52
765.69	218.39
766.02	218.35
766.34	218.31
766.67	218.04
767.00	217.95
767.32	218.02
767.65	218.22
767.97	218.01
768.30	217.93
768.62	217.84
768.95	217.81
769.27	217.69
769.60	217.66
769.92	217.48
770.25	217.41
770.57	217.27
770.90	217.23
771.22	217.13
771.55	217.12
771.87	217.14
772.20	217.06
772.52	217.35
772.85	217.68
773.17	217.56
773.50	217.49
773.82	217.37
774.15	217.14
774.47	216.82
774.80	216.75
775.12	216.72
775.45	216.72
775.77	216.72
776.09	216.73
776.42	216.62
776.74	216.68
777.07	216.63
777.39	216.52
777.72	216.40
778.04	216.40
778.36	216.32
778.69	216.24
779.01	216.19
779.33	215.86
779.66	215.48
779.98	215.45
780.31	215.46
780.63	215.55
780.95	215.64
781.28	215.59
781.60	215.57
781.92	215.50
782.25	215.45
782.57	215.33
782.89	215.25
783.22	215.23
783.54	215.12
783.86	215.10
784.19	215.06
784.51	215.18
784.83	215.10
785.16	215.04
785.48	215.00
785.80	214.92
786.12	214.95
786.45	214.84
786.77	214.87
787.09	214.77
787.42	214.66
787.74	214.55
788.06	214.55
788.38	214.55
788.71	214.50
789.03	214.48
789.35	214.45
789.67	214.38
789.99	214.35
790.32	214.32
790.64	214.35
790.96	214.63
791.28	214.44
791.61	214.39
791.93	214.40
792.25	214.38
792.57	214.66
792.89	214.54
793.21	214.58
793.54	214.43
793.86	214.44
794.18	214.39
