SpectraSuite Data File
++++++++++++++++++++++++++++++++++++
Date: Mon Feb 25 17:07:11 EST 2013
User: group
Dark Spectrum Present: No
Reference Spectrum Present: No
Number of Sampled Component Spectra: 1
Spectrometers: USB2E7196
Integration Time (usec): 104000 (USB2E7196)
Spectra Averaged: 20 (USB2E7196)
Boxcar Smoothing: 10 (USB2E7196)
Correct for Electrical Dark: No (USB2E7196)
Strobe/Lamp Enabled: No (USB2E7196)
Correct for Detector Non-linearity: No (USB2E7196)
Correct for Stray Light: No (USB2E7196)
Number of Pixels in Processed Spectrum: 2048
>>>>>Begin Processed Spectral Data<<<<<
339.09	0.00
339.48	198.45
339.86	200.70
340.24	201.25
340.63	202.65
341.01	209.50
341.39	205.20
341.78	207.80
342.16	209.00
342.54	209.85
342.93	198.16
343.31	208.22
343.69	208.72
344.07	209.21
344.46	209.73
344.84	210.16
345.22	210.25
345.60	210.55
345.99	210.74
346.37	210.86
346.75	210.86
347.13	210.88
347.52	210.95
347.90	211.10
348.28	211.21
348.66	211.27
349.05	211.15
349.43	211.26
349.81	211.32
350.19	211.43
350.57	211.58
350.96	211.68
351.34	211.73
351.72	211.87
352.10	211.93
352.48	211.89
352.87	211.91
353.25	211.95
353.63	211.98
354.01	212.00
354.39	212.06
354.77	212.19
355.15	212.44
355.54	212.51
355.92	212.48
356.30	212.46
356.68	212.70
357.06	212.82
357.44	212.77
357.82	212.84
358.20	212.87
358.58	212.86
358.97	212.98
359.35	213.11
359.73	213.21
360.11	213.24
360.49	213.35
360.87	213.35
361.25	213.44
361.63	213.56
362.01	213.62
362.39	213.61
362.77	213.67
363.15	213.60
363.53	213.66
363.91	213.68
364.29	213.74
364.67	213.45
365.05	213.47
365.43	213.59
365.81	213.64
366.19	213.76
366.57	213.90
366.95	213.87
367.33	213.82
367.71	213.76
368.09	213.79
368.47	213.72
368.85	213.69
369.23	213.69
369.61	213.52
369.99	213.61
370.37	213.66
370.75	213.77
371.13	213.70
371.51	213.58
371.89	213.65
372.27	213.60
372.65	213.57
373.03	213.53
373.41	213.39
373.78	213.35
374.16	213.14
374.54	212.96
374.92	212.91
375.30	212.81
375.68	212.67
376.06	212.60
376.44	212.51
376.82	212.47
377.19	212.38
377.57	212.35
377.95	212.11
378.33	211.99
378.71	211.69
379.09	211.63
379.47	211.59
379.84	211.38
380.22	211.34
380.60	211.22
380.98	211.22
381.36	211.18
381.73	211.05
382.11	211.12
382.49	211.04
382.87	210.82
383.25	210.78
383.62	211.16
384.00	211.05
384.38	211.09
384.76	211.17
385.13	211.32
385.51	211.25
385.89	211.26
386.27	211.25
386.64	211.31
387.02	211.31
387.40	211.31
387.78	211.32
388.15	211.32
388.53	211.28
388.91	211.16
389.29	211.10
389.66	211.10
390.04	211.02
390.42	211.13
390.79	211.15
391.17	211.09
391.55	210.74
391.92	210.76
392.30	210.78
392.68	210.70
393.05	210.63
393.43	210.64
393.81	210.69
394.18	210.56
394.56	210.53
394.94	210.59
395.31	210.50
395.69	210.60
396.06	210.61
396.44	210.67
396.82	210.70
397.19	210.84
397.57	210.77
397.95	210.82
398.32	210.67
398.70	210.73
399.07	210.80
399.45	210.74
399.82	210.76
400.20	210.67
400.58	210.66
400.95	210.47
401.33	210.58
401.70	210.77
402.08	210.90
402.45	210.95
402.83	211.01
403.20	211.08
403.58	211.10
403.95	211.23
404.33	211.34
404.71	211.38
405.08	211.66
405.46	211.76
405.83	211.85
406.21	211.94
406.58	212.09
406.96	212.16
407.33	212.31
407.70	212.51
408.08	212.88
408.45	213.07
408.83	213.37
409.20	213.45
409.58	213.44
409.95	213.60
410.33	213.77
410.70	213.94
411.08	214.22
411.45	214.42
411.82	214.57
412.20	214.89
412.57	215.35
412.95	215.36
413.32	215.79
413.69	216.09
414.07	216.56
414.44	217.00
414.82	217.57
415.19	218.23
415.56	218.70
415.94	219.14
416.31	219.82
416.68	220.45
417.06	221.32
417.43	222.22
417.81	223.13
418.18	224.06
418.55	224.97
418.93	225.94
419.30	227.01
419.67	228.15
420.04	229.32
420.42	230.46
420.79	232.10
421.16	233.49
421.54	235.10
421.91	236.64
422.28	238.24
422.66	239.82
423.03	241.60
423.40	243.30
423.77	245.18
424.15	246.99
424.52	248.89
424.89	250.95
425.26	252.79
425.64	254.72
426.01	256.83
426.38	259.03
426.75	261.35
427.13	263.63
427.50	266.04
427.87	268.50
428.24	270.96
428.61	273.17
428.99	275.98
429.36	278.69
429.73	281.61
430.10	284.37
430.47	287.35
430.85	290.16
431.22	293.35
431.59	296.89
431.96	300.12
432.33	303.77
432.70	307.29
433.08	311.41
433.45	315.28
433.82	319.20
434.19	323.64
434.56	327.85
434.93	331.92
435.30	335.99
435.68	340.44
436.05	344.91
436.42	349.43
436.79	353.48
437.16	357.92
437.53	362.52
437.90	367.04
438.27	371.55
438.64	376.24
439.01	380.67
439.38	384.45
439.75	388.35
440.13	392.71
440.50	396.80
440.87	400.23
441.24	403.61
441.61	407.49
441.98	410.22
442.35	413.44
442.72	416.86
443.09	420.33
443.46	422.40
443.83	423.83
444.20	424.95
444.57	426.68
444.94	427.64
445.31	428.54
445.68	429.91
446.05	430.48
446.42	430.34
446.79	430.13
447.16	429.67
447.53	429.48
447.90	427.87
448.27	426.25
448.64	424.00
449.01	422.52
449.37	419.56
449.74	416.80
450.11	413.87
450.48	410.26
450.85	406.24
451.22	403.10
451.59	400.14
451.96	397.23
452.33	393.21
452.70	389.63
453.07	385.37
453.43	380.63
453.80	376.40
454.17	372.29
454.54	368.30
454.91	364.22
455.28	360.13
455.65	356.50
456.02	353.35
456.38	350.25
456.75	346.37
457.12	343.09
457.49	339.86
457.86	336.40
458.23	333.63
458.59	330.75
458.96	327.68
459.33	324.91
459.70	322.34
460.07	320.24
460.43	317.70
460.80	315.28
461.17	313.43
461.54	311.25
461.91	309.19
462.27	307.18
462.64	305.38
463.01	303.41
463.38	301.52
463.74	299.03
464.11	297.25
464.48	295.69
464.85	294.06
465.21	292.90
465.58	291.56
465.95	289.96
466.32	288.64
466.68	287.32
467.05	286.03
467.42	284.64
467.78	283.24
468.15	282.04
468.52	281.27
468.88	279.83
469.25	278.74
469.62	277.91
469.98	276.89
470.35	275.98
470.72	275.06
471.08	274.04
471.45	273.28
471.82	272.53
472.18	271.73
472.55	271.10
472.92	270.30
473.28	269.67
473.65	269.08
474.02	268.44
474.38	267.85
474.75	267.47
475.11	266.90
475.48	266.52
475.85	266.15
476.21	265.61
476.58	265.38
476.94	265.11
477.31	264.75
477.67	264.50
478.04	264.25
478.41	264.13
478.77	264.24
479.14	264.05
479.50	263.93
479.87	263.87
480.23	263.78
480.60	263.76
480.96	263.63
481.33	263.72
481.69	263.76
482.06	263.89
482.42	263.85
482.79	264.02
483.15	264.13
483.52	264.33
483.88	264.40
484.25	264.55
484.61	264.76
484.98	264.95
485.34	265.30
485.71	265.67
486.07	265.99
486.44	266.15
486.80	266.54
487.17	266.95
487.53	267.52
487.90	268.08
488.26	268.65
488.62	269.34
488.99	269.81
489.35	270.48
489.72	271.09
490.08	271.68
490.44	272.37
490.81	273.15
491.17	273.88
491.54	274.83
491.90	275.80
492.26	276.68
492.63	277.65
492.99	278.55
493.36	279.50
493.72	280.51
494.08	281.56
494.45	282.66
494.81	283.92
495.17	284.98
495.54	286.24
495.90	287.34
496.26	288.55
496.63	289.96
496.99	291.23
497.35	292.60
497.72	294.20
498.08	295.55
498.44	296.90
498.80	298.49
499.17	300.00
499.53	301.39
499.89	303.01
500.26	304.48
500.62	306.05
500.98	307.79
501.34	309.51
501.71	311.25
502.07	313.02
502.43	314.69
502.79	316.37
503.16	318.07
503.52	319.85
503.88	321.54
504.24	323.26
504.60	325.19
504.97	327.03
505.33	328.87
505.69	331.02
506.05	333.07
506.41	335.01
506.78	336.93
507.14	338.82
507.50	340.84
507.86	342.99
508.22	345.13
508.59	347.05
508.95	349.05
509.31	351.32
509.67	353.44
510.03	355.51
510.39	357.69
510.75	359.81
511.12	362.06
511.48	364.20
511.84	366.38
512.20	368.58
512.56	370.90
512.92	373.20
513.28	375.43
513.64	377.60
514.00	379.87
514.37	382.16
514.73	384.70
515.09	387.03
515.45	389.36
515.81	391.59
516.17	393.95
516.53	396.29
516.89	398.39
517.25	400.79
517.61	403.24
517.97	405.52
518.33	408.00
518.69	410.51
519.05	413.15
519.41	415.84
519.77	418.42
520.13	420.85
520.49	423.29
520.85	425.89
521.21	428.66
521.57	431.42
521.93	434.10
522.29	436.77
522.65	439.43
523.01	442.15
523.37	444.97
523.73	447.87
524.09	450.87
524.45	453.73
524.81	456.48
525.17	459.47
525.53	462.61
525.89	465.62
526.25	468.61
526.61	471.57
526.97	474.54
527.33	477.65
527.68	481.18
528.04	484.32
528.40	487.15
528.76	490.29
529.12	493.43
529.48	496.67
529.84	499.84
530.20	503.33
530.56	506.76
530.91	510.25
531.27	513.63
531.63	516.93
531.99	520.37
532.35	523.95
532.71	527.21
533.07	530.75
533.42	534.54
533.78	538.00
534.14	541.56
534.50	544.84
534.86	548.32
535.21	551.57
535.57	555.19
535.93	558.93
536.29	562.60
536.65	566.21
537.00	569.60
537.36	573.00
537.72	576.25
538.08	579.77
538.44	582.97
538.79	586.35
539.15	589.70
539.51	593.06
539.87	596.49
540.22	599.90
540.58	603.42
540.94	606.69
541.29	610.14
541.65	613.32
542.01	616.73
542.37	620.10
542.72	623.36
543.08	626.50
543.44	629.90
543.79	632.93
544.15	636.12
544.51	639.55
544.87	642.98
545.22	646.19
545.58	649.08
545.94	652.29
546.29	655.20
546.65	658.31
547.01	661.30
547.36	664.16
547.72	667.15
548.07	669.79
548.43	672.21
548.79	674.67
549.14	677.43
549.50	680.08
549.86	682.35
550.21	684.81
550.57	687.49
550.92	689.69
551.28	692.01
551.64	694.18
551.99	696.42
552.35	698.48
552.70	700.59
553.06	702.79
553.41	704.90
553.77	707.38
554.13	709.37
554.48	711.59
554.84	713.65
555.19	715.71
555.55	717.86
555.90	719.65
556.26	721.70
556.61	723.27
556.97	724.82
557.32	726.47
557.68	728.01
558.03	729.48
558.39	731.11
558.74	732.75
559.10	734.40
559.45	735.80
559.81	737.45
560.16	738.86
560.52	740.42
560.87	741.83
561.23	742.77
561.58	744.33
561.94	745.27
562.29	746.41
562.64	747.53
563.00	748.41
563.35	749.73
563.71	750.82
564.06	752.07
564.42	753.43
564.77	754.83
565.12	756.13
565.48	757.38
565.83	758.50
566.19	759.47
566.54	760.18
566.89	760.97
567.25	761.93
567.60	762.89
567.96	763.77
568.31	764.74
568.66	765.60
569.02	765.92
569.37	766.44
569.72	767.05
570.08	767.38
570.43	767.79
570.78	767.92
571.14	767.95
571.49	768.06
571.84	768.09
572.20	767.79
572.55	767.69
572.90	767.20
573.26	766.87
573.61	766.54
573.96	766.29
574.31	765.88
574.67	765.07
575.02	764.34
575.37	763.56
575.72	762.45
576.08	761.76
576.43	760.91
576.78	760.12
577.13	759.38
577.49	758.77
577.84	757.92
578.19	757.46
578.54	757.09
578.90	756.53
579.25	755.73
579.60	754.96
579.95	753.90
580.30	753.38
580.66	752.77
581.01	752.03
581.36	751.06
581.71	750.21
582.06	749.52
582.42	748.82
582.77	747.68
583.12	746.93
583.47	746.13
583.82	745.53
584.17	745.04
584.53	744.33
584.88	743.41
585.23	742.65
585.58	741.51
585.93	740.34
586.28	739.44
586.63	738.53
586.98	737.65
587.34	737.03
587.69	736.07
588.04	735.17
588.39	734.19
588.74	733.02
589.09	732.31
589.44	731.07
589.79	730.03
590.14	729.30
590.49	728.34
590.84	727.26
591.19	726.24
591.54	725.10
591.89	723.55
592.25	722.57
592.60	721.28
592.95	720.13
593.30	718.73
593.65	717.24
594.00	715.95
594.35	715.55
594.70	714.10
595.05	712.73
595.40	711.31
595.75	709.84
596.10	708.75
596.45	707.47
596.80	706.27
597.15	705.15
597.50	703.62
597.85	702.36
598.19	700.86
598.54	699.55
598.89	698.17
599.24	697.13
599.59	695.57
599.94	694.45
600.29	693.16
600.64	691.98
600.99	690.73
601.34	689.55
601.69	687.42
602.04	686.05
602.39	684.70
602.74	683.29
603.08	682.22
603.43	681.37
603.78	679.85
604.13	678.70
604.48	677.28
604.83	676.40
605.18	675.30
605.53	674.17
605.87	672.75
606.22	671.55
606.57	670.22
606.92	668.96
607.27	667.37
607.62	666.00
607.96	664.82
608.31	663.57
608.66	662.00
609.01	660.60
609.36	659.06
609.70	657.45
610.05	655.78
610.40	654.20
610.75	652.25
611.10	650.91
611.44	649.03
611.79	647.05
612.14	645.02
612.49	642.88
612.83	640.99
613.18	639.13
613.53	637.27
613.88	635.19
614.22	633.28
614.57	631.45
614.92	629.52
615.27	627.49
615.61	625.46
615.96	623.68
616.31	621.82
616.65	620.27
617.00	618.48
617.35	616.69
617.70	614.66
618.04	612.53
618.39	610.22
618.74	608.38
619.08	606.50
619.43	604.58
619.78	602.73
620.12	600.83
620.47	598.78
620.82	596.57
621.16	594.48
621.51	592.51
621.85	590.55
622.20	588.36
622.55	586.18
622.89	584.07
623.24	582.03
623.59	579.74
623.93	577.52
624.28	575.49
624.62	573.74
624.97	571.71
625.32	569.80
625.66	567.86
626.01	565.90
626.35	563.95
626.70	561.88
627.04	559.96
627.39	557.88
627.73	556.14
628.08	554.16
628.43	552.24
628.77	550.11
629.12	548.02
629.46	546.36
629.81	544.48
630.15	542.56
630.50	540.47
630.84	538.51
631.19	536.51
631.53	534.57
631.88	532.23
632.22	530.21
632.57	528.25
632.91	526.39
633.26	524.35
633.60	522.34
633.95	520.62
634.29	518.69
634.64	516.91
634.98	514.74
635.32	513.02
635.67	511.34
636.01	509.58
636.36	507.71
636.70	505.84
637.05	504.17
637.39	502.42
637.73	500.78
638.08	499.17
638.42	497.49
638.77	495.81
639.11	494.15
639.45	492.41
639.80	490.58
640.14	488.73
640.49	486.90
640.83	485.15
641.17	483.23
641.52	481.23
641.86	479.33
642.20	477.65
642.55	475.62
642.89	473.65
643.23	471.81
643.58	470.29
643.92	468.35
644.26	466.40
644.61	464.67
644.95	462.80
645.29	461.00
645.64	459.10
645.98	456.98
646.32	455.10
646.66	453.07
647.01	451.32
647.35	449.55
647.69	447.67
648.04	445.95
648.38	444.16
648.72	442.43
649.06	440.56
649.41	438.76
649.75	437.08
650.09	435.37
650.43	433.57
650.78	431.45
651.12	429.69
651.46	427.84
651.80	425.94
652.14	424.08
652.49	422.42
652.83	420.66
653.17	418.90
653.51	417.04
653.85	415.51
654.20	413.79
654.54	411.92
654.88	410.20
655.22	408.45
655.56	406.64
655.90	404.86
656.25	403.14
656.59	401.39
656.93	399.55
657.27	397.99
657.61	396.19
657.95	394.65
658.29	393.00
658.64	391.58
658.98	389.85
659.32	388.18
659.66	386.42
660.00	384.75
660.34	383.24
660.68	381.71
661.02	379.96
661.36	378.36
661.70	376.81
662.05	375.35
662.39	373.92
662.73	372.55
663.07	371.36
663.41	369.90
663.75	368.35
664.09	367.00
664.43	365.33
664.77	364.02
665.11	362.59
665.45	361.19
665.79	359.62
666.13	358.26
666.47	356.87
666.81	355.54
667.15	354.30
667.49	353.05
667.83	351.82
668.17	350.50
668.51	349.31
668.85	348.16
669.19	347.10
669.53	345.78
669.87	344.50
670.21	343.15
670.55	341.96
670.89	341.06
671.23	339.99
671.57	339.00
671.91	337.90
672.25	336.80
672.58	335.74
672.92	334.64
673.26	333.65
673.60	332.63
673.94	331.54
674.28	330.40
674.62	329.44
674.96	328.33
675.30	327.44
675.64	326.30
675.97	325.19
676.31	324.06
676.65	323.02
676.99	322.25
677.33	321.11
677.67	320.10
678.01	318.94
678.34	317.92
678.68	316.87
679.02	315.81
679.36	314.81
679.70	313.77
680.04	312.83
680.37	311.71
680.71	310.70
681.05	309.74
681.39	308.84
681.73	307.80
682.06	306.90
682.40	305.98
682.74	305.07
683.08	304.33
683.42	303.34
683.75	302.48
684.09	301.38
684.43	300.62
684.77	299.68
685.10	298.82
685.44	297.82
685.78	296.93
686.12	296.13
686.45	295.25
686.79	294.40
687.13	293.61
687.46	292.91
687.80	292.18
688.14	291.30
688.48	290.55
688.81	289.72
689.15	288.91
689.49	288.01
689.82	287.29
690.16	286.33
690.50	285.55
690.83	284.68
691.17	283.85
691.51	282.95
691.84	282.29
692.18	281.45
692.52	280.87
692.85	280.20
693.19	279.56
693.52	278.86
693.86	278.08
694.20	277.36
694.53	276.61
694.87	275.92
695.21	275.25
695.54	274.51
695.88	273.82
696.21	273.08
696.55	272.51
696.88	271.79
697.22	271.15
697.56	270.56
697.89	270.04
698.23	269.38
698.56	268.75
698.90	268.16
699.23	267.52
699.57	266.90
699.90	266.23
700.24	265.47
700.58	264.94
700.91	264.37
701.25	264.01
701.58	263.55
701.92	263.02
702.25	262.50
702.59	261.90
702.92	261.39
703.26	260.96
703.59	260.43
703.93	260.29
704.26	259.80
704.60	259.25
704.93	258.62
705.26	258.13
705.60	257.82
705.93	257.27
706.27	257.01
706.60	256.65
706.94	256.26
707.27	255.78
707.61	255.27
707.94	254.80
708.27	254.10
708.61	253.53
708.94	253.01
709.28	252.52
709.61	252.04
709.94	251.63
710.28	251.19
710.61	250.72
710.95	250.00
711.28	249.77
711.61	249.39
711.95	249.10
712.28	248.66
712.61	248.21
712.95	247.99
713.28	247.69
713.61	247.18
713.95	246.75
714.28	246.45
714.61	246.10
714.95	245.84
715.28	245.46
715.61	245.05
715.95	244.66
716.28	244.32
716.61	243.98
716.95	243.58
717.28	243.16
717.61	242.90
717.94	242.55
718.28	242.06
718.61	241.76
718.94	241.39
719.27	241.13
719.61	240.75
719.94	240.44
720.27	239.89
720.60	239.53
720.94	239.25
721.27	238.95
721.60	238.65
721.93	238.32
722.27	238.16
722.60	238.09
722.93	237.79
723.26	237.51
723.59	237.28
723.93	237.10
724.26	236.96
724.59	236.67
724.92	236.40
725.25	236.25
725.59	235.96
725.92	235.81
726.25	235.57
726.58	235.42
726.91	235.16
727.24	235.01
727.57	234.82
727.91	234.51
728.24	234.27
728.57	234.02
728.90	233.83
729.23	233.45
729.56	233.30
729.89	233.09
730.22	232.91
730.55	232.65
730.89	232.38
731.22	232.10
731.55	231.90
731.88	231.75
732.21	231.44
732.54	231.24
732.87	230.96
733.20	230.76
733.53	230.60
733.86	230.37
734.19	230.12
734.52	229.99
734.85	230.07
735.18	229.88
735.51	229.83
735.84	229.65
736.17	229.57
736.50	229.20
736.83	229.46
737.16	229.28
737.49	229.08
737.82	228.86
738.15	228.68
738.48	228.48
738.81	228.18
739.14	228.05
739.47	227.87
739.80	227.73
740.13	227.59
740.46	227.32
740.79	227.13
741.12	226.88
741.45	226.69
741.78	226.35
742.11	226.32
742.44	226.05
742.77	225.89
743.10	225.75
743.43	225.63
743.75	225.08
744.08	225.42
744.41	225.29
744.74	225.11
745.07	224.95
745.40	224.84
745.73	224.93
746.06	224.74
746.39	224.68
746.71	224.41
747.04	224.27
747.37	224.12
747.70	224.02
748.03	223.92
748.36	223.84
748.68	223.67
749.01	223.38
749.34	223.23
749.67	223.14
750.00	223.03
750.33	223.17
750.65	223.07
750.98	222.50
751.31	222.40
751.64	222.37
751.97	222.45
752.29	222.38
752.62	222.07
752.95	221.96
753.28	221.75
753.60	221.71
753.93	221.66
754.26	221.57
754.59	221.37
754.91	221.29
755.24	221.11
755.57	220.96
755.90	220.86
756.22	220.80
756.55	220.63
756.88	220.46
757.20	220.07
757.53	219.86
757.86	219.78
758.19	219.74
758.51	219.63
758.84	219.36
759.17	219.20
759.49	219.17
759.82	219.23
760.15	219.24
760.47	219.12
760.80	218.90
761.13	218.85
761.45	218.84
761.78	218.71
762.11	218.64
762.43	218.57
762.76	218.52
763.08	218.43
763.41	218.43
763.74	218.41
764.06	218.31
764.39	218.24
764.71	218.09
765.04	217.90
765.37	217.77
765.69	217.65
766.02	217.59
766.34	217.51
766.67	217.36
767.00	217.31
767.32	217.45
767.65	217.63
767.97	217.61
768.30	217.51
768.62	217.52
768.95	217.39
769.27	217.34
769.60	217.28
769.92	217.15
770.25	216.94
770.57	216.82
770.90	216.85
771.22	216.78
771.55	216.73
771.87	216.84
772.20	216.79
772.52	217.01
772.85	217.40
773.17	217.30
773.50	217.16
773.82	216.99
774.15	216.76
774.47	216.49
774.80	216.32
775.12	216.21
775.45	216.12
775.77	216.12
776.09	216.16
776.42	216.13
776.74	216.14
777.07	216.19
777.39	216.10
777.72	215.95
778.04	215.99
778.36	215.93
778.69	215.76
779.01	215.68
779.33	215.42
779.66	214.96
779.98	214.88
780.31	214.83
780.63	214.94
780.95	214.89
781.28	214.82
781.60	214.72
781.92	214.72
782.25	214.65
782.57	214.55
782.89	214.43
783.22	214.39
783.54	214.28
783.86	214.23
784.19	214.23
784.51	214.35
784.83	214.28
785.16	214.25
785.48	214.32
785.80	214.30
786.12	214.25
786.45	214.21
786.77	214.30
787.09	214.27
787.42	214.22
787.74	214.27
788.06	214.26
788.38	214.31
788.71	214.23
789.03	214.23
789.35	214.30
789.67	214.19
789.99	214.17
790.32	214.16
790.64	214.16
790.96	214.41
791.28	214.22
791.61	214.25
791.93	214.22
792.25	214.14
792.57	214.45
792.89	214.33
793.21	214.32
793.54	214.19
793.86	214.14
794.18	214.08
