SpectraSuite Data File
++++++++++++++++++++++++++++++++++++
Date: Mon Feb 25 17:19:19 EST 2013
User: group
Dark Spectrum Present: No
Reference Spectrum Present: No
Number of Sampled Component Spectra: 1
Spectrometers: USB2E7196
Integration Time (usec): 104000 (USB2E7196)
Spectra Averaged: 20 (USB2E7196)
Boxcar Smoothing: 10 (USB2E7196)
Correct for Electrical Dark: No (USB2E7196)
Strobe/Lamp Enabled: No (USB2E7196)
Correct for Detector Non-linearity: No (USB2E7196)
Correct for Stray Light: No (USB2E7196)
Number of Pixels in Processed Spectrum: 2048
>>>>>Begin Processed Spectral Data<<<<<
339.09	0.00
339.48	199.30
339.86	201.40
340.24	202.70
340.63	202.50
341.01	209.45
341.39	204.50
341.78	208.10
342.16	208.55
342.54	209.95
342.93	198.80
343.31	208.79
343.69	209.26
344.07	209.65
344.46	210.10
344.84	210.62
345.22	210.80
345.60	211.17
345.99	211.35
346.37	211.61
346.75	211.72
347.13	211.78
347.52	211.91
347.90	212.07
348.28	212.05
348.66	212.26
349.05	212.26
349.43	212.38
349.81	212.43
350.19	212.49
350.57	212.62
350.96	212.74
351.34	212.98
351.72	213.11
352.10	213.32
352.48	213.35
352.87	213.31
353.25	213.37
353.63	213.45
354.01	213.53
354.39	213.47
354.77	213.52
355.15	213.70
355.54	213.68
355.92	213.65
356.30	213.73
356.68	213.92
357.06	213.98
357.44	214.01
357.82	214.15
358.20	214.20
358.58	214.26
358.97	214.29
359.35	214.38
359.73	214.60
360.11	214.61
360.49	214.72
360.87	214.85
361.25	214.88
361.63	215.04
362.01	215.13
362.39	215.22
362.77	215.33
363.15	215.31
363.53	215.37
363.91	215.41
364.29	215.49
364.67	215.19
365.05	215.19
365.43	215.22
365.81	215.22
366.19	215.44
366.57	215.49
366.95	215.53
367.33	215.46
367.71	215.45
368.09	215.51
368.47	215.45
368.85	215.35
369.23	215.41
369.61	215.17
369.99	215.20
370.37	215.17
370.75	215.30
371.13	215.26
371.51	215.20
371.89	215.21
372.27	215.09
372.65	215.11
373.03	215.14
373.41	215.10
373.78	215.07
374.16	214.78
374.54	214.63
374.92	214.51
375.30	214.40
375.68	214.26
376.06	214.20
376.44	214.13
376.82	214.09
377.19	213.99
377.57	213.98
377.95	213.86
378.33	213.88
378.71	213.57
379.09	213.52
379.47	213.59
379.84	213.49
380.22	213.49
380.60	213.35
380.98	213.26
381.36	213.12
381.73	213.00
382.11	213.05
382.49	213.07
382.87	213.00
383.25	212.97
383.62	213.32
384.00	213.21
384.38	213.25
384.76	213.29
385.13	213.44
385.51	213.45
385.89	213.36
386.27	213.26
386.64	213.35
387.02	213.32
387.40	213.15
387.78	213.16
388.15	213.14
388.53	213.12
388.91	213.07
389.29	213.10
389.66	213.13
390.04	213.13
390.42	213.17
390.79	213.25
391.17	213.31
391.55	212.94
391.92	212.95
392.30	212.97
392.68	212.94
393.05	212.88
393.43	212.89
393.81	212.94
394.18	212.86
394.56	212.86
394.94	212.95
395.31	212.96
395.69	213.04
396.06	213.20
396.44	213.30
396.82	213.36
397.19	213.57
397.57	213.57
397.95	213.63
398.32	213.49
398.70	213.47
399.07	213.49
399.45	213.50
399.82	213.52
400.20	213.50
400.58	213.53
400.95	213.44
401.33	213.57
401.70	213.84
402.08	213.94
402.45	214.01
402.83	214.17
403.20	214.27
403.58	214.34
403.95	214.45
404.33	214.61
404.71	214.76
405.08	215.06
405.46	215.22
405.83	215.31
406.21	215.59
406.58	215.76
406.96	215.98
407.33	216.23
407.70	216.54
408.08	217.13
408.45	217.48
408.83	217.91
409.20	218.11
409.58	218.28
409.95	218.65
410.33	219.09
410.70	219.35
411.08	219.93
411.45	220.45
411.82	220.89
412.20	221.51
412.57	222.27
412.95	222.61
413.32	223.36
413.69	224.09
414.07	224.82
414.44	225.74
414.82	226.62
415.19	227.70
415.56	228.71
415.94	229.62
416.31	230.84
416.68	231.94
417.06	233.39
417.43	234.77
417.81	236.29
418.18	237.75
418.55	239.40
418.93	241.08
419.30	242.82
419.67	244.59
420.04	246.52
420.42	248.45
420.79	250.93
421.16	253.20
421.54	255.72
421.91	258.24
422.28	260.80
422.66	263.55
423.03	266.34
423.40	269.14
423.77	272.08
424.15	275.00
424.52	278.29
424.89	281.70
425.26	284.93
425.64	288.02
426.01	291.50
426.38	295.10
426.75	298.85
427.13	302.72
427.50	306.70
427.87	310.83
428.24	314.94
428.61	318.82
428.99	323.29
429.36	328.08
429.73	332.67
430.10	337.38
430.47	342.06
430.85	346.81
431.22	351.90
431.59	357.56
431.96	362.71
432.33	368.42
432.70	373.98
433.08	380.59
433.45	386.94
433.82	393.19
434.19	400.02
434.56	406.70
434.93	413.07
435.30	419.47
435.68	426.42
436.05	433.41
436.42	440.34
436.79	446.57
437.16	453.24
437.53	460.48
437.90	467.50
438.27	474.60
438.64	481.78
439.01	488.54
439.38	494.29
439.75	500.15
440.13	506.66
440.50	512.84
440.87	517.90
441.24	523.04
441.61	528.75
441.98	533.00
442.35	537.87
442.72	542.87
443.09	547.90
443.46	550.85
443.83	552.80
444.20	554.30
444.57	556.78
444.94	557.86
445.31	558.91
445.68	560.24
446.05	560.60
446.42	560.00
446.79	559.21
447.16	558.30
447.53	557.67
447.90	554.93
448.27	552.19
448.64	548.40
449.01	545.63
449.37	540.88
449.74	536.17
450.11	530.78
450.48	524.80
450.85	518.48
451.22	513.22
451.59	508.16
451.96	503.42
452.33	497.06
452.70	491.25
453.07	484.45
453.43	477.22
453.80	470.56
454.17	464.01
454.54	457.82
454.91	451.30
455.28	444.79
455.65	438.85
456.02	433.38
456.38	428.31
456.75	422.07
457.12	416.78
457.49	411.77
457.86	406.65
458.23	402.42
458.59	397.74
458.96	392.97
459.33	388.73
459.70	384.62
460.07	381.27
460.43	377.43
460.80	373.84
461.17	370.83
461.54	367.48
461.91	364.35
462.27	361.17
462.64	358.48
463.01	355.67
463.38	352.94
463.74	349.63
464.11	347.15
464.48	345.06
464.85	342.75
465.21	341.01
465.58	339.14
465.95	336.70
466.32	334.76
466.68	332.94
467.05	331.22
467.42	329.28
467.78	327.29
468.15	325.58
468.52	324.36
468.88	322.47
469.25	320.89
469.62	319.74
469.98	318.45
470.35	317.14
470.72	315.97
471.08	314.72
471.45	313.82
471.82	312.86
472.18	311.83
472.55	311.10
472.92	310.07
473.28	309.30
473.65	308.60
474.02	307.96
474.38	307.54
474.75	307.10
475.11	306.70
475.48	306.53
475.85	306.26
476.21	305.99
476.58	305.99
476.94	306.13
477.31	306.12
477.67	306.20
478.04	306.43
478.41	306.77
478.77	307.47
479.14	307.68
479.50	308.14
479.87	308.74
480.23	309.27
480.60	309.89
480.96	310.58
481.33	311.49
481.69	312.37
482.06	313.16
482.42	314.08
482.79	315.10
483.15	316.19
483.52	317.58
483.88	318.83
484.25	320.17
484.61	321.62
484.98	323.19
485.34	325.08
485.71	326.97
486.07	328.95
486.44	330.69
486.80	333.06
487.17	335.37
487.53	337.90
487.90	340.69
488.26	343.65
488.62	346.70
488.99	349.79
489.35	353.09
489.72	356.60
490.08	360.27
490.44	364.10
490.81	368.31
491.17	372.47
491.54	377.01
491.90	381.80
492.26	386.77
492.63	392.00
492.99	397.36
493.36	402.99
493.72	409.02
494.08	415.25
494.45	421.73
494.81	428.63
495.17	435.72
495.54	443.21
495.90	450.88
496.26	459.00
496.63	467.52
496.99	476.28
497.35	485.56
497.72	495.25
498.08	505.26
498.44	515.44
498.80	526.45
499.17	537.81
499.53	549.40
499.89	561.64
500.26	573.86
500.62	586.62
500.98	600.06
501.34	613.65
501.71	627.92
502.07	642.66
502.43	657.85
502.79	673.01
503.16	688.89
503.52	705.51
503.88	722.59
504.24	740.02
504.60	757.88
504.97	776.38
505.33	794.91
505.69	814.72
506.05	834.73
506.41	855.00
506.78	875.68
507.14	896.85
507.50	918.36
507.86	940.69
508.22	963.45
508.59	986.30
508.95	1010.16
509.31	1034.11
509.67	1058.64
510.03	1083.63
510.39	1109.71
510.75	1135.88
511.12	1162.15
511.48	1188.75
511.84	1215.92
512.20	1243.28
512.56	1271.41
512.92	1300.08
513.28	1328.57
513.64	1357.35
514.00	1386.26
514.37	1415.29
514.73	1445.18
515.09	1475.25
515.45	1505.27
515.81	1535.45
516.17	1566.12
516.53	1596.38
516.89	1627.25
517.25	1657.58
517.61	1688.30
517.97	1718.97
518.33	1749.58
518.69	1780.49
519.05	1811.53
519.41	1842.75
519.77	1874.53
520.13	1905.29
520.49	1935.82
520.85	1966.86
521.21	1998.02
521.57	2029.69
521.93	2060.60
522.29	2092.06
522.65	2123.38
523.01	2154.19
523.37	2184.46
523.73	2215.21
524.09	2245.55
524.45	2276.26
524.81	2307.06
525.17	2337.84
525.53	2368.26
525.89	2398.65
526.25	2428.38
526.61	2456.98
526.97	2485.56
527.33	2514.09
527.68	2543.03
528.04	2571.16
528.40	2598.45
528.76	2625.87
529.12	2653.48
529.48	2682.07
529.84	2709.09
530.20	2735.94
530.56	2763.01
530.91	2790.95
531.27	2817.88
531.63	2844.36
531.99	2870.21
532.35	2894.98
532.71	2919.44
533.07	2944.30
533.42	2967.79
533.78	2992.21
534.14	3016.26
534.50	3038.89
534.86	3062.27
535.21	3083.57
535.57	3106.84
535.93	3128.65
536.29	3149.73
536.65	3170.42
537.00	3189.93
537.36	3209.27
537.72	3227.43
538.08	3246.09
538.44	3264.09
538.79	3282.11
539.15	3300.20
539.51	3317.54
539.87	3336.01
540.22	3353.21
540.58	3370.65
540.94	3387.47
541.29	3402.24
541.65	3416.43
542.01	3431.41
542.37	3445.25
542.72	3460.02
543.08	3472.74
543.44	3486.98
543.79	3499.17
544.15	3510.79
544.51	3522.65
544.87	3534.60
545.22	3545.50
545.58	3555.38
545.94	3564.13
546.29	3571.73
546.65	3578.93
547.01	3586.06
547.36	3592.85
547.72	3599.25
548.07	3603.86
548.43	3608.73
548.79	3613.55
549.14	3618.65
549.50	3623.29
549.86	3626.47
550.21	3629.21
550.57	3632.80
550.92	3634.20
551.28	3636.07
551.64	3638.15
551.99	3640.70
552.35	3641.56
552.70	3643.18
553.06	3644.47
553.41	3645.32
553.77	3646.40
554.13	3646.95
554.48	3647.76
554.84	3648.05
555.19	3647.22
555.55	3645.82
555.90	3644.29
556.26	3642.75
556.61	3640.96
556.97	3638.36
557.32	3636.54
557.68	3633.31
558.03	3629.72
558.39	3627.06
558.74	3625.58
559.10	3622.88
559.45	3618.59
559.81	3615.77
560.16	3610.94
560.52	3606.82
560.87	3602.47
561.23	3597.28
561.58	3593.25
561.94	3587.49
562.29	3580.85
562.64	3576.10
563.00	3571.78
563.35	3567.62
563.71	3563.96
564.06	3559.37
564.42	3554.90
564.77	3550.39
565.12	3546.34
565.48	3541.56
565.83	3536.61
566.19	3531.50
566.54	3524.72
566.89	3518.41
567.25	3512.44
567.60	3507.21
567.96	3500.92
568.31	3495.17
568.66	3488.08
569.02	3480.36
569.37	3472.40
569.72	3465.59
570.08	3457.55
570.43	3449.31
570.78	3440.75
571.14	3431.08
571.49	3422.31
571.84	3413.92
572.20	3403.65
572.55	3394.70
572.90	3384.67
573.26	3373.91
573.61	3363.03
573.96	3352.69
574.31	3341.57
574.67	3329.49
575.02	3317.45
575.37	3305.70
575.72	3293.29
576.08	3283.09
576.43	3271.22
576.78	3260.23
577.13	3249.56
577.49	3238.60
577.84	3226.85
578.19	3216.11
578.54	3206.15
578.90	3195.56
579.25	3183.77
579.60	3171.88
579.95	3159.64
580.30	3148.62
580.66	3137.92
581.01	3125.82
581.36	3114.21
581.71	3102.49
582.06	3090.72
582.42	3079.45
582.77	3067.37
583.12	3055.30
583.47	3043.88
583.82	3033.28
584.17	3021.87
584.53	3009.96
584.88	2998.05
585.23	2986.75
585.58	2974.52
585.93	2961.97
586.28	2950.71
586.63	2939.09
586.98	2928.26
587.34	2917.34
587.69	2905.41
588.04	2893.73
588.39	2883.01
588.74	2870.87
589.09	2860.07
589.44	2848.53
589.79	2838.10
590.14	2827.74
590.49	2817.11
590.84	2805.77
591.19	2795.16
591.54	2783.99
591.89	2771.30
592.25	2759.60
592.60	2747.56
592.95	2735.65
593.30	2722.66
593.65	2709.79
594.00	2697.90
594.35	2687.54
594.70	2675.59
595.05	2664.68
595.40	2652.98
595.75	2640.76
596.10	2630.30
596.45	2619.68
596.80	2609.85
597.15	2599.24
597.50	2587.91
597.85	2577.24
598.19	2565.85
598.54	2554.67
598.89	2544.59
599.24	2535.81
599.59	2526.10
599.94	2517.16
600.29	2507.30
600.64	2498.04
600.99	2487.38
601.34	2477.96
601.69	2466.47
602.04	2456.03
602.39	2445.59
602.74	2435.50
603.08	2426.52
603.43	2417.48
603.78	2407.42
604.13	2397.32
604.48	2387.09
604.83	2378.70
605.18	2370.00
605.53	2360.45
605.87	2350.21
606.22	2340.47
606.57	2330.27
606.92	2319.74
607.27	2308.90
607.62	2298.98
607.96	2289.57
608.31	2280.93
608.66	2270.00
609.01	2259.75
609.36	2249.19
609.70	2238.22
610.05	2227.51
610.40	2216.89
610.75	2205.28
611.10	2195.41
611.44	2182.92
611.79	2170.95
612.14	2158.22
612.49	2145.42
612.83	2133.87
613.18	2122.01
613.53	2109.88
613.88	2097.07
614.22	2085.91
614.57	2074.18
614.92	2062.49
615.27	2050.15
615.61	2037.88
615.96	2026.80
616.31	2016.21
616.65	2006.47
617.00	1995.94
617.35	1985.27
617.70	1973.60
618.04	1961.77
618.39	1949.10
618.74	1938.45
619.08	1927.13
619.43	1916.57
619.78	1906.25
620.12	1895.44
620.47	1885.04
620.82	1873.84
621.16	1862.62
621.51	1851.24
621.85	1840.60
622.20	1829.21
622.55	1818.36
622.89	1807.07
623.24	1795.89
623.59	1784.23
623.93	1772.24
624.28	1761.24
624.62	1750.25
624.97	1739.70
625.32	1729.92
625.66	1719.79
626.01	1709.99
626.35	1700.49
626.70	1690.02
627.04	1679.90
627.39	1669.77
627.73	1659.80
628.08	1650.42
628.43	1640.59
628.77	1630.39
629.12	1619.96
629.46	1611.03
629.81	1601.61
630.15	1592.06
630.50	1582.24
630.84	1572.34
631.19	1562.96
631.53	1553.41
631.88	1543.40
632.22	1533.04
632.57	1523.34
632.91	1513.60
633.26	1503.54
633.60	1493.66
633.95	1484.50
634.29	1474.73
634.64	1465.57
634.98	1455.60
635.32	1446.12
635.67	1437.56
636.01	1429.06
636.36	1419.93
636.70	1410.52
637.05	1401.37
637.39	1392.95
637.73	1384.68
638.08	1376.93
638.42	1368.49
638.77	1359.81
639.11	1351.30
639.45	1342.82
639.80	1333.76
640.14	1324.62
640.49	1316.12
640.83	1307.46
641.17	1298.49
641.52	1289.61
641.86	1280.36
642.20	1271.75
642.55	1262.37
642.89	1253.15
643.23	1243.75
643.58	1235.63
643.92	1226.48
644.26	1217.63
644.61	1208.70
644.95	1199.67
645.29	1190.77
645.64	1181.90
645.98	1173.23
646.32	1164.82
646.66	1156.42
647.01	1148.10
647.35	1140.25
647.69	1131.35
648.04	1123.00
648.38	1114.47
648.72	1106.25
649.06	1098.18
649.41	1089.88
649.75	1081.89
650.09	1073.87
650.43	1065.85
650.78	1057.10
651.12	1048.88
651.46	1040.87
651.80	1032.91
652.14	1025.14
652.49	1016.84
652.83	1008.60
653.17	1000.25
653.51	992.25
653.85	984.42
654.20	976.60
654.54	968.59
654.88	960.88
655.22	952.90
655.56	945.21
655.90	937.38
656.25	929.59
656.59	922.16
656.93	914.65
657.27	907.47
657.61	899.86
657.95	892.78
658.29	885.85
658.64	878.90
658.98	871.52
659.32	864.08
659.66	856.96
660.00	849.96
660.34	842.75
660.68	835.58
661.02	828.51
661.36	822.05
661.70	815.54
662.05	809.31
662.39	803.28
662.73	797.20
663.07	791.17
663.41	784.96
663.75	778.67
664.09	772.48
664.43	766.14
664.77	760.20
665.11	754.19
665.45	748.16
665.79	742.27
666.13	736.50
666.47	730.77
666.81	725.12
667.15	719.57
667.49	714.70
667.83	709.38
668.17	704.11
668.51	698.72
668.85	693.50
669.19	688.54
669.53	683.32
669.87	677.98
670.21	672.86
670.55	667.86
670.89	663.42
671.23	658.92
671.57	654.32
671.91	649.60
672.25	644.85
672.58	640.18
672.92	635.51
673.26	631.21
673.60	626.89
673.94	622.48
674.28	618.13
674.62	613.72
674.96	609.51
675.30	605.36
675.64	601.02
675.97	596.78
676.31	592.40
676.65	588.30
676.99	584.49
677.33	580.37
677.67	576.45
678.01	572.11
678.34	567.95
678.68	564.05
679.02	560.25
679.36	556.51
679.70	552.73
680.04	548.96
680.37	544.93
680.71	540.99
681.05	537.57
681.39	533.98
681.73	530.37
682.06	527.04
682.40	523.66
682.74	520.22
683.08	516.80
683.42	513.26
683.75	509.80
684.09	506.25
684.43	502.87
684.77	499.35
685.10	496.05
685.44	492.66
685.78	489.38
686.12	486.27
686.45	483.08
686.79	480.04
687.13	477.01
687.46	474.14
687.80	471.37
688.14	468.03
688.48	465.13
688.81	461.97
689.15	458.85
689.49	455.72
689.82	452.81
690.16	449.67
690.50	446.71
690.83	443.93
691.17	441.00
691.51	438.27
691.84	435.63
692.18	433.00
692.52	430.50
692.85	428.00
693.19	425.55
693.52	422.98
693.86	420.29
694.20	417.77
694.53	415.24
694.87	412.52
695.21	410.05
695.54	407.34
695.88	404.81
696.21	402.33
696.55	400.05
696.88	397.74
697.22	395.43
697.56	393.28
697.89	390.96
698.23	388.77
698.56	386.59
698.90	384.62
699.23	382.34
699.57	380.16
699.90	377.89
700.24	375.62
700.58	373.62
700.91	371.69
701.25	369.85
701.58	367.95
701.92	366.14
702.25	364.30
702.59	362.53
702.92	360.75
703.26	358.93
703.59	357.16
703.93	355.66
704.26	353.94
704.60	352.27
704.93	350.52
705.26	348.75
705.60	347.10
705.93	345.21
706.27	343.72
706.60	342.25
706.94	340.81
707.27	339.20
707.61	337.52
707.94	335.95
708.27	334.10
708.61	332.53
708.94	330.96
709.28	329.41
709.61	327.81
709.94	326.48
710.28	325.25
710.61	323.88
710.95	322.21
711.28	321.00
711.61	319.65
711.95	318.50
712.28	317.22
712.61	315.99
712.95	315.01
713.28	313.92
713.61	312.62
713.95	311.32
714.28	310.14
714.61	308.96
714.95	307.84
715.28	306.68
715.61	305.53
715.95	304.41
716.28	303.32
716.61	302.40
716.95	301.29
717.28	300.11
717.61	299.04
717.94	298.04
718.28	296.83
718.61	295.78
718.94	294.64
719.27	293.71
719.61	292.65
719.94	291.56
720.27	290.33
720.60	289.32
720.94	288.31
721.27	287.37
721.60	286.55
721.93	285.66
722.27	284.94
722.60	284.07
722.93	283.24
723.26	282.49
723.59	281.48
723.93	280.63
724.26	279.86
724.59	279.10
724.92	278.29
725.25	277.72
725.59	277.05
725.92	276.37
726.25	275.63
726.58	274.90
726.91	274.19
727.24	273.55
727.57	272.91
727.91	272.17
728.24	271.54
728.57	270.76
728.90	270.10
729.23	269.33
729.56	268.85
729.89	268.19
730.22	267.50
730.55	266.89
730.89	266.26
731.22	265.43
731.55	264.74
731.88	264.19
732.21	263.48
732.54	262.71
732.87	262.12
733.20	261.54
733.53	260.98
733.86	260.39
734.19	259.79
734.52	259.20
734.85	258.94
735.18	258.39
735.51	258.01
735.84	257.56
736.17	257.15
736.50	256.42
736.83	256.25
737.16	255.73
737.49	255.27
737.82	254.76
738.15	254.40
738.48	253.87
738.81	253.30
739.14	252.73
739.47	252.24
739.80	251.74
740.13	251.23
740.46	250.74
740.79	250.20
741.12	249.78
741.45	249.28
741.78	248.72
742.11	248.37
742.44	247.87
742.77	247.49
743.10	247.00
743.43	246.57
743.75	245.89
744.08	245.95
744.41	245.47
744.74	245.06
745.07	244.70
745.40	244.46
745.73	244.26
746.06	243.91
746.39	243.68
746.71	243.31
747.04	242.95
747.37	242.66
747.70	242.38
748.03	242.04
748.36	241.79
748.68	241.45
749.01	240.97
749.34	240.67
749.67	240.31
750.00	240.03
750.33	240.07
750.65	239.68
750.98	238.92
751.31	238.73
751.64	238.44
751.97	238.25
752.29	237.87
752.62	237.35
752.95	237.06
753.28	236.68
753.60	236.38
753.93	236.30
754.26	236.07
754.59	235.67
754.91	235.39
755.24	235.18
755.57	234.83
755.90	234.58
756.22	234.26
756.55	233.96
756.88	233.66
757.20	233.17
757.53	232.89
757.86	232.59
758.19	232.36
758.51	232.15
758.84	231.74
759.17	231.51
759.49	231.41
759.82	231.34
760.15	231.16
760.47	230.93
760.80	230.50
761.13	230.23
761.45	230.04
761.78	229.75
762.11	229.52
762.43	229.30
762.76	229.14
763.08	228.98
763.41	228.80
763.74	228.61
764.06	228.39
764.39	228.20
764.71	228.07
765.04	227.86
765.37	227.64
765.69	227.50
766.02	227.32
766.34	227.12
766.67	226.89
767.00	226.76
767.32	226.79
767.65	226.85
767.97	226.68
768.30	226.54
768.62	226.43
768.95	226.15
769.27	226.01
769.60	225.89
769.92	225.67
770.25	225.48
770.57	225.28
770.90	225.09
771.22	224.90
771.55	224.81
771.87	224.60
772.20	224.50
772.52	224.69
772.85	224.95
773.17	224.77
773.50	224.58
773.82	224.44
774.15	224.02
774.47	223.67
774.80	223.49
775.12	223.35
775.45	223.22
775.77	223.17
776.09	223.04
776.42	222.93
776.74	222.92
777.07	222.79
777.39	222.67
777.72	222.50
778.04	222.43
778.36	222.22
778.69	222.19
779.01	222.05
779.33	221.54
779.66	221.05
779.98	220.96
780.31	220.83
780.63	220.83
780.95	220.92
781.28	220.82
781.60	220.73
781.92	220.59
782.25	220.46
782.57	220.38
782.89	220.30
783.22	220.17
783.54	219.99
783.86	219.92
784.19	219.83
784.51	219.88
784.83	219.74
785.16	219.59
785.48	219.48
