SpectraSuite Data File
++++++++++++++++++++++++++++++++++++
Date: Mon Feb 25 17:13:32 EST 2013
User: group
Dark Spectrum Present: No
Reference Spectrum Present: No
Number of Sampled Component Spectra: 1
Spectrometers: USB2E7196
Integration Time (usec): 104000 (USB2E7196)
Spectra Averaged: 20 (USB2E7196)
Boxcar Smoothing: 10 (USB2E7196)
Correct for Electrical Dark: No (USB2E7196)
Strobe/Lamp Enabled: No (USB2E7196)
Correct for Detector Non-linearity: No (USB2E7196)
Correct for Stray Light: No (USB2E7196)
Number of Pixels in Processed Spectrum: 2048
>>>>>Begin Processed Spectral Data<<<<<
339.09	0.00
339.48	199.25
339.86	199.05
340.24	202.50
340.63	204.25
341.01	209.45
341.39	206.10
341.78	207.55
342.16	209.25
342.54	209.85
342.93	198.55
343.31	208.53
343.69	209.06
344.07	209.57
344.46	210.04
344.84	210.36
345.22	210.42
345.60	210.67
345.99	210.84
346.37	210.93
346.75	210.97
347.13	211.02
347.52	211.11
347.90	211.26
348.28	211.39
348.66	211.43
349.05	211.32
349.43	211.38
349.81	211.39
350.19	211.40
350.57	211.50
350.96	211.54
351.34	211.68
351.72	211.76
352.10	211.87
352.48	211.83
352.87	211.84
353.25	211.87
353.63	211.82
354.01	211.93
354.39	212.02
354.77	212.05
355.15	212.20
355.54	212.25
355.92	212.15
356.30	212.17
356.68	212.43
357.06	212.57
357.44	212.53
357.82	212.51
358.20	212.57
358.58	212.63
358.97	212.63
359.35	212.70
359.73	212.81
360.11	212.77
360.49	212.86
360.87	212.89
361.25	212.97
361.63	213.13
362.01	213.07
362.39	213.10
362.77	213.18
363.15	213.19
363.53	213.13
363.91	213.19
364.29	213.17
364.67	212.89
365.05	212.91
365.43	213.00
365.81	213.08
366.19	213.23
366.57	213.34
366.95	213.43
367.33	213.33
367.71	213.24
368.09	213.34
368.47	213.35
368.85	213.39
369.23	213.36
369.61	213.27
369.99	213.42
370.37	213.36
370.75	213.51
371.13	213.37
371.51	213.40
371.89	213.33
372.27	213.32
372.65	213.31
373.03	213.26
373.41	213.23
373.78	213.23
374.16	213.10
374.54	212.98
374.92	212.92
375.30	212.90
375.68	212.83
376.06	212.85
376.44	212.78
376.82	212.75
377.19	212.75
377.57	212.75
377.95	212.64
378.33	212.60
378.71	212.34
379.09	212.47
379.47	212.45
379.84	212.45
380.22	212.37
380.60	212.22
380.98	212.20
381.36	212.11
381.73	211.95
382.11	211.94
382.49	211.91
382.87	211.77
383.25	211.80
383.62	212.15
384.00	212.00
384.38	212.00
384.76	212.07
385.13	212.21
385.51	212.18
385.89	212.09
386.27	212.07
386.64	212.13
387.02	212.07
387.40	212.01
387.78	211.97
388.15	212.00
388.53	212.01
388.91	211.95
389.29	211.90
389.66	211.99
390.04	211.95
390.42	211.97
390.79	211.99
391.17	211.99
391.55	211.68
391.92	211.75
392.30	211.72
392.68	211.65
393.05	211.61
393.43	211.64
393.81	211.68
394.18	211.60
394.56	211.57
394.94	211.63
395.31	211.64
395.69	211.78
396.06	211.85
396.44	211.93
396.82	211.90
397.19	212.10
397.57	212.06
397.95	212.19
398.32	212.13
398.70	212.19
399.07	212.26
399.45	212.20
399.82	212.21
400.20	212.21
400.58	212.16
400.95	212.05
401.33	212.07
401.70	212.35
402.08	212.45
402.45	212.48
402.83	212.52
403.20	212.56
403.58	212.55
403.95	212.62
404.33	212.64
404.71	212.73
405.08	212.95
405.46	213.07
405.83	213.11
406.21	213.20
406.58	213.34
406.96	213.40
407.33	213.60
407.70	213.70
408.08	214.16
408.45	214.41
408.83	214.61
409.20	214.77
409.58	214.68
409.95	214.92
410.33	215.20
410.70	215.36
411.08	215.67
411.45	215.93
411.82	216.18
412.20	216.59
412.57	217.07
412.95	217.16
413.32	217.67
413.69	218.03
414.07	218.46
414.44	218.95
414.82	219.45
415.19	220.04
415.56	220.61
415.94	221.00
416.31	221.69
416.68	222.40
417.06	223.20
417.43	224.10
417.81	224.92
418.18	225.80
418.55	226.62
418.93	227.60
419.30	228.56
419.67	229.60
420.04	230.65
420.42	231.71
420.79	233.24
421.16	234.42
421.54	235.97
421.91	237.44
422.28	238.89
422.66	240.46
423.03	242.13
423.40	243.70
423.77	245.42
424.15	247.10
424.52	248.83
424.89	250.72
425.26	252.53
425.64	254.30
426.01	256.21
426.38	258.34
426.75	260.49
427.13	262.68
427.50	264.90
427.87	267.19
428.24	269.52
428.61	271.58
428.99	274.23
429.36	276.78
429.73	279.40
430.10	282.00
430.47	284.69
430.85	287.25
431.22	290.22
431.59	293.57
431.96	296.59
432.33	299.98
432.70	303.26
433.08	306.98
433.45	310.61
433.82	314.10
434.19	318.00
434.56	321.83
434.93	325.51
435.30	329.13
435.68	333.30
436.05	337.26
436.42	341.14
436.79	344.81
437.16	348.73
437.53	352.86
437.90	356.85
438.27	360.82
438.64	364.96
439.01	368.85
439.38	371.95
439.75	375.22
440.13	378.91
440.50	382.49
440.87	385.29
441.24	388.15
441.61	391.51
441.98	393.98
442.35	396.73
442.72	399.54
443.09	402.42
443.46	403.89
443.83	405.05
444.20	406.08
444.57	407.35
444.94	407.92
445.31	408.56
445.68	409.64
446.05	409.82
446.42	409.43
446.79	408.99
447.16	408.46
447.53	408.13
447.90	406.50
448.27	404.86
448.64	402.77
449.01	401.26
449.37	398.46
449.74	395.77
450.11	392.88
450.48	389.49
450.85	385.95
451.22	383.03
451.59	380.12
451.96	377.35
452.33	373.66
452.70	370.39
453.07	366.35
453.43	362.02
453.80	358.26
454.17	354.53
454.54	350.88
454.91	347.14
455.28	343.42
455.65	340.12
456.02	337.26
456.38	334.41
456.75	330.86
457.12	327.90
457.49	324.96
457.86	321.80
458.23	319.44
458.59	316.75
458.96	314.04
459.33	311.65
459.70	309.25
460.07	307.32
460.43	305.11
460.80	303.23
461.17	301.52
461.54	299.60
461.91	297.90
462.27	296.07
462.64	294.49
463.01	292.84
463.38	291.29
463.74	289.06
464.11	287.54
464.48	286.29
464.85	284.89
465.21	283.92
465.58	282.90
465.95	281.39
466.32	280.30
466.68	279.15
467.05	278.10
467.42	276.98
467.78	275.83
468.15	274.74
468.52	273.92
468.88	272.75
469.25	271.83
469.62	271.13
469.98	270.41
470.35	269.71
470.72	269.05
471.08	268.16
471.45	267.69
471.82	267.21
472.18	266.57
472.55	266.18
472.92	265.54
473.28	265.00
473.65	264.54
474.02	264.14
474.38	263.88
474.75	263.55
475.11	263.20
475.48	263.04
475.85	262.82
476.21	262.55
476.58	262.36
476.94	262.32
477.31	262.12
477.67	262.15
478.04	262.08
478.41	262.04
478.77	262.46
479.14	262.44
479.50	262.52
479.87	262.68
480.23	262.81
480.60	262.92
480.96	263.10
481.33	263.55
481.69	263.78
482.06	264.06
482.42	264.49
482.79	264.95
483.15	265.31
483.52	265.86
483.88	266.34
484.25	266.92
484.61	267.56
484.98	268.21
485.34	268.99
485.71	269.83
486.07	270.63
486.44	271.14
486.80	272.01
487.17	272.99
487.53	274.15
487.90	275.35
488.26	276.77
488.62	278.15
488.99	279.37
489.35	280.86
489.72	282.34
490.08	283.81
490.44	285.40
490.81	287.25
491.17	288.97
491.54	291.00
491.90	293.12
492.26	295.20
492.63	297.46
492.99	299.70
493.36	302.21
493.72	304.89
494.08	307.60
494.45	310.54
494.81	313.54
495.17	316.49
495.54	319.79
495.90	322.95
496.26	326.41
496.63	330.07
496.99	333.80
497.35	337.74
497.72	341.94
498.08	346.15
498.44	350.51
498.80	355.29
499.17	360.04
499.53	364.85
499.89	370.08
500.26	375.38
500.62	380.77
500.98	386.42
501.34	392.10
501.71	398.10
502.07	404.29
502.43	410.58
502.79	417.08
503.16	423.75
503.52	430.69
503.88	437.69
504.24	444.91
504.60	452.36
504.97	460.13
505.33	467.95
505.69	476.42
506.05	484.81
506.41	493.40
506.78	502.04
507.14	510.93
507.50	519.96
507.86	529.14
508.22	538.54
508.59	547.97
508.95	557.93
509.31	568.12
509.67	578.43
510.03	588.96
510.39	599.71
510.75	610.65
511.12	621.78
511.48	633.14
511.84	644.55
512.20	656.17
512.56	667.89
512.92	679.96
513.28	691.82
513.64	703.90
514.00	716.11
514.37	728.76
514.73	741.35
515.09	754.24
515.45	767.32
515.81	780.32
516.17	793.55
516.53	806.79
516.89	819.88
517.25	833.17
517.61	846.55
517.97	859.91
518.33	873.39
518.69	887.05
519.05	900.76
519.41	914.62
519.77	928.76
520.13	942.53
520.49	955.96
520.85	969.89
521.21	984.05
521.57	998.30
521.93	1011.70
522.29	1026.06
522.65	1040.09
523.01	1053.96
523.37	1067.80
523.73	1081.83
524.09	1095.79
524.45	1110.06
524.81	1124.10
525.17	1138.33
525.53	1152.50
525.89	1166.53
526.25	1180.34
526.61	1193.66
526.97	1207.50
527.33	1220.92
527.68	1235.02
528.04	1248.53
528.40	1261.38
528.76	1274.57
529.12	1287.54
529.48	1301.47
529.84	1314.42
530.20	1327.36
530.56	1340.46
530.91	1353.88
531.27	1367.23
531.63	1379.92
531.99	1392.40
532.35	1404.56
532.71	1416.40
533.07	1428.89
533.42	1441.03
533.78	1452.79
534.14	1464.93
534.50	1475.65
534.86	1486.99
535.21	1497.43
535.57	1508.98
535.93	1519.97
536.29	1530.68
536.65	1541.46
537.00	1551.54
537.36	1561.54
537.72	1570.90
538.08	1580.53
538.44	1590.02
538.79	1599.21
539.15	1608.56
539.51	1617.52
539.87	1626.92
540.22	1636.11
540.58	1644.96
540.94	1653.37
541.29	1661.44
541.65	1669.03
542.01	1677.34
542.37	1684.71
542.72	1692.29
543.08	1699.15
543.44	1706.70
543.79	1712.79
544.15	1719.05
544.51	1725.62
544.87	1732.28
545.22	1738.39
545.58	1743.65
545.94	1748.52
546.29	1753.17
546.65	1757.48
547.01	1761.74
547.36	1765.64
547.72	1769.62
548.07	1772.66
548.43	1775.72
548.79	1778.85
549.14	1781.96
549.50	1784.92
549.86	1787.47
550.21	1789.60
550.57	1792.18
550.92	1793.73
551.28	1796.12
551.64	1798.05
551.99	1799.74
552.35	1800.79
552.70	1802.52
553.06	1804.07
553.41	1805.33
553.77	1806.16
554.13	1807.19
554.48	1808.45
554.84	1809.50
555.19	1809.64
555.55	1809.96
555.90	1809.54
556.26	1809.35
556.61	1809.05
556.97	1808.26
557.32	1807.95
557.68	1807.13
558.03	1806.14
558.39	1805.70
558.74	1805.45
559.10	1804.84
559.45	1803.87
559.81	1803.17
560.16	1801.61
560.52	1800.45
560.87	1799.26
561.23	1797.44
561.58	1796.40
561.94	1794.30
562.29	1791.94
562.64	1790.30
563.00	1788.48
563.35	1787.47
563.71	1786.61
564.06	1785.09
564.42	1783.79
564.77	1782.52
565.12	1781.37
565.48	1779.73
565.83	1777.90
566.19	1776.01
566.54	1773.14
566.89	1770.47
567.25	1768.20
567.60	1766.13
567.96	1763.59
568.31	1761.35
568.66	1758.97
569.02	1755.53
569.37	1752.23
569.72	1749.29
570.08	1746.03
570.43	1742.75
570.78	1739.26
571.14	1735.04
571.49	1731.11
571.84	1727.76
572.20	1723.43
572.55	1719.75
572.90	1715.35
573.26	1710.92
573.61	1706.08
573.96	1701.77
574.31	1696.81
574.67	1691.50
575.02	1686.11
575.37	1681.04
575.72	1675.24
576.08	1670.57
576.43	1665.54
576.78	1661.14
577.13	1656.53
577.49	1651.47
577.84	1646.72
578.19	1641.99
578.54	1637.58
578.90	1633.34
579.25	1628.00
579.60	1622.60
579.95	1616.85
580.30	1612.25
580.66	1607.69
581.01	1602.47
581.36	1597.30
581.71	1592.41
582.06	1587.35
582.42	1582.68
582.77	1577.69
583.12	1572.84
583.47	1567.87
583.82	1563.42
584.17	1558.04
584.53	1553.53
584.88	1548.91
585.23	1543.52
585.58	1538.50
585.93	1533.32
586.28	1528.28
586.63	1523.00
586.98	1518.31
587.34	1513.92
587.69	1508.73
588.04	1503.60
588.39	1498.68
588.74	1493.48
589.09	1488.89
589.44	1483.91
589.79	1479.08
590.14	1474.21
590.49	1469.23
590.84	1464.03
591.19	1459.48
591.54	1454.69
591.89	1448.49
592.25	1443.24
592.60	1437.90
592.95	1432.56
593.30	1426.63
593.65	1420.84
594.00	1415.71
594.35	1411.92
594.70	1406.81
595.05	1401.88
595.40	1396.67
595.75	1391.23
596.10	1386.49
596.45	1381.43
596.80	1377.06
597.15	1372.27
597.50	1367.01
597.85	1362.32
598.19	1357.49
598.54	1352.30
598.89	1347.88
599.24	1343.84
599.59	1339.38
599.94	1335.51
600.29	1331.01
600.64	1326.85
600.99	1322.10
601.34	1317.91
601.69	1311.84
602.04	1306.89
602.39	1301.98
602.74	1297.27
603.08	1293.54
603.43	1289.76
603.78	1285.37
604.13	1280.54
604.48	1276.06
604.83	1272.48
605.18	1268.58
605.53	1264.22
605.87	1259.54
606.22	1255.03
606.57	1250.44
606.92	1245.57
607.27	1240.54
607.62	1235.68
607.96	1231.42
608.31	1227.72
608.66	1222.74
609.01	1218.04
609.36	1213.37
609.70	1208.34
610.05	1203.57
610.40	1198.29
610.75	1192.74
611.10	1187.92
611.44	1182.26
611.79	1176.56
612.14	1170.61
612.49	1164.37
612.83	1159.00
613.18	1153.20
613.53	1147.47
613.88	1141.53
614.22	1136.13
614.57	1130.49
614.92	1125.00
615.27	1119.14
615.61	1113.04
615.96	1107.70
616.31	1102.58
616.65	1097.45
617.00	1092.45
617.35	1086.87
617.70	1081.42
618.04	1075.60
618.39	1069.41
618.74	1064.32
619.08	1058.96
619.43	1053.64
619.78	1048.50
620.12	1043.14
620.47	1038.06
620.82	1032.36
621.16	1026.84
621.51	1021.53
621.85	1016.49
622.20	1010.96
622.55	1005.65
622.89	1000.23
623.24	995.10
623.59	989.47
623.93	983.89
624.28	978.47
624.62	973.48
624.97	968.50
625.32	963.69
625.66	959.04
626.01	953.96
626.35	949.12
626.70	943.92
627.04	939.61
627.39	934.55
627.73	929.80
628.08	925.29
628.43	920.40
628.77	915.41
629.12	910.50
629.46	906.21
629.81	901.55
630.15	896.87
630.50	891.67
630.84	886.91
631.19	882.28
631.53	877.64
631.88	872.35
632.22	867.28
632.57	862.71
632.91	857.78
633.26	853.20
633.60	848.64
633.95	844.41
634.29	839.51
634.64	835.38
634.98	830.52
635.32	826.03
635.67	822.03
636.01	817.55
636.36	812.79
636.70	808.34
637.05	803.89
637.39	799.69
637.73	795.89
638.08	792.12
638.42	788.21
638.77	784.09
639.11	780.21
639.45	776.05
639.80	771.44
640.14	767.17
640.49	762.95
640.83	758.71
641.17	754.49
641.52	750.11
641.86	745.65
642.20	741.64
642.55	737.08
642.89	732.52
643.23	728.22
643.58	724.51
643.92	720.01
644.26	715.81
644.61	711.57
644.95	707.09
645.29	702.66
645.64	698.17
645.98	694.00
646.32	689.95
646.66	685.83
647.01	681.91
647.35	677.99
647.69	673.70
648.04	669.62
648.38	665.46
648.72	661.41
649.06	657.34
649.41	653.33
649.75	649.61
650.09	645.94
650.43	642.20
650.78	637.94
651.12	634.05
651.46	630.21
651.80	626.40
652.14	622.67
652.49	618.85
652.83	614.90
653.17	610.89
653.51	607.06
653.85	603.46
654.20	599.83
654.54	596.05
654.88	592.35
655.22	588.67
655.56	584.83
655.90	581.07
656.25	577.37
656.59	573.57
656.93	570.00
657.27	566.48
657.61	562.55
657.95	559.10
658.29	555.62
658.64	552.28
658.98	548.86
659.32	545.33
659.66	541.91
660.00	538.70
660.34	535.21
660.68	531.73
661.02	528.07
661.36	524.83
661.70	521.62
662.05	518.55
662.39	515.60
662.73	512.74
663.07	509.91
663.41	506.92
663.75	503.89
664.09	500.83
664.43	497.59
664.77	494.95
665.11	492.04
665.45	489.08
665.79	486.21
666.13	483.28
666.47	480.47
666.81	477.66
667.15	474.76
667.49	472.35
667.83	469.74
668.17	467.25
668.51	464.69
668.85	462.23
669.19	459.80
669.53	457.07
669.87	454.41
670.21	451.85
670.55	449.43
670.89	447.35
671.23	445.02
671.57	442.77
671.91	440.24
672.25	437.95
672.58	435.76
672.92	433.37
673.26	431.20
673.60	428.97
673.94	426.82
674.28	424.69
674.62	422.48
674.96	420.32
675.30	418.28
675.64	416.06
675.97	414.00
676.31	411.91
676.65	409.89
676.99	408.05
677.33	405.94
677.67	403.92
678.01	401.73
678.34	399.80
678.68	397.96
679.02	396.04
679.36	394.19
679.70	392.22
680.04	390.33
680.37	388.35
680.71	386.32
681.05	384.54
681.39	382.75
681.73	380.89
682.06	379.22
682.40	377.41
682.74	375.66
683.08	374.00
683.42	372.20
683.75	370.49
684.09	368.70
684.43	366.97
684.77	365.09
685.10	363.50
685.44	361.69
685.78	359.92
686.12	358.55
686.45	356.93
686.79	355.46
687.13	354.05
687.46	352.57
687.80	351.30
688.14	349.65
688.48	348.23
688.81	346.63
689.15	345.09
689.49	343.61
689.82	342.13
690.16	340.32
690.50	338.76
690.83	337.36
691.17	335.72
691.51	334.32
691.84	333.04
692.18	331.65
692.52	330.40
692.85	329.28
693.19	327.96
693.52	326.49
693.86	324.98
694.20	323.50
694.53	322.23
694.87	320.80
695.21	319.54
695.54	318.12
695.88	316.88
696.21	315.63
696.55	314.35
696.88	313.25
697.22	312.24
697.56	311.20
697.89	309.86
698.23	308.87
698.56	307.60
698.90	306.61
699.23	305.37
699.57	304.24
699.90	303.05
700.24	301.80
700.58	300.78
700.91	299.94
701.25	299.28
701.58	298.33
701.92	297.45
702.25	296.40
702.59	295.44
702.92	294.61
703.26	293.59
703.59	292.72
703.93	292.00
704.26	291.01
704.60	290.13
704.93	289.30
705.26	288.34
705.60	287.72
705.93	286.75
706.27	286.08
706.60	285.26
706.94	284.55
707.27	283.69
707.61	282.85
707.94	281.84
708.27	280.71
708.61	279.75
708.94	278.95
709.28	278.15
709.61	277.38
709.94	276.54
710.28	275.88
710.61	275.18
710.95	274.13
711.28	273.63
711.61	272.82
711.95	272.18
712.28	271.44
712.61	270.73
712.95	270.19
713.28	269.57
713.61	268.85
713.95	268.07
714.28	267.49
714.61	266.85
714.95	266.28
715.28	265.56
715.61	264.95
715.95	264.28
716.28	263.66
716.61	263.10
716.95	262.43
717.28	261.84
717.61	261.20
717.94	260.57
718.28	259.76
718.61	259.24
718.94	258.64
719.27	258.19
719.61	257.64
719.94	257.01
720.27	256.31
720.60	255.79
720.94	255.28
721.27	254.81
721.60	254.35
721.93	253.87
722.27	253.57
722.60	253.17
722.93	252.68
723.26	252.22
723.59	251.71
723.93	251.38
724.26	250.90
724.59	250.40
724.92	250.10
725.25	249.82
725.59	249.44
725.92	249.09
726.25	248.67
726.58	248.23
726.91	247.87
727.24	247.51
727.57	247.06
727.91	246.63
728.24	246.23
728.57	245.83
728.90	245.52
729.23	245.04
729.56	244.83
729.89	244.53
730.22	244.24
730.55	243.84
730.89	243.38
731.22	243.04
731.55	242.72
731.88	242.38
732.21	241.98
732.54	241.53
732.87	241.17
733.20	240.86
733.53	240.60
733.86	240.32
734.19	239.97
734.52	239.86
734.85	239.79
735.18	239.49
735.51	239.36
735.84	239.10
736.17	238.89
736.50	238.48
736.83	238.62
737.16	238.31
737.49	238.12
737.82	237.88
738.15	237.67
738.48	237.48
738.81	237.09
739.14	236.77
739.47	236.48
739.80	236.21
740.13	235.91
740.46	235.61
740.79	235.20
741.12	234.97
741.45	234.61
741.78	234.18
742.11	234.07
742.44	233.65
742.77	233.43
743.10	233.20
743.43	232.86
743.75	232.23
744.08	232.41
744.41	232.17
744.74	231.93
745.07	231.62
745.40	231.45
745.73	231.41
746.06	231.21
746.39	231.07
746.71	230.82
747.04	230.63
747.37	230.36
747.70	230.26
748.03	230.09
748.36	229.95
748.68	229.77
749.01	229.40
749.34	229.17
749.67	229.00
750.00	228.88
750.33	229.00
750.65	228.85
750.98	228.20
751.31	227.98
751.64	227.81
751.97	227.79
752.29	227.58
752.62	227.22
752.95	227.00
753.28	226.85
753.60	226.73
753.93	226.63
754.26	226.45
754.59	226.21
754.91	225.97
755.24	225.71
755.57	225.52
755.90	225.31
756.22	225.23
756.55	224.97
756.88	224.74
757.20	224.41
757.53	224.11
757.86	224.02
758.19	223.93
758.51	223.75
758.84	223.43
759.17	223.25
759.49	223.13
759.82	223.20
760.15	223.00
760.47	222.85
760.80	222.56
761.13	222.55
761.45	222.37
761.78	222.29
762.11	222.20
762.43	222.06
762.76	221.94
763.08	221.78
763.41	221.66
763.74	221.50
764.06	221.32
764.39	221.20
764.71	221.06
765.04	220.88
765.37	220.79
765.69	220.66
766.02	220.56
766.34	220.45
766.67	220.27
767.00	220.20
767.32	220.25
767.65	220.37
767.97	220.13
768.30	220.08
768.62	219.88
768.95	219.78
769.27	219.67
769.60	219.71
769.92	219.65
770.25	219.55
770.57	219.42
770.90	219.34
771.22	219.22
771.55	219.17
771.87	219.08
772.20	218.93
772.52	219.20
772.85	219.49
773.17	219.41
773.50	219.31
773.82	219.23
774.15	218.96
774.47	218.67
774.80	218.60
775.12	218.55
775.45	218.50
775.77	218.44
776.09	218.40
776.42	218.26
776.74	218.32
777.07	218.20
777.39	218.10
777.72	217.98
778.04	217.95
778.36	217.80
778.69	217.75
779.01	217.80
779.33	217.45
779.66	217.01
779.98	216.94
780.31	216.87
780.63	217.03
780.95	217.08
781.28	216.99
781.60	216.94
781.92	216.90
782.25	216.85
782.57	216.74
782.89	216.70
783.22	216.59
783.54	216.42
783.86	216.38
784.19	216.36
784.51	216.38
784.83	216.34
785.16	216.27
785.48	216.21
785.80	216.14
786.12	216.05
786.45	215.99
786.77	215.95
787.09	215.82
787.42	215.54
787.74	215.48
788.06	215.51
