SpectraSuite Data File
++++++++++++++++++++++++++++++++++++
Date: Mon Feb 25 17:02:37 EST 2013
User: group
Dark Spectrum Present: No
Reference Spectrum Present: No
Number of Sampled Component Spectra: 1
Spectrometers: USB2E7196
Integration Time (usec): 104000 (USB2E7196)
Spectra Averaged: 20 (USB2E7196)
Boxcar Smoothing: 10 (USB2E7196)
Correct for Electrical Dark: No (USB2E7196)
Strobe/Lamp Enabled: No (USB2E7196)
Correct for Detector Non-linearity: No (USB2E7196)
Correct for Stray Light: No (USB2E7196)
Number of Pixels in Processed Spectrum: 2048
>>>>>Begin Processed Spectral Data<<<<<
339.09	0.00
339.48	198.60
339.86	201.65
340.24	202.75
340.63	202.30
341.01	211.40
341.39	206.45
341.78	207.85
342.16	210.20
342.54	210.15
342.93	199.06
343.31	209.11
343.69	209.68
344.07	210.09
344.46	210.49
344.84	210.96
345.22	210.95
345.60	211.13
345.99	211.25
346.37	211.27
346.75	211.30
347.13	211.37
347.52	211.37
347.90	211.48
348.28	211.45
348.66	211.48
349.05	211.36
349.43	211.34
349.81	211.33
350.19	211.32
350.57	211.36
350.96	211.38
351.34	211.39
351.72	211.41
352.10	211.40
352.48	211.41
352.87	211.41
353.25	211.42
353.63	211.49
354.01	211.56
354.39	211.70
354.77	211.80
355.15	211.95
355.54	211.99
355.92	211.94
356.30	212.01
356.68	212.33
357.06	212.37
357.44	212.27
357.82	212.27
358.20	212.33
358.58	212.29
358.97	212.32
359.35	212.44
359.73	212.56
360.11	212.60
360.49	212.56
360.87	212.56
361.25	212.61
361.63	212.79
362.01	212.82
362.39	212.74
362.77	212.75
363.15	212.67
363.53	212.64
363.91	212.72
364.29	212.68
364.67	212.34
365.05	212.36
365.43	212.49
365.81	212.55
366.19	212.70
366.57	212.85
366.95	212.80
367.33	212.69
367.71	212.66
368.09	212.75
368.47	212.86
368.85	212.81
369.23	212.89
369.61	212.73
369.99	212.80
370.37	212.83
370.75	213.01
371.13	213.02
371.51	212.97
371.89	213.01
372.27	213.03
372.65	213.05
373.03	213.03
373.41	212.91
373.78	212.91
374.16	212.69
374.54	212.56
374.92	212.58
375.30	212.55
375.68	212.40
376.06	212.38
376.44	212.23
376.82	212.24
377.19	212.24
377.57	212.20
377.95	212.10
378.33	212.01
378.71	211.75
379.09	211.75
379.47	211.78
379.84	211.62
380.22	211.49
380.60	211.37
380.98	211.36
381.36	211.30
381.73	211.11
382.11	211.18
382.49	211.16
382.87	211.04
383.25	211.12
383.62	211.61
384.00	211.51
384.38	211.53
384.76	211.61
385.13	211.64
385.51	211.57
385.89	211.47
386.27	211.49
386.64	211.51
387.02	211.40
387.40	211.36
387.78	211.36
388.15	211.38
388.53	211.36
388.91	211.33
389.29	211.34
389.66	211.38
390.04	211.31
390.42	211.30
390.79	211.37
391.17	211.25
391.55	210.73
391.92	210.81
392.30	210.82
392.68	210.71
393.05	210.68
393.43	210.73
393.81	210.65
394.18	210.67
394.56	210.62
394.94	210.67
395.31	210.56
395.69	210.66
396.06	210.74
396.44	210.78
396.82	210.70
397.19	210.86
397.57	210.90
397.95	210.93
398.32	210.90
398.70	210.96
399.07	211.06
399.45	211.10
399.82	210.99
400.20	210.97
400.58	210.93
400.95	210.81
401.33	210.84
401.70	211.16
402.08	211.15
402.45	211.23
402.83	211.29
403.20	211.44
403.58	211.41
403.95	211.45
404.33	211.55
404.71	211.70
405.08	211.95
405.46	212.01
405.83	212.15
406.21	212.32
406.58	212.46
406.96	212.58
407.33	212.76
407.70	213.08
408.08	213.53
408.45	213.83
408.83	214.11
409.20	214.35
409.58	214.49
409.95	214.82
410.33	215.15
410.70	215.46
411.08	215.92
411.45	216.35
411.82	216.77
412.20	217.34
412.57	218.10
412.95	218.38
413.32	219.04
413.69	219.66
414.07	220.28
414.44	221.01
414.82	221.78
415.19	222.76
415.56	223.60
415.94	224.47
416.31	225.53
416.68	226.69
417.06	227.99
417.43	229.27
417.81	230.57
418.18	232.09
418.55	233.60
418.93	235.16
419.30	236.81
419.67	238.60
420.04	240.32
420.42	242.12
420.79	244.45
421.16	246.67
421.54	249.13
421.91	251.66
422.28	254.13
422.66	256.74
423.03	259.47
423.40	262.20
423.77	265.11
424.15	268.02
424.52	270.96
424.89	274.30
425.26	277.54
425.64	280.62
426.01	283.96
426.38	287.57
426.75	291.21
427.13	295.07
427.50	299.06
427.87	303.13
428.24	307.20
428.61	311.06
428.99	315.44
429.36	320.06
429.73	324.67
430.10	329.33
430.47	334.18
430.85	338.94
431.22	344.17
431.59	349.90
431.96	355.33
432.33	361.48
432.70	367.32
433.08	374.02
433.45	380.67
433.82	387.00
434.19	394.11
434.56	401.19
434.93	407.93
435.30	414.68
435.68	422.29
436.05	429.68
436.42	437.10
436.79	443.98
437.16	451.23
437.53	458.99
437.90	466.75
438.27	474.43
438.64	482.37
439.01	489.92
439.38	496.35
439.75	502.77
440.13	510.04
440.50	516.93
440.87	522.75
441.24	528.68
441.61	535.31
441.98	540.31
442.35	545.99
442.72	551.76
443.09	557.50
443.46	561.08
443.83	563.76
444.20	566.03
444.57	569.04
444.94	571.02
445.31	572.96
445.68	574.92
446.05	575.87
446.42	575.65
446.79	575.26
447.16	574.79
447.53	574.59
447.90	572.31
448.27	569.93
448.64	566.57
449.01	564.10
449.37	559.55
449.74	555.01
450.11	549.75
450.48	543.91
450.85	537.71
451.22	532.53
451.59	527.60
451.96	522.96
452.33	516.51
452.70	510.48
453.07	503.23
453.43	495.89
453.80	489.00
454.17	482.41
454.54	475.99
454.91	469.29
455.28	462.65
455.65	456.40
456.02	450.43
456.38	445.04
456.75	438.38
457.12	432.83
457.49	427.49
457.86	422.07
458.23	417.54
458.59	412.49
458.96	407.52
459.33	402.97
459.70	398.48
460.07	395.01
460.43	390.95
460.80	387.21
461.17	383.78
461.54	380.30
461.91	376.96
462.27	373.58
462.64	370.65
463.01	367.38
463.38	364.33
463.74	360.93
464.11	358.12
464.48	355.83
464.85	353.24
465.21	351.25
465.58	349.10
465.95	346.42
466.32	344.32
466.68	342.06
467.05	339.86
467.42	337.65
467.78	335.26
468.15	333.13
468.52	331.44
468.88	329.26
469.25	327.28
469.62	325.77
469.98	324.07
470.35	322.49
470.72	321.02
471.08	319.36
471.45	318.02
471.82	316.75
472.18	315.20
472.55	314.02
472.92	312.57
473.28	311.41
473.65	310.25
474.02	309.07
474.38	308.20
474.75	307.51
475.11	306.72
475.48	306.16
475.85	305.53
476.21	304.86
476.58	304.41
476.94	303.96
477.31	303.39
477.67	302.92
478.04	302.58
478.41	302.45
478.77	302.51
479.14	302.22
479.50	301.99
479.87	301.95
480.23	301.86
480.60	301.71
480.96	301.56
481.33	301.78
481.69	301.79
482.06	301.80
482.42	301.78
482.79	301.88
483.15	301.99
483.52	302.26
483.88	302.46
484.25	302.59
484.61	302.87
484.98	303.18
485.34	303.66
485.71	304.01
486.07	304.31
486.44	304.40
486.80	304.85
487.17	305.36
487.53	306.06
487.90	306.84
488.26	307.80
488.62	308.77
488.99	309.41
489.35	310.34
489.72	311.26
490.08	312.16
490.44	312.99
490.81	314.07
491.17	315.10
491.54	316.32
491.90	317.60
492.26	318.83
492.63	320.05
492.99	321.34
493.36	322.76
493.72	324.22
494.08	325.66
494.45	327.29
494.81	328.87
495.17	330.34
495.54	331.87
495.90	333.39
496.26	334.85
496.63	336.54
496.99	338.28
497.35	339.96
497.72	341.74
498.08	343.51
498.44	345.25
498.80	347.13
499.17	348.82
499.53	350.51
499.89	352.47
500.26	354.27
500.62	355.90
500.98	357.71
501.34	359.52
501.71	361.32
502.07	362.95
502.43	364.55
502.79	366.17
503.16	367.74
503.52	369.26
503.88	370.70
504.24	372.20
504.60	373.63
504.97	375.16
505.33	376.47
505.69	378.02
506.05	379.41
506.41	380.54
506.78	381.70
507.14	382.89
507.50	383.88
507.86	384.94
508.22	386.12
508.59	387.02
508.95	387.84
509.31	388.76
509.67	389.64
510.03	390.48
510.39	391.20
510.75	391.89
511.12	392.47
511.48	393.22
511.84	393.76
512.20	394.14
512.56	394.54
512.92	395.06
513.28	395.28
513.64	395.46
514.00	395.77
514.37	396.07
514.73	396.33
515.09	396.60
515.45	396.69
515.81	396.66
516.17	396.60
516.53	396.59
516.89	396.50
517.25	396.35
517.61	396.31
517.97	396.21
518.33	395.98
518.69	395.95
519.05	395.62
519.41	395.53
519.77	395.64
520.13	395.36
520.49	394.99
520.85	394.89
521.21	394.92
521.57	394.66
521.93	394.35
522.29	394.17
522.65	393.85
523.01	393.75
523.37	393.50
523.73	393.45
524.09	393.49
524.45	393.40
524.81	393.49
525.17	393.60
525.53	393.73
525.89	393.93
526.25	394.14
526.61	394.32
526.97	394.42
527.33	394.60
527.68	395.34
528.04	395.85
528.40	396.22
528.76	396.51
529.12	397.19
529.48	397.93
529.84	398.41
530.20	399.09
530.56	399.80
530.91	400.74
531.27	401.80
531.63	402.57
531.99	403.42
532.35	404.50
532.71	405.34
533.07	406.46
533.42	408.11
533.78	409.31
534.14	410.76
534.50	412.06
534.86	413.58
535.21	414.70
535.57	416.22
535.93	417.70
536.29	419.53
536.65	421.17
537.00	422.63
537.36	424.43
537.72	426.18
538.08	428.04
538.44	429.85
538.79	431.74
539.15	433.74
539.51	435.86
539.87	437.81
540.22	440.02
540.58	442.16
540.94	443.95
541.29	446.06
541.65	448.18
542.01	450.62
542.37	452.95
542.72	455.30
543.08	457.62
543.44	460.17
543.79	462.32
544.15	464.93
544.51	467.86
544.87	470.60
545.22	473.38
545.58	475.91
545.94	478.57
546.29	481.09
546.65	483.75
547.01	486.33
547.36	489.14
547.72	491.91
548.07	494.69
548.43	497.27
548.79	499.95
549.14	502.67
549.50	505.44
549.86	507.93
550.21	510.63
550.57	513.45
550.92	516.10
551.28	518.98
551.64	521.57
551.99	524.14
552.35	526.68
552.70	529.19
553.06	531.92
553.41	534.64
553.77	537.47
554.13	540.12
554.48	542.99
554.84	545.70
555.19	548.39
555.55	551.14
555.90	553.68
556.26	556.33
556.61	558.80
556.97	561.00
557.32	563.42
557.68	565.79
558.03	568.20
558.39	570.54
558.74	573.00
559.10	575.30
559.45	577.75
559.81	580.25
560.16	582.44
560.52	584.76
560.87	587.10
561.23	589.08
561.58	591.73
561.94	593.84
562.29	595.96
562.64	598.14
563.00	600.06
563.35	602.33
563.71	604.62
564.06	606.85
564.42	609.30
564.77	611.79
565.12	614.11
565.48	616.43
565.83	618.66
566.19	620.68
566.54	622.62
566.89	624.35
567.25	626.40
567.60	628.65
567.96	630.85
568.31	632.92
568.66	634.84
569.02	636.10
569.37	637.52
569.72	639.16
570.08	640.49
570.43	642.00
570.78	643.27
571.14	644.42
571.49	645.47
571.84	646.44
572.20	647.16
572.55	648.05
572.90	648.64
573.26	649.44
573.61	650.08
573.96	650.95
574.31	651.62
574.67	651.87
575.02	652.00
575.37	652.03
575.72	652.00
576.08	652.31
576.43	652.60
576.78	653.10
577.13	653.22
577.49	653.70
577.84	653.81
578.19	654.09
578.54	654.41
578.90	654.97
579.25	655.25
579.60	655.35
579.95	655.42
580.30	655.72
580.66	655.84
581.01	655.77
581.36	655.65
581.71	655.63
582.06	655.95
582.42	656.19
582.77	656.10
583.12	656.15
583.47	656.26
583.82	656.23
584.17	656.09
584.53	656.18
584.88	655.81
585.23	655.80
585.58	655.64
585.93	655.36
586.28	655.01
586.63	654.97
586.98	654.76
587.34	654.68
587.69	654.20
588.04	653.78
588.39	653.56
588.74	653.01
589.09	652.87
589.44	652.18
589.79	651.72
590.14	651.43
590.49	650.65
590.84	650.06
591.19	649.69
591.54	649.25
591.89	648.27
592.25	647.94
592.60	647.04
592.95	646.08
593.30	645.05
593.65	644.05
594.00	642.76
594.35	642.93
594.70	641.93
595.05	641.05
595.40	640.18
595.75	639.12
596.10	638.39
596.45	637.38
596.80	636.65
597.15	635.77
597.50	634.63
597.85	634.06
598.19	633.03
598.54	632.06
598.89	631.11
599.24	630.51
599.59	629.43
599.94	628.84
600.29	628.07
600.64	627.33
600.99	626.43
601.34	625.71
601.69	623.83
602.04	622.67
602.39	621.64
602.74	620.76
603.08	619.98
603.43	619.23
603.78	618.19
604.13	617.16
604.48	616.15
604.83	615.60
605.18	614.74
605.53	613.72
605.87	612.65
606.22	611.62
606.57	610.47
606.92	609.22
607.27	607.82
607.62	606.83
607.96	605.92
608.31	605.13
608.66	604.06
609.01	602.75
609.36	601.62
609.70	600.44
610.05	599.24
610.40	597.95
610.75	596.50
611.10	595.44
611.44	593.97
611.79	592.48
612.14	590.83
612.49	589.02
612.83	587.53
613.18	585.90
613.53	584.27
613.88	582.53
614.22	581.10
614.57	579.65
614.92	577.98
615.27	576.24
615.61	574.43
615.96	572.63
616.31	571.14
616.65	569.88
617.00	568.27
617.35	566.40
617.70	564.76
618.04	562.97
618.39	561.00
618.74	559.18
619.08	557.48
619.43	555.82
619.78	554.40
620.12	552.76
620.47	551.16
620.82	549.26
621.16	547.39
621.51	545.60
621.85	543.89
622.20	542.16
622.55	540.30
622.89	538.34
623.24	536.78
623.59	534.99
623.93	533.10
624.28	531.54
624.62	530.34
624.97	528.81
625.32	527.15
625.66	525.51
626.01	523.97
626.35	522.25
626.70	520.49
627.04	518.88
627.39	517.07
627.73	515.55
628.08	514.22
628.43	512.65
628.77	510.90
629.12	509.10
629.46	507.39
629.81	505.80
630.15	504.17
630.50	502.33
630.84	500.60
631.19	498.86
631.53	497.07
631.88	494.89
632.22	492.96
632.57	491.55
632.91	489.98
633.26	488.43
633.60	486.79
633.95	485.25
634.29	483.40
634.64	481.91
634.98	480.08
635.32	478.40
635.67	476.97
636.01	475.39
636.36	473.84
636.70	472.52
637.05	470.95
637.39	469.55
637.73	468.14
638.08	466.90
638.42	465.46
638.77	464.08
639.11	462.64
639.45	461.09
639.80	459.24
640.14	457.59
640.49	455.95
640.83	454.34
641.17	452.69
641.52	451.15
641.86	449.47
642.20	448.03
642.55	446.39
642.89	444.75
643.23	443.22
643.58	441.90
643.92	440.00
644.26	438.49
644.61	436.92
644.95	435.33
645.29	433.47
645.64	431.82
645.98	430.09
646.32	428.54
646.66	426.83
647.01	425.27
647.35	423.69
647.69	422.02
648.04	420.53
648.38	418.96
648.72	417.34
649.06	415.87
649.41	414.26
649.75	412.64
650.09	411.04
650.43	409.50
650.78	407.73
651.12	406.24
651.46	404.64
651.80	403.16
652.14	401.65
652.49	400.28
652.83	398.83
653.17	397.18
653.51	395.68
653.85	394.39
654.20	393.03
654.54	391.45
654.88	390.04
655.22	388.66
655.56	387.19
655.90	385.63
656.25	383.99
656.59	382.41
656.93	381.03
657.27	379.80
657.61	378.24
657.95	376.76
658.29	375.35
658.64	374.03
658.98	372.52
659.32	370.95
659.66	369.55
660.00	368.01
660.34	366.61
660.68	365.07
661.02	363.60
661.36	362.17
661.70	360.91
662.05	359.51
662.39	358.26
662.73	356.98
663.07	355.96
663.41	354.79
663.75	353.64
664.09	352.29
664.43	350.75
664.77	349.53
665.11	348.27
665.45	347.06
665.79	345.84
666.13	344.60
666.47	343.35
666.81	342.13
667.15	340.91
667.49	339.89
667.83	338.88
668.17	337.66
668.51	336.59
668.85	335.49
669.19	334.49
669.53	333.15
669.87	331.94
670.21	330.68
670.55	329.48
670.89	328.51
671.23	327.56
671.57	326.68
671.91	325.66
672.25	324.66
672.58	323.76
672.92	322.64
673.26	321.73
673.60	320.89
673.94	319.85
674.28	318.95
674.62	317.99
674.96	317.02
675.30	316.20
675.64	315.23
675.97	314.19
676.31	313.23
676.65	312.35
676.99	311.65
677.33	310.81
677.67	310.00
678.01	308.96
678.34	307.99
678.68	307.10
679.02	306.27
679.36	305.49
679.70	304.56
680.04	303.78
680.37	302.76
680.71	301.86
681.05	301.22
681.39	300.37
681.73	299.64
682.06	298.92
682.40	298.00
682.74	297.17
683.08	296.52
683.42	295.74
683.75	294.93
684.09	293.95
684.43	293.13
684.77	292.29
685.10	291.55
685.44	290.79
685.78	289.93
686.12	289.22
686.45	288.37
686.79	287.61
687.13	286.85
687.46	286.22
687.80	285.62
688.14	284.77
688.48	284.07
688.81	283.25
689.15	282.47
689.49	281.78
689.82	281.07
690.16	280.24
690.50	279.50
690.83	278.78
691.17	278.07
691.51	277.40
691.84	276.70
692.18	276.01
692.52	275.36
692.85	274.83
693.19	274.26
693.52	273.64
693.86	272.90
694.20	272.25
694.53	271.62
694.87	270.91
695.21	270.20
695.54	269.62
695.88	269.00
696.21	268.34
696.55	267.82
696.88	267.28
697.22	266.74
697.56	266.24
697.89	265.69
698.23	265.24
698.56	264.61
698.90	264.20
699.23	263.61
699.57	263.06
699.90	262.42
700.24	261.75
700.58	261.20
700.91	260.75
701.25	260.53
701.58	260.08
701.92	259.62
702.25	259.14
702.59	258.61
702.92	258.11
703.26	257.69
703.59	257.19
703.93	256.95
704.26	256.50
704.60	256.06
704.93	255.59
705.26	255.03
705.60	254.67
705.93	254.13
706.27	253.81
706.60	253.50
706.94	253.30
707.27	252.88
707.61	252.55
707.94	252.12
708.27	251.41
708.61	250.93
708.94	250.45
709.28	250.11
709.61	249.77
709.94	249.33
710.28	248.93
710.61	248.57
710.95	247.89
711.28	247.67
711.61	247.26
711.95	246.98
712.28	246.66
712.61	246.31
712.95	246.15
713.28	245.95
713.61	245.50
713.95	245.06
714.28	244.72
714.61	244.35
714.95	243.96
715.28	243.59
715.61	243.29
715.95	243.05
716.28	242.64
716.61	242.35
716.95	241.98
717.28	241.63
717.61	241.21
717.94	240.98
718.28	240.44
718.61	240.07
718.94	239.76
719.27	239.46
719.61	239.22
719.94	238.80
720.27	238.30
720.60	238.00
720.94	237.69
721.27	237.40
721.60	237.14
721.93	236.94
722.27	236.83
722.60	236.59
722.93	236.31
723.26	236.16
723.59	235.85
723.93	235.75
724.26	235.56
724.59	235.41
724.92	235.18
725.25	235.14
725.59	234.97
725.92	234.74
726.25	234.60
726.58	234.35
726.91	234.12
727.24	233.99
727.57	233.83
727.91	233.49
728.24	233.36
728.57	233.09
728.90	232.88
729.23	232.53
729.56	232.51
729.89	232.21
730.22	232.04
730.55	231.79
730.89	231.59
731.22	231.28
731.55	231.01
731.88	230.80
732.21	230.47
732.54	230.26
732.87	230.06
733.20	229.79
733.53	229.64
733.86	229.53
734.19	229.25
734.52	229.07
734.85	229.17
735.18	228.91
735.51	228.84
735.84	228.70
736.17	228.73
736.50	228.38
736.83	228.65
737.16	228.41
737.49	228.34
737.82	228.13
738.15	228.10
738.48	228.01
738.81	227.79
739.14	227.61
739.47	227.44
739.80	227.29
740.13	227.15
740.46	226.90
740.79	226.62
741.12	226.42
741.45	226.24
741.78	225.85
742.11	225.73
742.44	225.50
742.77	225.38
743.10	225.10
743.43	224.88
743.75	224.37
744.08	224.70
744.41	224.49
744.74	224.26
745.07	224.11
745.40	223.94
745.73	224.01
746.06	223.89
746.39	223.75
746.71	223.59
747.04	223.43
747.37	223.27
747.70	223.23
748.03	223.17
748.36	223.12
748.68	223.06
749.01	222.96
749.34	222.84
749.67	222.70
750.00	222.64
750.33	222.78
750.65	222.64
750.98	222.02
751.31	221.93
751.64	221.88
751.97	221.95
752.29	221.85
752.62	221.60
752.95	221.49
753.28	221.42
753.60	221.33
753.93	221.30
754.26	221.28
754.59	221.06
754.91	220.95
755.24	220.80
755.57	220.68
755.90	220.54
756.22	220.49
756.55	220.34
756.88	220.20
757.20	219.87
757.53	219.71
757.86	219.64
758.19	219.57
758.51	219.44
758.84	219.13
759.17	219.04
759.49	218.92
759.82	219.01
760.15	218.92
760.47	218.85
760.80	218.71
761.13	218.68
761.45	218.61
761.78	218.51
762.11	218.38
762.43	218.24
762.76	218.19
763.08	218.10
763.41	218.09
763.74	218.03
764.06	217.96
764.39	217.93
764.71	217.92
765.04	217.77
765.37	217.70
765.69	217.61
766.02	217.50
766.34	217.48
766.67	217.27
767.00	217.20
767.32	217.25
767.65	217.36
767.97	217.20
768.30	217.19
768.62	217.13
768.95	217.02
769.27	217.00
769.60	216.93
769.92	216.80
770.25	216.64
770.57	216.46
770.90	216.47
771.22	216.38
771.55	216.25
771.87	216.25
772.20	216.16
772.52	216.49
772.85	216.88
773.17	216.82
773.50	216.77
773.82	216.70
774.15	216.46
774.47	216.20
774.80	216.14
775.12	216.04
775.45	216.02
775.77	216.04
776.09	216.03
776.42	215.97
776.74	216.03
777.07	216.02
777.39	216.00
777.72	215.87
778.04	215.90
778.36	215.84
778.69	215.84
779.01	215.79
779.33	215.41
779.66	214.98
779.98	214.93
780.31	214.88
780.63	214.96
780.95	215.01
781.28	214.97
781.60	214.90
781.92	214.90
782.25	214.83
782.57	214.82
782.89	214.72
783.22	214.68
783.54	214.56
783.86	214.55
784.19	214.54
784.51	214.60
784.83	214.45
785.16	214.37
785.48	214.29
785.80	214.37
786.12	214.34
786.45	214.29
786.77	214.20
787.09	214.15
787.42	213.91
787.74	213.89
788.06	213.87
788.38	213.83
788.71	213.76
789.03	213.81
789.35	213.84
789.67	213.79
789.99	213.76
790.32	213.75
790.64	213.80
790.96	214.03
791.28	213.86
791.61	213.84
791.93	213.83
792.25	213.83
792.57	214.04
792.89	213.95
793.21	213.90
793.54	213.86
793.86	213.79
794.18	213.88
