SpectraSuite Data File
++++++++++++++++++++++++++++++++++++
Date: Mon Feb 25 17:08:33 EST 2013
User: group
Dark Spectrum Present: No
Reference Spectrum Present: No
Number of Sampled Component Spectra: 1
Spectrometers: USB2E7196
Integration Time (usec): 104000 (USB2E7196)
Spectra Averaged: 20 (USB2E7196)
Boxcar Smoothing: 10 (USB2E7196)
Correct for Electrical Dark: No (USB2E7196)
Strobe/Lamp Enabled: No (USB2E7196)
Correct for Detector Non-linearity: No (USB2E7196)
Correct for Stray Light: No (USB2E7196)
Number of Pixels in Processed Spectrum: 2048
>>>>>Begin Processed Spectral Data<<<<<
339.09	0.00
339.48	198.15
339.86	199.05
340.24	200.30
340.63	202.45
341.01	208.70
341.39	204.90
341.78	207.35
342.16	208.75
342.54	208.85
342.93	197.86
343.31	207.86
343.69	208.40
344.07	208.89
344.46	209.35
344.84	209.67
345.22	209.72
345.60	209.94
345.99	210.11
346.37	210.14
346.75	210.19
347.13	210.19
347.52	210.22
347.90	210.39
348.28	210.39
348.66	210.38
349.05	210.33
349.43	210.34
349.81	210.35
350.19	210.40
350.57	210.40
350.96	210.45
351.34	210.52
351.72	210.63
352.10	210.74
352.48	210.80
352.87	210.87
353.25	210.97
353.63	211.06
354.01	211.12
354.39	211.25
354.77	211.29
355.15	211.53
355.54	211.56
355.92	211.49
356.30	211.57
356.68	211.83
357.06	211.91
357.44	211.98
357.82	212.08
358.20	212.22
358.58	212.30
358.97	212.37
359.35	212.54
359.73	212.68
360.11	212.72
360.49	212.77
360.87	212.82
361.25	212.82
361.63	212.94
362.01	212.98
362.39	212.98
362.77	213.06
363.15	213.04
363.53	213.16
363.91	213.30
364.29	213.38
364.67	213.12
365.05	213.06
365.43	213.06
365.81	213.16
366.19	213.29
366.57	213.47
366.95	213.49
367.33	213.42
367.71	213.40
368.09	213.50
368.47	213.48
368.85	213.50
369.23	213.67
369.61	213.61
369.99	213.70
370.37	213.79
370.75	213.98
371.13	213.92
371.51	213.76
371.89	213.76
372.27	213.73
372.65	213.70
373.03	213.73
373.41	213.69
373.78	213.62
374.16	213.33
374.54	213.16
374.92	213.14
375.30	213.05
375.68	212.91
376.06	212.83
376.44	212.73
376.82	212.75
377.19	212.59
377.57	212.52
377.95	212.35
378.33	212.25
378.71	211.96
379.09	211.96
379.47	212.07
379.84	211.96
380.22	211.90
380.60	211.79
380.98	211.71
381.36	211.63
381.73	211.45
382.11	211.45
382.49	211.39
382.87	211.29
383.25	211.22
383.62	211.52
384.00	211.42
384.38	211.42
384.76	211.42
385.13	211.56
385.51	211.60
385.89	211.52
386.27	211.46
386.64	211.43
387.02	211.33
387.40	211.21
387.78	211.19
388.15	211.14
388.53	211.08
388.91	211.05
389.29	210.96
389.66	211.01
390.04	210.94
390.42	211.01
390.79	211.01
391.17	210.97
391.55	210.57
391.92	210.58
392.30	210.63
392.68	210.57
393.05	210.51
393.43	210.42
393.81	210.46
394.18	210.40
394.56	210.41
394.94	210.50
395.31	210.43
395.69	210.48
396.06	210.60
396.44	210.65
396.82	210.64
397.19	210.87
397.57	210.93
397.95	211.06
398.32	210.91
398.70	210.93
399.07	211.03
399.45	211.06
399.82	211.06
400.20	211.02
400.58	210.97
400.95	210.86
401.33	210.94
401.70	211.15
402.08	211.22
402.45	211.25
402.83	211.26
403.20	211.41
403.58	211.39
403.95	211.40
404.33	211.49
404.71	211.56
405.08	211.78
405.46	211.78
405.83	211.85
406.21	212.01
406.58	212.11
406.96	212.21
407.33	212.39
407.70	212.54
408.08	212.94
408.45	213.20
408.83	213.37
409.20	213.54
409.58	213.55
409.95	213.80
410.33	214.02
410.70	214.20
411.08	214.38
411.45	214.60
411.82	214.85
412.20	215.17
412.57	215.65
412.95	215.66
413.32	216.11
413.69	216.46
414.07	216.79
414.44	217.20
414.82	217.73
415.19	218.35
415.56	218.82
415.94	219.17
416.31	219.78
416.68	220.38
417.06	221.06
417.43	221.89
417.81	222.61
418.18	223.48
418.55	224.36
418.93	225.28
419.30	226.26
419.67	227.20
420.04	228.31
420.42	229.35
420.79	230.83
421.16	232.06
421.54	233.52
421.91	234.96
422.28	236.30
422.66	237.71
423.03	239.32
423.40	240.80
423.77	242.44
424.15	244.08
424.52	245.84
424.89	247.79
425.26	249.55
425.64	251.40
426.01	253.26
426.38	255.30
426.75	257.53
427.13	259.67
427.50	261.96
427.87	264.25
428.24	266.58
428.61	268.65
428.99	271.25
429.36	273.80
429.73	276.43
430.10	279.16
430.47	281.93
430.85	284.45
431.22	287.51
431.59	290.80
431.96	293.72
432.33	297.04
432.70	300.27
433.08	303.98
433.45	307.46
433.82	311.09
434.19	315.05
434.56	318.86
434.93	322.53
435.30	326.18
435.68	330.27
436.05	334.26
436.42	338.32
436.79	341.98
437.16	345.95
437.53	350.19
437.90	354.27
438.27	358.35
438.64	362.64
439.01	366.67
439.38	369.99
439.75	373.45
440.13	377.30
440.50	380.94
440.87	383.89
441.24	386.96
441.61	390.33
441.98	392.92
442.35	395.79
442.72	398.76
443.09	401.71
443.46	403.48
443.83	404.75
444.20	405.69
444.57	407.17
444.94	408.04
445.31	408.81
445.68	409.95
446.05	410.29
446.42	410.07
446.79	409.72
447.16	409.33
447.53	409.17
447.90	407.87
448.27	406.43
448.64	404.56
449.01	403.22
449.37	400.66
449.74	398.05
450.11	395.26
450.48	391.92
450.85	388.55
451.22	385.58
451.59	382.81
451.96	380.27
452.33	376.72
452.70	373.42
453.07	369.44
453.43	365.20
453.80	361.43
454.17	357.71
454.54	354.18
454.91	350.44
455.28	346.61
455.65	343.18
456.02	340.28
456.38	337.35
456.75	333.68
457.12	330.62
457.49	327.64
457.86	324.56
458.23	322.28
458.59	319.49
458.96	316.68
459.33	314.14
459.70	311.71
460.07	309.77
460.43	307.45
460.80	305.42
461.17	303.64
461.54	301.73
461.91	299.84
462.27	297.91
462.64	296.29
463.01	294.66
463.38	292.99
463.74	290.75
464.11	289.22
464.48	288.00
464.85	286.51
465.21	285.44
465.58	284.28
465.95	282.85
466.32	281.76
466.68	280.64
467.05	279.56
467.42	278.30
467.78	276.98
468.15	275.79
468.52	275.00
468.88	273.74
469.25	272.61
469.62	271.95
469.98	271.06
470.35	270.19
470.72	269.29
471.08	268.30
471.45	267.68
471.82	267.00
472.18	266.24
472.55	265.79
472.92	265.11
473.28	264.45
473.65	263.77
474.02	263.15
474.38	262.85
474.75	262.53
475.11	262.10
475.48	261.79
475.85	261.54
476.21	261.10
476.58	260.88
476.94	260.72
477.31	260.32
477.67	260.11
478.04	260.03
478.41	260.03
478.77	260.35
479.14	260.05
479.50	259.92
479.87	259.87
480.23	259.74
480.60	259.59
480.96	259.49
481.33	259.64
481.69	259.76
482.06	259.73
482.42	259.75
482.79	259.89
483.15	260.03
483.52	260.28
483.88	260.42
484.25	260.60
484.61	260.90
484.98	261.06
485.34	261.44
485.71	261.81
486.07	262.05
486.44	262.14
486.80	262.59
487.17	263.03
487.53	263.60
487.90	264.19
488.26	264.94
488.62	265.69
488.99	266.32
489.35	266.88
489.72	267.54
490.08	268.26
490.44	269.00
490.81	269.78
491.17	270.58
491.54	271.57
491.90	272.55
492.26	273.55
492.63	274.69
492.99	275.69
493.36	276.81
493.72	278.10
494.08	279.25
494.45	280.59
494.81	281.99
495.17	283.29
495.54	284.66
495.90	286.08
496.26	287.56
496.63	289.04
496.99	290.64
497.35	292.32
497.72	294.00
498.08	295.62
498.44	297.42
498.80	299.25
499.17	301.06
499.53	302.97
499.89	304.97
500.26	306.99
500.62	309.01
500.98	311.21
501.34	313.29
501.71	315.64
502.07	317.91
502.43	320.12
502.79	322.40
503.16	324.76
503.52	327.02
503.88	329.34
504.24	331.88
504.60	334.52
504.97	337.17
505.33	339.72
505.69	342.79
506.05	345.47
506.41	348.23
506.78	351.10
507.14	353.98
507.50	356.84
507.86	359.82
508.22	362.90
508.59	365.84
508.95	368.93
509.31	372.07
509.67	375.26
510.03	378.53
510.39	381.80
510.75	385.25
511.12	388.73
511.48	392.16
511.84	395.50
512.20	398.86
512.56	402.42
512.92	406.15
513.28	409.61
513.64	413.32
514.00	417.06
514.37	420.69
514.73	424.39
515.09	428.18
515.45	431.93
515.81	435.62
516.17	439.43
516.53	443.36
516.89	447.11
517.25	451.03
517.61	454.96
517.97	458.94
518.33	462.75
518.69	466.88
519.05	471.04
519.41	475.28
519.77	479.71
520.13	483.80
520.49	487.70
520.85	491.89
521.21	496.25
521.57	500.51
521.93	504.70
522.29	509.19
522.65	513.45
523.01	517.83
523.37	522.19
523.73	526.58
524.09	530.98
524.45	535.50
524.81	539.95
525.17	544.50
525.53	548.98
525.89	553.74
526.25	558.29
526.61	562.73
526.97	567.26
527.33	571.80
527.68	576.73
528.04	581.51
528.40	586.10
528.76	590.68
529.12	595.45
529.48	600.49
529.84	605.14
530.20	609.99
530.56	614.79
530.91	619.71
531.27	624.68
531.63	629.56
531.99	634.30
532.35	638.94
532.71	643.66
533.07	648.48
533.42	653.40
533.78	658.16
534.14	663.05
534.50	667.65
534.86	672.40
535.21	676.69
535.57	681.50
535.93	686.00
536.29	690.75
536.65	695.41
537.00	699.59
537.36	703.84
537.72	708.09
538.08	712.47
538.44	716.89
538.79	721.06
539.15	725.33
539.51	729.57
539.87	734.16
540.22	738.41
540.58	742.85
540.94	746.98
541.29	750.95
541.65	754.83
542.01	758.75
542.37	762.42
542.72	766.30
543.08	769.92
543.44	774.05
543.79	777.39
544.15	780.87
544.51	784.63
544.87	788.51
545.22	792.05
545.58	795.43
545.94	798.63
546.29	801.93
546.65	804.95
547.01	808.06
547.36	811.04
547.72	814.05
548.07	816.74
548.43	819.11
548.79	821.80
549.14	824.37
549.50	827.13
549.86	829.54
550.21	831.93
550.57	834.52
550.92	836.47
551.28	838.80
551.64	841.07
551.99	843.42
552.35	845.35
552.70	847.37
553.06	849.36
553.41	851.47
553.77	853.27
554.13	855.08
554.48	856.92
554.84	858.78
555.19	860.43
555.55	862.31
555.90	863.87
556.26	865.29
556.61	866.71
556.97	867.79
557.32	869.22
557.68	870.41
558.03	871.43
558.39	872.56
558.74	873.75
559.10	874.82
559.45	875.89
559.81	877.03
560.16	878.26
560.52	879.29
560.87	880.15
561.23	880.83
561.58	882.05
561.94	882.50
562.29	882.80
562.64	883.47
563.00	883.87
563.35	884.83
563.71	885.72
564.06	886.59
564.42	887.46
564.77	888.26
565.12	889.10
565.48	889.86
565.83	890.67
566.19	891.25
566.54	891.52
566.89	891.65
567.25	892.10
567.60	892.37
567.96	892.76
568.31	893.07
568.66	893.41
569.02	892.99
569.37	892.80
569.72	892.80
570.08	892.53
570.43	892.05
570.78	891.45
571.14	890.72
571.49	889.86
571.84	889.24
572.20	888.33
572.55	887.71
572.90	886.55
573.26	885.36
573.61	884.35
573.96	883.33
574.31	882.29
574.67	880.89
575.02	879.27
575.37	877.87
575.72	876.25
576.08	874.96
576.43	873.65
576.78	872.57
577.13	871.31
577.49	870.03
577.84	868.79
578.19	867.80
578.54	866.98
578.90	866.13
579.25	864.72
579.60	863.29
579.95	861.45
580.30	860.52
580.66	859.53
581.01	858.15
581.36	856.57
581.71	855.01
582.06	853.85
582.42	852.63
582.77	851.04
583.12	849.71
583.47	848.29
583.82	847.06
584.17	845.68
584.53	844.38
584.88	842.88
585.23	841.58
585.58	840.01
585.93	838.27
586.28	836.82
586.63	835.43
586.98	834.25
587.34	833.43
587.69	831.76
588.04	830.20
588.39	828.74
588.74	827.26
589.09	825.86
589.44	823.85
589.79	822.29
590.14	820.80
590.49	819.18
590.84	817.55
591.19	816.07
591.54	814.51
591.89	812.58
592.25	811.15
592.60	809.20
592.95	807.14
593.30	805.13
593.65	803.09
594.00	801.04
594.35	799.94
594.70	797.67
595.05	795.90
595.40	793.98
595.75	792.05
596.10	790.42
596.45	788.70
596.80	787.28
597.15	785.78
597.50	783.95
597.85	782.30
598.19	780.52
598.54	778.64
598.89	777.23
599.24	775.75
599.59	773.93
599.94	772.47
600.29	770.90
600.64	769.29
600.99	767.65
601.34	766.25
601.69	763.58
602.04	761.78
602.39	760.08
602.74	758.55
603.08	757.17
603.43	755.95
603.78	754.30
604.13	752.61
604.48	750.77
604.83	749.50
605.18	748.21
605.53	746.53
605.87	744.91
606.22	743.03
606.57	741.12
606.92	739.26
607.27	737.43
607.62	735.82
607.96	734.33
608.31	732.73
608.66	730.83
609.01	729.05
609.36	727.26
609.70	725.31
610.05	723.31
610.40	721.17
610.75	718.85
611.10	716.95
611.44	714.55
611.79	712.20
612.14	709.64
612.49	706.99
612.83	704.62
613.18	702.21
613.53	699.87
613.88	697.40
614.22	695.10
614.57	692.84
614.92	690.31
615.27	687.76
615.61	685.11
615.96	682.86
616.31	680.67
616.65	678.67
617.00	676.32
617.35	673.90
617.70	671.44
618.04	668.80
618.39	666.06
618.74	663.88
619.08	661.53
619.43	659.07
619.78	656.67
620.12	654.46
620.47	652.08
620.82	649.53
621.16	647.27
621.51	645.02
621.85	642.50
622.20	639.95
622.55	637.45
622.89	635.07
623.24	632.61
623.59	629.97
623.93	627.28
624.28	624.80
624.62	622.63
624.97	620.38
625.32	618.02
625.66	615.78
626.01	613.32
626.35	611.16
626.70	608.96
627.04	606.93
627.39	604.60
627.73	602.46
628.08	600.28
628.43	597.68
628.77	595.22
629.12	592.81
629.46	590.96
629.81	588.63
630.15	586.41
630.50	583.90
630.84	581.48
631.19	579.17
631.53	576.85
631.88	574.08
632.22	571.51
632.57	569.41
632.91	567.10
633.26	564.98
633.60	562.66
633.95	560.37
634.29	557.77
634.64	555.72
634.98	553.21
635.32	551.11
635.67	549.38
636.01	547.27
636.36	545.10
636.70	542.76
637.05	540.77
637.39	538.61
637.73	536.80
638.08	535.05
638.42	533.16
638.77	531.23
639.11	529.26
639.45	527.22
639.80	524.93
640.14	522.80
640.49	520.55
640.83	518.34
641.17	516.27
641.52	514.13
641.86	511.70
642.20	509.76
642.55	507.30
642.89	504.91
643.23	502.57
643.58	500.79
643.92	498.53
644.26	496.27
644.61	494.23
644.95	491.94
645.29	489.72
645.64	487.38
645.98	485.22
646.32	483.12
646.66	480.98
647.01	478.93
647.35	476.94
647.69	474.80
648.04	472.74
648.38	470.65
648.72	468.53
649.06	466.52
649.41	464.31
649.75	462.24
650.09	460.22
650.43	458.34
650.78	455.95
651.12	453.83
651.46	451.77
651.80	449.68
652.14	447.64
652.49	445.63
652.83	443.66
653.17	441.51
653.51	439.42
653.85	437.58
654.20	435.70
654.54	433.54
654.88	431.58
655.22	429.66
655.56	427.65
655.90	425.85
656.25	423.88
656.59	421.93
656.93	420.17
657.27	418.48
657.61	416.40
657.95	414.65
658.29	412.90
658.64	411.19
658.98	409.19
659.32	407.30
659.66	405.44
660.00	403.64
660.34	401.73
660.68	399.90
661.02	397.99
661.36	396.17
661.70	394.51
662.05	392.96
662.39	391.36
662.73	389.80
663.07	388.32
663.41	386.80
663.75	385.23
664.09	383.61
664.43	381.80
664.77	380.25
665.11	378.65
665.45	377.07
665.79	375.50
666.13	373.95
666.47	372.55
666.81	371.04
667.15	369.42
667.49	368.22
667.83	366.96
668.17	365.53
668.51	364.11
668.85	362.79
669.19	361.51
669.53	359.97
669.87	358.44
670.21	357.03
670.55	355.62
670.89	354.47
671.23	353.14
671.57	351.83
671.91	350.59
672.25	349.16
672.58	347.97
672.92	346.65
673.26	345.53
673.60	344.28
673.94	343.00
674.28	341.79
674.62	340.52
674.96	339.27
675.30	338.17
675.64	336.99
675.97	335.81
676.31	334.44
676.65	333.35
676.99	332.40
677.33	331.10
677.67	329.99
678.01	328.63
678.34	327.56
678.68	326.49
679.02	325.40
679.36	324.42
679.70	323.22
680.04	322.16
680.37	321.03
680.71	319.99
681.05	319.05
681.39	318.06
681.73	316.98
682.06	316.04
682.40	314.98
682.74	313.97
683.08	312.97
683.42	311.93
683.75	310.97
684.09	309.88
684.43	308.88
684.77	307.81
685.10	306.92
685.44	305.81
685.78	304.87
686.12	303.93
686.45	302.92
686.79	302.03
687.13	301.16
687.46	300.25
687.80	299.39
688.14	298.40
688.48	297.58
688.81	296.66
689.15	295.74
689.49	294.83
689.82	294.04
690.16	292.92
690.50	292.07
690.83	291.10
691.17	290.18
691.51	289.34
691.84	288.56
692.18	287.76
692.52	287.06
692.85	286.29
693.19	285.63
693.52	284.90
693.86	284.02
694.20	283.26
694.53	282.57
694.87	281.68
695.21	280.86
695.54	280.00
695.88	279.19
696.21	278.30
696.55	277.57
696.88	276.72
697.22	276.12
697.56	275.52
697.89	274.86
698.23	274.19
698.56	273.52
698.90	272.90
699.23	272.18
699.57	271.56
699.90	270.85
700.24	270.03
700.58	269.37
700.91	268.85
701.25	268.36
701.58	267.76
701.92	267.12
702.25	266.58
702.59	265.92
702.92	265.40
703.26	264.88
703.59	264.31
703.93	264.05
704.26	263.50
704.60	262.96
704.93	262.33
705.26	261.74
705.60	261.24
705.93	260.53
706.27	260.18
706.60	259.65
706.94	259.24
707.27	258.69
707.61	258.12
707.94	257.54
708.27	256.82
708.61	256.18
708.94	255.76
709.28	255.24
709.61	254.83
709.94	254.38
710.28	253.96
710.61	253.55
710.95	252.77
711.28	252.55
711.61	252.00
711.95	251.67
712.28	251.22
712.61	250.75
712.95	250.55
713.28	250.12
713.61	249.67
713.95	249.17
714.28	248.83
714.61	248.36
714.95	247.96
715.28	247.51
715.61	247.13
715.95	246.80
716.28	246.37
716.61	246.05
716.95	245.61
717.28	245.23
717.61	244.83
717.94	244.53
718.28	243.83
718.61	243.53
718.94	243.15
719.27	242.80
719.61	242.48
719.94	242.12
720.27	241.68
720.60	241.33
720.94	241.00
721.27	240.72
721.60	240.53
721.93	240.25
722.27	240.06
722.60	239.79
722.93	239.35
723.26	239.14
723.59	238.83
723.93	238.58
724.26	238.31
724.59	238.05
724.92	237.73
725.25	237.68
725.59	237.39
725.92	237.10
726.25	236.83
726.58	236.56
726.91	236.22
727.24	235.97
727.57	235.73
727.91	235.41
728.24	235.14
728.57	234.87
728.90	234.64
729.23	234.42
729.56	234.40
729.89	234.24
730.22	233.95
730.55	233.72
730.89	233.47
731.22	233.24
731.55	232.98
731.88	232.79
732.21	232.48
732.54	232.27
732.87	232.09
733.20	231.94
733.53	231.74
733.86	231.58
734.19	231.34
734.52	231.20
734.85	231.29
735.18	231.05
735.51	230.99
735.84	230.76
736.17	230.64
736.50	230.17
736.83	230.32
737.16	230.15
737.49	229.98
737.82	229.72
738.15	229.60
738.48	229.42
738.81	229.20
739.14	228.96
739.47	228.75
739.80	228.53
740.13	228.36
740.46	228.09
740.79	227.87
741.12	227.70
741.45	227.47
741.78	227.08
742.11	226.96
742.44	226.68
742.77	226.63
743.10	226.37
743.43	226.30
743.75	225.82
744.08	226.14
744.41	225.93
744.74	225.83
745.07	225.58
745.40	225.55
745.73	225.58
746.06	225.49
746.39	225.38
746.71	225.20
747.04	225.05
747.37	224.92
747.70	224.82
748.03	224.79
748.36	224.68
748.68	224.61
749.01	224.39
749.34	224.30
749.67	224.12
750.00	223.94
750.33	224.07
750.65	223.99
750.98	223.37
751.31	223.23
751.64	223.13
751.97	223.26
752.29	223.05
752.62	222.76
752.95	222.62
753.28	222.41
753.60	222.32
753.93	222.22
754.26	222.16
754.59	222.00
754.91	221.75
755.24	221.64
755.57	221.44
755.90	221.36
756.22	221.19
756.55	221.01
756.88	220.87
757.20	220.46
757.53	220.26
757.86	220.19
758.19	220.20
758.51	220.09
758.84	219.74
759.17	219.67
759.49	219.55
759.82	219.58
760.15	219.55
760.47	219.40
760.80	219.22
761.13	219.18
761.45	219.08
761.78	218.98
762.11	218.84
762.43	218.76
762.76	218.63
763.08	218.52
763.41	218.48
763.74	218.45
764.06	218.38
764.39	218.32
764.71	218.19
765.04	217.94
765.37	217.85
765.69	217.79
766.02	217.64
766.34	217.57
766.67	217.39
767.00	217.45
767.32	217.60
767.65	217.82
767.97	217.79
768.30	217.67
768.62	217.66
768.95	217.58
769.27	217.50
769.60	217.51
769.92	217.50
770.25	217.45
770.57	217.35
770.90	217.28
771.22	217.09
771.55	217.06
771.87	217.11
772.20	217.04
772.52	217.26
772.85	217.64
773.17	217.61
773.50	217.52
773.82	217.34
774.15	217.10
774.47	216.77
774.80	216.66
775.12	216.64
775.45	216.56
775.77	216.53
776.09	216.53
776.42	216.46
776.74	216.47
777.07	216.39
777.39	216.34
777.72	216.25
778.04	216.41
778.36	216.33
778.69	216.34
779.01	216.31
779.33	216.00
779.66	215.55
779.98	215.46
780.31	215.45
780.63	215.55
780.95	215.59
781.28	215.50
781.60	215.40
781.92	215.33
782.25	215.22
782.57	215.11
782.89	215.00
783.22	214.98
783.54	214.89
783.86	214.92
784.19	214.84
784.51	215.04
784.83	214.90
785.16	214.90
785.48	214.82
785.80	214.80
786.12	214.74
786.45	214.70
786.77	214.72
787.09	214.62
787.42	214.48
787.74	214.43
788.06	214.45
788.38	214.41
788.71	214.40
789.03	214.44
789.35	214.49
789.67	214.47
789.99	214.45
790.32	214.30
790.64	214.28
790.96	214.60
791.28	214.40
791.61	214.31
791.93	214.30
792.25	214.28
792.57	214.49
792.89	214.43
793.21	214.39
793.54	214.31
793.86	214.26
794.18	214.26
