SpectraSuite Data File
++++++++++++++++++++++++++++++++++++
Date: Mon Feb 25 17:12:53 EST 2013
User: group
Dark Spectrum Present: No
Reference Spectrum Present: No
Number of Sampled Component Spectra: 1
Spectrometers: USB2E7196
Integration Time (usec): 104000 (USB2E7196)
Spectra Averaged: 20 (USB2E7196)
Boxcar Smoothing: 10 (USB2E7196)
Correct for Electrical Dark: No (USB2E7196)
Strobe/Lamp Enabled: No (USB2E7196)
Correct for Detector Non-linearity: No (USB2E7196)
Correct for Stray Light: No (USB2E7196)
Number of Pixels in Processed Spectrum: 2048
>>>>>Begin Processed Spectral Data<<<<<
339.09	0.00
339.48	198.80
339.86	201.15
340.24	200.75
340.63	201.95
341.01	210.65
341.39	206.75
341.78	208.10
342.16	209.90
342.54	209.35
342.93	198.61
343.31	208.56
343.69	209.08
344.07	209.54
344.46	210.08
344.84	210.46
345.22	210.42
345.60	210.63
345.99	210.79
346.37	210.83
346.75	210.93
347.13	210.92
347.52	210.98
347.90	211.15
348.28	211.11
348.66	211.25
349.05	211.10
349.43	211.19
349.81	211.23
350.19	211.30
350.57	211.34
350.96	211.36
351.34	211.56
351.72	211.70
352.10	211.75
352.48	211.76
352.87	211.90
353.25	211.99
353.63	212.08
354.01	212.14
354.39	212.22
354.77	212.25
355.15	212.40
355.54	212.45
355.92	212.40
356.30	212.46
356.68	212.72
357.06	212.80
357.44	212.83
357.82	212.90
358.20	212.89
358.58	212.84
358.97	212.93
359.35	212.92
359.73	212.91
360.11	212.94
360.49	213.05
360.87	212.99
361.25	213.09
361.63	213.17
362.01	213.22
362.39	213.20
362.77	213.33
363.15	213.35
363.53	213.32
363.91	213.33
364.29	213.37
364.67	213.04
365.05	213.06
365.43	213.15
365.81	213.18
366.19	213.34
366.57	213.54
366.95	213.53
367.33	213.52
367.71	213.57
368.09	213.59
368.47	213.52
368.85	213.54
369.23	213.56
369.61	213.44
369.99	213.46
370.37	213.52
370.75	213.67
371.13	213.56
371.51	213.49
371.89	213.43
372.27	213.45
372.65	213.44
373.03	213.42
373.41	213.31
373.78	213.28
374.16	213.08
374.54	212.91
374.92	212.79
375.30	212.72
375.68	212.57
376.06	212.53
376.44	212.41
376.82	212.40
377.19	212.36
377.57	212.27
377.95	212.10
378.33	211.99
378.71	211.64
379.09	211.68
379.47	211.69
379.84	211.66
380.22	211.56
380.60	211.51
380.98	211.44
381.36	211.41
381.73	211.33
382.11	211.39
382.49	211.37
382.87	211.32
383.25	211.31
383.62	211.72
384.00	211.67
384.38	211.69
384.76	211.71
385.13	211.77
385.51	211.78
385.89	211.76
386.27	211.76
386.64	211.83
387.02	211.78
387.40	211.64
387.78	211.65
388.15	211.63
388.53	211.54
388.91	211.51
389.29	211.49
389.66	211.50
390.04	211.35
390.42	211.39
390.79	211.42
391.17	211.47
391.55	211.09
391.92	211.09
392.30	211.12
392.68	211.00
393.05	210.94
393.43	211.03
393.81	211.07
394.18	211.01
394.56	210.96
394.94	211.09
395.31	211.12
395.69	211.30
396.06	211.32
396.44	211.38
396.82	211.40
397.19	211.58
397.57	211.59
397.95	211.76
398.32	211.62
398.70	211.67
399.07	211.67
399.45	211.71
399.82	211.68
400.20	211.71
400.58	211.74
400.95	211.69
401.33	211.67
401.70	211.91
402.08	212.00
402.45	212.09
402.83	212.05
403.20	212.18
403.58	212.07
403.95	212.21
404.33	212.30
404.71	212.39
405.08	212.58
405.46	212.66
405.83	212.78
406.21	212.95
406.58	213.04
406.96	213.15
407.33	213.27
407.70	213.48
408.08	213.87
408.45	214.10
408.83	214.34
409.20	214.52
409.58	214.50
409.95	214.79
410.33	215.01
410.70	215.19
411.08	215.45
411.45	215.79
411.82	216.03
412.20	216.43
412.57	216.89
412.95	216.94
413.32	217.30
413.69	217.66
414.07	218.08
414.44	218.52
414.82	219.03
415.19	219.55
415.56	220.09
415.94	220.39
416.31	221.02
416.68	221.65
417.06	222.44
417.43	223.18
417.81	223.97
418.18	224.83
418.55	225.73
418.93	226.64
419.30	227.57
419.67	228.54
420.04	229.53
420.42	230.57
420.79	232.14
421.16	233.49
421.54	234.91
421.91	236.25
422.28	237.71
422.66	239.18
423.03	240.87
423.40	242.41
423.77	244.08
424.15	245.70
424.52	247.43
424.89	249.27
425.26	251.07
425.64	252.77
426.01	254.54
426.38	256.57
426.75	258.66
427.13	260.77
427.50	262.99
427.87	265.21
428.24	267.45
428.61	269.43
428.99	271.91
429.36	274.38
429.73	277.06
430.10	279.66
430.47	282.31
430.85	284.85
431.22	287.78
431.59	291.00
431.96	293.88
432.33	297.06
432.70	300.19
433.08	303.71
433.45	307.17
433.82	310.68
434.19	314.43
434.56	318.07
434.93	321.50
435.30	324.96
435.68	328.84
436.05	332.70
436.42	336.51
436.79	339.92
437.16	343.71
437.53	347.62
437.90	351.50
438.27	355.37
438.64	359.42
439.01	363.15
439.38	366.27
439.75	369.57
440.13	373.31
440.50	376.55
440.87	379.45
441.24	382.35
441.61	385.54
441.98	387.82
442.35	390.57
442.72	393.42
443.09	396.25
443.46	397.86
443.83	398.78
444.20	399.72
444.57	401.10
444.94	401.71
445.31	402.42
445.68	403.30
446.05	403.54
446.42	403.00
446.79	402.50
447.16	401.99
447.53	401.49
447.90	399.80
448.27	398.34
448.64	396.25
449.01	394.70
449.37	392.06
449.74	389.55
450.11	386.74
450.48	383.44
450.85	379.90
451.22	377.14
451.59	374.48
451.96	371.87
452.33	368.29
452.70	364.99
453.07	361.12
453.43	357.05
453.80	353.35
454.17	349.80
454.54	346.37
454.91	342.80
455.28	339.39
455.65	336.15
456.02	333.50
456.38	330.67
456.75	327.21
457.12	324.23
457.49	321.40
457.86	318.35
458.23	316.03
458.59	313.56
458.96	310.82
459.33	308.52
459.70	306.17
460.07	304.39
460.43	302.23
460.80	300.27
461.17	298.60
461.54	296.71
461.91	295.01
462.27	293.19
462.64	291.61
463.01	289.92
463.38	288.45
463.74	286.25
464.11	284.83
464.48	283.58
464.85	282.27
465.21	281.32
465.58	280.32
465.95	278.95
466.32	277.83
466.68	276.73
467.05	275.69
467.42	274.54
467.78	273.38
468.15	272.48
468.52	271.73
468.88	270.59
469.25	269.63
469.62	268.99
469.98	268.31
470.35	267.61
470.72	266.92
471.08	266.10
471.45	265.58
471.82	265.10
472.18	264.51
472.55	264.15
472.92	263.51
473.28	262.95
473.65	262.47
474.02	261.99
474.38	261.74
474.75	261.39
475.11	261.13
475.48	260.92
475.85	260.69
476.21	260.33
476.58	260.23
476.94	260.16
477.31	259.95
477.67	259.72
478.04	259.62
478.41	259.57
478.77	259.92
479.14	259.94
479.50	260.00
479.87	260.14
480.23	260.21
480.60	260.30
480.96	260.52
481.33	260.89
481.69	261.14
482.06	261.38
482.42	261.72
482.79	261.98
483.15	262.31
483.52	262.77
483.88	263.28
484.25	263.68
484.61	264.26
484.98	264.86
485.34	265.68
485.71	266.48
486.07	267.28
486.44	267.71
486.80	268.46
487.17	269.31
487.53	270.35
487.90	271.43
488.26	272.64
488.62	273.84
488.99	274.93
489.35	276.25
489.72	277.62
490.08	279.02
490.44	280.51
490.81	282.15
491.17	283.76
491.54	285.57
491.90	287.44
492.26	289.34
492.63	291.42
492.99	293.34
493.36	295.45
493.72	297.83
494.08	300.28
494.45	302.86
494.81	305.50
495.17	308.15
495.54	311.03
495.90	313.97
496.26	317.00
496.63	320.26
496.99	323.56
497.35	327.00
497.72	330.68
498.08	334.38
498.44	338.19
498.80	342.31
499.17	346.60
499.53	350.89
499.89	355.42
500.26	359.98
500.62	364.63
500.98	369.78
501.34	374.91
501.71	380.30
502.07	385.71
502.43	391.39
502.79	397.02
503.16	402.89
503.52	409.06
503.88	415.24
504.24	421.68
504.60	428.32
504.97	435.03
505.33	441.76
505.69	449.12
506.05	456.54
506.41	464.04
506.78	471.30
507.14	479.17
507.50	487.06
507.86	495.07
508.22	503.56
508.59	511.72
508.95	520.21
509.31	528.89
509.67	537.83
510.03	547.01
510.39	556.42
510.75	565.99
511.12	575.55
511.48	585.53
511.84	595.42
512.20	605.37
512.56	615.74
512.92	626.34
513.28	636.90
513.64	647.45
514.00	658.12
514.37	669.04
514.73	680.19
515.09	691.48
515.45	702.68
515.81	714.02
516.17	725.52
516.53	737.05
516.89	748.59
517.25	760.32
517.61	772.00
517.97	783.65
518.33	795.24
518.69	807.10
519.05	818.88
519.41	831.15
519.77	843.79
520.13	855.62
520.49	867.58
520.85	879.48
521.21	891.79
521.57	904.23
521.93	916.45
522.29	928.86
522.65	941.15
523.01	953.44
523.37	965.53
523.73	977.78
524.09	989.92
524.45	1002.18
524.81	1014.43
525.17	1026.81
525.53	1039.20
525.89	1051.47
526.25	1063.68
526.61	1075.66
526.97	1087.43
527.33	1099.15
527.68	1111.90
528.04	1123.82
528.40	1135.32
528.76	1146.82
529.12	1158.41
529.48	1170.85
529.84	1182.35
530.20	1194.01
530.56	1205.86
530.91	1217.86
531.27	1229.70
531.63	1241.36
531.99	1252.99
532.35	1264.15
532.71	1274.81
533.07	1286.20
533.42	1297.26
533.78	1308.23
534.14	1318.94
534.50	1328.85
534.86	1339.42
535.21	1348.75
535.57	1358.92
535.93	1368.97
536.29	1378.73
536.65	1388.54
537.00	1397.33
537.36	1406.14
537.72	1414.69
538.08	1423.30
538.44	1431.92
538.79	1440.28
539.15	1448.78
539.51	1456.81
539.87	1465.37
540.22	1473.57
540.58	1481.35
540.94	1488.90
541.29	1496.14
541.65	1502.88
542.01	1510.46
542.37	1517.13
542.72	1524.30
543.08	1530.62
543.44	1537.54
543.79	1543.62
544.15	1549.30
544.51	1555.32
544.87	1561.29
545.22	1566.82
545.58	1571.92
545.94	1576.30
546.29	1580.61
546.65	1584.66
547.01	1588.84
547.36	1592.72
547.72	1596.69
548.07	1599.79
548.43	1603.14
548.79	1605.98
549.14	1608.97
549.50	1611.86
549.86	1614.05
550.21	1616.14
550.57	1618.49
550.92	1619.97
551.28	1622.09
551.64	1623.91
551.99	1625.62
552.35	1627.01
552.70	1628.60
553.06	1629.97
553.41	1631.38
553.77	1632.54
554.13	1633.68
554.48	1634.72
554.84	1635.63
555.19	1636.21
555.55	1636.74
555.90	1636.76
556.26	1636.85
556.61	1637.15
556.97	1636.36
557.32	1636.30
557.68	1635.68
558.03	1635.40
558.39	1635.06
558.74	1634.96
559.10	1634.65
559.45	1633.99
559.81	1633.67
560.16	1632.71
560.52	1631.90
560.87	1630.95
561.23	1629.88
561.58	1628.85
561.94	1627.08
562.29	1625.14
562.64	1623.59
563.00	1622.34
563.35	1621.53
563.71	1621.00
564.06	1619.96
564.42	1619.28
564.77	1618.36
565.12	1617.36
565.48	1616.39
565.83	1615.29
566.19	1613.96
566.54	1611.61
566.89	1609.44
567.25	1607.65
567.60	1605.91
567.96	1604.11
568.31	1602.23
568.66	1600.04
569.02	1597.29
569.37	1594.70
569.72	1592.32
570.08	1589.51
570.43	1586.58
570.78	1583.20
571.14	1579.45
571.49	1576.09
571.84	1573.30
572.20	1569.58
572.55	1566.60
572.90	1562.46
573.26	1558.37
573.61	1553.96
573.96	1550.37
574.31	1546.18
574.67	1541.34
575.02	1536.64
575.37	1531.94
575.72	1527.30
576.08	1523.24
576.43	1518.91
576.78	1515.06
577.13	1510.94
577.49	1506.59
577.84	1502.35
578.19	1498.46
578.54	1494.85
578.90	1491.02
579.25	1486.20
579.60	1481.58
579.95	1476.38
580.30	1472.05
580.66	1468.07
581.01	1463.40
581.36	1458.76
581.71	1454.49
582.06	1450.25
582.42	1446.03
582.77	1441.48
583.12	1437.06
583.47	1432.83
583.82	1428.61
584.17	1424.01
584.53	1419.81
584.88	1415.54
585.23	1411.18
585.58	1406.43
585.93	1401.66
586.28	1397.25
586.63	1392.78
586.98	1388.59
587.34	1384.97
587.69	1380.48
588.04	1375.98
588.39	1371.91
588.74	1367.61
589.09	1363.71
589.44	1359.35
589.79	1355.38
590.14	1351.18
590.49	1346.74
590.84	1342.12
591.19	1338.15
591.54	1333.83
591.89	1328.86
592.25	1324.55
592.60	1319.70
592.95	1315.08
593.30	1309.84
593.65	1304.79
594.00	1300.17
594.35	1296.63
594.70	1291.97
595.05	1287.81
595.40	1283.12
595.75	1278.22
596.10	1273.76
596.45	1269.32
596.80	1265.35
597.15	1260.92
597.50	1256.38
597.85	1252.17
598.19	1247.81
598.54	1243.36
598.89	1239.30
599.24	1235.55
599.59	1231.41
599.94	1228.09
600.29	1224.20
600.64	1220.45
600.99	1216.11
601.34	1212.21
601.69	1207.20
602.04	1202.59
602.39	1198.20
602.74	1194.40
603.08	1191.10
603.43	1187.87
603.78	1183.80
604.13	1179.53
604.48	1175.60
604.83	1172.54
605.18	1169.08
605.53	1165.00
605.87	1160.98
606.22	1157.22
606.57	1152.95
606.92	1148.76
607.27	1144.18
607.62	1140.08
607.96	1136.50
608.31	1133.19
608.66	1128.95
609.01	1124.66
609.36	1120.46
609.70	1116.10
610.05	1111.51
610.40	1106.97
610.75	1102.06
611.10	1097.90
611.44	1092.81
611.79	1087.83
612.14	1082.63
612.49	1077.37
612.83	1072.64
613.18	1067.47
613.53	1062.35
613.88	1057.14
614.22	1052.34
614.57	1047.31
614.92	1042.28
615.27	1037.11
615.61	1031.85
615.96	1027.12
616.31	1022.54
616.65	1018.26
617.00	1013.69
617.35	1009.04
617.70	1003.89
618.04	998.65
618.39	993.08
618.74	988.73
619.08	983.75
619.43	978.94
619.78	973.99
620.12	969.31
620.47	964.78
620.82	959.55
621.16	954.71
621.51	949.98
621.85	945.32
622.20	940.42
622.55	935.46
622.89	930.60
623.24	925.84
623.59	920.80
623.93	915.91
624.28	910.94
624.62	906.39
624.97	902.04
625.32	897.64
625.66	893.37
626.01	888.79
626.35	884.63
626.70	880.15
627.04	876.21
627.39	871.80
627.73	867.48
628.08	863.55
628.43	859.17
628.77	854.56
629.12	850.30
629.46	846.44
629.81	842.15
630.15	837.80
630.50	833.43
630.84	828.88
631.19	824.54
631.53	820.52
631.88	815.92
632.22	811.39
632.57	807.40
632.91	803.21
633.26	798.93
633.60	794.62
633.95	790.40
634.29	786.10
634.64	782.05
634.98	777.75
635.32	773.60
635.67	769.80
636.01	765.92
636.36	761.59
636.70	757.55
637.05	753.84
637.39	750.22
637.73	746.41
638.08	743.25
638.42	739.64
638.77	735.90
639.11	732.13
639.45	728.30
639.80	724.13
640.14	720.13
640.49	716.44
640.83	712.55
641.17	708.84
641.52	704.99
641.86	700.94
642.20	697.20
642.55	693.24
642.89	689.39
643.23	685.44
643.58	682.09
643.92	677.99
644.26	674.06
644.61	670.25
644.95	666.40
645.29	662.35
645.64	658.37
645.98	654.52
646.32	650.93
646.66	647.18
647.01	643.63
647.35	640.15
647.69	636.24
648.04	632.76
648.38	629.05
648.72	625.41
649.06	621.87
649.41	618.17
649.75	614.69
650.09	611.13
650.43	607.61
650.78	603.73
651.12	600.22
651.46	596.69
651.80	593.11
652.14	589.49
652.49	585.97
652.83	582.49
653.17	578.75
653.51	575.22
653.85	571.87
654.20	568.46
654.54	564.73
654.88	561.38
655.22	557.92
655.56	554.57
655.90	551.20
656.25	547.71
656.59	544.43
656.93	541.12
657.27	537.95
657.61	534.50
657.95	531.37
658.29	528.11
658.64	525.13
658.98	521.91
659.32	518.75
659.66	515.69
660.00	512.51
660.34	509.56
660.68	506.17
661.02	503.05
661.36	500.09
661.70	497.33
662.05	494.51
662.39	491.98
662.73	489.20
663.07	486.55
663.41	483.97
663.75	481.15
664.09	478.40
664.43	475.35
664.77	472.73
665.11	470.03
665.45	467.42
665.79	464.74
666.13	462.14
666.47	459.64
666.81	456.97
667.15	454.29
667.49	452.02
667.83	449.90
668.17	447.46
668.51	445.04
668.85	442.67
669.19	440.45
669.53	437.75
669.87	435.31
670.21	432.89
670.55	430.63
670.89	428.63
671.23	426.53
671.57	424.64
671.91	422.66
672.25	420.60
672.58	418.48
672.92	416.25
673.26	414.25
673.60	412.30
673.94	410.35
674.28	408.48
674.62	406.49
674.96	404.56
675.30	402.74
675.64	400.75
675.97	398.96
676.31	397.16
676.65	395.40
676.99	393.82
677.33	391.98
677.67	390.15
678.01	388.14
678.34	386.29
678.68	384.47
679.02	382.60
679.36	380.75
679.70	379.09
680.04	377.48
680.37	375.76
680.71	374.03
681.05	372.52
681.39	370.85
681.73	369.06
682.06	367.39
682.40	365.83
682.74	364.36
683.08	362.72
683.42	360.88
683.75	359.32
684.09	357.57
684.43	356.05
684.77	354.41
685.10	352.87
685.44	351.30
685.78	349.76
686.12	348.34
686.45	346.86
686.79	345.41
687.13	344.00
687.46	342.57
687.80	341.28
688.14	339.63
688.48	338.29
688.81	336.97
689.15	335.63
689.49	334.14
689.82	332.62
690.16	331.01
690.50	329.57
690.83	328.10
691.17	326.66
691.51	325.30
691.84	324.09
692.18	322.79
692.52	321.57
692.85	320.45
693.19	319.33
693.52	318.08
693.86	316.70
694.20	315.48
694.53	314.25
694.87	312.91
695.21	311.70
695.54	310.49
695.88	309.17
696.21	307.87
696.55	306.78
696.88	305.73
697.22	304.65
697.56	303.66
697.89	302.61
698.23	301.70
698.56	300.64
698.90	299.64
699.23	298.67
699.57	297.60
699.90	296.43
700.24	295.29
700.58	294.35
700.91	293.55
701.25	292.77
701.58	291.85
701.92	290.95
702.25	290.12
702.59	289.33
702.92	288.60
703.26	287.81
703.59	286.90
703.93	286.32
704.26	285.59
704.60	284.89
704.93	284.10
705.26	283.16
705.60	282.40
705.93	281.53
706.27	280.85
706.60	280.20
706.94	279.62
707.27	278.94
707.61	278.11
707.94	277.21
708.27	276.20
708.61	275.40
708.94	274.68
709.28	273.93
709.61	273.13
709.94	272.39
710.28	271.64
710.61	270.99
710.95	269.94
711.28	269.43
711.61	268.70
711.95	268.08
712.28	267.46
712.61	266.87
712.95	266.42
713.28	265.84
713.61	265.16
713.95	264.43
714.28	263.79
714.61	263.25
714.95	262.72
715.28	262.10
715.61	261.50
715.95	260.96
716.28	260.34
716.61	259.71
716.95	259.13
717.28	258.63
717.61	258.11
717.94	257.73
718.28	257.03
718.61	256.47
718.94	255.94
719.27	255.36
719.61	254.78
719.94	254.11
720.27	253.49
720.60	252.99
720.94	252.54
721.27	251.98
721.60	251.62
721.93	251.20
722.27	250.94
722.60	250.59
722.93	250.09
723.26	249.72
723.59	249.32
723.93	248.90
724.26	248.54
724.59	248.14
724.92	247.75
725.25	247.44
725.59	247.09
725.92	246.85
726.25	246.50
726.58	246.18
726.91	245.88
727.24	245.52
727.57	245.15
727.91	244.72
728.24	244.44
728.57	243.96
728.90	243.76
729.23	243.24
729.56	243.07
729.89	242.80
730.22	242.45
730.55	242.20
730.89	241.85
731.22	241.44
731.55	241.18
731.88	240.80
732.21	240.49
732.54	240.11
732.87	239.68
733.20	239.34
733.53	239.05
733.86	238.82
734.19	238.51
734.52	238.25
734.85	238.18
735.18	237.84
735.51	237.78
735.84	237.37
736.17	237.32
736.50	236.85
736.83	236.94
737.16	236.70
737.49	236.38
737.82	236.09
738.15	235.92
738.48	235.64
738.81	235.40
739.14	235.03
739.47	234.72
739.80	234.51
740.13	234.40
740.46	234.04
740.79	233.66
741.12	233.48
741.45	233.24
741.78	232.82
742.11	232.69
742.44	232.35
742.77	232.24
743.10	231.89
743.43	231.59
743.75	230.98
744.08	231.12
744.41	230.90
744.74	230.67
745.07	230.42
745.40	230.30
745.73	230.24
746.06	230.05
746.39	229.93
746.71	229.68
747.04	229.39
747.37	229.17
747.70	229.05
748.03	228.85
748.36	228.72
748.68	228.55
749.01	228.31
749.34	228.07
749.67	227.91
750.00	227.74
750.33	227.91
750.65	227.82
750.98	227.28
751.31	227.07
751.64	226.94
751.97	226.92
752.29	226.63
752.62	226.26
752.95	226.08
753.28	225.90
753.60	225.75
753.93	225.65
754.26	225.57
754.59	225.26
754.91	225.04
755.24	224.83
755.57	224.62
755.90	224.47
756.22	224.32
756.55	223.99
756.88	223.85
757.20	223.38
757.53	223.10
757.86	222.94
758.19	222.85
758.51	222.70
758.84	222.39
759.17	222.30
759.49	222.21
759.82	222.27
760.15	222.25
760.47	222.10
760.80	221.93
761.13	221.80
761.45	221.75
761.78	221.58
762.11	221.45
762.43	221.33
762.76	221.20
763.08	221.13
763.41	221.09
763.74	220.96
764.06	220.87
764.39	220.83
764.71	220.73
765.04	220.61
765.37	220.54
765.69	220.44
766.02	220.28
766.34	220.15
766.67	219.90
767.00	219.82
767.32	219.92
767.65	219.97
767.97	219.92
768.30	219.80
768.62	219.76
768.95	219.65
769.27	219.63
769.60	219.65
769.92	219.50
770.25	219.32
770.57	219.15
770.90	219.07
771.22	218.92
771.55	218.78
771.87	218.75
772.20	218.67
772.52	218.89
772.85	219.27
773.17	219.19
773.50	219.14
773.82	219.03
774.15	218.81
774.47	218.53
774.80	218.39
775.12	218.26
775.45	218.14
775.77	218.11
776.09	218.04
776.42	217.89
776.74	217.97
777.07	217.93
777.39	217.90
777.72	217.80
778.04	217.82
778.36	217.81
778.69	217.80
779.01	217.71
779.33	217.37
779.66	216.91
779.98	216.81
780.31	216.74
780.63	216.77
780.95	216.72
781.28	216.67
781.60	216.67
781.92	216.66
782.25	216.57
782.57	216.44
782.89	216.34
783.22	216.22
783.54	216.11
783.86	216.09
784.19	216.04
784.51	216.15
784.83	216.06
785.16	216.03
785.48	215.91
785.80	215.90
786.12	215.90
786.45	215.84
786.77	215.81
787.09	215.73
787.42	215.53
787.74	215.48
788.06	215.47
788.38	215.38
788.71	215.31
