SpectraSuite Data File
++++++++++++++++++++++++++++++++++++
Date: Mon Feb 25 17:06:01 EST 2013
User: group
Dark Spectrum Present: No
Reference Spectrum Present: No
Number of Sampled Component Spectra: 1
Spectrometers: USB2E7196
Integration Time (usec): 104000 (USB2E7196)
Spectra Averaged: 20 (USB2E7196)
Boxcar Smoothing: 10 (USB2E7196)
Correct for Electrical Dark: No (USB2E7196)
Strobe/Lamp Enabled: No (USB2E7196)
Correct for Detector Non-linearity: No (USB2E7196)
Correct for Stray Light: No (USB2E7196)
Number of Pixels in Processed Spectrum: 2048
>>>>>Begin Processed Spectral Data<<<<<
339.09	0.00
339.48	197.70
339.86	199.75
340.24	201.70
340.63	201.05
341.01	209.45
341.39	205.35
341.78	207.00
342.16	207.45
342.54	208.60
342.93	197.94
343.31	207.94
343.69	208.60
344.07	209.01
344.46	209.45
344.84	209.90
345.22	209.90
345.60	210.10
345.99	210.25
346.37	210.42
346.75	210.50
347.13	210.49
347.52	210.55
347.90	210.69
348.28	210.61
348.66	210.63
349.05	210.54
349.43	210.59
349.81	210.59
350.19	210.61
350.57	210.69
350.96	210.79
351.34	210.83
351.72	210.87
352.10	211.06
352.48	211.07
352.87	211.08
353.25	211.14
353.63	211.21
354.01	211.28
354.39	211.35
354.77	211.40
355.15	211.57
355.54	211.61
355.92	211.58
356.30	211.67
356.68	211.98
357.06	212.10
357.44	212.07
357.82	212.15
358.20	212.19
358.58	212.32
358.97	212.38
359.35	212.49
359.73	212.56
360.11	212.58
360.49	212.68
360.87	212.76
361.25	212.94
361.63	213.09
362.01	213.21
362.39	213.25
362.77	213.30
363.15	213.36
363.53	213.33
363.91	213.33
364.29	213.30
364.67	213.01
365.05	212.99
365.43	213.12
365.81	213.18
366.19	213.39
366.57	213.57
366.95	213.55
367.33	213.50
367.71	213.47
368.09	213.50
368.47	213.52
368.85	213.48
369.23	213.52
369.61	213.47
369.99	213.53
370.37	213.56
370.75	213.72
371.13	213.60
371.51	213.50
371.89	213.55
372.27	213.64
372.65	213.63
373.03	213.62
373.41	213.54
373.78	213.50
374.16	213.33
374.54	213.09
374.92	213.07
375.30	213.03
375.68	212.94
376.06	212.93
376.44	212.84
376.82	212.83
377.19	212.74
377.57	212.63
377.95	212.47
378.33	212.30
378.71	212.05
379.09	212.09
379.47	212.08
379.84	211.94
380.22	211.88
380.60	211.79
380.98	211.76
381.36	211.66
381.73	211.55
382.11	211.48
382.49	211.50
382.87	211.34
383.25	211.31
383.62	211.65
384.00	211.55
384.38	211.56
384.76	211.64
385.13	211.70
385.51	211.64
385.89	211.57
386.27	211.58
386.64	211.55
387.02	211.44
387.40	211.44
387.78	211.51
388.15	211.41
388.53	211.31
388.91	211.26
389.29	211.23
389.66	211.22
390.04	211.21
390.42	211.20
390.79	211.21
391.17	211.13
391.55	210.72
391.92	210.63
392.30	210.59
392.68	210.46
393.05	210.41
393.43	210.44
393.81	210.42
394.18	210.35
394.56	210.39
394.94	210.43
395.31	210.34
395.69	210.43
396.06	210.49
396.44	210.60
396.82	210.52
397.19	210.71
397.57	210.71
397.95	210.76
398.32	210.63
398.70	210.67
399.07	210.81
399.45	210.77
399.82	210.84
400.20	210.85
400.58	210.90
400.95	210.78
401.33	210.84
401.70	211.08
402.08	211.14
402.45	211.15
402.83	211.31
403.20	211.42
403.58	211.39
403.95	211.53
404.33	211.63
404.71	211.65
405.08	211.84
405.46	211.85
405.83	211.91
406.21	212.10
406.58	212.17
406.96	212.30
407.33	212.52
407.70	212.67
408.08	213.05
408.45	213.25
408.83	213.51
409.20	213.68
409.58	213.68
409.95	213.96
410.33	214.23
410.70	214.41
411.08	214.77
411.45	215.03
411.82	215.24
412.20	215.64
412.57	216.32
412.95	216.50
413.32	217.10
413.69	217.45
414.07	217.92
414.44	218.53
414.82	219.01
415.19	219.60
415.56	220.22
415.94	220.70
416.31	221.45
416.68	222.18
417.06	223.02
417.43	223.89
417.81	224.83
418.18	225.75
418.55	226.81
418.93	227.91
419.30	229.03
419.67	230.22
420.04	231.44
420.42	232.62
420.79	234.35
421.16	235.88
421.54	237.69
421.91	239.33
422.28	241.01
422.66	242.76
423.03	244.79
423.40	246.60
423.77	248.60
424.15	250.54
424.52	252.67
424.89	255.04
425.26	257.32
425.64	259.36
426.01	261.73
426.38	264.11
426.75	266.59
427.13	269.16
427.50	271.89
427.87	274.71
428.24	277.51
428.61	279.99
428.99	282.96
429.36	286.05
429.73	289.19
430.10	292.36
430.47	295.63
430.85	298.78
431.22	302.29
431.59	306.19
431.96	309.79
432.33	313.77
432.70	317.72
433.08	322.27
433.45	326.72
433.82	331.00
434.19	335.81
434.56	340.62
434.93	345.15
435.30	349.68
435.68	354.62
436.05	359.61
436.42	364.65
436.79	369.17
437.16	374.07
437.53	379.22
437.90	384.30
438.27	389.44
438.64	394.76
439.01	399.77
439.38	404.12
439.75	408.53
440.13	413.40
440.50	417.78
440.87	421.51
441.24	425.45
441.61	429.86
441.98	433.14
442.35	436.81
442.72	440.72
443.09	444.56
443.46	446.95
443.83	448.59
444.20	449.98
444.57	451.95
444.94	453.02
445.31	454.28
445.68	455.66
446.05	456.27
446.42	455.92
446.79	455.78
447.16	455.29
447.53	455.14
447.90	453.51
448.27	451.82
448.64	449.51
449.01	447.87
449.37	444.73
449.74	441.58
450.11	438.17
450.48	434.04
450.85	429.78
451.22	426.15
451.59	422.80
451.96	419.66
452.33	415.36
452.70	411.38
453.07	406.51
453.43	401.36
453.80	396.70
454.17	392.37
454.54	387.88
454.91	383.38
455.28	378.88
455.65	374.63
456.02	371.05
456.38	367.53
456.75	363.03
457.12	359.26
457.49	355.67
457.86	351.77
458.23	348.80
458.59	345.43
458.96	342.10
459.33	339.01
459.70	335.94
460.07	333.49
460.43	330.80
460.80	328.18
461.17	325.98
461.54	323.58
461.91	321.18
462.27	318.88
462.64	316.75
463.01	314.43
463.38	312.45
463.74	309.84
464.11	307.82
464.48	306.23
464.85	304.57
465.21	303.29
465.58	301.96
465.95	300.10
466.32	298.66
466.68	297.20
467.05	295.85
467.42	294.40
467.78	292.95
468.15	291.47
468.52	290.41
468.88	288.97
469.25	287.72
469.62	286.83
469.98	285.81
470.35	284.84
470.72	283.86
471.08	282.69
471.45	281.89
471.82	281.08
472.18	280.10
472.55	279.25
472.92	278.33
473.28	277.42
473.65	276.77
474.02	275.91
474.38	275.36
474.75	274.83
475.11	274.21
475.48	273.67
475.85	273.20
476.21	272.82
476.58	272.45
476.94	272.18
477.31	271.73
477.67	271.42
478.04	271.15
478.41	270.95
478.77	271.14
479.14	270.79
479.50	270.67
479.87	270.56
480.23	270.48
480.60	270.35
480.96	270.34
481.33	270.42
481.69	270.50
482.06	270.50
482.42	270.49
482.79	270.53
483.15	270.60
483.52	270.87
483.88	270.89
484.25	271.10
484.61	271.28
484.98	271.50
485.34	271.80
485.71	272.11
486.07	272.50
486.44	272.52
486.80	272.96
487.17	273.29
487.53	273.82
487.90	274.32
488.26	274.90
488.62	275.50
488.99	275.97
489.35	276.56
489.72	277.12
490.08	277.70
490.44	278.36
490.81	279.15
491.17	279.78
491.54	280.77
491.90	281.59
492.26	282.39
492.63	283.23
492.99	284.06
493.36	285.02
493.72	285.98
494.08	286.94
494.45	288.11
494.81	289.26
495.17	290.36
495.54	291.55
495.90	292.68
496.26	293.78
496.63	294.97
496.99	296.25
497.35	297.52
497.72	298.80
498.08	300.14
498.44	301.38
498.80	302.84
499.17	304.10
499.53	305.40
499.89	306.80
500.26	308.23
500.62	309.64
500.98	311.12
501.34	312.50
501.71	314.02
502.07	315.33
502.43	316.73
502.79	318.10
503.16	319.38
503.52	320.84
503.88	322.29
504.24	323.75
504.60	325.23
504.97	326.80
505.33	328.30
505.69	329.87
506.05	331.29
506.41	332.71
506.78	334.02
507.14	335.43
507.50	336.86
507.86	338.20
508.22	339.60
508.59	340.80
508.95	342.15
509.31	343.62
509.67	344.94
510.03	346.23
510.39	347.55
510.75	348.92
511.12	350.27
511.48	351.53
511.84	352.75
512.20	354.00
512.56	355.13
512.92	356.54
513.28	357.84
513.64	359.11
514.00	360.29
514.37	361.60
514.73	362.91
515.09	364.17
515.45	365.42
515.81	366.68
516.17	368.04
516.53	369.28
516.89	370.46
517.25	371.76
517.61	373.04
517.97	374.40
518.33	375.85
518.69	377.04
519.05	378.49
519.41	379.99
519.77	381.64
520.13	383.11
520.49	384.33
520.85	385.64
521.21	387.33
521.57	388.82
521.93	390.25
522.29	391.80
522.65	393.40
523.01	395.04
523.37	396.65
523.73	398.30
524.09	400.02
524.45	401.65
524.81	403.48
525.17	405.32
525.53	407.15
525.89	408.97
526.25	411.08
526.61	412.81
526.97	414.68
527.33	416.43
527.68	418.78
528.04	420.96
528.40	422.94
528.76	424.85
529.12	427.17
529.48	429.56
529.84	431.87
530.20	434.15
530.56	436.61
530.91	439.15
531.27	441.63
531.63	444.06
531.99	446.63
532.35	449.13
532.71	451.72
533.07	454.35
533.42	457.28
533.78	459.90
534.14	462.63
534.50	465.24
534.86	467.98
535.21	470.33
535.57	473.04
535.93	475.88
536.29	478.90
536.65	481.55
537.00	484.20
537.36	486.92
537.72	489.68
538.08	492.47
538.44	495.15
538.79	497.86
539.15	500.70
539.51	503.53
539.87	506.46
540.22	509.24
540.58	512.24
540.94	514.83
541.29	517.63
541.65	520.45
542.01	523.55
542.37	526.42
542.72	529.36
543.08	532.21
543.44	535.22
543.79	537.90
544.15	540.97
544.51	544.10
544.87	547.13
545.22	550.11
545.58	552.90
545.94	555.68
546.29	558.65
546.65	561.42
547.01	564.16
547.36	566.89
547.72	569.85
548.07	572.41
548.43	575.19
548.79	577.76
549.14	580.33
549.50	582.87
549.86	585.42
550.21	587.93
550.57	590.60
550.92	592.99
551.28	595.42
551.64	597.76
551.99	600.10
552.35	602.39
552.70	604.68
553.06	607.00
553.41	609.32
553.77	611.60
554.13	613.81
554.48	616.10
554.84	618.47
555.19	620.43
555.55	622.77
555.90	624.62
556.26	626.72
556.61	628.78
556.97	630.54
557.32	632.52
557.68	634.36
558.03	636.14
558.39	637.93
558.74	639.98
559.10	641.75
559.45	643.61
559.81	645.52
560.16	647.12
560.52	648.97
560.87	650.78
561.23	652.21
561.58	654.28
561.94	655.96
562.29	657.26
562.64	658.76
563.00	660.04
563.35	661.64
563.71	663.25
564.06	664.87
564.42	666.61
564.77	668.08
565.12	669.76
565.48	671.41
565.83	672.77
566.19	674.17
566.54	675.47
566.89	676.55
567.25	677.72
567.60	679.20
567.96	680.43
568.31	681.68
568.66	683.03
569.02	683.71
569.37	684.30
569.72	685.31
570.08	686.27
570.43	687.09
570.78	687.77
571.14	688.18
571.49	688.64
571.84	689.16
572.20	689.55
572.55	689.92
572.90	689.78
573.26	689.98
573.61	689.92
573.96	689.98
574.31	690.11
574.67	689.90
575.02	689.56
575.37	689.22
575.72	688.64
576.08	688.31
576.43	687.93
576.78	687.91
577.13	687.81
577.49	687.51
577.84	687.26
578.19	686.97
578.54	686.94
578.90	686.80
579.25	686.48
579.60	685.98
579.95	685.39
580.30	685.30
580.66	685.09
581.01	684.87
581.36	684.38
581.71	683.95
582.06	683.85
582.42	683.50
582.77	683.08
583.12	682.83
583.47	682.51
583.82	682.24
584.17	681.78
584.53	681.43
584.88	681.02
585.23	680.50
585.58	680.06
585.93	679.42
586.28	678.91
586.63	678.25
586.98	677.92
587.34	677.63
587.69	676.98
588.04	676.35
588.39	675.58
588.74	674.98
589.09	674.63
589.44	673.60
589.79	672.98
590.14	672.18
590.49	671.39
590.84	670.49
591.19	669.82
591.54	669.05
591.89	667.63
592.25	666.98
592.60	665.93
592.95	664.88
593.30	663.81
593.65	662.67
594.00	661.60
594.35	661.47
594.70	660.18
595.05	659.29
595.40	658.25
595.75	657.09
596.10	656.25
596.45	654.93
596.80	654.15
597.15	653.22
597.50	652.29
597.85	651.38
598.19	650.35
598.54	649.26
598.89	648.29
599.24	647.62
599.59	646.48
599.94	645.61
600.29	644.58
600.64	643.56
600.99	642.57
601.34	641.80
601.69	639.81
602.04	638.76
602.39	637.72
602.74	636.80
603.08	636.03
603.43	635.19
603.78	634.05
604.13	633.00
604.48	632.02
604.83	631.36
605.18	630.48
605.53	629.40
605.87	628.24
606.22	627.11
606.57	626.05
606.92	624.84
607.27	623.70
607.62	622.64
607.96	621.68
608.31	620.74
608.66	619.36
609.01	618.04
609.36	616.95
609.70	615.66
610.05	614.16
610.40	612.74
610.75	611.04
611.10	609.94
611.44	608.33
611.79	606.63
612.14	604.73
612.49	602.99
612.83	601.58
613.18	600.06
613.53	598.50
613.88	596.70
614.22	595.02
614.57	593.32
614.92	591.68
615.27	589.94
615.61	588.03
615.96	586.45
616.31	584.97
616.65	583.37
617.00	581.57
617.35	580.04
617.70	578.41
618.04	576.58
618.39	574.69
618.74	573.02
619.08	571.28
619.43	569.68
619.78	568.01
620.12	566.30
620.47	564.57
620.82	562.58
621.16	560.80
621.51	558.98
621.85	557.25
622.20	555.43
622.55	553.55
622.89	551.75
623.24	549.93
623.59	548.05
623.93	546.19
624.28	544.48
624.62	543.09
624.97	541.32
625.32	539.65
625.66	537.90
626.01	536.07
626.35	534.34
626.70	532.37
627.04	530.73
627.39	528.87
627.73	527.16
628.08	525.82
628.43	524.15
628.77	522.53
629.12	520.69
629.46	519.09
629.81	517.44
630.15	515.78
630.50	514.10
630.84	512.30
631.19	510.50
631.53	508.76
631.88	506.38
632.22	504.57
632.57	503.11
632.91	501.43
633.26	499.89
633.60	498.25
633.95	496.61
634.29	494.79
634.64	493.19
634.98	491.45
635.32	489.76
635.67	488.22
636.01	486.51
636.36	484.93
636.70	483.33
637.05	481.61
637.39	479.93
637.73	478.33
638.08	477.00
638.42	475.51
638.77	474.07
639.11	472.76
639.45	471.23
639.80	469.20
640.14	467.51
640.49	465.84
640.83	464.03
641.17	462.59
641.52	460.80
641.86	458.97
642.20	457.39
642.55	455.43
642.89	453.68
643.23	451.97
643.58	450.48
643.92	448.63
644.26	446.97
644.61	445.33
644.95	443.54
645.29	441.75
645.64	440.10
645.98	438.29
646.32	436.53
646.66	434.65
647.01	433.19
647.35	431.52
647.69	429.67
648.04	428.14
648.38	426.38
648.72	424.87
649.06	423.35
649.41	421.75
649.75	420.18
650.09	418.58
650.43	416.92
650.78	415.05
651.12	413.53
651.46	411.89
651.80	410.33
652.14	408.75
652.49	407.19
652.83	405.54
653.17	403.91
653.51	402.27
653.85	400.86
654.20	399.34
654.54	397.85
654.88	396.39
655.22	394.90
655.56	393.32
655.90	391.70
656.25	390.17
656.59	388.58
656.93	387.07
657.27	385.56
657.61	384.00
657.95	382.57
658.29	380.99
658.64	379.73
658.98	378.24
659.32	376.68
659.66	375.06
660.00	373.55
660.34	372.01
660.68	370.49
661.02	368.90
661.36	367.48
661.70	365.97
662.05	364.61
662.39	363.26
662.73	362.02
663.07	360.99
663.41	359.65
663.75	358.19
664.09	356.76
664.43	355.31
664.77	354.08
665.11	352.69
665.45	351.43
665.79	350.03
666.13	348.71
666.47	347.53
666.81	346.31
667.15	344.98
667.49	343.88
667.83	342.93
668.17	341.71
668.51	340.54
668.85	339.32
669.19	338.14
669.53	336.90
669.87	335.63
670.21	334.24
670.55	333.11
670.89	332.25
671.23	331.30
671.57	330.27
671.91	329.17
672.25	328.20
672.58	327.26
672.92	326.18
673.26	325.19
673.60	324.18
673.94	323.24
674.28	322.23
674.62	321.34
674.96	320.26
675.30	319.33
675.64	318.39
675.97	317.54
676.31	316.64
676.65	315.75
676.99	314.99
677.33	314.10
677.67	313.20
678.01	312.12
678.34	311.18
678.68	310.25
679.02	309.40
679.36	308.42
679.70	307.45
680.04	306.57
680.37	305.68
680.71	304.85
681.05	304.00
681.39	303.25
681.73	302.33
682.06	301.47
682.40	300.67
682.74	299.81
683.08	299.10
683.42	298.26
683.75	297.44
684.09	296.56
684.43	295.67
684.77	294.73
685.10	294.05
685.44	293.23
685.78	292.44
686.12	291.71
686.45	291.04
686.79	290.18
687.13	289.48
687.46	288.69
687.80	287.99
688.14	287.15
688.48	286.38
688.81	285.60
689.15	284.96
689.49	284.17
689.82	283.44
690.16	282.50
690.50	281.66
690.83	280.81
691.17	279.98
691.51	279.24
691.84	278.60
692.18	277.77
692.52	277.04
692.85	276.48
693.19	275.85
693.52	275.13
693.86	274.51
694.20	273.83
694.53	273.15
694.87	272.32
695.21	271.74
695.54	271.15
695.88	270.38
696.21	269.63
696.55	269.02
696.88	268.33
697.22	267.70
697.56	267.16
697.89	266.65
698.23	266.07
698.56	265.52
698.90	264.98
699.23	264.48
699.57	263.99
699.90	263.37
700.24	262.69
700.58	262.13
700.91	261.60
701.25	261.34
701.58	260.92
701.92	260.50
702.25	259.96
702.59	259.37
702.92	258.93
703.26	258.41
703.59	257.97
703.93	257.72
704.26	257.30
704.60	256.93
704.93	256.36
705.26	255.89
705.60	255.47
705.93	254.91
706.27	254.51
706.60	254.05
706.94	253.70
707.27	253.30
707.61	252.87
707.94	252.41
708.27	251.71
708.61	251.11
708.94	250.66
709.28	250.24
709.61	249.77
709.94	249.41
710.28	249.00
710.61	248.64
710.95	247.94
711.28	247.79
711.61	247.30
711.95	247.08
712.28	246.69
712.61	246.27
712.95	246.09
713.28	245.83
713.61	245.47
713.95	244.90
714.28	244.46
714.61	244.10
714.95	243.74
715.28	243.38
715.61	243.08
715.95	242.76
716.28	242.37
716.61	242.17
716.95	241.81
717.28	241.57
717.61	241.21
717.94	240.92
718.28	240.37
718.61	240.08
718.94	239.66
719.27	239.35
719.61	239.10
719.94	238.76
720.27	238.26
720.60	237.85
720.94	237.64
721.27	237.42
721.60	237.16
721.93	236.88
722.27	236.72
722.60	236.47
722.93	236.15
723.26	236.02
723.59	235.76
723.93	235.41
724.26	235.12
724.59	234.79
724.92	234.63
725.25	234.45
725.59	234.20
725.92	234.04
726.25	233.74
726.58	233.57
726.91	233.30
727.24	233.18
727.57	233.04
727.91	232.83
728.24	232.61
728.57	232.42
728.90	232.33
729.23	232.01
729.56	232.05
729.89	231.86
730.22	231.60
730.55	231.34
730.89	231.29
731.22	231.02
731.55	230.85
731.88	230.62
732.21	230.32
732.54	230.11
732.87	230.01
733.20	229.96
733.53	229.72
733.86	229.64
734.19	229.35
734.52	229.22
734.85	229.30
735.18	229.14
735.51	229.12
735.84	228.86
736.17	228.79
736.50	228.43
736.83	228.64
737.16	228.45
737.49	228.29
737.82	228.02
738.15	228.01
738.48	227.88
738.81	227.71
739.14	227.59
739.47	227.43
739.80	227.21
740.13	227.02
740.46	226.84
740.79	226.56
741.12	226.42
741.45	226.20
741.78	225.77
742.11	225.70
742.44	225.46
742.77	225.41
743.10	225.25
743.43	225.16
743.75	224.66
744.08	225.05
744.41	224.88
744.74	224.78
745.07	224.55
745.40	224.49
745.73	224.51
746.06	224.43
746.39	224.29
746.71	224.08
747.04	223.93
747.37	223.79
747.70	223.76
748.03	223.63
748.36	223.55
748.68	223.48
749.01	223.30
749.34	223.15
749.67	223.02
750.00	222.87
750.33	223.00
750.65	222.93
750.98	222.28
751.31	222.16
751.64	222.02
751.97	222.13
752.29	222.00
752.62	221.83
752.95	221.69
753.28	221.60
753.60	221.54
753.93	221.46
754.26	221.32
754.59	221.10
754.91	220.95
755.24	220.84
755.57	220.79
755.90	220.57
756.22	220.42
756.55	220.25
756.88	220.08
757.20	219.66
757.53	219.50
757.86	219.40
758.19	219.37
758.51	219.28
758.84	219.01
759.17	218.85
759.49	218.75
759.82	218.83
760.15	218.81
760.47	218.69
760.80	218.51
761.13	218.50
761.45	218.39
761.78	218.33
762.11	218.20
762.43	218.03
762.76	217.96
763.08	217.96
763.41	217.87
763.74	217.90
764.06	217.83
764.39	217.77
764.71	217.69
765.04	217.57
765.37	217.55
765.69	217.39
766.02	217.24
766.34	217.08
766.67	216.83
767.00	216.86
767.32	217.02
767.65	217.20
767.97	217.10
768.30	217.01
768.62	216.94
768.95	216.90
769.27	216.89
769.60	216.96
769.92	216.77
770.25	216.71
770.57	216.57
770.90	216.49
771.22	216.40
771.55	216.47
771.87	216.45
772.20	216.30
772.52	216.62
772.85	217.10
773.17	217.03
773.50	216.97
773.82	216.82
774.15	216.58
774.47	216.26
774.80	216.23
775.12	216.25
775.45	216.24
775.77	216.25
776.09	216.18
776.42	216.08
776.74	216.19
777.07	216.07
777.39	216.01
777.72	215.97
778.04	216.01
778.36	215.86
778.69	215.79
779.01	215.79
779.33	215.40
779.66	214.92
779.98	214.86
780.31	214.79
780.63	214.86
780.95	214.91
781.28	214.91
781.60	214.84
781.92	214.84
782.25	214.75
782.57	214.65
782.89	214.56
783.22	214.51
783.54	214.38
783.86	214.40
784.19	214.36
784.51	214.40
784.83	214.32
785.16	214.28
785.48	214.26
785.80	214.26
786.12	214.31
786.45	214.22
786.77	214.27
787.09	214.20
787.42	213.99
787.74	213.95
788.06	213.98
788.38	213.89
788.71	213.81
789.03	213.78
789.35	213.79
789.67	213.75
789.99	213.73
790.32	213.70
790.64	213.75
790.96	213.94
791.28	213.79
791.61	213.72
791.93	213.77
792.25	213.69
792.57	213.86
792.89	213.71
793.21	213.81
793.54	213.75
793.86	213.75
794.18	213.74
