SpectraSuite Data File
++++++++++++++++++++++++++++++++++++
Date: Mon Feb 25 17:18:36 EST 2013
User: group
Dark Spectrum Present: No
Reference Spectrum Present: No
Number of Sampled Component Spectra: 1
Spectrometers: USB2E7196
Integration Time (usec): 104000 (USB2E7196)
Spectra Averaged: 20 (USB2E7196)
Boxcar Smoothing: 10 (USB2E7196)
Correct for Electrical Dark: No (USB2E7196)
Strobe/Lamp Enabled: No (USB2E7196)
Correct for Detector Non-linearity: No (USB2E7196)
Correct for Stray Light: No (USB2E7196)
Number of Pixels in Processed Spectrum: 2048
>>>>>Begin Processed Spectral Data<<<<<
339.09	0.00
339.48	198.35
339.86	201.55
340.24	203.00
340.63	204.50
341.01	210.35
341.39	205.85
341.78	207.65
342.16	208.95
342.54	208.25
342.93	198.75
343.31	208.83
343.69	209.41
344.07	209.81
344.46	210.27
344.84	210.69
345.22	210.80
345.60	211.15
345.99	211.42
346.37	211.60
346.75	211.83
347.13	211.94
347.52	212.07
347.90	212.33
348.28	212.38
348.66	212.52
349.05	212.45
349.43	212.46
349.81	212.55
350.19	212.57
350.57	212.63
350.96	212.78
351.34	212.88
351.72	213.04
352.10	213.25
352.48	213.28
352.87	213.31
353.25	213.33
353.63	213.35
354.01	213.43
354.39	213.48
354.77	213.57
355.15	213.70
355.54	213.75
355.92	213.72
356.30	213.83
356.68	214.08
357.06	214.23
357.44	214.24
357.82	214.30
358.20	214.46
358.58	214.53
358.97	214.57
359.35	214.69
359.73	214.76
360.11	214.75
360.49	214.79
360.87	214.79
361.25	214.86
361.63	215.04
362.01	215.04
362.39	215.10
362.77	215.10
363.15	215.09
363.53	215.17
363.91	215.19
364.29	215.27
364.67	214.95
365.05	215.00
365.43	215.12
365.81	215.17
366.19	215.27
366.57	215.30
366.95	215.29
367.33	215.16
367.71	215.18
368.09	215.15
368.47	215.13
368.85	215.12
369.23	215.16
369.61	215.02
369.99	215.04
370.37	215.04
370.75	215.15
371.13	215.09
371.51	214.92
371.89	214.94
372.27	214.88
372.65	214.89
373.03	214.78
373.41	214.66
373.78	214.55
374.16	214.30
374.54	214.20
374.92	214.10
375.30	214.11
375.68	213.92
376.06	213.95
376.44	213.87
376.82	213.86
377.19	213.87
377.57	213.82
377.95	213.71
378.33	213.63
378.71	213.36
379.09	213.36
379.47	213.40
379.84	213.31
380.22	213.21
380.60	213.10
380.98	213.03
381.36	213.03
381.73	213.02
382.11	213.03
382.49	213.03
382.87	213.01
383.25	212.96
383.62	213.33
384.00	213.23
384.38	213.24
384.76	213.29
385.13	213.35
385.51	213.28
385.89	213.26
386.27	213.20
386.64	213.23
387.02	213.20
387.40	213.12
387.78	213.12
388.15	213.13
388.53	213.12
388.91	213.08
389.29	213.07
389.66	213.05
390.04	213.09
390.42	213.16
390.79	213.17
391.17	213.18
391.55	212.92
391.92	212.95
392.30	212.96
392.68	212.85
393.05	212.85
393.43	212.74
393.81	212.65
394.18	212.62
394.56	212.64
394.94	212.70
395.31	212.74
395.69	212.86
396.06	212.97
396.44	212.99
396.82	213.01
397.19	213.13
397.57	213.10
397.95	213.15
398.32	213.06
398.70	213.10
399.07	213.16
399.45	213.09
399.82	213.05
400.20	213.06
400.58	213.06
400.95	212.96
401.33	213.18
401.70	213.54
402.08	213.70
402.45	213.71
402.83	213.82
403.20	213.91
403.58	213.90
403.95	214.04
404.33	214.19
404.71	214.28
405.08	214.59
405.46	214.74
405.83	214.86
406.21	215.00
406.58	215.18
406.96	215.37
407.33	215.62
407.70	215.91
408.08	216.43
408.45	216.72
408.83	217.08
409.20	217.36
409.58	217.39
409.95	217.73
410.33	218.14
410.70	218.35
411.08	218.84
411.45	219.29
411.82	219.68
412.20	220.27
412.57	221.02
412.95	221.29
413.32	221.94
413.69	222.61
414.07	223.35
414.44	224.05
414.82	224.81
415.19	225.75
415.56	226.66
415.94	227.47
416.31	228.63
416.68	229.62
417.06	230.85
417.43	232.19
417.81	233.56
418.18	235.04
418.55	236.59
418.93	238.17
419.30	239.81
419.67	241.52
420.04	243.28
420.42	245.09
420.79	247.40
421.16	249.55
421.54	251.80
421.91	254.03
422.28	256.51
422.66	259.05
423.03	261.58
423.40	264.17
423.77	266.92
424.15	269.61
424.52	272.51
424.89	275.67
425.26	278.65
425.64	281.49
426.01	284.59
426.38	287.93
426.75	291.32
427.13	294.82
427.50	298.40
427.87	302.23
428.24	306.02
428.61	309.53
428.99	313.51
429.36	317.83
429.73	322.16
430.10	326.49
430.47	330.82
430.85	335.18
431.22	339.89
431.59	345.09
431.96	349.91
432.33	355.25
432.70	360.35
433.08	366.44
433.45	372.06
433.82	377.73
434.19	384.00
434.56	390.11
434.93	396.00
435.30	401.95
435.68	408.40
436.05	414.76
436.42	421.14
436.79	427.02
437.16	433.21
437.53	439.72
437.90	446.19
438.27	452.66
438.64	459.34
439.01	465.60
439.38	471.00
439.75	476.54
440.13	482.64
440.50	488.40
440.87	493.08
441.24	497.97
441.61	503.38
441.98	507.26
442.35	511.68
442.72	516.24
443.09	520.60
443.46	523.25
443.83	525.07
444.20	526.49
444.57	528.74
444.94	529.77
445.31	530.90
445.68	532.13
446.05	532.54
446.42	531.76
446.79	530.95
447.16	529.89
447.53	528.99
447.90	526.40
448.27	523.84
448.64	520.16
449.01	517.65
449.37	513.16
449.74	508.84
450.11	503.92
450.48	498.41
450.85	492.75
451.22	487.86
451.59	483.17
451.96	478.75
452.33	472.90
452.70	467.56
453.07	461.16
453.43	454.38
453.80	448.09
454.17	442.21
454.54	436.49
454.91	430.51
455.28	424.65
455.65	419.38
456.02	414.31
456.38	409.78
456.75	403.95
457.12	399.14
457.49	394.46
457.86	389.75
458.23	385.85
458.59	381.67
458.96	377.30
459.33	373.50
459.70	369.74
460.07	366.56
460.43	363.00
460.80	359.79
461.17	357.07
461.54	354.13
461.91	351.26
462.27	348.43
462.64	345.88
463.01	343.25
463.38	340.63
463.74	337.63
464.11	335.35
464.48	333.45
464.85	331.28
465.21	329.68
465.58	328.04
465.95	325.98
466.32	324.23
466.68	322.49
467.05	320.82
467.42	319.20
467.78	317.49
468.15	315.90
468.52	314.67
468.88	312.93
469.25	311.50
469.62	310.48
469.98	309.28
470.35	308.36
470.72	307.29
471.08	305.95
471.45	305.04
471.82	304.17
472.18	303.10
472.55	302.43
472.92	301.47
473.28	300.63
473.65	299.89
474.02	299.22
474.38	298.84
474.75	298.54
475.11	298.04
475.48	297.83
475.85	297.60
476.21	297.36
476.58	297.36
476.94	297.52
477.31	297.49
477.67	297.49
478.04	297.54
478.41	297.82
478.77	298.43
479.14	298.63
479.50	298.99
479.87	299.51
480.23	300.05
480.60	300.58
480.96	301.18
481.33	301.96
481.69	302.72
482.06	303.44
482.42	304.18
482.79	305.16
483.15	306.15
483.52	307.42
483.88	308.61
484.25	309.83
484.61	311.05
484.98	312.40
485.34	314.12
485.71	315.85
486.07	317.63
486.44	319.35
486.80	321.44
487.17	323.50
487.53	325.84
487.90	328.30
488.26	331.03
488.62	333.97
488.99	336.73
489.35	339.76
489.72	343.04
490.08	346.43
490.44	349.94
490.81	353.61
491.17	357.45
491.54	361.55
491.90	365.95
492.26	370.54
492.63	375.42
492.99	380.18
493.36	385.32
493.72	390.85
494.08	396.41
494.45	402.50
494.81	408.89
495.17	415.40
495.54	422.38
495.90	429.55
496.26	436.91
496.63	444.61
496.99	452.67
497.35	460.99
497.72	469.67
498.08	478.52
498.44	487.88
498.80	497.86
499.17	508.14
499.53	518.60
499.89	529.55
500.26	540.55
500.62	552.08
500.98	564.21
501.34	576.56
501.71	589.65
502.07	602.73
502.43	616.38
502.79	630.24
503.16	644.58
503.52	659.50
503.88	674.55
504.24	690.43
504.60	706.52
504.97	723.45
505.33	740.45
505.69	758.83
506.05	776.96
506.41	795.17
506.78	813.91
507.14	833.04
507.50	852.62
507.86	873.00
508.22	893.93
508.59	914.95
508.95	936.61
509.31	958.31
509.67	980.62
510.03	1003.21
510.39	1026.65
510.75	1050.56
511.12	1074.65
511.48	1099.18
511.84	1124.05
512.20	1149.06
512.56	1174.31
512.92	1200.25
513.28	1226.21
513.64	1252.46
514.00	1279.06
514.37	1305.73
514.73	1333.14
515.09	1360.70
515.45	1387.72
515.81	1415.20
516.17	1443.06
516.53	1471.02
516.89	1498.97
517.25	1527.15
517.61	1555.50
517.97	1583.37
518.33	1611.34
518.69	1639.42
519.05	1667.85
519.41	1696.23
519.77	1725.33
520.13	1753.71
520.49	1781.63
520.85	1809.82
521.21	1838.76
521.57	1867.75
521.93	1895.81
522.29	1924.70
522.65	1953.38
523.01	1982.22
523.37	2010.11
523.73	2038.14
524.09	2066.00
524.45	2094.38
524.81	2122.50
525.17	2150.80
525.53	2179.37
525.89	2206.98
526.25	2234.40
526.61	2260.80
526.97	2287.56
527.33	2313.71
527.68	2340.70
528.04	2367.03
528.40	2392.16
528.76	2417.19
529.12	2442.86
529.48	2469.30
529.84	2494.40
530.20	2518.94
530.56	2544.00
530.91	2569.99
531.27	2595.09
531.63	2619.28
531.99	2643.15
532.35	2666.08
532.71	2688.62
533.07	2711.65
533.42	2733.92
533.78	2756.78
534.14	2779.04
534.50	2799.56
534.86	2821.14
535.21	2840.54
535.57	2861.68
535.93	2882.13
536.29	2901.93
536.65	2921.42
537.00	2939.45
537.36	2956.91
537.72	2974.31
538.08	2991.16
538.44	3007.66
538.79	3024.50
539.15	3041.32
539.51	3057.50
539.87	3074.77
540.22	3090.80
540.58	3107.25
540.94	3123.24
541.29	3136.80
541.65	3150.13
542.01	3164.59
542.37	3177.35
542.72	3191.06
543.08	3203.14
543.44	3216.17
543.79	3227.60
544.15	3238.10
544.51	3249.90
544.87	3261.70
545.22	3271.51
545.58	3280.76
545.94	3288.74
546.29	3295.84
546.65	3302.57
547.01	3309.58
547.36	3315.65
547.72	3321.76
548.07	3325.47
548.43	3329.60
548.79	3333.53
549.14	3338.23
549.50	3342.35
549.86	3345.67
550.21	3348.92
550.57	3352.39
550.92	3353.63
551.28	3355.32
551.64	3357.22
551.99	3358.92
552.35	3359.39
552.70	3361.16
553.06	3362.81
553.41	3364.15
553.77	3365.19
554.13	3365.80
554.48	3366.38
554.84	3366.75
555.19	3365.81
555.55	3364.90
555.90	3363.35
556.26	3362.59
556.61	3360.95
556.97	3358.38
557.32	3356.69
557.68	3353.83
558.03	3350.50
558.39	3348.46
558.74	3347.18
559.10	3344.86
559.45	3341.53
559.81	3338.86
560.16	3334.74
560.52	3331.33
560.87	3327.26
561.23	3322.29
561.58	3318.39
561.94	3312.97
562.29	3307.15
562.64	3302.82
563.00	3298.69
563.35	3295.24
563.71	3291.95
564.06	3288.00
564.42	3284.03
564.77	3280.01
565.12	3275.85
565.48	3271.34
565.83	3266.64
566.19	3262.11
566.54	3255.64
566.89	3249.55
567.25	3243.81
567.60	3238.63
567.96	3232.56
568.31	3226.78
568.66	3221.05
569.02	3214.24
569.37	3207.43
569.72	3201.05
570.08	3193.90
570.43	3186.38
570.78	3178.50
571.14	3169.44
571.49	3160.91
571.84	3153.65
572.20	3144.39
572.55	3135.93
572.90	3126.84
573.26	3117.04
573.61	3106.57
573.96	3097.35
574.31	3087.07
574.67	3076.15
575.02	3064.97
575.37	3053.88
575.72	3042.39
576.08	3032.02
576.43	3020.97
576.78	3010.43
577.13	3000.75
577.49	2990.82
577.84	2980.34
578.19	2970.38
578.54	2961.31
578.90	2952.29
579.25	2940.88
579.60	2929.75
579.95	2918.45
580.30	2908.17
580.66	2898.50
581.01	2887.63
581.36	2876.69
581.71	2866.08
582.06	2855.68
582.42	2845.69
582.77	2834.85
583.12	2824.47
583.47	2814.40
583.82	2805.10
584.17	2794.94
584.53	2784.07
584.88	2773.17
585.23	2762.32
585.58	2750.97
585.93	2739.58
586.28	2728.62
586.63	2718.10
586.98	2707.97
587.34	2698.26
587.69	2687.72
588.04	2676.93
588.39	2666.95
588.74	2656.28
589.09	2646.39
589.44	2635.53
589.79	2625.56
590.14	2616.00
590.49	2605.77
590.84	2595.33
591.19	2585.76
591.54	2575.53
591.89	2563.86
592.25	2553.19
592.60	2542.26
592.95	2531.14
593.30	2519.37
593.65	2507.56
594.00	2496.60
594.35	2487.34
594.70	2476.37
595.05	2466.04
595.40	2455.58
595.75	2444.27
596.10	2434.34
596.45	2424.42
596.80	2415.55
597.15	2406.17
597.50	2395.80
597.85	2385.90
598.19	2375.55
598.54	2364.87
598.89	2355.38
599.24	2347.20
599.59	2337.70
599.94	2329.58
600.29	2320.87
600.64	2312.29
600.99	2302.63
601.34	2293.97
601.69	2283.28
602.04	2273.64
602.39	2264.15
602.74	2254.80
603.08	2246.84
603.43	2238.60
603.78	2229.47
604.13	2220.05
604.48	2210.53
604.83	2203.07
605.18	2195.45
605.53	2186.51
605.87	2177.27
606.22	2168.51
606.57	2159.22
606.92	2150.30
607.27	2140.51
607.62	2131.14
607.96	2122.38
608.31	2114.44
608.66	2104.70
609.01	2095.49
609.36	2086.39
609.70	2076.25
610.05	2066.20
610.40	2056.09
610.75	2045.56
611.10	2036.15
611.44	2025.08
611.79	2014.16
612.14	2002.36
612.49	1990.67
612.83	1980.39
613.18	1969.28
613.53	1958.31
613.88	1946.73
614.22	1936.29
614.57	1925.55
614.92	1914.79
615.27	1903.69
615.61	1892.97
615.96	1882.78
616.31	1872.79
616.65	1863.12
617.00	1853.61
617.35	1843.87
617.70	1833.18
618.04	1822.37
618.39	1810.84
618.74	1800.98
619.08	1790.84
619.43	1780.74
619.78	1771.16
620.12	1760.92
620.47	1751.51
620.82	1740.68
621.16	1730.37
621.51	1719.91
621.85	1710.03
622.20	1699.66
622.55	1689.36
622.89	1678.75
623.24	1668.53
623.59	1657.95
623.93	1647.50
624.28	1637.36
624.62	1627.36
624.97	1617.76
625.32	1608.39
625.66	1599.39
626.01	1590.04
626.35	1580.72
626.70	1571.27
627.04	1562.12
627.39	1552.87
627.73	1543.51
628.08	1534.87
628.43	1525.39
628.77	1515.65
629.12	1506.31
629.46	1497.99
629.81	1489.37
630.15	1480.42
630.50	1471.40
630.84	1462.09
631.19	1453.06
631.53	1444.02
631.88	1434.47
632.22	1425.02
632.57	1416.25
632.91	1406.90
633.26	1398.16
633.60	1389.41
633.95	1380.75
634.29	1371.58
634.64	1363.15
634.98	1354.16
635.32	1345.62
635.67	1337.90
636.01	1329.96
636.36	1321.11
636.70	1312.66
637.05	1304.04
637.39	1296.03
637.73	1288.26
638.08	1281.03
638.42	1273.72
638.77	1265.89
639.11	1258.12
639.45	1250.48
639.80	1242.08
640.14	1234.00
640.49	1225.71
640.83	1217.61
641.17	1209.54
641.52	1201.40
641.86	1192.88
642.20	1184.80
642.55	1176.24
642.89	1167.79
643.23	1159.35
643.58	1151.94
643.92	1143.37
644.26	1135.53
644.61	1127.56
644.95	1119.11
645.29	1111.02
645.64	1102.27
645.98	1094.25
646.32	1086.69
646.66	1078.50
647.01	1071.08
647.35	1063.82
647.69	1055.75
648.04	1048.25
648.38	1040.59
648.72	1033.03
649.06	1025.70
649.41	1018.13
649.75	1010.71
650.09	1003.53
650.43	996.28
650.78	988.35
651.12	980.98
651.46	973.55
651.80	966.34
652.14	959.27
652.49	951.97
652.83	944.60
653.17	936.91
653.51	929.43
653.85	922.63
654.20	915.50
654.54	908.14
654.88	901.21
655.22	893.90
655.56	886.64
655.90	879.36
656.25	872.22
656.59	865.20
656.93	858.62
657.27	851.91
657.61	844.80
657.95	838.44
658.29	831.95
658.64	825.51
658.98	818.70
659.32	811.82
659.66	805.32
660.00	798.95
660.34	792.65
660.68	785.91
661.02	779.42
661.36	773.23
661.70	767.15
662.05	761.43
662.39	755.86
662.73	750.28
663.07	744.85
663.41	739.20
663.75	733.55
664.09	727.57
664.43	721.70
664.77	716.49
665.11	710.74
665.45	705.28
665.79	699.97
666.13	694.81
666.47	689.61
666.81	684.22
667.15	679.08
667.49	674.44
667.83	669.89
668.17	664.96
668.51	660.11
668.85	655.54
669.19	650.74
669.53	645.79
669.87	640.96
670.21	636.37
670.55	631.71
670.89	627.50
671.23	623.38
671.57	619.08
671.91	614.64
672.25	610.26
672.58	606.18
672.92	601.83
673.26	597.62
673.60	593.68
673.94	589.68
674.28	585.61
674.62	581.65
674.96	577.77
675.30	573.99
675.64	570.08
675.97	566.19
676.31	562.67
676.65	559.05
676.99	555.64
677.33	551.83
677.67	548.34
678.01	544.49
678.34	540.96
678.68	537.51
679.02	533.85
679.36	530.54
679.70	527.10
680.04	523.75
680.37	520.25
680.71	516.72
681.05	513.43
681.39	510.24
681.73	506.83
682.06	503.60
682.40	500.52
682.74	497.39
683.08	494.10
683.42	490.65
683.75	487.48
684.09	484.13
684.43	481.06
684.77	477.73
685.10	474.87
685.44	471.73
685.78	468.72
686.12	465.96
686.45	463.03
686.79	460.07
687.13	457.23
687.46	454.59
687.80	451.99
688.14	449.11
688.48	446.37
688.81	443.47
689.15	440.65
689.49	437.77
689.82	435.01
690.16	432.10
690.50	429.21
690.83	426.54
691.17	423.90
691.51	421.20
691.84	418.86
692.18	416.31
692.52	413.97
692.85	411.61
693.19	409.32
693.52	406.80
693.86	404.35
694.20	401.99
694.53	399.55
694.87	397.09
695.21	394.85
695.54	392.45
695.88	390.20
696.21	387.85
696.55	385.81
696.88	383.68
697.22	381.69
697.56	379.83
697.89	377.67
698.23	375.68
698.56	373.76
698.90	371.87
699.23	369.86
699.57	367.69
699.90	365.59
700.24	363.49
700.58	361.71
700.91	359.88
701.25	358.22
701.58	356.45
701.92	354.65
702.25	352.91
702.59	351.19
702.92	349.46
703.26	347.80
703.59	346.02
703.93	344.54
704.26	342.88
704.60	341.24
704.93	339.71
705.26	338.08
705.60	336.52
705.93	334.81
706.27	333.35
706.60	332.05
706.94	330.76
707.27	329.34
707.61	327.86
707.94	326.40
708.27	324.80
708.61	323.32
708.94	321.96
709.28	320.58
709.61	319.24
709.94	318.08
710.28	316.87
710.61	315.77
710.95	314.30
711.28	313.32
711.61	312.11
711.95	310.92
712.28	309.75
712.61	308.56
712.95	307.61
713.28	306.45
713.61	305.20
713.95	304.00
714.28	302.91
714.61	301.82
714.95	300.75
715.28	299.56
715.61	298.54
715.95	297.47
716.28	296.44
716.61	295.40
716.95	294.24
717.28	293.30
717.61	292.23
717.94	291.25
718.28	290.03
718.61	289.09
718.94	288.14
719.27	287.22
719.61	286.35
719.94	285.42
720.27	284.47
720.60	283.71
720.94	282.82
721.27	281.92
721.60	281.14
721.93	280.36
722.27	279.82
722.60	279.11
722.93	278.34
723.26	277.56
723.59	276.80
723.93	276.14
724.26	275.39
724.59	274.63
724.92	274.00
725.25	273.41
725.59	272.79
725.92	272.15
726.25	271.49
726.58	270.82
726.91	270.20
727.24	269.60
727.57	268.98
727.91	268.34
728.24	267.83
728.57	267.25
728.90	266.73
729.23	265.95
729.56	265.48
729.89	264.85
730.22	264.33
730.55	263.70
730.89	263.16
731.22	262.55
731.55	262.04
731.88	261.45
732.21	260.85
732.54	260.14
732.87	259.59
733.20	259.08
733.53	258.51
733.86	257.89
734.19	257.32
734.52	256.75
734.85	256.45
735.18	255.89
735.51	255.47
735.84	254.92
736.17	254.62
736.50	254.03
736.83	254.07
737.16	253.50
737.49	253.11
737.82	252.48
738.15	251.95
738.48	251.41
738.81	250.88
739.14	250.42
739.47	249.97
739.80	249.45
740.13	248.96
740.46	248.47
740.79	247.97
741.12	247.53
741.45	247.06
741.78	246.43
742.11	246.17
742.44	245.60
742.77	245.22
743.10	244.67
743.43	244.21
743.75	243.43
744.08	243.51
744.41	243.08
744.74	242.76
745.07	242.48
745.40	242.20
745.73	242.00
746.06	241.62
746.39	241.28
746.71	240.92
747.04	240.54
747.37	240.21
747.70	239.94
748.03	239.64
748.36	239.29
748.68	238.89
749.01	238.40
749.34	238.15
749.67	237.78
750.00	237.52
750.33	237.47
750.65	237.10
750.98	236.29
751.31	235.98
751.64	235.71
751.97	235.52
752.29	235.23
752.62	234.87
752.95	234.46
753.28	234.19
753.60	233.94
753.93	233.87
754.26	233.62
754.59	233.26
754.91	233.01
755.24	232.81
755.57	232.65
755.90	232.39
756.22	232.02
756.55	231.82
756.88	231.45
757.20	230.85
757.53	230.60
757.86	230.42
758.19	230.21
758.51	229.95
758.84	229.57
759.17	229.25
759.49	229.00
759.82	229.07
760.15	228.88
760.47	228.63
760.80	228.27
761.13	228.09
761.45	227.87
761.78	227.63
762.11	227.42
762.43	227.21
762.76	226.98
763.08	226.86
763.41	226.69
763.74	226.60
764.06	226.48
764.39	226.28
764.71	226.08
765.04	225.88
765.37	225.70
765.69	225.48
766.02	225.35
766.34	225.15
766.67	224.79
767.00	224.66
767.32	224.70
767.65	224.76
767.97	224.60
768.30	224.49
768.62	224.33
768.95	224.12
769.27	223.91
769.60	223.88
769.92	223.73
770.25	223.46
770.57	223.22
770.90	223.12
771.22	223.00
771.55	222.91
771.87	222.83
772.20	222.64
772.52	222.86
772.85	223.18
773.17	223.06
773.50	222.92
773.82	222.74
774.15	222.48
774.47	222.09
774.80	221.89
775.12	221.79
775.45	221.65
775.77	221.60
776.09	221.54
776.42	221.40
776.74	221.41
777.07	221.34
777.39	221.24
777.72	220.98
778.04	220.98
778.36	220.89
778.69	220.84
779.01	220.88
779.33	220.49
779.66	219.95
779.98	219.86
780.31	219.81
780.63	219.82
780.95	219.78
781.28	219.72
781.60	219.73
781.92	219.62
782.25	219.58
782.57	219.51
782.89	219.42
783.22	219.34
783.54	219.17
783.86	219.07
784.19	219.05
784.51	219.15
784.83	218.98
785.16	218.90
785.48	218.68
785.80	218.55
