SpectraSuite Data File
++++++++++++++++++++++++++++++++++++
Date: Mon Feb 25 17:16:19 EST 2013
User: group
Dark Spectrum Present: No
Reference Spectrum Present: No
Number of Sampled Component Spectra: 1
Spectrometers: USB2E7196
Integration Time (usec): 104000 (USB2E7196)
Spectra Averaged: 20 (USB2E7196)
Boxcar Smoothing: 10 (USB2E7196)
Correct for Electrical Dark: No (USB2E7196)
Strobe/Lamp Enabled: No (USB2E7196)
Correct for Detector Non-linearity: No (USB2E7196)
Correct for Stray Light: No (USB2E7196)
Number of Pixels in Processed Spectrum: 2048
>>>>>Begin Processed Spectral Data<<<<<
339.09	0.00
339.48	196.95
339.86	198.75
340.24	201.60
340.63	201.90
341.01	209.10
341.39	205.20
341.78	206.70
342.16	209.00
342.54	209.05
342.93	197.87
343.31	207.86
343.69	208.45
344.07	209.00
344.46	209.45
344.84	209.85
345.22	209.92
345.60	210.18
345.99	210.34
346.37	210.45
346.75	210.56
347.13	210.58
347.52	210.75
347.90	210.90
348.28	210.93
348.66	210.97
349.05	210.92
349.43	211.03
349.81	211.03
350.19	211.03
350.57	211.10
350.96	211.24
351.34	211.34
351.72	211.47
352.10	211.53
352.48	211.55
352.87	211.63
353.25	211.74
353.63	211.77
354.01	211.89
354.39	211.93
354.77	212.00
355.15	212.20
355.54	212.20
355.92	212.10
356.30	212.19
356.68	212.51
357.06	212.69
357.44	212.65
357.82	212.79
358.20	212.91
358.58	213.06
358.97	213.17
359.35	213.38
359.73	213.54
360.11	213.60
360.49	213.70
360.87	213.81
361.25	213.85
361.63	214.13
362.01	214.24
362.39	214.32
362.77	214.43
363.15	214.44
363.53	214.42
363.91	214.56
364.29	214.65
364.67	214.30
365.05	214.35
365.43	214.51
365.81	214.52
366.19	214.68
366.57	214.77
366.95	214.77
367.33	214.69
367.71	214.67
368.09	214.78
368.47	214.79
368.85	214.78
369.23	214.90
369.61	214.64
369.99	214.71
370.37	214.76
370.75	214.85
371.13	214.79
371.51	214.80
371.89	214.79
372.27	214.79
372.65	214.82
373.03	214.80
373.41	214.73
373.78	214.71
374.16	214.52
374.54	214.42
374.92	214.37
375.30	214.24
375.68	214.12
376.06	214.10
376.44	214.02
376.82	213.93
377.19	213.93
377.57	214.00
377.95	213.89
378.33	213.82
378.71	213.61
379.09	213.65
379.47	213.65
379.84	213.60
380.22	213.50
380.60	213.41
380.98	213.32
381.36	213.25
381.73	213.15
382.11	213.12
382.49	213.00
382.87	212.89
383.25	212.88
383.62	213.24
384.00	213.09
384.38	213.12
384.76	213.22
385.13	213.20
385.51	213.14
385.89	213.00
386.27	212.93
386.64	212.98
387.02	212.92
387.40	212.80
387.78	212.73
388.15	212.76
388.53	212.71
388.91	212.71
389.29	212.63
389.66	212.71
390.04	212.64
390.42	212.68
390.79	212.71
391.17	212.75
391.55	212.31
391.92	212.29
392.30	212.23
392.68	212.05
393.05	212.04
393.43	212.00
393.81	212.00
394.18	211.96
394.56	211.83
394.94	211.88
395.31	211.85
395.69	211.98
396.06	212.01
396.44	212.04
396.82	211.93
397.19	212.14
397.57	212.09
397.95	212.20
398.32	212.16
398.70	212.18
399.07	212.20
399.45	212.23
399.82	212.24
400.20	212.25
400.58	212.30
400.95	212.10
401.33	212.22
401.70	212.48
402.08	212.53
402.45	212.55
402.83	212.64
403.20	212.73
403.58	212.68
403.95	212.81
404.33	212.98
404.71	213.20
405.08	213.49
405.46	213.63
405.83	213.77
406.21	213.89
406.58	214.04
406.96	214.22
407.33	214.47
407.70	214.78
408.08	215.28
408.45	215.50
408.83	215.85
409.20	216.01
409.58	216.11
409.95	216.47
410.33	216.88
410.70	217.07
411.08	217.51
411.45	217.95
411.82	218.25
412.20	218.69
412.57	219.27
412.95	219.41
413.32	219.90
413.69	220.37
414.07	220.93
414.44	221.56
414.82	222.22
415.19	222.92
415.56	223.59
415.94	224.12
416.31	225.08
416.68	225.86
417.06	226.90
417.43	227.92
417.81	228.90
418.18	229.97
418.55	231.16
418.93	232.33
419.30	233.54
419.67	234.90
420.04	236.25
420.42	237.56
420.79	239.50
421.16	241.20
421.54	243.13
421.91	244.96
422.28	246.81
422.66	248.69
423.03	250.80
423.40	252.85
423.77	255.11
424.15	257.19
424.52	259.56
424.89	262.06
425.26	264.38
425.64	266.74
426.01	269.27
426.38	271.93
426.75	274.57
427.13	277.28
427.50	280.17
427.87	283.21
428.24	286.29
428.61	288.94
428.99	292.20
429.36	295.50
429.73	298.87
430.10	302.24
430.47	305.66
430.85	309.04
431.22	312.74
431.59	316.72
431.96	320.54
432.33	324.65
432.70	328.62
433.08	333.36
433.45	337.87
433.82	342.27
434.19	347.13
434.56	352.07
434.93	356.60
435.30	361.16
435.68	366.15
436.05	370.99
436.42	375.88
436.79	380.39
437.16	385.15
437.53	390.31
437.90	395.37
438.27	400.49
438.64	405.55
439.01	410.41
439.38	414.51
439.75	418.68
440.13	423.49
440.50	427.90
440.87	431.55
441.24	435.30
441.61	439.51
441.98	442.64
442.35	446.07
442.72	449.74
443.09	453.27
443.46	455.43
443.83	456.77
444.20	457.95
444.57	459.57
444.94	460.39
445.31	461.20
445.68	462.29
446.05	462.46
446.42	462.03
446.79	461.36
447.16	460.66
447.53	460.06
447.90	457.96
448.27	455.96
448.64	453.03
449.01	450.97
449.37	447.45
449.74	443.89
450.11	440.10
450.48	435.68
450.85	431.13
451.22	427.08
451.59	423.62
451.96	420.26
452.33	415.62
452.70	411.45
453.07	406.36
453.43	400.95
453.80	396.27
454.17	391.50
454.54	387.15
454.91	382.49
455.28	377.95
455.65	373.64
456.02	369.89
456.38	366.40
456.75	361.88
457.12	358.05
457.49	354.49
457.86	350.62
458.23	347.80
458.59	344.41
458.96	341.14
459.33	338.07
459.70	334.99
460.07	332.60
460.43	329.81
460.80	327.42
461.17	325.25
461.54	322.74
461.91	320.62
462.27	318.26
462.64	316.29
463.01	314.09
463.38	312.29
463.74	309.68
464.11	307.88
464.48	306.38
464.85	304.68
465.21	303.37
465.58	302.08
465.95	300.27
466.32	298.92
466.68	297.50
467.05	296.11
467.42	294.81
467.78	293.44
468.15	292.17
468.52	291.15
468.88	289.83
469.25	288.67
469.62	287.79
469.98	286.88
470.35	286.09
470.72	285.28
471.08	284.16
471.45	283.47
471.82	282.72
472.18	281.83
472.55	281.39
472.92	280.70
473.28	280.16
473.65	279.60
474.02	279.05
474.38	278.82
474.75	278.55
475.11	278.06
475.48	277.85
475.85	277.67
476.21	277.42
476.58	277.25
476.94	277.21
477.31	277.07
477.67	276.96
478.04	276.86
478.41	277.05
478.77	277.53
479.14	277.58
479.50	277.84
479.87	278.17
480.23	278.49
480.60	278.89
480.96	279.16
481.33	279.78
481.69	280.30
482.06	280.78
482.42	281.26
482.79	281.99
483.15	282.76
483.52	283.62
483.88	284.35
484.25	285.32
484.61	286.34
484.98	287.36
485.34	288.59
485.71	289.83
486.07	291.17
486.44	292.27
486.80	293.93
487.17	295.45
487.53	297.29
487.90	299.09
488.26	301.02
488.62	303.13
488.99	305.13
489.35	307.37
489.72	309.65
490.08	312.24
490.44	314.73
490.81	317.39
491.17	320.10
491.54	323.36
491.90	326.47
492.26	329.66
492.63	333.10
492.99	336.63
493.36	340.45
493.72	344.43
494.08	348.55
494.45	352.82
494.81	357.49
495.17	362.08
495.54	366.98
495.90	371.96
496.26	377.43
496.63	383.01
496.99	388.88
497.35	394.96
497.72	401.26
498.08	407.85
498.44	414.52
498.80	421.84
499.17	429.10
499.53	436.83
499.89	444.97
500.26	453.17
500.62	461.62
500.98	470.45
501.34	479.47
501.71	489.08
502.07	498.64
502.43	508.47
502.79	518.62
503.16	529.22
503.52	540.10
503.88	551.00
504.24	562.64
504.60	574.34
504.97	586.57
505.33	598.97
505.69	612.18
506.05	625.56
506.41	638.88
506.78	652.40
507.14	666.30
507.50	680.67
507.86	695.44
508.22	710.64
508.59	725.68
508.95	741.32
509.31	756.88
509.67	773.27
510.03	789.88
510.39	807.13
510.75	824.59
511.12	842.21
511.48	860.18
511.84	878.33
512.20	896.56
512.56	915.40
512.92	934.43
513.28	953.41
513.64	972.58
514.00	992.03
514.37	1011.95
514.73	1032.04
515.09	1052.18
515.45	1072.27
515.81	1092.49
516.17	1113.12
516.53	1133.83
516.89	1154.75
517.25	1175.61
517.61	1196.58
517.97	1217.36
518.33	1238.17
518.69	1259.20
519.05	1280.46
519.41	1301.78
519.77	1323.77
520.13	1344.86
520.49	1365.93
520.85	1387.37
521.21	1409.07
521.57	1431.09
521.93	1452.17
522.29	1473.91
522.65	1495.89
523.01	1517.26
523.37	1538.18
523.73	1559.85
524.09	1581.15
524.45	1602.66
524.81	1623.91
525.17	1645.40
525.53	1666.64
525.89	1687.88
526.25	1708.85
526.61	1729.01
526.97	1749.24
527.33	1769.35
527.68	1789.75
528.04	1809.47
528.40	1828.59
528.76	1847.93
529.12	1867.20
529.48	1887.40
529.84	1906.44
530.20	1925.36
530.56	1944.84
530.91	1964.74
531.27	1983.67
531.63	2002.12
531.99	2020.40
532.35	2038.37
532.71	2055.98
533.07	2073.90
533.42	2091.10
533.78	2108.86
534.14	2126.10
534.50	2142.03
534.86	2158.43
535.21	2174.10
535.57	2190.96
535.93	2206.61
536.29	2221.93
536.65	2237.23
537.00	2251.40
537.36	2265.36
537.72	2278.50
538.08	2291.79
538.44	2305.07
538.79	2318.55
539.15	2331.69
539.51	2344.46
539.87	2357.71
540.22	2370.23
540.58	2383.02
540.94	2395.25
541.29	2405.99
541.65	2416.67
542.01	2427.98
542.37	2438.29
542.72	2449.26
543.08	2458.45
543.44	2468.82
543.79	2477.93
544.15	2486.47
544.51	2495.56
544.87	2504.70
545.22	2512.72
545.58	2520.17
545.94	2526.60
546.29	2532.44
546.65	2538.33
547.01	2544.20
547.36	2549.51
547.72	2554.44
548.07	2558.16
548.43	2561.93
548.79	2565.38
549.14	2569.11
549.50	2572.64
549.86	2575.21
550.21	2577.24
550.57	2580.32
550.92	2581.68
551.28	2583.27
551.64	2584.92
551.99	2586.86
552.35	2587.80
552.70	2589.40
553.06	2590.73
553.41	2591.80
553.77	2592.40
554.13	2593.06
554.48	2593.52
554.84	2593.95
555.19	2593.84
555.55	2593.22
555.90	2592.20
556.26	2591.47
556.61	2590.54
556.97	2588.76
557.32	2588.06
557.68	2585.93
558.03	2583.57
558.39	2582.06
558.74	2581.15
559.10	2579.65
559.45	2577.24
559.81	2575.59
560.16	2572.70
560.52	2570.68
560.87	2567.85
561.23	2564.76
561.58	2562.32
561.94	2558.61
562.29	2554.20
562.64	2550.73
563.00	2547.91
563.35	2545.19
563.71	2543.14
564.06	2540.30
564.42	2537.81
564.77	2535.06
565.12	2532.72
565.48	2529.80
565.83	2526.60
566.19	2523.30
566.54	2518.70
566.89	2514.10
567.25	2509.53
567.60	2505.67
567.96	2501.00
568.31	2497.10
568.66	2492.72
569.02	2487.15
569.37	2481.58
569.72	2476.90
570.08	2471.55
570.43	2465.85
570.78	2459.78
571.14	2452.86
571.49	2446.24
571.84	2440.20
572.20	2432.92
572.55	2426.83
572.90	2419.59
573.26	2412.30
573.61	2404.63
573.96	2397.76
574.31	2390.21
574.67	2382.58
575.02	2374.25
575.37	2366.08
575.72	2357.65
576.08	2350.39
576.43	2341.97
576.78	2334.74
577.13	2327.30
577.49	2319.53
577.84	2311.63
578.19	2304.48
578.54	2297.74
578.90	2290.92
579.25	2282.95
579.60	2274.59
579.95	2265.75
580.30	2258.31
580.66	2251.23
581.01	2243.04
581.36	2234.55
581.71	2226.82
582.06	2218.79
582.42	2211.41
582.77	2203.15
583.12	2195.03
583.47	2187.29
583.82	2180.50
584.17	2172.63
584.53	2164.80
584.88	2156.98
585.23	2149.27
585.58	2141.04
585.93	2132.49
586.28	2124.75
586.63	2116.80
586.98	2109.40
587.34	2102.45
587.69	2094.81
588.04	2086.73
588.39	2079.33
588.74	2071.52
589.09	2064.04
589.44	2056.28
589.79	2048.86
590.14	2041.95
590.49	2034.75
590.84	2026.75
591.19	2019.70
591.54	2012.21
591.89	2003.48
592.25	1995.51
592.60	1987.16
592.95	1979.05
593.30	1970.37
593.65	1961.59
594.00	1953.49
594.35	1946.75
594.70	1938.37
595.05	1930.43
595.40	1922.99
595.75	1914.82
596.10	1907.49
596.45	1900.23
596.80	1893.34
597.15	1885.93
597.50	1877.90
597.85	1870.62
598.19	1862.86
598.54	1854.98
598.89	1847.95
599.24	1841.83
599.59	1835.17
599.94	1829.31
600.29	1822.77
600.64	1816.24
600.99	1809.19
601.34	1802.54
601.69	1794.61
602.04	1787.26
602.39	1780.06
602.74	1772.90
603.08	1766.99
603.43	1760.82
603.78	1753.88
604.13	1747.14
604.48	1740.37
604.83	1734.78
605.18	1728.81
605.53	1722.36
605.87	1715.13
606.22	1708.66
606.57	1701.82
606.92	1694.75
607.27	1687.01
607.62	1679.91
607.96	1673.64
608.31	1667.68
608.66	1660.67
609.01	1653.45
609.36	1646.47
609.70	1639.14
610.05	1631.55
610.40	1623.96
610.75	1616.39
611.10	1609.45
611.44	1600.69
611.79	1592.66
612.14	1583.95
612.49	1574.99
612.83	1567.03
613.18	1558.81
613.53	1550.18
613.88	1541.33
614.22	1533.49
614.57	1525.27
614.92	1516.89
615.27	1508.13
615.61	1499.44
615.96	1491.28
616.31	1483.85
616.65	1476.39
617.00	1469.09
617.35	1461.39
617.70	1453.13
618.04	1444.53
618.39	1435.46
618.74	1428.02
619.08	1419.89
619.43	1412.04
619.78	1404.26
620.12	1396.32
620.47	1388.65
620.82	1380.50
621.16	1372.65
621.51	1364.67
621.85	1357.00
622.20	1349.11
622.55	1341.32
622.89	1333.30
623.24	1325.55
623.59	1317.35
623.93	1309.45
624.28	1301.54
624.62	1294.10
624.97	1286.55
625.32	1279.50
625.66	1272.58
626.01	1265.23
626.35	1258.25
626.70	1250.84
627.04	1244.14
627.39	1237.39
627.73	1230.71
628.08	1224.00
628.43	1216.83
628.77	1209.49
629.12	1202.46
629.46	1196.13
629.81	1189.40
630.15	1182.58
630.50	1175.66
630.84	1168.37
631.19	1161.41
631.53	1154.73
631.88	1147.12
632.22	1139.80
632.57	1132.94
632.91	1125.92
633.26	1119.30
633.60	1112.46
633.95	1106.37
634.29	1099.34
634.64	1092.56
634.98	1085.60
635.32	1079.28
635.67	1073.41
636.01	1067.18
636.36	1060.61
636.70	1054.06
637.05	1047.66
637.39	1041.55
637.73	1035.63
638.08	1030.28
638.42	1024.60
638.77	1018.64
639.11	1012.94
639.45	1007.18
639.80	1000.77
640.14	994.44
640.49	988.22
640.83	982.18
641.17	975.88
641.52	969.70
641.86	963.33
642.20	957.43
642.55	950.84
642.89	944.14
643.23	937.88
643.58	932.04
643.92	925.65
644.26	919.73
644.61	913.66
644.95	907.51
645.29	901.23
645.64	894.99
645.98	888.93
646.32	883.15
646.66	877.04
647.01	871.33
647.35	866.01
647.69	859.84
648.04	854.23
648.38	848.17
648.72	842.38
649.06	836.61
649.41	830.84
649.75	825.20
650.09	819.84
650.43	814.09
650.78	808.15
651.12	802.62
651.46	796.92
651.80	791.69
652.14	786.05
652.49	780.58
652.83	774.89
653.17	768.83
653.51	763.11
653.85	757.93
654.20	752.57
654.54	746.75
654.88	741.53
655.22	735.89
655.56	730.42
655.90	725.19
656.25	719.96
656.59	714.70
656.93	709.60
657.27	704.56
657.61	699.31
657.95	694.29
658.29	689.40
658.64	684.57
658.98	679.18
659.32	674.16
659.66	669.15
660.00	664.27
660.34	659.45
660.68	654.48
661.02	649.49
661.36	644.72
661.70	640.33
662.05	635.77
662.39	631.60
662.73	627.44
663.07	623.29
663.41	618.91
663.75	614.53
664.09	610.24
664.43	605.65
664.77	601.65
665.11	597.51
665.45	593.21
665.79	589.01
666.13	585.11
666.47	581.17
666.81	577.25
667.15	573.30
667.49	569.77
667.83	566.31
668.17	562.65
668.51	559.17
668.85	555.50
669.19	552.01
669.53	548.31
669.87	544.70
670.21	541.04
670.55	537.72
670.89	534.55
671.23	531.40
671.57	528.17
671.91	524.84
672.25	521.57
672.58	518.45
672.92	515.29
673.26	512.16
673.60	509.01
673.94	505.89
674.28	502.99
674.62	499.95
674.96	496.75
675.30	493.83
675.64	490.69
675.97	487.69
676.31	484.95
676.65	482.13
676.99	479.57
677.33	476.70
677.67	473.77
678.01	470.81
678.34	467.94
678.68	465.35
679.02	462.51
679.36	459.82
679.70	457.08
680.04	454.38
680.37	451.62
680.71	448.95
681.05	446.58
681.39	443.92
681.73	441.31
682.06	438.97
682.40	436.51
682.74	434.16
683.08	431.79
683.42	429.14
683.75	426.64
684.09	423.95
684.43	421.50
684.77	419.01
685.10	416.59
685.44	414.11
685.78	411.70
686.12	409.59
686.45	407.35
686.79	405.19
687.13	403.14
687.46	401.01
687.80	398.98
688.14	396.71
688.48	394.72
688.81	392.62
689.15	390.49
689.49	388.39
689.82	386.29
690.16	384.00
690.50	381.93
690.83	379.83
691.17	377.73
691.51	375.79
691.84	373.99
692.18	372.05
692.52	370.32
692.85	368.60
693.19	366.81
693.52	365.02
693.86	363.10
694.20	361.30
694.53	359.56
694.87	357.66
695.21	355.89
695.54	354.06
695.88	352.18
696.21	350.40
696.55	348.85
696.88	347.16
697.22	345.54
697.56	344.03
697.89	342.56
698.23	341.01
698.56	339.48
698.90	338.03
699.23	336.55
699.57	334.93
699.90	333.26
700.24	331.64
700.58	330.07
700.91	328.70
701.25	327.37
701.58	326.03
701.92	324.66
702.25	323.17
702.59	321.80
702.92	320.51
703.26	319.14
703.59	317.70
703.93	316.68
704.26	315.55
704.60	314.19
704.93	312.89
705.26	311.72
705.60	310.56
705.93	309.13
706.27	308.04
706.60	307.03
706.94	306.12
707.27	304.96
707.61	303.93
707.94	302.69
708.27	301.31
708.61	300.10
708.94	299.03
709.28	298.13
709.61	297.09
709.94	296.11
710.28	295.14
710.61	294.15
710.95	292.83
711.28	291.99
711.61	291.03
711.95	290.20
712.28	289.24
712.61	288.22
712.95	287.51
713.28	286.67
713.61	285.70
713.95	284.69
714.28	283.92
714.61	282.98
714.95	282.28
715.28	281.45
715.61	280.60
715.95	279.83
716.28	278.89
716.61	278.09
716.95	277.26
717.28	276.52
717.61	275.79
717.94	275.17
718.28	274.23
718.61	273.51
718.94	272.71
719.27	272.01
719.61	271.35
719.94	270.60
720.27	269.71
720.60	269.00
720.94	268.33
721.27	267.70
721.60	267.16
721.93	266.51
722.27	265.99
722.60	265.45
722.93	264.84
723.26	264.36
723.59	263.60
723.93	263.07
724.26	262.52
724.59	262.02
724.92	261.37
725.25	260.91
725.59	260.39
725.92	259.86
726.25	259.37
726.58	258.81
726.91	258.39
727.24	258.02
727.57	257.53
727.91	257.01
728.24	256.57
728.57	256.05
728.90	255.55
729.23	255.11
729.56	254.83
729.89	254.38
730.22	253.83
730.55	253.46
730.89	253.04
731.22	252.54
731.55	252.03
731.88	251.61
732.21	251.04
732.54	250.55
732.87	250.07
733.20	249.62
733.53	249.14
733.86	248.62
734.19	248.09
734.52	247.69
734.85	247.50
735.18	247.02
735.51	246.70
735.84	246.36
736.17	246.06
736.50	245.44
736.83	245.44
737.16	245.05
737.49	244.73
737.82	244.29
738.15	244.03
738.48	243.65
738.81	243.29
739.14	242.99
739.47	242.60
739.80	242.27
740.13	241.93
740.46	241.59
740.79	241.19
741.12	240.91
741.45	240.54
741.78	240.07
742.11	239.80
742.44	239.43
742.77	239.17
743.10	238.73
743.43	238.42
743.75	237.75
744.08	237.90
744.41	237.58
744.74	237.29
745.07	236.88
745.40	236.66
745.73	236.50
746.06	236.21
746.39	235.99
746.71	235.68
747.04	235.39
747.37	235.06
747.70	234.87
748.03	234.59
748.36	234.42
748.68	234.11
749.01	233.74
749.34	233.41
749.67	233.08
750.00	232.98
750.33	232.94
750.65	232.70
750.98	232.01
751.31	231.78
751.64	231.53
751.97	231.50
752.29	231.27
752.62	230.87
752.95	230.66
753.28	230.46
753.60	230.20
753.93	230.09
754.26	230.03
754.59	229.74
754.91	229.49
755.24	229.27
755.57	229.08
755.90	228.85
756.22	228.64
756.55	228.33
756.88	227.94
757.20	227.59
757.53	227.25
757.86	227.10
758.19	226.93
758.51	226.74
758.84	226.37
759.17	226.15
759.49	226.07
759.82	226.00
760.15	225.79
760.47	225.60
760.80	225.33
761.13	225.13
761.45	224.98
761.78	224.77
762.11	224.54
762.43	224.30
762.76	224.20
763.08	224.18
763.41	224.13
763.74	224.00
764.06	223.81
764.39	223.69
764.71	223.55
765.04	223.35
765.37	223.24
765.69	223.15
766.02	222.91
766.34	222.73
766.67	222.43
767.00	222.41
767.32	222.48
767.65	222.58
767.97	222.48
768.30	222.40
768.62	222.30
768.95	222.21
769.27	222.10
769.60	222.08
769.92	221.84
770.25	221.69
770.57	221.53
770.90	221.40
771.22	221.32
771.55	221.25
771.87	221.16
772.20	221.09
772.52	221.26
772.85	221.67
773.17	221.56
773.50	221.48
773.82	221.32
774.15	221.00
774.47	220.65
774.80	220.49
775.12	220.35
775.45	220.28
775.77	220.13
776.09	220.14
776.42	219.96
776.74	219.95
777.07	219.81
777.39	219.77
777.72	219.70
778.04	219.71
778.36	219.55
778.69	219.52
779.01	219.44
779.33	219.09
779.66	218.62
779.98	218.46
780.31	218.37
780.63	218.51
780.95	218.58
781.28	218.50
781.60	218.47
781.92	218.39
782.25	218.40
782.57	218.43
782.89	218.34
783.22	218.29
783.54	218.13
783.86	218.11
784.19	218.07
784.51	218.17
784.83	217.96
785.16	217.93
785.48	217.84
785.80	217.84
786.12	217.78
786.45	217.67
