SpectraSuite Data File
++++++++++++++++++++++++++++++++++++
Date: Mon Feb 25 17:04:00 EST 2013
User: group
Dark Spectrum Present: No
Reference Spectrum Present: No
Number of Sampled Component Spectra: 1
Spectrometers: USB2E7196
Integration Time (usec): 104000 (USB2E7196)
Spectra Averaged: 20 (USB2E7196)
Boxcar Smoothing: 10 (USB2E7196)
Correct for Electrical Dark: No (USB2E7196)
Strobe/Lamp Enabled: No (USB2E7196)
Correct for Detector Non-linearity: No (USB2E7196)
Correct for Stray Light: No (USB2E7196)
Number of Pixels in Processed Spectrum: 2048
>>>>>Begin Processed Spectral Data<<<<<
339.09	0.00
339.48	198.10
339.86	200.35
340.24	201.65
340.63	202.35
341.01	210.15
341.39	206.25
341.78	209.90
342.16	210.80
342.54	209.90
342.93	199.09
343.31	209.12
343.69	209.73
344.07	210.21
344.46	210.64
344.84	211.05
345.22	211.07
345.60	211.33
345.99	211.31
346.37	211.32
346.75	211.32
347.13	211.33
347.52	211.24
347.90	211.40
348.28	211.32
348.66	211.42
349.05	211.29
349.43	211.34
349.81	211.31
350.19	211.26
350.57	211.21
350.96	211.20
351.34	211.29
351.72	211.34
352.10	211.35
352.48	211.34
352.87	211.40
353.25	211.51
353.63	211.56
354.01	211.61
354.39	211.71
354.77	211.82
355.15	211.94
355.54	212.11
355.92	211.98
356.30	212.01
356.68	212.31
357.06	212.38
357.44	212.28
357.82	212.35
358.20	212.47
358.58	212.57
358.97	212.61
359.35	212.69
359.73	212.75
360.11	212.76
360.49	212.81
360.87	212.79
361.25	212.70
361.63	212.75
362.01	212.88
362.39	212.78
362.77	212.84
363.15	212.91
363.53	212.87
363.91	212.93
364.29	212.96
364.67	212.56
365.05	212.59
365.43	212.65
365.81	212.65
366.19	212.75
366.57	212.84
366.95	212.82
367.33	212.71
367.71	212.71
368.09	212.81
368.47	212.84
368.85	212.86
369.23	213.02
369.61	212.88
369.99	212.93
370.37	213.03
370.75	213.15
371.13	212.96
371.51	212.89
371.89	212.92
372.27	212.91
372.65	212.93
373.03	212.92
373.41	212.85
373.78	212.78
374.16	212.54
374.54	212.35
374.92	212.31
375.30	212.26
375.68	212.14
376.06	212.11
376.44	212.04
376.82	211.97
377.19	211.82
377.57	211.83
377.95	211.66
378.33	211.55
378.71	211.31
379.09	211.41
379.47	211.37
379.84	211.27
380.22	211.20
380.60	211.05
380.98	210.91
381.36	210.86
381.73	210.79
382.11	210.84
382.49	210.93
382.87	210.80
383.25	210.78
383.62	211.21
384.00	211.09
384.38	211.09
384.76	211.14
385.13	211.35
385.51	211.35
385.89	211.31
386.27	211.28
386.64	211.26
387.02	211.15
387.40	211.15
387.78	211.17
388.15	211.18
388.53	211.15
388.91	211.20
389.29	211.16
389.66	211.22
390.04	211.22
390.42	211.16
390.79	211.20
391.17	211.14
391.55	210.67
391.92	210.66
392.30	210.61
392.68	210.50
393.05	210.40
393.43	210.39
393.81	210.37
394.18	210.29
394.56	210.34
394.94	210.43
395.31	210.34
395.69	210.47
396.06	210.47
396.44	210.57
396.82	210.54
397.19	210.80
397.57	210.69
397.95	210.70
398.32	210.70
398.70	210.71
399.07	210.85
399.45	210.88
399.82	210.95
400.20	210.92
400.58	210.95
400.95	210.85
401.33	210.91
401.70	211.23
402.08	211.34
402.45	211.30
402.83	211.29
403.20	211.40
403.58	211.36
403.95	211.50
404.33	211.60
404.71	211.65
405.08	211.83
405.46	212.00
405.83	212.20
406.21	212.27
406.58	212.47
406.96	212.49
407.33	212.68
407.70	212.80
408.08	213.34
408.45	213.58
408.83	213.85
409.20	214.04
409.58	214.05
409.95	214.36
410.33	214.71
410.70	215.01
411.08	215.35
411.45	215.76
411.82	216.06
412.20	216.50
412.57	217.16
412.95	217.33
413.32	217.86
413.69	218.31
414.07	218.84
414.44	219.41
414.82	220.11
415.19	220.86
415.56	221.70
415.94	222.26
416.31	223.23
416.68	224.12
417.06	225.15
417.43	226.21
417.81	227.37
418.18	228.55
418.55	229.79
418.93	231.22
419.30	232.54
419.67	234.08
420.04	235.65
420.42	237.20
420.79	239.33
421.16	241.17
421.54	243.28
421.91	245.38
422.28	247.43
422.66	249.72
423.03	252.08
423.40	254.37
423.77	256.85
424.15	259.27
424.52	261.88
424.89	264.72
425.26	267.43
425.64	270.09
426.01	272.94
426.38	276.02
426.75	278.99
427.13	282.14
427.50	285.35
427.87	288.76
428.24	292.22
428.61	295.43
428.99	299.27
429.36	303.04
429.73	306.88
430.10	310.91
430.47	314.93
430.85	318.94
431.22	323.33
431.59	328.14
431.96	332.60
432.33	337.48
432.70	342.31
433.08	348.06
433.45	353.45
433.82	358.87
434.19	364.83
434.56	370.79
434.93	376.45
435.30	382.19
435.68	388.39
436.05	394.53
436.42	400.71
436.79	406.28
437.16	412.42
437.53	419.01
437.90	425.44
438.27	431.83
438.64	438.50
439.01	444.64
439.38	450.15
439.75	455.57
440.13	461.76
440.50	467.66
440.87	472.32
441.24	477.15
441.61	482.57
441.98	486.69
442.35	491.43
442.72	496.31
443.09	501.02
443.46	504.15
443.83	506.27
444.20	508.13
444.57	510.74
444.94	512.16
445.31	513.62
445.68	515.27
446.05	516.05
446.42	515.63
446.79	515.30
447.16	514.76
447.53	514.59
447.90	512.57
448.27	510.45
448.64	507.60
449.01	505.70
449.37	501.82
449.74	498.08
450.11	493.81
450.48	488.84
450.85	483.60
451.22	479.06
451.59	475.00
451.96	470.98
452.33	465.46
452.70	460.69
453.07	454.83
453.43	448.57
453.80	442.84
454.17	437.33
454.54	432.08
454.91	426.43
455.28	420.81
455.65	415.66
456.02	410.95
456.38	406.49
456.75	400.89
457.12	396.28
457.49	391.70
457.86	386.98
458.23	383.22
458.59	379.04
458.96	374.93
459.33	371.15
459.70	367.46
460.07	364.62
460.43	361.06
460.80	357.79
461.17	354.94
461.54	351.85
461.91	349.13
462.27	346.27
462.64	343.78
463.01	341.14
463.38	338.69
463.74	335.50
464.11	333.22
464.48	331.23
464.85	329.02
465.21	327.38
465.58	325.65
465.95	323.42
466.32	321.61
466.68	319.71
467.05	317.85
467.42	315.94
467.78	313.88
468.15	312.05
468.52	310.75
468.88	309.01
469.25	307.49
469.62	306.18
469.98	304.79
470.35	303.52
470.72	302.23
471.08	300.74
471.45	299.74
471.82	298.65
472.18	297.41
472.55	296.48
472.92	295.33
473.28	294.28
473.65	293.33
474.02	292.54
474.38	291.78
474.75	291.17
475.11	290.41
475.48	289.97
475.85	289.53
476.21	288.85
476.58	288.37
476.94	288.00
477.31	287.56
477.67	287.16
478.04	286.80
478.41	286.57
478.77	286.67
479.14	286.34
479.50	286.10
479.87	285.95
480.23	285.91
480.60	285.79
480.96	285.64
481.33	285.73
481.69	285.76
482.06	285.77
482.42	285.77
482.79	285.80
483.15	285.84
483.52	286.02
483.88	286.16
484.25	286.29
484.61	286.45
484.98	286.69
485.34	287.02
485.71	287.43
486.07	287.82
486.44	287.90
486.80	288.34
487.17	288.82
487.53	289.50
487.90	290.15
488.26	290.94
488.62	291.68
488.99	292.27
489.35	292.91
489.72	293.58
490.08	294.31
490.44	295.21
490.81	296.09
491.17	296.88
491.54	297.77
491.90	298.75
492.26	299.70
492.63	300.70
492.99	301.61
493.36	302.61
493.72	303.72
494.08	304.84
494.45	306.09
494.81	307.27
495.17	308.38
495.54	309.56
495.90	310.61
496.26	311.81
496.63	313.07
496.99	314.34
497.35	315.81
497.72	317.20
498.08	318.49
498.44	319.86
498.80	321.35
499.17	322.85
499.53	324.35
499.89	325.89
500.26	327.32
500.62	328.75
500.98	330.20
501.34	331.57
501.71	333.03
502.07	334.33
502.43	335.64
502.79	336.84
503.16	338.12
503.52	339.45
503.88	340.68
504.24	341.90
504.60	343.20
504.97	344.41
505.33	345.55
505.69	346.91
506.05	348.05
506.41	349.13
506.78	350.10
507.14	350.89
507.50	351.72
507.86	352.64
508.22	353.53
508.59	354.26
508.95	355.05
509.31	355.99
509.67	356.78
510.03	357.51
510.39	358.37
510.75	359.01
511.12	359.68
511.48	360.30
511.84	360.86
512.20	361.34
512.56	361.80
512.92	362.21
513.28	362.51
513.64	362.78
514.00	363.07
514.37	363.44
514.73	363.90
515.09	364.30
515.45	364.47
515.81	364.67
516.17	364.90
516.53	365.04
516.89	365.02
517.25	365.12
517.61	365.40
517.97	365.39
518.33	365.47
518.69	365.60
519.05	365.64
519.41	365.90
519.77	366.19
520.13	366.28
520.49	366.45
520.85	366.43
521.21	366.78
521.57	366.97
521.93	367.00
522.29	367.23
522.65	367.24
523.01	367.63
523.37	367.90
523.73	368.29
524.09	368.72
524.45	369.16
524.81	369.58
525.17	370.07
525.53	370.60
525.89	371.19
526.25	371.86
526.61	372.58
526.97	373.10
527.33	373.72
527.68	374.86
528.04	375.62
528.40	376.69
528.76	377.63
529.12	378.65
529.48	379.81
529.84	380.83
530.20	382.07
530.56	383.36
530.91	384.71
531.27	386.00
531.63	387.35
531.99	388.56
532.35	389.86
532.71	391.16
533.07	392.61
533.42	394.58
533.78	396.05
534.14	397.66
534.50	399.23
534.86	401.01
535.21	402.43
535.57	404.45
535.93	406.19
536.29	408.22
536.65	410.20
537.00	412.03
537.36	414.04
537.72	416.06
538.08	418.09
538.44	420.19
538.79	422.30
539.15	424.38
539.51	426.78
539.87	429.19
540.22	431.49
540.58	433.94
540.94	435.99
541.29	438.45
541.65	440.74
542.01	443.25
542.37	445.78
542.72	448.26
543.08	450.80
543.44	453.45
543.79	455.83
544.15	458.47
544.51	461.28
544.87	464.12
545.22	466.89
545.58	469.34
545.94	471.96
546.29	474.69
546.65	477.45
547.01	480.08
547.36	482.90
547.72	485.60
548.07	488.51
548.43	491.24
548.79	493.78
549.14	496.64
549.50	499.43
549.86	501.84
550.21	504.63
550.57	507.36
550.92	509.92
551.28	512.48
551.64	515.03
551.99	517.78
552.35	520.23
552.70	522.69
553.06	525.38
553.41	527.89
553.77	530.62
554.13	533.13
554.48	535.86
554.84	538.40
555.19	541.09
555.55	543.62
555.90	545.88
556.26	548.31
556.61	550.73
556.97	552.91
557.32	555.38
557.68	557.58
558.03	559.66
558.39	561.85
558.74	564.20
559.10	566.31
559.45	568.37
559.81	570.56
560.16	572.73
560.52	574.90
560.87	577.14
561.23	579.00
561.58	581.34
561.94	583.23
562.29	584.99
562.64	586.88
563.00	588.67
563.35	590.74
563.71	593.03
564.06	595.00
564.42	597.28
564.77	599.35
565.12	601.50
565.48	603.73
565.83	605.70
566.19	607.69
566.54	609.59
566.89	611.27
567.25	613.05
567.60	615.03
567.96	617.07
568.31	618.91
568.66	620.45
569.02	621.70
569.37	623.01
569.72	624.63
570.08	625.89
570.43	627.10
570.78	628.22
571.14	629.18
571.49	630.00
571.84	630.94
572.20	631.72
572.55	632.46
572.90	632.67
573.26	633.28
573.61	633.72
573.96	634.25
574.31	634.68
574.67	635.11
575.02	635.19
575.37	635.15
575.72	635.09
576.08	635.51
576.43	635.71
576.78	635.90
577.13	636.10
577.49	636.36
577.84	636.58
578.19	636.83
578.54	636.98
578.90	637.37
579.25	637.37
579.60	637.38
579.95	637.39
580.30	637.80
580.66	638.01
581.01	637.79
581.36	637.70
581.71	637.82
582.06	637.76
582.42	637.77
582.77	637.58
583.12	637.50
583.47	637.31
583.82	637.26
584.17	637.25
584.53	637.14
584.88	636.98
585.23	636.91
585.58	636.55
585.93	636.14
586.28	635.87
586.63	635.78
586.98	635.69
587.34	635.51
587.69	635.06
588.04	634.71
588.39	634.64
588.74	634.35
589.09	634.03
589.44	633.49
589.79	633.32
590.14	632.97
590.49	632.60
590.84	632.25
591.19	631.88
591.54	631.37
591.89	630.55
592.25	630.12
592.60	629.27
592.95	628.65
593.30	628.00
593.65	627.06
594.00	626.05
594.35	626.01
594.70	625.09
595.05	624.43
595.40	623.44
595.75	622.34
596.10	621.55
596.45	620.70
596.80	620.07
597.15	619.15
597.50	618.26
597.85	617.52
598.19	616.50
598.54	615.54
598.89	614.66
599.24	614.21
599.59	613.25
599.94	612.59
600.29	611.75
600.64	610.85
600.99	610.10
601.34	609.38
601.69	607.57
602.04	606.58
602.39	605.78
602.74	605.05
603.08	604.58
603.43	604.06
603.78	603.29
604.13	602.52
604.48	601.70
604.83	601.07
605.18	600.25
605.53	599.45
605.87	598.44
606.22	597.67
606.57	596.48
606.92	595.38
607.27	594.40
607.62	593.52
607.96	592.64
608.31	591.75
608.66	590.77
609.01	589.75
609.36	588.69
609.70	587.48
610.05	586.27
610.40	585.18
610.75	583.68
611.10	582.70
611.44	581.05
611.79	579.63
612.14	578.23
612.49	576.68
612.83	575.40
613.18	574.02
613.53	572.55
613.88	571.06
614.22	569.77
614.57	568.23
614.92	566.74
615.27	565.25
615.61	563.77
615.96	562.23
616.31	560.97
616.65	559.76
617.00	558.20
617.35	556.89
617.70	555.08
618.04	553.48
618.39	551.52
618.74	550.27
619.08	548.69
619.43	547.06
619.78	545.58
620.12	543.89
620.47	542.41
620.82	540.60
621.16	538.87
621.51	537.33
621.85	535.67
622.20	534.05
622.55	532.29
622.89	530.55
623.24	528.95
623.59	527.14
623.93	525.43
624.28	523.80
624.62	522.45
624.97	521.07
625.32	519.39
625.66	517.85
626.01	516.13
626.35	514.70
626.70	513.11
627.04	511.58
627.39	509.97
627.73	508.39
628.08	507.08
628.43	505.62
628.77	503.88
629.12	502.25
629.46	500.77
629.81	499.30
630.15	497.64
630.50	495.94
630.84	494.33
631.19	492.69
631.53	491.00
631.88	488.90
632.22	487.02
632.57	485.57
632.91	483.91
633.26	482.47
633.60	480.65
633.95	479.22
634.29	477.51
634.64	476.05
634.98	474.35
635.32	472.76
635.67	471.30
636.01	469.93
636.36	468.53
636.70	467.07
637.05	465.55
637.39	464.18
637.73	462.99
638.08	461.83
638.42	460.56
638.77	459.29
639.11	457.97
639.45	456.52
639.80	455.00
640.14	453.47
640.49	451.87
640.83	450.37
641.17	448.72
641.52	447.10
641.86	445.52
642.20	444.12
642.55	442.37
642.89	440.70
643.23	439.02
643.58	437.68
643.92	435.88
644.26	434.22
644.61	432.67
644.95	430.91
645.29	429.11
645.64	427.56
645.98	425.91
646.32	424.44
646.66	422.85
647.01	421.30
647.35	419.90
647.69	418.33
648.04	416.89
648.38	415.29
648.72	413.82
649.06	412.24
649.41	410.61
649.75	409.12
650.09	407.65
650.43	406.03
650.78	404.24
651.12	402.74
651.46	401.35
651.80	399.88
652.14	398.40
652.49	396.91
652.83	395.14
653.17	393.59
653.51	391.97
653.85	390.62
654.20	389.15
654.54	387.59
654.88	386.02
655.22	384.64
655.56	383.18
655.90	381.76
656.25	380.20
656.59	378.83
656.93	377.58
657.27	376.23
657.61	374.78
657.95	373.36
658.29	371.99
658.64	370.66
658.98	369.23
659.32	367.77
659.66	366.35
660.00	365.03
660.34	363.62
660.68	362.17
661.02	360.66
661.36	359.24
661.70	357.93
662.05	356.65
662.39	355.36
662.73	354.34
663.07	353.26
663.41	352.14
663.75	350.88
664.09	349.53
664.43	348.24
664.77	347.10
665.11	345.97
665.45	344.80
665.79	343.62
666.13	342.33
666.47	341.01
666.81	339.79
667.15	338.55
667.49	337.55
667.83	336.54
668.17	335.45
668.51	334.34
668.85	333.35
669.19	332.46
669.53	331.26
669.87	330.00
670.21	328.79
670.55	327.76
670.89	326.90
671.23	325.97
671.57	324.99
671.91	323.99
672.25	322.91
672.58	322.01
672.92	320.90
673.26	319.98
673.60	319.21
673.94	318.36
674.28	317.55
674.62	316.61
674.96	315.76
675.30	314.87
675.64	314.04
675.97	313.03
676.31	312.04
676.65	311.12
676.99	310.33
677.33	309.37
677.67	308.58
678.01	307.56
678.34	306.56
678.68	305.81
679.02	304.87
679.36	304.02
679.70	303.04
680.04	302.23
680.37	301.35
680.71	300.48
681.05	299.68
681.39	298.82
681.73	297.94
682.06	297.05
682.40	296.34
682.74	295.56
683.08	294.89
683.42	294.06
683.75	293.42
684.09	292.46
684.43	291.84
684.77	290.95
685.10	290.18
685.44	289.48
685.78	288.60
686.12	287.97
686.45	287.23
686.79	286.47
687.13	285.87
687.46	285.20
687.80	284.53
688.14	283.74
688.48	283.09
688.81	282.40
689.15	281.80
689.49	280.95
689.82	280.26
690.16	279.47
690.50	278.68
690.83	277.82
691.17	277.16
691.51	276.37
691.84	275.69
692.18	275.04
692.52	274.28
692.85	273.71
693.19	273.13
693.52	272.48
693.86	271.86
694.20	271.25
694.53	270.57
694.87	269.82
695.21	269.16
695.54	268.45
695.88	267.78
696.21	267.07
696.55	266.57
696.88	265.91
697.22	265.26
697.56	264.87
697.89	264.31
698.23	263.83
698.56	263.29
698.90	262.91
699.23	262.35
699.57	261.91
699.90	261.25
700.24	260.62
700.58	260.11
700.91	259.64
701.25	259.28
701.58	258.95
701.92	258.66
702.25	258.20
702.59	257.70
702.92	257.24
703.26	256.73
703.59	256.30
703.93	256.16
704.26	255.87
704.60	255.39
704.93	255.02
705.26	254.47
705.60	254.03
705.93	253.45
706.27	253.10
706.60	252.75
706.94	252.57
707.27	252.08
707.61	251.63
707.94	251.17
708.27	250.51
708.61	250.02
708.94	249.49
709.28	249.10
709.61	248.77
709.94	248.44
710.28	248.12
710.61	247.78
710.95	247.10
711.28	246.83
711.61	246.45
711.95	246.19
712.28	245.85
712.61	245.53
712.95	245.35
713.28	245.17
713.61	244.72
713.95	244.25
714.28	244.04
714.61	243.77
714.95	243.45
715.28	243.07
715.61	242.76
715.95	242.44
716.28	242.15
716.61	241.84
716.95	241.45
717.28	241.11
717.61	240.76
717.94	240.54
718.28	240.09
718.61	239.82
718.94	239.47
719.27	239.15
719.61	238.88
719.94	238.47
720.27	237.97
720.60	237.69
720.94	237.45
721.27	237.13
721.60	236.92
721.93	236.71
722.27	236.58
722.60	236.33
722.93	236.06
723.26	235.80
723.59	235.46
723.93	235.28
724.26	235.07
724.59	234.80
724.92	234.52
725.25	234.35
725.59	234.03
725.92	233.83
726.25	233.67
726.58	233.44
726.91	233.22
727.24	233.05
727.57	232.83
727.91	232.48
728.24	232.40
728.57	232.13
728.90	231.99
729.23	231.70
729.56	231.62
729.89	231.45
730.22	231.26
730.55	231.02
730.89	230.84
731.22	230.60
731.55	230.41
731.88	230.24
732.21	229.99
732.54	229.87
732.87	229.65
733.20	229.43
733.53	229.26
733.86	229.17
734.19	228.94
734.52	228.82
734.85	228.94
735.18	228.64
735.51	228.55
735.84	228.35
736.17	228.33
736.50	228.03
736.83	228.25
737.16	228.09
737.49	228.05
737.82	227.84
738.15	227.79
738.48	227.66
738.81	227.46
739.14	227.22
739.47	227.10
739.80	226.88
740.13	226.79
740.46	226.63
740.79	226.32
741.12	226.16
741.45	225.99
741.78	225.58
742.11	225.59
742.44	225.35
742.77	225.25
743.10	224.99
743.43	224.79
743.75	224.29
744.08	224.60
744.41	224.40
744.74	224.29
745.07	224.07
745.40	223.99
745.73	224.05
746.06	223.90
746.39	223.72
746.71	223.57
747.04	223.39
747.37	223.25
747.70	223.22
748.03	223.07
748.36	223.04
748.68	222.98
749.01	222.61
749.34	222.55
749.67	222.36
750.00	222.33
750.33	222.53
750.65	222.45
750.98	221.85
751.31	221.78
751.64	221.63
751.97	221.73
752.29	221.60
752.62	221.28
752.95	221.19
753.28	221.06
753.60	221.05
753.93	221.01
754.26	220.89
754.59	220.68
754.91	220.64
755.24	220.45
755.57	220.33
755.90	220.29
756.22	220.08
756.55	219.92
756.88	219.70
757.20	219.39
757.53	219.19
757.86	219.12
758.19	219.07
758.51	219.07
758.84	218.79
759.17	218.57
759.49	218.58
759.82	218.67
760.15	218.62
760.47	218.36
760.80	218.20
761.13	218.22
761.45	218.16
761.78	217.97
762.11	217.90
762.43	217.80
762.76	217.76
763.08	217.77
763.41	217.78
763.74	217.74
764.06	217.61
764.39	217.54
764.71	217.50
765.04	217.36
765.37	217.20
765.69	217.10
766.02	217.06
766.34	216.91
766.67	216.72
767.00	216.72
767.32	216.93
767.65	217.08
767.97	216.88
768.30	216.83
768.62	216.81
768.95	216.72
769.27	216.64
769.60	216.64
769.92	216.51
770.25	216.40
770.57	216.29
770.90	216.27
771.22	216.18
771.55	216.14
771.87	216.13
772.20	216.09
772.52	216.34
772.85	216.72
773.17	216.75
773.50	216.73
773.82	216.60
774.15	216.33
774.47	216.08
774.80	216.06
775.12	216.01
775.45	215.94
775.77	215.92
776.09	215.93
776.42	215.84
776.74	215.87
777.07	215.83
777.39	215.78
777.72	215.73
778.04	215.79
778.36	215.68
778.69	215.66
779.01	215.65
779.33	215.30
779.66	214.82
779.98	214.72
780.31	214.68
780.63	214.77
780.95	214.86
781.28	214.82
781.60	214.73
781.92	214.70
782.25	214.67
782.57	214.60
782.89	214.50
783.22	214.43
783.54	214.37
783.86	214.38
784.19	214.30
784.51	214.29
784.83	214.14
785.16	214.13
785.48	214.09
785.80	214.05
786.12	214.00
786.45	214.05
786.77	213.97
787.09	213.89
787.42	213.71
787.74	213.63
788.06	213.55
788.38	213.56
788.71	213.50
789.03	213.51
789.35	213.54
789.67	213.48
789.99	213.43
790.32	213.36
790.64	213.29
790.96	213.63
791.28	213.52
791.61	213.51
791.93	213.53
792.25	213.46
792.57	213.68
792.89	213.67
793.21	213.60
793.54	213.63
793.86	213.58
794.18	213.59
