SpectraSuite Data File
++++++++++++++++++++++++++++++++++++
Date: Mon Feb 25 17:02:09 EST 2013
User: group
Dark Spectrum Present: No
Reference Spectrum Present: No
Number of Sampled Component Spectra: 1
Spectrometers: USB2E7196
Integration Time (usec): 104000 (USB2E7196)
Spectra Averaged: 20 (USB2E7196)
Boxcar Smoothing: 10 (USB2E7196)
Correct for Electrical Dark: No (USB2E7196)
Strobe/Lamp Enabled: No (USB2E7196)
Correct for Detector Non-linearity: No (USB2E7196)
Correct for Stray Light: No (USB2E7196)
Number of Pixels in Processed Spectrum: 2048
>>>>>Begin Processed Spectral Data<<<<<
339.09	0.00
339.48	197.30
339.86	199.75
340.24	200.15
340.63	201.40
341.01	208.20
341.39	204.40
341.78	206.40
342.16	208.10
342.54	208.80
342.93	197.61
343.31	207.58
343.69	208.13
344.07	208.62
344.46	209.09
344.84	209.53
345.22	209.61
345.60	209.95
345.99	210.14
346.37	210.29
346.75	210.34
347.13	210.42
347.52	210.50
347.90	210.61
348.28	210.64
348.66	210.78
349.05	210.61
349.43	210.64
349.81	210.71
350.19	210.77
350.57	210.80
350.96	210.88
351.34	210.98
351.72	211.12
352.10	211.15
352.48	211.27
352.87	211.35
353.25	211.43
353.63	211.42
354.01	211.53
354.39	211.61
354.77	211.69
355.15	211.88
355.54	211.92
355.92	211.86
356.30	212.01
356.68	212.26
357.06	212.40
357.44	212.51
357.82	212.49
358.20	212.51
358.58	212.62
358.97	212.77
359.35	212.92
359.73	213.04
360.11	213.12
360.49	213.11
360.87	213.10
361.25	213.15
361.63	213.31
362.01	213.31
362.39	213.34
362.77	213.41
363.15	213.39
363.53	213.37
363.91	213.45
364.29	213.43
364.67	213.16
365.05	213.22
365.43	213.24
365.81	213.38
366.19	213.56
366.57	213.65
366.95	213.65
367.33	213.54
367.71	213.55
368.09	213.65
368.47	213.69
368.85	213.74
369.23	213.83
369.61	213.67
369.99	213.80
370.37	213.76
370.75	213.98
371.13	213.86
371.51	213.79
371.89	213.79
372.27	213.83
372.65	213.84
373.03	213.83
373.41	213.74
373.78	213.64
374.16	213.45
374.54	213.35
374.92	213.21
375.30	213.15
375.68	212.99
376.06	212.85
376.44	212.78
376.82	212.68
377.19	212.60
377.57	212.58
377.95	212.41
378.33	212.38
378.71	212.06
379.09	212.03
379.47	212.04
379.84	211.93
380.22	211.80
380.60	211.63
380.98	211.60
381.36	211.56
381.73	211.45
382.11	211.49
382.49	211.37
382.87	211.26
383.25	211.26
383.62	211.60
384.00	211.53
384.38	211.43
384.76	211.52
385.13	211.59
385.51	211.53
385.89	211.40
386.27	211.36
386.64	211.35
387.02	211.34
387.40	211.26
387.78	211.23
388.15	211.17
388.53	211.12
388.91	211.03
389.29	211.00
389.66	210.98
390.04	210.88
390.42	210.91
390.79	210.94
391.17	210.89
391.55	210.53
391.92	210.56
392.30	210.67
392.68	210.55
393.05	210.45
393.43	210.45
393.81	210.53
394.18	210.45
394.56	210.46
394.94	210.56
395.31	210.53
395.69	210.65
396.06	210.70
396.44	210.83
396.82	210.80
397.19	211.00
397.57	211.02
397.95	211.12
398.32	211.05
398.70	211.18
399.07	211.30
399.45	211.35
399.82	211.36
400.20	211.33
400.58	211.37
400.95	211.35
401.33	211.45
401.70	211.70
402.08	211.79
402.45	211.87
402.83	211.89
403.20	212.06
403.58	212.06
403.95	212.16
404.33	212.24
404.71	212.35
405.08	212.57
405.46	212.71
405.83	212.81
406.21	212.97
406.58	213.09
406.96	213.25
407.33	213.45
407.70	213.71
408.08	214.21
408.45	214.54
408.83	214.80
409.20	215.06
409.58	215.18
409.95	215.60
410.33	215.93
410.70	216.30
411.08	216.68
411.45	217.11
411.82	217.63
412.20	218.20
412.57	218.96
412.95	219.36
413.32	220.08
413.69	220.69
414.07	221.39
414.44	222.15
414.82	222.95
415.19	223.90
415.56	224.83
415.94	225.70
416.31	226.86
416.68	228.11
417.06	229.45
417.43	230.80
417.81	232.19
418.18	233.69
418.55	235.31
418.93	237.04
419.30	238.83
419.67	240.62
420.04	242.48
420.42	244.45
420.79	246.91
421.16	249.25
421.54	251.81
421.91	254.36
422.28	257.01
422.66	259.87
423.03	262.73
423.40	265.62
423.77	268.59
424.15	271.69
424.52	274.85
424.89	278.29
425.26	281.67
425.64	284.91
426.01	288.53
426.38	292.26
426.75	296.20
427.13	300.14
427.50	304.37
427.87	308.79
428.24	313.14
428.61	317.23
428.99	321.95
429.36	326.92
429.73	331.97
430.10	336.93
430.47	341.96
430.85	347.15
431.22	352.66
431.59	358.77
431.96	364.45
432.33	370.84
432.70	377.12
433.08	384.35
433.45	391.28
433.82	398.10
434.19	405.70
434.56	413.15
434.93	420.43
435.30	427.55
435.68	435.61
436.05	443.58
436.42	451.45
436.79	458.59
437.16	466.43
437.53	474.57
437.90	482.81
438.27	490.95
438.64	499.27
439.01	507.23
439.38	514.12
439.75	521.01
440.13	528.70
440.50	536.00
440.87	542.17
441.24	548.57
441.61	555.62
441.98	561.03
442.35	567.27
442.72	573.36
443.09	579.45
443.46	583.22
443.83	585.95
444.20	588.36
444.57	591.76
444.94	593.73
445.31	595.76
445.68	597.81
446.05	598.98
446.42	598.92
446.79	598.60
447.16	598.13
447.53	597.99
447.90	595.67
448.27	593.24
448.64	589.48
449.01	586.88
449.37	582.04
449.74	577.36
450.11	571.62
450.48	565.32
450.85	558.71
451.22	553.17
451.59	547.95
451.96	543.13
452.33	536.26
452.70	529.90
453.07	522.24
453.43	514.25
453.80	506.85
454.17	499.82
454.54	493.09
454.91	485.98
455.28	478.75
455.65	472.18
456.02	465.91
456.38	460.37
456.75	453.42
457.12	447.54
457.49	441.66
457.86	435.79
458.23	431.17
458.59	425.94
458.96	420.60
459.33	415.77
459.70	410.72
460.07	406.93
460.43	402.63
460.80	398.74
461.17	395.35
461.54	391.54
461.91	387.85
462.27	384.15
462.64	380.93
463.01	377.64
463.38	374.37
463.74	370.72
464.11	367.72
464.48	365.10
464.85	362.25
465.21	360.18
465.58	358.00
465.95	355.02
466.32	352.77
466.68	350.44
467.05	348.08
467.42	345.95
467.78	343.55
468.15	341.23
468.52	339.50
468.88	337.17
469.25	335.22
469.62	333.57
469.98	331.85
470.35	330.29
470.72	328.66
471.08	326.85
471.45	325.44
471.82	324.12
472.18	322.48
472.55	321.23
472.92	319.75
473.28	318.48
473.65	317.28
474.02	316.09
474.38	315.14
474.75	314.37
475.11	313.36
475.48	312.59
475.85	311.86
476.21	311.18
476.58	310.63
476.94	310.09
477.31	309.61
477.67	309.01
478.04	308.43
478.41	308.05
478.77	308.08
479.14	307.69
479.50	307.37
479.87	307.26
480.23	307.24
480.60	307.05
480.96	306.86
481.33	307.10
481.69	307.12
482.06	307.07
482.42	306.98
482.79	307.07
483.15	307.22
483.52	307.59
483.88	307.77
484.25	308.00
484.61	308.35
484.98	308.55
485.34	309.07
485.71	309.68
486.07	310.28
486.44	310.60
486.80	311.23
487.17	311.89
487.53	312.83
487.90	313.66
488.26	314.58
488.62	315.56
488.99	316.39
489.35	317.38
489.72	318.51
490.08	319.70
490.44	320.87
490.81	322.15
491.17	323.25
491.54	324.48
491.90	325.81
492.26	327.12
492.63	328.66
492.99	330.12
493.36	331.53
493.72	333.05
494.08	334.52
494.45	336.12
494.81	337.83
495.17	339.30
495.54	340.98
495.90	342.71
496.26	344.49
496.63	346.30
496.99	348.20
497.35	350.07
497.72	351.96
498.08	353.77
498.44	355.59
498.80	357.64
499.17	359.64
499.53	361.63
499.89	363.58
500.26	365.40
500.62	367.23
500.98	369.25
501.34	371.12
501.71	373.13
502.07	375.04
502.43	376.83
502.79	378.58
503.16	380.17
503.52	381.91
503.88	383.52
504.24	385.14
504.60	386.67
504.97	388.20
505.33	389.69
505.69	391.50
506.05	392.99
506.41	394.48
506.78	395.75
507.14	396.91
507.50	398.23
507.86	399.51
508.22	400.83
508.59	401.85
508.95	402.93
509.31	404.09
509.67	405.06
510.03	405.99
510.39	406.93
510.75	407.95
511.12	408.75
511.48	409.60
511.84	410.20
512.20	410.80
512.56	411.33
512.92	411.94
513.28	412.24
513.64	412.67
514.00	412.83
514.37	413.19
514.73	413.67
515.09	414.11
515.45	414.42
515.81	414.41
516.17	414.54
516.53	414.48
516.89	414.32
517.25	414.36
517.61	414.29
517.97	414.26
518.33	414.20
518.69	414.03
519.05	413.87
519.41	413.79
519.77	413.83
520.13	413.69
520.49	413.27
520.85	413.07
521.21	412.88
521.57	412.88
521.93	412.67
522.29	412.40
522.65	411.95
523.01	411.69
523.37	411.58
523.73	411.52
524.09	411.61
524.45	411.55
524.81	411.51
525.17	411.65
525.53	411.76
525.89	411.70
526.25	411.86
526.61	411.91
526.97	412.05
527.33	412.26
527.68	412.93
528.04	413.54
528.40	413.83
528.76	414.26
529.12	414.71
529.48	415.52
529.84	416.16
530.20	416.94
530.56	417.69
530.91	418.49
531.27	419.30
531.63	420.11
531.99	421.06
532.35	421.94
532.71	422.94
533.07	424.06
533.42	425.77
533.78	426.98
534.14	428.28
534.50	429.51
534.86	430.93
535.21	431.94
535.57	433.30
535.93	434.80
536.29	436.49
536.65	438.08
537.00	439.38
537.36	440.97
537.72	442.60
538.08	444.22
538.44	446.06
538.79	447.96
539.15	449.85
539.51	451.73
539.87	453.82
540.22	455.79
540.58	457.87
540.94	459.58
541.29	461.79
541.65	463.87
542.01	466.32
542.37	468.54
542.72	470.81
543.08	473.18
543.44	475.74
543.79	477.85
544.15	480.29
544.51	483.12
544.87	485.69
545.22	488.35
545.58	491.00
545.94	493.58
546.29	496.16
546.65	498.86
547.01	501.60
547.36	504.40
547.72	507.09
548.07	509.78
548.43	512.37
548.79	514.93
549.14	517.53
549.50	520.17
549.86	522.71
550.21	525.40
550.57	528.10
550.92	530.68
551.28	533.53
551.64	536.24
551.99	538.75
552.35	541.41
552.70	543.86
553.06	546.65
553.41	549.18
553.77	551.95
554.13	554.59
554.48	557.30
554.84	559.94
555.19	562.56
555.55	565.43
555.90	568.05
556.26	570.65
556.61	573.26
556.97	575.55
557.32	578.11
557.68	580.59
558.03	583.04
558.39	585.46
558.74	587.90
559.10	590.32
559.45	592.84
559.81	595.24
560.16	597.65
560.52	599.98
560.87	602.50
561.23	604.75
561.58	607.29
561.94	609.40
562.29	611.54
562.64	613.94
563.00	615.79
563.35	617.98
563.71	620.30
564.06	622.60
564.42	624.94
564.77	627.20
565.12	629.64
565.48	632.05
565.83	634.24
566.19	636.37
566.54	638.32
566.89	640.26
567.25	642.38
567.60	644.77
567.96	646.82
568.31	648.76
568.66	650.49
569.02	651.82
569.37	653.34
569.72	654.83
570.08	656.25
570.43	657.78
570.78	659.23
571.14	660.38
571.49	661.50
571.84	662.63
572.20	663.59
572.55	664.50
572.90	665.08
573.26	665.75
573.61	666.40
573.96	667.18
574.31	667.58
574.67	667.95
575.02	668.05
575.37	668.12
575.72	668.05
576.08	668.50
576.43	668.74
576.78	669.06
577.13	669.38
577.49	669.56
577.84	669.68
578.19	669.86
578.54	670.13
578.90	670.55
579.25	670.79
579.60	670.76
579.95	670.50
580.30	670.58
580.66	670.86
581.01	670.82
581.36	670.57
581.71	670.68
582.06	670.56
582.42	670.53
582.77	670.24
583.12	670.33
583.47	670.20
583.82	670.22
584.17	670.07
584.53	669.97
584.88	669.70
585.23	669.67
585.58	669.27
585.93	668.78
586.28	668.38
586.63	668.04
586.98	667.87
587.34	667.86
587.69	667.49
588.04	667.10
588.39	666.65
588.74	666.16
589.09	665.87
589.44	665.35
589.79	664.85
590.14	664.74
590.49	664.17
590.84	663.45
591.19	663.15
591.54	662.58
591.89	661.51
592.25	660.92
592.60	659.78
592.95	658.80
593.30	658.03
593.65	656.96
594.00	655.83
594.35	655.77
594.70	654.53
595.05	653.63
595.40	652.58
595.75	651.55
596.10	650.76
596.45	649.64
596.80	648.90
597.15	648.11
597.50	646.84
597.85	646.02
598.19	644.88
598.54	643.65
598.89	642.54
599.24	642.04
599.59	641.16
599.94	640.24
600.29	639.40
600.64	638.34
600.99	637.31
601.34	636.56
601.69	634.45
602.04	633.40
602.39	632.18
602.74	631.08
603.08	630.24
603.43	629.57
603.78	628.46
604.13	627.26
604.48	626.16
604.83	625.42
605.18	624.45
605.53	623.48
605.87	622.27
606.22	621.43
606.57	620.13
606.92	618.67
607.27	617.74
607.62	616.55
607.96	615.61
608.31	614.80
608.66	613.57
609.01	612.50
609.36	611.35
609.70	610.13
610.05	608.74
610.40	607.28
610.75	605.46
611.10	604.16
611.44	602.60
611.79	600.82
612.14	599.10
612.49	597.18
612.83	595.68
613.18	593.98
613.53	592.28
613.88	590.41
614.22	588.69
614.57	586.90
614.92	585.36
615.27	583.50
615.61	581.54
615.96	579.75
616.31	578.15
616.65	576.67
617.00	575.10
617.35	573.41
617.70	571.66
618.04	569.77
618.39	567.85
618.74	566.21
619.08	564.55
619.43	562.94
619.78	561.35
620.12	559.76
620.47	558.12
620.82	556.11
621.16	554.31
621.51	552.83
621.85	551.05
622.20	549.23
622.55	547.35
622.89	545.47
623.24	543.69
623.59	541.69
623.93	539.74
624.28	537.99
624.62	536.58
624.97	535.00
625.32	533.45
625.66	531.79
626.01	530.02
626.35	528.28
626.70	526.38
627.04	524.83
627.39	523.00
627.73	521.32
628.08	519.79
628.43	517.99
628.77	516.14
629.12	514.34
629.46	512.65
629.81	511.08
630.15	509.44
630.50	507.65
630.84	505.98
631.19	504.17
631.53	502.45
631.88	500.27
632.22	498.39
632.57	496.83
632.91	495.19
633.26	493.54
633.60	491.85
633.95	490.18
634.29	488.26
634.64	486.60
634.98	484.76
635.32	483.17
635.67	481.72
636.01	480.06
636.36	478.46
636.70	476.97
637.05	475.47
637.39	473.90
637.73	472.48
638.08	471.15
638.42	469.77
638.77	468.19
639.11	466.87
639.45	465.27
639.80	463.31
640.14	461.65
640.49	459.95
640.83	458.29
641.17	456.67
641.52	455.17
641.86	453.37
642.20	451.95
642.55	450.00
642.89	448.37
643.23	446.69
643.58	445.16
643.92	443.37
644.26	441.53
644.61	439.95
644.95	438.24
645.29	436.43
645.64	434.64
645.98	432.98
646.32	431.18
646.66	429.40
647.01	427.90
647.35	426.34
647.69	424.68
648.04	423.20
648.38	421.67
648.72	419.99
649.06	418.42
649.41	416.75
649.75	415.25
650.09	413.62
650.43	412.05
650.78	410.34
651.12	408.75
651.46	407.22
651.80	405.75
652.14	404.23
652.49	402.67
652.83	401.15
653.17	399.48
653.51	398.01
653.85	396.79
654.20	395.36
654.54	393.71
654.88	392.29
655.22	390.76
655.56	389.14
655.90	387.50
656.25	385.96
656.59	384.42
656.93	383.09
657.27	381.82
657.61	380.29
657.95	378.85
658.29	377.48
658.64	376.08
658.98	374.45
659.32	372.81
659.66	371.43
660.00	369.99
660.34	368.59
660.68	366.97
661.02	365.37
661.36	363.96
661.70	362.57
662.05	361.14
662.39	359.86
662.73	358.74
663.07	357.68
663.41	356.46
663.75	355.17
664.09	353.78
664.43	352.34
664.77	351.15
665.11	349.92
665.45	348.61
665.79	347.35
666.13	346.15
666.47	344.88
666.81	343.69
667.15	342.44
667.49	341.34
667.83	340.36
668.17	339.28
668.51	338.04
668.85	337.04
669.19	336.13
669.53	334.86
669.87	333.66
670.21	332.50
670.55	331.51
670.89	330.60
671.23	329.52
671.57	328.58
671.91	327.49
672.25	326.39
672.58	325.43
672.92	324.35
673.26	323.39
673.60	322.53
673.94	321.51
674.28	320.64
674.62	319.74
674.96	318.74
675.30	317.85
675.64	317.05
675.97	316.07
676.31	315.09
676.65	314.22
676.99	313.41
677.33	312.47
677.67	311.48
678.01	310.45
678.34	309.70
678.68	308.72
679.02	307.88
679.36	307.11
679.70	306.19
680.04	305.43
680.37	304.52
680.71	303.74
681.05	302.96
681.39	302.17
681.73	301.28
682.06	300.49
682.40	299.61
682.74	298.87
683.08	298.20
683.42	297.30
683.75	296.54
684.09	295.57
684.43	294.77
684.77	293.89
685.10	293.08
685.44	292.18
685.78	291.43
686.12	290.71
686.45	289.91
686.79	289.13
687.13	288.48
687.46	287.76
687.80	287.04
688.14	286.22
688.48	285.53
688.81	284.84
689.15	284.22
689.49	283.55
689.82	282.78
690.16	281.86
690.50	281.08
690.83	280.31
691.17	279.53
691.51	278.77
691.84	278.16
692.18	277.51
692.52	276.94
692.85	276.31
693.19	275.75
693.52	275.10
693.86	274.46
694.20	273.73
694.53	273.14
694.87	272.37
695.21	271.77
695.54	271.05
695.88	270.25
696.21	269.46
696.55	268.80
696.88	268.14
697.22	267.56
697.56	267.01
697.89	266.40
698.23	265.95
698.56	265.34
698.90	264.84
699.23	264.25
699.57	263.65
699.90	263.04
700.24	262.30
700.58	261.79
700.91	261.25
701.25	260.95
701.58	260.45
701.92	260.03
702.25	259.54
702.59	258.97
702.92	258.58
703.26	258.14
703.59	257.66
703.93	257.52
704.26	257.09
704.60	256.75
704.93	256.34
705.26	255.81
705.60	255.42
705.93	254.80
706.27	254.46
706.60	254.04
706.94	253.81
707.27	253.41
707.61	252.99
707.94	252.53
708.27	251.83
708.61	251.25
708.94	250.85
709.28	250.41
709.61	250.00
709.94	249.63
710.28	249.22
710.61	248.81
710.95	248.05
711.28	247.89
711.61	247.38
711.95	247.03
712.28	246.66
712.61	246.24
712.95	246.12
713.28	245.89
713.61	245.52
713.95	245.00
714.28	244.63
714.61	244.27
714.95	243.93
715.28	243.59
715.61	243.34
715.95	243.02
716.28	242.65
716.61	242.43
716.95	242.08
717.28	241.76
717.61	241.48
717.94	241.18
718.28	240.57
718.61	240.28
718.94	239.93
719.27	239.60
719.61	239.38
719.94	238.96
720.27	238.45
720.60	238.12
720.94	237.89
721.27	237.68
721.60	237.36
721.93	237.08
722.27	236.95
722.60	236.64
722.93	236.33
723.26	236.15
723.59	235.86
723.93	235.63
724.26	235.33
724.59	235.11
724.92	234.90
725.25	234.79
725.59	234.60
725.92	234.35
726.25	234.17
726.58	233.98
726.91	233.78
727.24	233.67
727.57	233.47
727.91	233.20
728.24	233.05
728.57	232.87
728.90	232.72
729.23	232.40
729.56	232.46
729.89	232.30
730.22	232.02
730.55	231.82
730.89	231.59
731.22	231.47
731.55	231.24
731.88	231.05
732.21	230.83
732.54	230.54
732.87	230.43
733.20	230.29
733.53	230.04
733.86	229.91
734.19	229.52
734.52	229.41
734.85	229.45
735.18	229.20
735.51	229.12
735.84	228.90
736.17	228.75
736.50	228.30
736.83	228.55
737.16	228.42
737.49	228.28
737.82	228.11
738.15	227.95
738.48	227.79
738.81	227.60
739.14	227.40
739.47	227.31
739.80	227.06
740.13	226.88
740.46	226.65
740.79	226.43
741.12	226.42
741.45	226.15
741.78	225.79
742.11	225.69
742.44	225.40
742.77	225.34
743.10	225.14
743.43	225.05
743.75	224.49
744.08	224.76
744.41	224.51
744.74	224.39
745.07	224.19
745.40	224.08
745.73	224.17
746.06	224.04
746.39	223.91
746.71	223.78
747.04	223.57
747.37	223.50
747.70	223.46
748.03	223.31
748.36	223.25
748.68	223.16
749.01	222.93
749.34	222.84
749.67	222.74
750.00	222.73
750.33	222.87
750.65	222.80
750.98	222.27
751.31	222.24
751.64	222.09
751.97	222.26
752.29	222.13
752.62	221.82
752.95	221.68
753.28	221.47
753.60	221.37
753.93	221.44
754.26	221.32
754.59	221.14
754.91	220.98
755.24	220.88
755.57	220.72
755.90	220.64
756.22	220.48
756.55	220.32
756.88	220.16
757.20	219.78
757.53	219.55
757.86	219.50
758.19	219.39
758.51	219.28
758.84	218.94
759.17	218.83
759.49	218.79
759.82	218.88
760.15	218.92
760.47	218.80
760.80	218.62
761.13	218.58
761.45	218.44
761.78	218.36
762.11	218.31
762.43	218.20
762.76	218.11
763.08	218.11
763.41	218.10
763.74	217.99
764.06	217.97
764.39	217.92
764.71	217.82
765.04	217.69
765.37	217.59
765.69	217.52
766.02	217.47
766.34	217.41
766.67	217.14
767.00	217.10
767.32	217.20
767.65	217.33
767.97	217.24
768.30	217.26
768.62	217.20
768.95	217.07
769.27	217.06
769.60	217.10
769.92	217.06
770.25	216.91
770.57	216.85
770.90	216.75
771.22	216.65
771.55	216.60
771.87	216.56
772.20	216.55
772.52	216.86
772.85	217.16
773.17	217.06
773.50	217.12
773.82	217.02
774.15	216.89
774.47	216.56
774.80	216.50
775.12	216.45
775.45	216.51
775.77	216.45
776.09	216.43
776.42	216.28
776.74	216.27
777.07	216.22
777.39	216.25
777.72	216.19
778.04	216.27
778.36	216.20
778.69	216.26
779.01	216.29
779.33	215.90
779.66	215.46
779.98	215.35
780.31	215.33
780.63	215.38
780.95	215.40
781.28	215.43
781.60	215.33
781.92	215.27
782.25	215.20
782.57	215.15
782.89	215.07
783.22	215.12
783.54	214.98
783.86	214.98
784.19	214.79
784.51	214.91
784.83	214.73
785.16	214.71
785.48	214.57
785.80	214.52
786.12	214.51
786.45	214.55
786.77	214.61
787.09	214.51
787.42	214.41
787.74	214.30
788.06	214.23
788.38	214.22
788.71	214.17
789.03	214.13
789.35	214.21
789.67	214.19
789.99	214.21
790.32	214.19
790.64	214.18
790.96	214.58
791.28	214.36
791.61	214.38
791.93	214.32
792.25	214.25
792.57	214.44
792.89	214.35
793.21	214.34
793.54	214.26
793.86	214.13
794.18	214.12
