SpectraSuite Data File
++++++++++++++++++++++++++++++++++++
Date: Mon Feb 25 17:17:55 EST 2013
User: group
Dark Spectrum Present: No
Reference Spectrum Present: No
Number of Sampled Component Spectra: 1
Spectrometers: USB2E7196
Integration Time (usec): 104000 (USB2E7196)
Spectra Averaged: 20 (USB2E7196)
Boxcar Smoothing: 10 (USB2E7196)
Correct for Electrical Dark: No (USB2E7196)
Strobe/Lamp Enabled: No (USB2E7196)
Correct for Detector Non-linearity: No (USB2E7196)
Correct for Stray Light: No (USB2E7196)
Number of Pixels in Processed Spectrum: 2048
>>>>>Begin Processed Spectral Data<<<<<
339.09	0.00
339.48	199.35
339.86	201.25
340.24	201.90
340.63	203.70
341.01	210.40
341.39	205.85
341.78	206.90
342.16	211.10
342.54	207.30
342.93	198.86
343.31	208.85
343.69	209.37
344.07	209.75
344.46	210.22
344.84	210.62
345.22	210.59
345.60	210.87
345.99	211.12
346.37	211.16
346.75	211.35
347.13	211.41
347.52	211.50
347.90	211.61
348.28	211.55
348.66	211.64
349.05	211.55
349.43	211.59
349.81	211.68
350.19	211.72
350.57	211.77
350.96	211.89
351.34	212.06
351.72	212.08
352.10	212.22
352.48	212.27
352.87	212.30
353.25	212.40
353.63	212.44
354.01	212.47
354.39	212.49
354.77	212.56
355.15	212.74
355.54	212.73
355.92	212.73
356.30	212.89
356.68	213.15
357.06	213.22
357.44	213.34
357.82	213.40
358.20	213.42
358.58	213.57
358.97	213.66
359.35	213.75
359.73	213.96
360.11	214.00
360.49	214.02
360.87	214.07
361.25	214.22
361.63	214.40
362.01	214.45
362.39	214.51
362.77	214.59
363.15	214.61
363.53	214.66
363.91	214.68
364.29	214.65
364.67	214.35
365.05	214.44
365.43	214.44
365.81	214.47
366.19	214.62
366.57	214.76
366.95	214.78
367.33	214.63
367.71	214.63
368.09	214.65
368.47	214.68
368.85	214.65
369.23	214.79
369.61	214.64
369.99	214.79
370.37	214.80
370.75	214.93
371.13	214.79
371.51	214.77
371.89	214.81
372.27	214.86
372.65	214.90
373.03	214.87
373.41	214.87
373.78	214.85
374.16	214.68
374.54	214.50
374.92	214.41
375.30	214.49
375.68	214.38
376.06	214.46
376.44	214.41
376.82	214.48
377.19	214.30
377.57	214.25
377.95	214.06
378.33	214.08
378.71	213.89
379.09	213.96
379.47	213.91
379.84	213.78
380.22	213.69
380.60	213.57
380.98	213.48
381.36	213.39
381.73	213.31
382.11	213.40
382.49	213.42
382.87	213.35
383.25	213.25
383.62	213.60
384.00	213.54
384.38	213.50
384.76	213.48
385.13	213.61
385.51	213.55
385.89	213.49
386.27	213.44
386.64	213.45
387.02	213.35
387.40	213.30
387.78	213.34
388.15	213.32
388.53	213.24
388.91	213.21
389.29	213.17
389.66	213.19
390.04	213.05
390.42	213.07
390.79	213.08
391.17	213.11
391.55	212.65
391.92	212.63
392.30	212.69
392.68	212.61
393.05	212.56
393.43	212.59
393.81	212.65
394.18	212.55
394.56	212.55
394.94	212.62
395.31	212.65
395.69	212.73
396.06	212.76
396.44	212.87
396.82	212.85
397.19	213.05
397.57	213.07
397.95	213.11
398.32	212.95
398.70	212.98
399.07	213.10
399.45	213.22
399.82	213.20
400.20	213.14
400.58	213.10
400.95	213.03
401.33	213.12
401.70	213.40
402.08	213.52
402.45	213.51
402.83	213.63
403.20	213.65
403.58	213.69
403.95	213.82
404.33	213.89
404.71	214.05
405.08	214.29
405.46	214.37
405.83	214.50
406.21	214.65
406.58	214.81
406.96	214.89
407.33	215.05
407.70	215.33
408.08	215.86
408.45	216.22
408.83	216.51
409.20	216.72
409.58	216.80
409.95	217.18
410.33	217.57
410.70	217.83
411.08	218.30
411.45	218.74
411.82	219.07
412.20	219.68
412.57	220.30
412.95	220.58
413.32	221.26
413.69	221.96
414.07	222.55
414.44	223.34
414.82	224.13
415.19	224.98
415.56	225.84
415.94	226.54
416.31	227.54
416.68	228.54
417.06	229.73
417.43	230.91
417.81	232.09
418.18	233.44
418.55	234.83
418.93	236.22
419.30	237.65
419.67	239.26
420.04	240.86
420.42	242.59
420.79	244.71
421.16	246.70
421.54	248.88
421.91	251.10
422.28	253.21
422.66	255.48
423.03	257.92
423.40	260.31
423.77	262.89
424.15	265.41
424.52	268.12
424.89	271.10
425.26	273.82
425.64	276.56
426.01	279.43
426.38	282.54
426.75	285.84
427.13	289.14
427.50	292.56
427.87	296.03
428.24	299.57
428.61	302.95
428.99	306.72
429.36	310.59
429.73	314.65
430.10	318.63
430.47	322.77
430.85	326.72
431.22	331.12
431.59	335.93
431.96	340.49
432.33	345.42
432.70	350.10
433.08	355.76
433.45	361.06
433.82	366.37
434.19	372.26
434.56	377.97
434.93	383.36
435.30	388.86
435.68	394.93
436.05	400.91
436.42	406.74
436.79	412.17
437.16	417.97
437.53	424.01
437.90	430.17
438.27	436.14
438.64	442.51
439.01	448.32
439.38	453.30
439.75	458.14
440.13	463.80
440.50	469.09
440.87	473.32
441.24	477.75
441.61	482.69
441.98	486.24
442.35	490.42
442.72	494.86
443.09	499.03
443.46	501.44
443.83	502.91
444.20	504.37
444.57	506.31
444.94	507.36
445.31	508.36
445.68	509.40
446.05	509.73
446.42	508.85
446.79	507.98
447.16	507.14
447.53	506.59
447.90	504.17
448.27	501.82
448.64	498.54
449.01	496.20
449.37	492.05
449.74	488.07
450.11	483.41
450.48	478.08
450.85	472.76
451.22	468.28
451.59	464.03
451.96	459.95
452.33	454.54
452.70	449.42
453.07	443.42
453.43	437.19
453.80	431.43
454.17	426.00
454.54	420.81
454.91	415.24
455.28	409.70
455.65	404.59
456.02	400.08
456.38	395.94
456.75	390.65
457.12	386.20
457.49	381.78
457.86	377.36
458.23	373.78
458.59	369.85
458.96	365.80
459.33	362.21
459.70	358.42
460.07	355.64
460.43	352.36
460.80	349.45
461.17	346.82
461.54	344.05
461.91	341.43
462.27	338.68
462.64	336.32
463.01	333.88
463.38	331.57
463.74	328.68
464.11	326.44
464.48	324.51
464.85	322.60
465.21	321.19
465.58	319.56
465.95	317.55
466.32	315.86
466.68	314.22
467.05	312.61
467.42	311.21
467.78	309.44
468.15	307.95
468.52	306.91
468.88	305.37
469.25	304.03
469.62	303.00
469.98	301.91
470.35	300.87
470.72	299.87
471.08	298.70
471.45	297.80
471.82	297.01
472.18	296.13
472.55	295.44
472.92	294.57
473.28	293.94
473.65	293.36
474.02	292.76
474.38	292.38
474.75	292.09
475.11	291.63
475.48	291.40
475.85	291.20
476.21	290.93
476.58	290.89
476.94	290.87
477.31	290.90
477.67	290.90
478.04	290.96
478.41	291.25
478.77	291.90
479.14	292.12
479.50	292.54
479.87	292.91
480.23	293.28
480.60	293.70
480.96	294.17
481.33	294.93
481.69	295.61
482.06	296.32
482.42	296.98
482.79	297.89
483.15	298.92
483.52	300.10
483.88	301.19
484.25	302.35
484.61	303.66
484.98	304.93
485.34	306.44
485.71	308.20
486.07	309.81
486.44	311.29
486.80	313.11
487.17	315.01
487.53	317.24
487.90	319.60
488.26	322.08
488.62	324.69
488.99	327.23
489.35	329.99
489.72	332.86
490.08	336.00
490.44	339.00
490.81	342.34
491.17	345.79
491.54	349.48
491.90	353.36
492.26	357.41
492.63	361.76
492.99	366.27
493.36	370.89
493.72	375.87
494.08	380.99
494.45	386.55
494.81	392.35
495.17	398.20
495.54	404.44
495.90	410.94
496.26	417.72
496.63	424.87
496.99	432.20
497.35	439.90
497.72	447.81
498.08	456.11
498.44	464.61
498.80	473.69
499.17	482.99
499.53	492.54
499.89	502.73
500.26	512.89
500.62	523.33
500.98	534.44
501.34	545.82
501.71	557.57
502.07	569.48
502.43	581.85
502.79	594.52
503.16	607.84
503.52	621.34
503.88	635.16
504.24	649.43
504.60	664.32
504.97	679.61
505.33	695.23
505.69	711.74
506.05	728.59
506.41	745.38
506.78	762.48
507.14	780.30
507.50	798.24
507.86	816.80
508.22	835.92
508.59	854.71
508.95	874.50
509.31	894.57
509.67	915.12
510.03	936.13
510.39	957.87
510.75	979.65
511.12	1001.66
511.48	1023.98
511.84	1046.85
512.20	1069.78
512.56	1093.35
512.92	1117.43
513.28	1141.43
513.64	1165.31
514.00	1189.67
514.37	1214.35
514.73	1239.54
515.09	1264.88
515.45	1290.04
515.81	1315.21
516.17	1341.03
516.53	1366.71
516.89	1392.60
517.25	1418.51
517.61	1444.41
517.97	1470.26
518.33	1496.18
518.69	1522.44
519.05	1549.00
519.41	1575.73
519.77	1602.64
520.13	1628.61
520.49	1654.39
520.85	1680.45
521.21	1706.93
521.57	1733.73
521.93	1759.65
522.29	1786.28
522.65	1812.73
523.01	1838.80
523.37	1864.60
523.73	1890.87
524.09	1916.77
524.45	1942.82
524.81	1968.68
525.17	1994.79
525.53	2020.75
525.89	2046.23
526.25	2071.82
526.61	2096.31
526.97	2120.85
527.33	2145.28
527.68	2170.48
528.04	2194.58
528.40	2217.55
528.76	2241.23
529.12	2265.14
529.48	2289.79
529.84	2312.81
530.20	2335.72
530.56	2359.20
530.91	2383.36
531.27	2406.50
531.63	2428.98
531.99	2451.47
532.35	2473.27
532.71	2494.54
533.07	2516.09
533.42	2536.99
533.78	2557.91
534.14	2578.51
534.50	2597.61
534.86	2617.59
535.21	2635.65
535.57	2655.58
535.93	2675.16
536.29	2693.56
536.65	2711.85
537.00	2728.72
537.36	2745.53
537.72	2761.83
538.08	2777.87
538.44	2793.68
538.79	2809.65
539.15	2825.71
539.51	2840.93
539.87	2856.88
540.22	2871.60
540.58	2886.77
540.94	2901.35
541.29	2914.25
541.65	2926.73
542.01	2939.91
542.37	2951.84
542.72	2964.79
543.08	2975.73
543.44	2988.16
543.79	2998.91
544.15	3008.30
544.51	3019.00
544.87	3029.83
545.22	3038.97
545.58	3047.87
545.94	3055.21
546.29	3061.78
546.65	3067.94
547.01	3074.10
547.36	3079.65
547.72	3085.40
548.07	3089.62
548.43	3093.98
548.79	3098.45
549.14	3102.64
549.50	3106.62
549.86	3109.86
550.21	3112.42
550.57	3116.00
550.92	3116.74
551.28	3118.43
551.64	3120.72
551.99	3122.67
552.35	3123.25
552.70	3125.02
553.06	3126.10
553.41	3127.32
553.77	3128.41
554.13	3128.80
554.48	3129.49
554.84	3130.28
555.19	3130.02
555.55	3129.04
555.90	3127.35
556.26	3125.67
556.61	3124.64
556.97	3122.24
557.32	3120.50
557.68	3117.62
558.03	3114.82
558.39	3113.04
558.74	3111.74
559.10	3109.67
559.45	3106.53
559.81	3104.16
560.16	3100.47
560.52	3097.62
560.87	3094.02
561.23	3089.47
561.58	3086.15
561.94	3081.20
562.29	3075.59
562.64	3071.39
563.00	3067.50
563.35	3064.40
563.71	3061.55
564.06	3057.60
564.42	3054.49
564.77	3050.69
565.12	3047.70
565.48	3043.44
565.83	3039.35
566.19	3034.88
566.54	3029.13
566.89	3023.72
567.25	3018.60
567.60	3013.83
567.96	3008.19
568.31	3003.09
568.66	2997.78
569.02	2991.48
569.37	2985.02
569.72	2979.26
570.08	2972.54
570.43	2965.69
570.78	2958.26
571.14	2949.71
571.49	2942.07
571.84	2935.01
572.20	2926.54
572.55	2918.79
572.90	2910.22
573.26	2901.18
573.61	2891.99
573.96	2882.94
574.31	2873.41
574.67	2863.21
575.02	2852.77
575.37	2842.72
575.72	2831.91
576.08	2822.67
576.43	2812.42
576.78	2803.09
577.13	2793.58
577.49	2784.34
577.84	2774.34
578.19	2764.97
578.54	2756.84
578.90	2748.47
579.25	2738.31
579.60	2727.83
579.95	2717.05
580.30	2708.06
580.66	2699.34
581.01	2689.06
581.36	2679.41
581.71	2669.72
582.06	2660.14
582.42	2650.89
582.77	2640.46
583.12	2630.76
583.47	2621.28
583.82	2612.62
584.17	2603.03
584.53	2593.52
584.88	2583.53
585.23	2573.80
585.58	2563.96
585.93	2553.43
586.28	2543.41
586.63	2533.22
586.98	2524.28
587.34	2515.53
587.69	2505.63
588.04	2495.65
588.39	2486.65
588.74	2476.09
589.09	2466.93
589.44	2457.21
589.79	2448.33
590.14	2439.78
590.49	2430.46
590.84	2420.70
591.19	2411.90
591.54	2402.65
591.89	2391.49
592.25	2381.35
592.60	2371.03
592.95	2360.66
593.30	2350.00
593.65	2339.24
594.00	2329.26
594.35	2321.01
594.70	2310.79
595.05	2301.04
595.40	2291.13
595.75	2280.66
596.10	2272.20
596.45	2263.09
596.80	2254.48
597.15	2245.29
597.50	2235.57
597.85	2226.55
598.19	2216.98
598.54	2207.14
598.89	2198.18
599.24	2191.25
599.59	2183.13
599.94	2175.87
600.29	2167.72
600.64	2159.87
600.99	2150.82
601.34	2143.06
601.69	2133.05
602.04	2124.08
602.39	2115.06
602.74	2106.50
603.08	2099.09
603.43	2091.60
603.78	2083.24
604.13	2074.46
604.48	2065.83
604.83	2058.81
605.18	2052.11
605.53	2043.99
605.87	2035.79
606.22	2027.87
606.57	2018.95
606.92	2010.27
607.27	2001.00
607.62	1992.43
607.96	1984.40
608.31	1977.27
608.66	1968.15
609.01	1959.56
609.36	1950.82
609.70	1941.80
610.05	1932.78
610.40	1923.81
610.75	1914.08
611.10	1905.36
611.44	1895.16
611.79	1885.46
612.14	1875.00
612.49	1863.83
612.83	1854.12
613.18	1843.65
613.53	1833.17
613.88	1822.54
614.22	1813.07
614.57	1803.28
614.92	1793.37
615.27	1782.96
615.61	1772.56
615.96	1762.91
616.31	1753.70
616.65	1745.34
617.00	1736.62
617.35	1727.30
617.70	1717.18
618.04	1706.95
618.39	1696.22
618.74	1687.20
619.08	1677.33
619.43	1667.71
619.78	1658.68
620.12	1649.48
620.47	1640.33
620.82	1630.63
621.16	1620.89
621.51	1610.85
621.85	1601.45
622.20	1591.71
622.55	1582.09
622.89	1572.41
623.24	1563.19
623.59	1553.27
623.93	1543.25
624.28	1533.52
624.62	1524.19
624.97	1514.97
625.32	1506.20
625.66	1497.55
626.01	1488.70
626.35	1480.20
626.70	1471.54
627.04	1463.30
627.39	1454.83
627.73	1446.43
628.08	1438.61
628.43	1430.22
628.77	1421.70
629.12	1412.91
629.46	1405.41
629.81	1397.22
630.15	1389.05
630.50	1380.39
630.84	1371.88
631.19	1363.54
631.53	1355.36
631.88	1346.45
632.22	1337.80
632.57	1329.64
632.91	1321.25
633.26	1312.80
633.60	1304.69
633.95	1296.86
634.29	1288.03
634.64	1279.83
634.98	1271.28
635.32	1263.17
635.67	1255.77
636.01	1248.03
636.36	1240.25
636.70	1232.12
637.05	1224.34
637.39	1216.78
637.73	1209.66
638.08	1202.88
638.42	1195.87
638.77	1188.58
639.11	1181.49
639.45	1174.27
639.80	1166.48
640.14	1158.68
640.49	1151.19
640.83	1143.59
641.17	1135.94
641.52	1128.51
641.86	1120.73
642.20	1113.60
642.55	1105.94
642.89	1098.20
643.23	1090.59
643.58	1083.62
643.92	1075.86
644.26	1068.56
644.61	1061.19
644.95	1053.44
645.29	1045.79
645.64	1038.06
645.98	1030.76
646.32	1023.73
646.66	1016.49
647.01	1009.60
647.35	1002.71
647.69	995.49
648.04	988.38
648.38	981.21
648.72	974.29
649.06	967.32
649.41	960.15
649.75	953.14
650.09	946.34
650.43	939.57
650.78	932.03
651.12	924.91
651.46	917.94
651.80	911.39
652.14	904.81
652.49	898.11
652.83	891.50
653.17	884.18
653.51	877.09
653.85	870.67
654.20	863.96
654.54	857.34
654.88	850.91
655.22	844.35
655.56	837.83
655.90	831.27
656.25	824.87
656.59	818.58
656.93	812.27
657.27	806.03
657.61	799.38
657.95	793.53
658.29	787.60
658.64	781.81
658.98	775.41
659.32	769.00
659.66	762.86
660.00	756.68
660.34	750.75
660.68	744.66
661.02	738.46
661.36	732.75
661.70	727.13
662.05	721.53
662.39	716.34
662.73	710.96
663.07	705.67
663.41	700.55
663.75	695.27
664.09	690.01
664.43	684.51
664.77	679.51
665.11	674.35
665.45	669.49
665.79	664.39
666.13	659.57
666.47	654.95
666.81	650.17
667.15	645.35
667.49	641.15
667.83	637.06
668.17	632.70
668.51	628.49
668.85	624.25
669.19	620.15
669.53	615.55
669.87	611.08
670.21	606.60
670.55	602.09
670.89	598.21
671.23	594.14
671.57	590.43
671.91	586.41
672.25	582.40
672.58	578.35
672.92	574.37
673.26	570.67
673.60	566.83
673.94	563.19
674.28	559.51
674.62	555.80
674.96	552.03
675.30	548.47
675.64	544.51
675.97	540.86
676.31	537.43
676.65	534.06
676.99	530.94
677.33	527.61
677.67	524.32
678.01	520.75
678.34	517.48
678.68	514.07
679.02	510.83
679.36	507.68
679.70	504.54
680.04	501.45
680.37	498.06
680.71	494.85
681.05	491.64
681.39	488.62
681.73	485.57
682.06	482.72
682.40	479.91
682.74	477.06
683.08	474.17
683.42	471.03
683.75	468.19
684.09	465.14
684.43	462.38
684.77	459.43
685.10	456.53
685.44	453.55
685.78	450.64
686.12	448.11
686.45	445.44
686.79	442.89
687.13	440.37
687.46	437.72
687.80	435.30
688.14	432.59
688.48	430.11
688.81	427.49
689.15	424.90
689.49	422.24
689.82	419.76
690.16	417.07
690.50	414.49
690.83	411.96
691.17	409.44
691.51	406.93
691.84	404.66
692.18	402.23
692.52	400.08
692.85	398.11
693.19	395.94
693.52	393.77
693.86	391.40
694.20	389.27
694.53	387.15
694.87	384.87
695.21	382.82
695.54	380.55
695.88	378.36
696.21	376.22
696.55	374.19
696.88	372.16
697.22	370.19
697.56	368.45
697.89	366.50
698.23	364.71
698.56	362.93
698.90	361.14
699.23	359.43
699.57	357.57
699.90	355.65
700.24	353.77
700.58	351.85
700.91	350.26
701.25	348.66
701.58	347.09
701.92	345.45
702.25	343.75
702.59	342.24
702.92	340.74
703.26	339.13
703.59	337.60
703.93	336.47
704.26	335.01
704.60	333.43
704.93	331.96
705.26	330.43
705.60	329.01
705.93	327.48
706.27	326.18
706.60	324.89
706.94	323.58
707.27	322.08
707.61	320.75
707.94	319.34
708.27	317.73
708.61	316.26
708.94	314.96
709.28	313.74
709.61	312.43
709.94	311.26
710.28	310.08
710.61	308.90
710.95	307.29
711.28	306.43
711.61	305.32
711.95	304.25
712.28	303.15
712.61	301.95
712.95	301.08
713.28	300.06
713.61	298.91
713.95	297.86
714.28	296.93
714.61	295.94
714.95	294.82
715.28	293.90
715.61	292.94
715.95	292.01
716.28	290.99
716.61	290.06
716.95	289.01
717.28	288.06
717.61	287.13
717.94	286.32
718.28	285.10
718.61	284.20
718.94	283.31
719.27	282.43
719.61	281.59
719.94	280.63
720.27	279.64
720.60	278.81
720.94	277.95
721.27	277.18
721.60	276.37
721.93	275.69
722.27	274.93
722.60	274.30
722.93	273.45
723.26	272.91
723.59	272.21
723.93	271.53
724.26	270.95
724.59	270.27
724.92	269.61
725.25	269.05
725.59	268.32
725.92	267.78
726.25	267.18
726.58	266.62
726.91	266.03
727.24	265.49
727.57	264.91
727.91	264.33
728.24	263.78
728.57	263.35
728.90	262.85
729.23	262.33
729.56	261.95
729.89	261.43
730.22	260.77
730.55	260.20
730.89	259.69
731.22	259.11
731.55	258.58
731.88	258.05
732.21	257.45
732.54	257.03
732.87	256.42
733.20	255.95
733.53	255.45
733.86	254.94
734.19	254.40
734.52	253.99
734.85	253.74
735.18	253.27
735.51	252.83
735.84	252.44
736.17	251.97
736.50	251.33
736.83	251.41
737.16	250.99
737.49	250.55
737.82	250.10
738.15	249.67
738.48	249.21
738.81	248.73
739.14	248.35
739.47	247.83
739.80	247.42
740.13	247.00
740.46	246.55
740.79	246.14
741.12	245.76
741.45	245.31
741.78	244.77
742.11	244.47
742.44	244.00
742.77	243.65
743.10	243.28
743.43	242.84
743.75	242.09
744.08	242.18
744.41	241.86
744.74	241.58
745.07	241.20
745.40	241.03
745.73	240.94
746.06	240.60
746.39	240.35
746.71	240.08
747.04	239.73
747.37	239.44
747.70	239.22
748.03	238.96
748.36	238.69
748.68	238.32
749.01	237.97
749.34	237.73
749.67	237.40
750.00	237.13
750.33	237.22
750.65	236.92
750.98	236.25
751.31	235.95
751.64	235.72
751.97	235.66
752.29	235.31
752.62	234.74
752.95	234.42
753.28	234.08
753.60	233.84
753.93	233.73
754.26	233.49
754.59	233.14
754.91	232.85
755.24	232.58
755.57	232.36
755.90	232.05
756.22	231.77
756.55	231.47
756.88	231.15
757.20	230.60
757.53	230.21
757.86	229.92
758.19	229.64
758.51	229.32
758.84	228.99
759.17	228.73
759.49	228.66
759.82	228.66
760.15	228.50
760.47	228.23
760.80	227.85
761.13	227.69
761.45	227.46
761.78	227.20
762.11	227.05
762.43	226.85
762.76	226.68
763.08	226.48
763.41	226.33
763.74	226.21
764.06	225.99
764.39	225.95
764.71	225.70
765.04	225.58
765.37	225.37
765.69	225.16
766.02	224.98
766.34	224.76
766.67	224.50
767.00	224.41
767.32	224.48
767.65	224.55
767.97	224.35
768.30	224.22
768.62	224.12
768.95	223.87
769.27	223.69
769.60	223.64
769.92	223.52
770.25	223.37
770.57	223.12
770.90	222.96
771.22	222.76
771.55	222.71
771.87	222.58
772.20	222.50
772.52	222.68
772.85	223.02
773.17	222.93
773.50	222.77
773.82	222.60
774.15	222.29
774.47	222.00
774.80	221.82
775.12	221.67
775.45	221.56
775.77	221.44
776.09	221.35
776.42	221.19
776.74	221.18
777.07	221.01
777.39	220.96
777.72	220.80
778.04	220.76
778.36	220.63
778.69	220.52
779.01	220.41
779.33	220.01
779.66	219.52
779.98	219.42
780.31	219.32
780.63	219.42
780.95	219.42
781.28	219.28
781.60	219.21
781.92	219.16
782.25	219.06
782.57	219.04
782.89	219.05
783.22	218.95
783.54	218.81
783.86	218.82
784.19	218.75
784.51	218.90
784.83	218.79
785.16	218.75
785.48	218.71
785.80	218.66
