SpectraSuite Data File
++++++++++++++++++++++++++++++++++++
Date: Mon Feb 25 17:08:52 EST 2013
User: group
Dark Spectrum Present: No
Reference Spectrum Present: No
Number of Sampled Component Spectra: 1
Spectrometers: USB2E7196
Integration Time (usec): 104000 (USB2E7196)
Spectra Averaged: 20 (USB2E7196)
Boxcar Smoothing: 10 (USB2E7196)
Correct for Electrical Dark: No (USB2E7196)
Strobe/Lamp Enabled: No (USB2E7196)
Correct for Detector Non-linearity: No (USB2E7196)
Correct for Stray Light: No (USB2E7196)
Number of Pixels in Processed Spectrum: 2048
>>>>>Begin Processed Spectral Data<<<<<
339.09	0.00
339.48	197.50
339.86	199.55
340.24	200.55
340.63	202.45
341.01	209.70
341.39	206.85
341.78	207.65
342.16	209.35
342.54	208.20
342.93	198.05
343.31	208.05
343.69	208.66
344.07	209.15
344.46	209.63
344.84	210.00
345.22	210.03
345.60	210.26
345.99	210.42
346.37	210.43
346.75	210.45
347.13	210.51
347.52	210.50
347.90	210.60
348.28	210.60
348.66	210.76
349.05	210.70
349.43	210.76
349.81	210.78
350.19	210.79
350.57	210.80
350.96	210.90
351.34	210.93
351.72	210.92
352.10	210.99
352.48	211.00
352.87	211.10
353.25	211.19
353.63	211.21
354.01	211.21
354.39	211.35
354.77	211.50
355.15	211.71
355.54	211.77
355.92	211.74
356.30	211.80
356.68	212.04
357.06	212.14
357.44	212.17
357.82	212.27
358.20	212.29
358.58	212.34
358.97	212.40
359.35	212.60
359.73	212.83
360.11	212.89
360.49	213.03
360.87	213.05
361.25	213.10
361.63	213.27
362.01	213.34
362.39	213.27
362.77	213.37
363.15	213.33
363.53	213.34
363.91	213.36
364.29	213.45
364.67	213.19
365.05	213.24
365.43	213.25
365.81	213.34
366.19	213.54
366.57	213.71
366.95	213.70
367.33	213.65
367.71	213.62
368.09	213.63
368.47	213.61
368.85	213.54
369.23	213.61
369.61	213.41
369.99	213.54
370.37	213.65
370.75	213.75
371.13	213.66
371.51	213.66
371.89	213.70
372.27	213.59
372.65	213.50
373.03	213.43
373.41	213.36
373.78	213.27
374.16	213.06
374.54	212.86
374.92	212.73
375.30	212.66
375.68	212.56
376.06	212.55
376.44	212.46
376.82	212.50
377.19	212.45
377.57	212.35
377.95	212.24
378.33	212.16
378.71	211.88
379.09	211.89
379.47	211.83
379.84	211.70
380.22	211.62
380.60	211.53
380.98	211.44
381.36	211.34
381.73	211.25
382.11	211.29
382.49	211.30
382.87	211.22
383.25	211.10
383.62	211.38
384.00	211.26
384.38	211.20
384.76	211.19
385.13	211.27
385.51	211.35
385.89	211.20
386.27	211.12
386.64	211.20
387.02	211.09
387.40	211.07
387.78	211.08
388.15	211.14
388.53	211.14
388.91	211.14
389.29	211.15
389.66	211.10
390.04	211.01
390.42	211.01
390.79	211.07
391.17	211.08
391.55	210.74
391.92	210.68
392.30	210.75
392.68	210.70
393.05	210.61
393.43	210.52
393.81	210.52
394.18	210.40
394.56	210.34
394.94	210.44
395.31	210.35
395.69	210.40
396.06	210.41
396.44	210.42
396.82	210.36
397.19	210.55
397.57	210.52
397.95	210.52
398.32	210.42
398.70	210.43
399.07	210.50
399.45	210.45
399.82	210.53
400.20	210.39
400.58	210.33
400.95	210.22
401.33	210.32
401.70	210.60
402.08	210.62
402.45	210.66
402.83	210.74
403.20	210.88
403.58	210.94
403.95	211.03
404.33	211.06
404.71	211.22
405.08	211.46
405.46	211.50
405.83	211.67
406.21	211.69
406.58	211.82
406.96	211.87
407.33	212.04
407.70	212.13
408.08	212.54
408.45	212.74
408.83	212.91
409.20	213.02
409.58	212.95
409.95	213.26
410.33	213.35
410.70	213.48
411.08	213.74
411.45	213.95
411.82	214.09
412.20	214.47
412.57	214.88
412.95	214.85
413.32	215.34
413.69	215.63
414.07	216.07
414.44	216.45
414.82	216.94
415.19	217.49
415.56	218.05
415.94	218.50
416.31	219.16
416.68	219.87
417.06	220.62
417.43	221.41
417.81	222.17
418.18	223.13
418.55	224.00
418.93	224.93
419.30	225.91
419.67	227.05
420.04	228.07
420.42	229.01
420.79	230.57
421.16	231.70
421.54	233.19
421.91	234.64
422.28	236.01
422.66	237.53
423.03	239.19
423.40	240.74
423.77	242.31
424.15	244.01
424.52	245.68
424.89	247.62
425.26	249.46
425.64	251.19
426.01	253.13
426.38	255.04
426.75	257.13
427.13	259.24
427.50	261.41
427.87	263.68
428.24	266.00
428.61	268.01
428.99	270.60
429.36	273.07
429.73	275.60
430.10	278.25
430.47	280.94
430.85	283.50
431.22	286.35
431.59	289.60
431.96	292.53
432.33	295.72
432.70	298.82
433.08	302.50
433.45	306.08
433.82	309.58
434.19	313.55
434.56	317.34
434.93	320.93
435.30	324.50
435.68	328.56
436.05	332.67
436.42	336.59
436.79	340.25
437.16	344.25
437.53	348.42
437.90	352.47
438.27	356.43
438.64	360.57
439.01	364.63
439.38	367.97
439.75	371.37
440.13	375.31
440.50	378.93
440.87	381.82
441.24	384.89
441.61	388.36
441.98	390.92
442.35	393.75
442.72	396.81
443.09	399.88
443.46	401.61
443.83	402.70
444.20	403.84
444.57	405.35
444.94	406.15
445.31	406.98
445.68	408.14
446.05	408.45
446.42	408.19
446.79	407.87
447.16	407.48
447.53	407.20
447.90	405.74
448.27	404.33
448.64	402.27
449.01	400.83
449.37	398.17
449.74	395.67
450.11	392.94
450.48	389.59
450.85	386.07
451.22	383.11
451.59	380.41
451.96	377.80
452.33	374.12
452.70	370.74
453.07	366.85
453.43	362.64
453.80	358.97
454.17	355.37
454.54	351.74
454.91	347.95
455.28	344.23
455.65	340.83
456.02	337.95
456.38	335.09
456.75	331.61
457.12	328.58
457.49	325.57
457.86	322.48
458.23	320.11
458.59	317.45
458.96	314.80
459.33	312.40
459.70	309.92
460.07	308.08
460.43	305.95
460.80	303.89
461.17	302.06
461.54	300.15
461.91	298.30
462.27	296.52
462.64	295.02
463.01	293.41
463.38	291.81
463.74	289.56
464.11	288.13
464.48	286.76
464.85	285.28
465.21	284.27
465.58	283.10
465.95	281.53
466.32	280.35
466.68	279.27
467.05	278.14
467.42	276.96
467.78	275.64
468.15	274.51
468.52	273.70
468.88	272.50
469.25	271.53
469.62	270.76
469.98	269.86
470.35	268.99
470.72	268.30
471.08	267.38
471.45	266.82
471.82	266.15
472.18	265.45
472.55	264.96
472.92	264.25
473.28	263.63
473.65	263.05
474.02	262.50
474.38	261.97
474.75	261.56
475.11	261.20
475.48	260.94
475.85	260.57
476.21	260.20
476.58	259.96
476.94	259.70
477.31	259.46
477.67	259.30
478.04	259.09
478.41	258.83
478.77	259.07
479.14	258.82
479.50	258.84
479.87	258.79
480.23	258.79
480.60	258.67
480.96	258.72
481.33	258.95
481.69	258.99
482.06	259.10
482.42	259.20
482.79	259.18
483.15	259.30
483.52	259.60
483.88	259.70
484.25	259.96
484.61	260.13
484.98	260.31
485.34	260.69
485.71	261.15
486.07	261.52
486.44	261.68
486.80	262.20
487.17	262.52
487.53	263.09
487.90	263.66
488.26	264.47
488.62	265.07
488.99	265.59
489.35	266.30
489.72	267.07
490.08	267.85
490.44	268.73
490.81	269.63
491.17	270.43
491.54	271.46
491.90	272.49
492.26	273.58
492.63	274.67
492.99	275.68
493.36	276.87
493.72	278.15
494.08	279.42
494.45	280.73
494.81	282.25
495.17	283.63
495.54	285.13
495.90	286.44
496.26	287.98
496.63	289.65
496.99	291.21
497.35	292.84
497.72	294.55
498.08	296.37
498.44	298.22
498.80	300.25
499.17	302.15
499.53	303.99
499.89	306.12
500.26	308.21
500.62	310.44
500.98	312.70
501.34	314.99
501.71	317.35
502.07	319.68
502.43	322.03
502.79	324.42
503.16	326.86
503.52	329.43
503.88	331.98
504.24	334.68
504.60	337.54
504.97	340.32
505.33	343.20
505.69	346.18
506.05	349.10
506.41	352.04
506.78	355.03
507.14	358.10
507.50	361.24
507.86	364.45
508.22	367.63
508.59	370.81
508.95	374.13
509.31	377.51
509.67	380.99
510.03	384.41
510.39	388.05
510.75	391.52
511.12	395.17
511.48	398.95
511.84	402.65
512.20	406.35
512.56	410.29
512.92	414.06
513.28	417.86
513.64	421.70
514.00	425.58
514.37	429.65
514.73	433.87
515.09	438.03
515.45	442.12
515.81	446.29
516.17	450.51
516.53	454.55
516.89	458.61
517.25	462.86
517.61	467.25
517.97	471.50
518.33	476.11
518.69	480.56
519.05	485.14
519.41	489.65
519.77	494.37
520.13	498.76
520.49	503.07
520.85	507.61
521.21	512.32
521.57	517.02
521.93	521.56
522.29	526.34
522.65	530.91
523.01	535.71
523.37	540.40
523.73	545.09
524.09	550.00
524.45	554.87
524.81	559.68
525.17	564.61
525.53	569.50
525.89	574.16
526.25	579.07
526.61	583.78
526.97	588.66
527.33	593.55
527.68	598.99
528.04	604.22
528.40	609.11
528.76	614.13
529.12	619.21
529.48	624.29
529.84	629.26
530.20	634.39
530.56	639.42
530.91	644.57
531.27	649.83
531.63	654.98
531.99	660.14
532.35	665.21
532.71	670.12
533.07	675.27
533.42	680.62
533.78	685.71
534.14	690.76
534.50	695.49
534.86	700.29
535.21	704.65
535.57	709.46
535.93	714.26
536.29	719.12
536.65	723.96
537.00	728.61
537.36	733.07
537.72	737.62
538.08	742.23
538.44	746.68
538.79	751.15
539.15	755.41
539.51	759.79
539.87	764.35
540.22	768.78
540.58	773.23
540.94	777.29
541.29	781.29
541.65	785.13
542.01	789.29
542.37	793.41
542.72	797.52
543.08	801.28
543.44	805.47
543.79	808.93
544.15	812.86
544.51	816.88
544.87	820.98
545.22	824.51
545.58	827.85
545.94	831.25
546.29	834.40
546.65	837.47
547.01	840.58
547.36	843.77
547.72	846.75
548.07	849.45
548.43	852.30
548.79	855.01
549.14	857.68
549.50	860.32
549.86	862.69
550.21	865.00
550.57	867.61
550.92	869.54
551.28	872.07
551.64	873.95
551.99	875.97
552.35	877.58
552.70	879.65
553.06	881.67
553.41	883.59
553.77	885.64
554.13	887.58
554.48	889.45
554.84	891.23
555.19	892.80
555.55	894.43
555.90	895.66
556.26	896.88
556.61	898.21
556.97	899.35
557.32	900.49
557.68	901.28
558.03	902.35
558.39	903.44
558.74	904.46
559.10	905.47
559.45	906.40
559.81	907.70
560.16	908.28
560.52	909.40
560.87	910.14
561.23	910.57
561.58	911.73
561.94	912.10
562.29	912.34
562.64	913.00
563.00	913.51
563.35	914.33
563.71	915.43
564.06	916.15
564.42	916.81
564.77	917.46
565.12	918.50
565.48	919.26
565.83	919.96
566.19	920.55
566.54	920.58
566.89	920.71
567.25	920.90
567.60	921.51
567.96	921.72
568.31	922.04
568.66	922.05
569.02	921.36
569.37	921.09
569.72	920.99
570.08	920.54
570.43	919.99
570.78	919.30
571.14	918.35
571.49	917.54
571.84	917.00
572.20	916.19
572.55	915.47
572.90	914.23
573.26	913.22
573.61	911.84
573.96	911.09
574.31	909.71
574.67	908.18
575.02	906.59
575.37	904.86
575.72	903.08
576.08	901.80
576.43	900.59
576.78	899.29
577.13	897.74
577.49	896.27
577.84	895.20
578.19	894.01
578.54	892.83
578.90	891.81
579.25	890.35
579.60	888.80
579.95	886.92
580.30	885.50
580.66	884.04
581.01	882.60
581.36	880.74
581.71	879.33
582.06	877.89
582.42	876.50
582.77	874.88
583.12	873.54
583.47	872.05
583.82	870.59
584.17	869.07
584.53	867.72
584.88	866.34
585.23	864.65
585.58	862.92
585.93	861.27
586.28	859.58
586.63	857.79
586.98	856.17
587.34	854.85
587.69	853.16
588.04	851.65
588.39	850.22
588.74	848.50
589.09	847.06
589.44	845.36
589.79	843.64
590.14	842.18
590.49	840.39
590.84	838.55
591.19	837.03
591.54	835.41
591.89	833.09
592.25	831.39
592.60	829.14
592.95	827.16
593.30	825.05
593.65	823.00
594.00	821.17
594.35	820.18
594.70	818.13
595.05	816.27
595.40	814.08
595.75	811.53
596.10	809.80
596.45	807.72
596.80	806.01
597.15	804.29
597.50	802.15
597.85	800.36
598.19	798.49
598.54	796.41
598.89	794.65
599.24	793.47
599.59	791.43
599.94	790.06
600.29	788.40
600.64	786.75
600.99	784.86
601.34	783.21
601.69	780.47
602.04	778.45
602.39	776.55
602.74	774.82
603.08	773.49
603.43	772.04
603.78	770.27
604.13	768.41
604.48	766.52
604.83	765.25
605.18	763.78
605.53	762.05
605.87	760.23
606.22	758.65
606.57	756.63
606.92	754.89
607.27	752.90
607.62	750.99
607.96	749.32
608.31	747.82
608.66	745.86
609.01	743.96
609.36	742.21
609.70	740.30
610.05	738.22
610.40	736.18
610.75	733.82
611.10	732.01
611.44	729.42
611.79	726.96
612.14	724.38
612.49	721.58
612.83	719.31
613.18	716.84
613.53	714.12
613.88	711.53
614.22	709.16
614.57	706.63
614.92	704.15
615.27	701.48
615.61	698.89
615.96	696.41
616.31	694.22
616.65	691.81
617.00	689.35
617.35	686.96
617.70	684.38
618.04	681.75
618.39	678.88
618.74	676.70
619.08	674.20
619.43	671.70
619.78	669.30
620.12	666.72
620.47	664.26
620.82	661.57
621.16	658.84
621.51	656.32
621.85	653.68
622.20	651.15
622.55	648.56
622.89	645.76
623.24	643.17
623.59	640.30
623.93	637.78
624.28	635.29
624.62	632.97
624.97	630.68
625.32	628.26
625.66	626.10
626.01	623.62
626.35	621.32
626.70	618.88
627.04	616.79
627.39	614.44
627.73	612.29
628.08	610.08
628.43	607.74
628.77	605.26
629.12	602.90
629.46	600.66
629.81	598.38
630.15	596.10
630.50	593.59
630.84	591.32
631.19	588.98
631.53	586.73
631.88	584.00
632.22	581.37
632.57	579.29
632.91	576.80
633.26	574.45
633.60	572.07
633.95	569.88
634.29	567.24
634.64	565.05
634.98	562.45
635.32	560.30
635.67	558.27
636.01	555.93
636.36	553.76
636.70	551.56
637.05	549.28
637.39	547.12
637.73	545.14
638.08	543.12
638.42	541.02
638.77	538.87
639.11	536.84
639.45	534.79
639.80	532.33
640.14	529.99
640.49	527.76
640.83	525.52
641.17	523.29
641.52	521.08
641.86	518.79
642.20	516.79
642.55	514.19
642.89	511.93
643.23	509.72
643.58	507.85
643.92	505.40
644.26	503.26
644.61	501.10
644.95	498.86
645.29	496.56
645.64	494.39
645.98	492.15
646.32	490.01
646.66	487.70
647.01	485.55
647.35	483.62
647.69	481.42
648.04	479.33
648.38	477.14
648.72	474.95
649.06	472.88
649.41	470.68
649.75	468.73
650.09	466.70
650.43	464.73
650.78	462.26
651.12	460.27
651.46	458.21
651.80	456.27
652.14	454.30
652.49	452.36
652.83	450.19
653.17	447.88
653.51	445.76
653.85	443.85
654.20	441.82
654.54	439.56
654.88	437.60
655.22	435.58
655.56	433.46
655.90	431.48
656.25	429.34
656.59	427.24
656.93	425.25
657.27	423.34
657.61	421.15
657.95	419.28
658.29	417.25
658.64	415.29
658.98	413.16
659.32	410.95
659.66	409.06
660.00	407.10
660.34	405.26
660.68	403.36
661.02	401.35
661.36	399.50
661.70	397.69
662.05	396.03
662.39	394.34
662.73	392.79
663.07	391.30
663.41	389.69
663.75	387.95
664.09	386.35
664.43	384.51
664.77	382.89
665.11	381.30
665.45	379.82
665.79	378.19
666.13	376.61
666.47	375.17
666.81	373.51
667.15	371.93
667.49	370.61
667.83	369.23
668.17	367.83
668.51	366.49
668.85	365.10
669.19	363.64
669.53	362.16
669.87	360.61
670.21	359.16
670.55	357.72
670.89	356.58
671.23	355.20
671.57	353.96
671.91	352.77
672.25	351.37
672.58	350.17
672.92	348.92
673.26	347.76
673.60	346.52
673.94	345.35
674.28	344.20
674.62	342.96
674.96	341.80
675.30	340.68
675.64	339.38
675.97	338.27
676.31	337.14
676.65	335.95
676.99	334.90
677.33	333.64
677.67	332.39
678.01	331.18
678.34	330.10
678.68	329.09
679.02	327.84
679.36	326.76
679.70	325.59
680.04	324.40
680.37	323.19
680.71	322.03
681.05	320.90
681.39	319.80
681.73	318.70
682.06	317.51
682.40	316.51
682.74	315.60
683.08	314.58
683.42	313.42
683.75	312.41
684.09	311.30
684.43	310.27
684.77	309.29
685.10	308.29
685.44	307.20
685.78	306.06
686.12	305.17
686.45	304.22
686.79	303.14
687.13	302.38
687.46	301.50
687.80	300.72
688.14	299.76
688.48	298.92
688.81	297.98
689.15	297.04
689.49	296.11
689.82	295.13
690.16	294.11
690.50	293.28
690.83	292.36
691.17	291.48
691.51	290.70
691.84	289.88
692.18	289.03
692.52	288.23
692.85	287.55
693.19	286.81
693.52	286.02
693.86	285.28
694.20	284.42
694.53	283.65
694.87	282.78
695.21	282.06
695.54	281.24
695.88	280.42
696.21	279.65
696.55	278.90
696.88	278.15
697.22	277.44
697.56	276.71
697.89	276.01
698.23	275.32
698.56	274.59
698.90	273.97
699.23	273.25
699.57	272.51
699.90	271.70
700.24	270.90
700.58	270.21
700.91	269.64
701.25	269.26
701.58	268.69
701.92	268.10
702.25	267.41
702.59	266.72
702.92	266.14
703.26	265.65
703.59	265.01
703.93	264.75
704.26	264.19
704.60	263.60
704.93	263.08
705.26	262.45
705.60	262.01
705.93	261.37
706.27	260.91
706.60	260.49
706.94	260.18
707.27	259.65
707.61	259.08
707.94	258.47
708.27	257.67
708.61	257.12
708.94	256.51
709.28	255.96
709.61	255.47
709.94	255.01
710.28	254.48
710.61	254.07
710.95	253.24
711.28	253.10
711.61	252.67
711.95	252.30
712.28	251.96
712.61	251.35
712.95	251.15
713.28	250.90
713.61	250.39
713.95	249.80
714.28	249.49
714.61	249.14
714.95	248.71
715.28	248.30
715.61	247.86
715.95	247.56
716.28	247.17
716.61	246.87
716.95	246.45
717.28	246.02
717.61	245.61
717.94	245.27
718.28	244.62
718.61	244.20
718.94	243.75
719.27	243.36
719.61	243.07
719.94	242.66
720.27	242.12
720.60	241.74
720.94	241.38
721.27	241.02
721.60	240.80
721.93	240.54
722.27	240.36
722.60	240.15
722.93	239.89
723.26	239.59
723.59	239.23
723.93	238.98
724.26	238.73
724.59	238.43
724.92	238.12
725.25	237.97
725.59	237.67
725.92	237.38
726.25	237.10
726.58	236.91
726.91	236.63
727.24	236.33
727.57	236.11
727.91	235.84
728.24	235.64
728.57	235.28
728.90	235.09
729.23	234.75
729.56	234.60
729.89	234.31
730.22	234.12
730.55	233.88
730.89	233.62
731.22	233.37
731.55	233.13
731.88	232.98
732.21	232.68
732.54	232.42
732.87	232.25
733.20	231.99
733.53	231.71
733.86	231.48
734.19	231.24
734.52	231.05
734.85	231.12
735.18	230.86
735.51	230.85
735.84	230.62
736.17	230.46
736.50	230.13
736.83	230.33
737.16	230.13
737.49	229.97
737.82	229.78
738.15	229.73
738.48	229.53
738.81	229.37
739.14	229.10
739.47	228.94
739.80	228.77
740.13	228.72
740.46	228.42
740.79	228.14
741.12	228.09
741.45	227.90
741.78	227.54
742.11	227.57
742.44	227.22
742.77	227.12
743.10	226.91
743.43	226.68
743.75	226.12
744.08	226.38
744.41	226.15
744.74	225.92
745.07	225.66
745.40	225.57
745.73	225.54
746.06	225.41
746.39	225.35
746.71	225.13
747.04	224.90
747.37	224.91
747.70	224.94
748.03	224.68
748.36	224.58
748.68	224.41
749.01	224.11
749.34	223.96
749.67	223.81
750.00	223.72
750.33	223.88
750.65	223.85
750.98	223.33
751.31	223.31
751.64	223.20
751.97	223.26
752.29	223.13
752.62	222.89
752.95	222.78
753.28	222.60
753.60	222.45
753.93	222.45
754.26	222.28
754.59	222.03
754.91	221.94
755.24	221.88
755.57	221.78
755.90	221.61
756.22	221.52
756.55	221.37
756.88	221.18
757.20	220.79
757.53	220.57
757.86	220.44
758.19	220.27
758.51	220.19
758.84	219.90
759.17	219.73
759.49	219.68
759.82	219.76
760.15	219.63
760.47	219.54
760.80	219.35
761.13	219.32
761.45	219.29
761.78	219.24
762.11	219.12
762.43	218.99
762.76	218.93
763.08	218.91
763.41	218.83
763.74	218.78
764.06	218.75
764.39	218.63
764.71	218.61
765.04	218.53
765.37	218.50
765.69	218.40
766.02	218.41
766.34	218.17
766.67	217.95
767.00	218.00
767.32	218.10
767.65	218.21
767.97	218.09
768.30	217.94
768.62	217.79
768.95	217.67
769.27	217.57
769.60	217.53
769.92	217.32
770.25	217.15
770.57	216.97
770.90	216.85
771.22	216.82
771.55	216.70
771.87	216.66
772.20	216.50
772.52	216.77
772.85	217.08
773.17	217.03
773.50	216.95
773.82	216.81
774.15	216.65
774.47	216.35
774.80	216.28
775.12	216.21
775.45	216.19
775.77	216.15
776.09	216.15
776.42	216.10
776.74	216.17
777.07	216.16
777.39	216.23
777.72	216.14
778.04	216.11
778.36	216.04
778.69	216.00
779.01	216.04
779.33	215.69
779.66	215.22
779.98	215.17
780.31	215.18
780.63	215.34
780.95	215.35
781.28	215.30
781.60	215.18
781.92	215.24
782.25	215.16
782.57	215.16
782.89	215.04
783.22	214.92
783.54	214.80
783.86	214.75
784.19	214.68
784.51	214.87
784.83	214.75
785.16	214.70
785.48	214.68
785.80	214.65
786.12	214.65
786.45	214.60
786.77	214.59
787.09	214.52
787.42	214.30
787.74	214.25
788.06	214.24
788.38	214.28
788.71	214.11
789.03	214.12
789.35	214.12
789.67	214.11
789.99	214.13
790.32	214.12
790.64	214.14
790.96	214.37
791.28	214.14
791.61	214.15
791.93	214.19
792.25	214.09
792.57	214.33
792.89	214.30
793.21	214.28
793.54	214.19
793.86	214.13
794.18	214.14
