SpectraSuite Data File
++++++++++++++++++++++++++++++++++++
Date: Mon Feb 25 17:16:52 EST 2013
User: group
Dark Spectrum Present: No
Reference Spectrum Present: No
Number of Sampled Component Spectra: 1
Spectrometers: USB2E7196
Integration Time (usec): 104000 (USB2E7196)
Spectra Averaged: 20 (USB2E7196)
Boxcar Smoothing: 10 (USB2E7196)
Correct for Electrical Dark: No (USB2E7196)
Strobe/Lamp Enabled: No (USB2E7196)
Correct for Detector Non-linearity: No (USB2E7196)
Correct for Stray Light: No (USB2E7196)
Number of Pixels in Processed Spectrum: 2048
>>>>>Begin Processed Spectral Data<<<<<
339.09	0.00
339.48	199.40
339.86	199.55
340.24	201.35
340.63	203.30
341.01	209.65
341.39	206.15
341.78	208.05
342.16	209.25
342.54	207.85
342.93	198.38
343.31	208.41
343.69	208.95
344.07	209.47
344.46	210.00
344.84	210.39
345.22	210.48
345.60	210.76
345.99	210.92
346.37	211.08
346.75	211.27
347.13	211.31
347.52	211.43
347.90	211.62
348.28	211.73
348.66	211.90
349.05	211.93
349.43	212.03
349.81	212.15
350.19	212.29
350.57	212.45
350.96	212.62
351.34	212.75
351.72	212.91
352.10	212.99
352.48	213.01
352.87	213.09
353.25	213.12
353.63	213.16
354.01	213.27
354.39	213.37
354.77	213.47
355.15	213.65
355.54	213.59
355.92	213.58
356.30	213.68
356.68	213.94
357.06	213.95
357.44	213.93
357.82	213.96
358.20	214.01
358.58	214.00
358.97	214.08
359.35	214.16
359.73	214.22
360.11	214.37
360.49	214.41
360.87	214.47
361.25	214.60
361.63	214.77
362.01	214.80
362.39	214.73
362.77	214.80
363.15	214.83
363.53	214.92
363.91	214.94
364.29	214.91
364.67	214.59
365.05	214.66
365.43	214.75
365.81	214.73
366.19	214.85
366.57	214.91
366.95	214.86
367.33	214.80
367.71	214.76
368.09	214.81
368.47	214.80
368.85	214.79
369.23	214.82
369.61	214.63
369.99	214.74
370.37	214.79
370.75	214.90
371.13	214.83
371.51	214.73
371.89	214.73
372.27	214.74
372.65	214.72
373.03	214.70
373.41	214.63
373.78	214.65
374.16	214.51
374.54	214.46
374.92	214.34
375.30	214.28
375.68	214.17
376.06	214.09
376.44	214.02
376.82	213.97
377.19	213.92
377.57	213.93
377.95	213.78
378.33	213.74
378.71	213.48
379.09	213.46
379.47	213.50
379.84	213.43
380.22	213.39
380.60	213.27
380.98	213.24
381.36	213.14
381.73	213.02
382.11	213.01
382.49	212.88
382.87	212.75
383.25	212.74
383.62	213.19
384.00	213.08
384.38	213.09
384.76	213.14
385.13	213.18
385.51	213.05
385.89	212.96
386.27	212.90
386.64	212.90
387.02	212.92
387.40	212.79
387.78	212.76
388.15	212.71
388.53	212.66
388.91	212.63
389.29	212.59
389.66	212.66
390.04	212.55
390.42	212.64
390.79	212.69
391.17	212.63
391.55	212.13
391.92	212.12
392.30	212.15
392.68	212.08
393.05	212.00
393.43	212.08
393.81	212.10
394.18	212.12
394.56	212.19
394.94	212.20
395.31	212.23
395.69	212.34
396.06	212.37
396.44	212.38
396.82	212.32
397.19	212.51
397.57	212.42
397.95	212.53
398.32	212.48
398.70	212.55
399.07	212.65
399.45	212.70
399.82	212.74
400.20	212.71
400.58	212.70
400.95	212.61
401.33	212.77
401.70	213.02
402.08	212.99
402.45	212.98
402.83	213.06
403.20	213.13
403.58	213.12
403.95	213.22
404.33	213.42
404.71	213.55
405.08	213.82
405.46	213.98
405.83	214.11
406.21	214.25
406.58	214.43
406.96	214.57
407.33	214.73
407.70	214.93
408.08	215.37
408.45	215.69
408.83	216.03
409.20	216.17
409.58	216.24
409.95	216.57
410.33	216.93
410.70	217.19
411.08	217.61
411.45	218.02
411.82	218.35
412.20	218.82
412.57	219.43
412.95	219.56
413.32	220.21
413.69	220.71
414.07	221.26
414.44	221.84
414.82	222.49
415.19	223.25
415.56	224.01
415.94	224.62
416.31	225.55
416.68	226.46
417.06	227.59
417.43	228.71
417.81	229.81
418.18	230.90
418.55	232.14
418.93	233.46
419.30	234.76
419.67	236.20
420.04	237.63
420.42	239.07
420.79	241.10
421.16	242.76
421.54	244.75
421.91	246.66
422.28	248.61
422.66	250.67
423.03	252.89
423.40	255.01
423.77	257.39
424.15	259.60
424.52	261.92
424.89	264.53
425.26	267.04
425.64	269.49
426.01	272.12
426.38	274.80
426.75	277.64
427.13	280.49
427.50	283.59
427.87	286.64
428.24	289.82
428.61	292.65
428.99	296.06
429.36	299.50
429.73	303.09
430.10	306.64
430.47	310.29
430.85	313.96
431.22	317.96
431.59	322.28
431.96	326.23
432.33	330.71
432.70	334.85
433.08	339.78
433.45	344.49
433.82	349.27
434.19	354.46
434.56	359.58
434.93	364.46
435.30	369.27
435.68	374.81
436.05	380.05
436.42	385.44
436.79	390.23
437.16	395.38
437.53	400.82
437.90	406.30
438.27	411.72
438.64	417.31
439.01	422.52
439.38	426.81
439.75	431.30
440.13	436.32
440.50	441.07
440.87	444.80
441.24	448.91
441.61	453.22
441.98	456.54
442.35	460.03
442.72	463.90
443.09	467.72
443.46	469.72
443.83	471.14
444.20	472.43
444.57	474.30
444.94	475.25
445.31	476.15
445.68	477.22
446.05	477.48
446.42	476.59
446.79	475.87
447.16	475.06
447.53	474.50
447.90	472.33
448.27	470.15
448.64	467.37
449.01	465.13
449.37	461.48
449.74	457.90
450.11	454.11
450.48	449.49
450.85	444.62
451.22	440.70
451.59	436.90
451.96	433.03
452.33	428.08
452.70	423.63
453.07	418.37
453.43	412.79
453.80	407.59
454.17	402.81
454.54	398.04
454.91	393.13
455.28	388.25
455.65	383.78
456.02	379.78
456.38	375.90
456.75	371.14
457.12	367.18
457.49	363.33
457.86	359.17
458.23	355.96
458.59	352.49
458.96	348.90
459.33	345.69
459.70	342.54
460.07	339.98
460.43	336.97
460.80	334.14
461.17	331.82
461.54	329.25
461.91	326.88
462.27	324.41
462.64	322.29
463.01	319.98
463.38	317.90
463.74	315.25
464.11	313.37
464.48	311.66
464.85	309.83
465.21	308.35
465.58	307.02
465.95	305.14
466.32	303.67
466.68	302.21
467.05	300.81
467.42	299.41
467.78	297.98
468.15	296.68
468.52	295.76
468.88	294.25
469.25	293.16
469.62	292.30
469.98	291.39
470.35	290.52
470.72	289.65
471.08	288.55
471.45	287.85
471.82	287.12
472.18	286.33
472.55	285.75
472.92	285.00
473.28	284.36
473.65	283.91
474.02	283.31
474.38	282.92
474.75	282.66
475.11	282.34
475.48	282.10
475.85	281.89
476.21	281.64
476.58	281.64
476.94	281.56
477.31	281.48
477.67	281.45
478.04	281.51
478.41	281.70
478.77	282.20
479.14	282.32
479.50	282.59
479.87	282.95
480.23	283.39
480.60	283.84
480.96	284.30
481.33	285.01
481.69	285.62
482.06	286.20
482.42	286.79
482.79	287.49
483.15	288.28
483.52	289.19
483.88	290.18
484.25	291.08
484.61	292.15
484.98	293.25
485.34	294.57
485.71	295.94
486.07	297.31
486.44	298.60
486.80	300.23
487.17	301.84
487.53	303.70
487.90	305.60
488.26	307.76
488.62	309.94
488.99	312.01
489.35	314.38
489.72	316.92
490.08	319.60
490.44	322.35
490.81	325.33
491.17	328.37
491.54	331.57
491.90	335.03
492.26	338.50
492.63	342.21
492.99	346.11
493.36	350.27
493.72	354.61
494.08	359.02
494.45	363.73
494.81	368.75
495.17	373.73
495.54	379.11
495.90	384.58
496.26	390.34
496.63	396.40
496.99	402.71
497.35	409.27
497.72	416.27
498.08	423.19
498.44	430.47
498.80	438.32
499.17	446.34
499.53	454.56
499.89	463.31
500.26	472.06
500.62	481.08
500.98	490.60
501.34	500.46
501.71	510.68
502.07	521.11
502.43	531.80
502.79	542.75
503.16	554.12
503.52	565.80
503.88	577.82
504.24	590.21
504.60	602.85
504.97	615.96
505.33	629.04
505.69	643.38
506.05	657.74
506.41	672.18
506.78	686.82
507.14	701.95
507.50	717.47
507.86	733.50
508.22	749.79
508.59	766.11
508.95	783.04
509.31	800.29
509.67	818.05
510.03	836.02
510.39	854.72
510.75	873.50
511.12	892.61
511.48	911.92
511.84	931.66
512.20	951.43
512.56	971.99
512.92	992.74
513.28	1013.30
513.64	1034.11
514.00	1055.10
514.37	1076.65
514.73	1098.42
515.09	1120.33
515.45	1142.15
515.81	1164.25
516.17	1186.46
516.53	1208.97
516.89	1231.49
517.25	1254.00
517.61	1276.64
517.97	1299.22
518.33	1321.84
518.69	1344.57
519.05	1367.44
519.41	1390.36
519.77	1413.89
520.13	1436.54
520.49	1459.21
520.85	1482.30
521.21	1505.55
521.57	1528.87
521.93	1551.38
522.29	1574.93
522.65	1598.22
523.01	1621.39
523.37	1643.74
523.73	1666.88
524.09	1689.56
524.45	1712.42
524.81	1735.04
525.17	1757.79
525.53	1780.68
525.89	1803.30
526.25	1825.48
526.61	1847.29
526.97	1869.04
527.33	1890.68
527.68	1912.50
528.04	1933.75
528.40	1954.17
528.76	1975.04
529.12	1996.37
529.48	2018.36
529.84	2038.78
530.20	2059.25
530.56	2079.70
530.91	2100.90
531.27	2121.25
531.63	2140.88
531.99	2160.35
532.35	2179.29
532.71	2198.27
533.07	2217.20
533.42	2235.72
533.78	2254.72
534.14	2273.00
534.50	2289.81
534.86	2307.40
535.21	2323.96
535.57	2341.78
535.93	2358.89
536.29	2375.08
536.65	2391.15
537.00	2406.29
537.36	2420.75
537.72	2434.95
538.08	2449.47
538.44	2463.44
538.79	2477.42
539.15	2491.65
539.51	2505.46
539.87	2519.91
540.22	2533.32
540.58	2546.53
540.94	2559.41
541.29	2570.65
541.65	2581.85
542.01	2593.87
542.37	2604.57
542.72	2615.99
543.08	2625.64
543.44	2636.79
543.79	2646.28
544.15	2654.78
544.51	2664.07
544.87	2674.25
545.22	2682.80
545.58	2690.44
545.94	2697.55
546.29	2703.75
546.65	2709.89
547.01	2715.63
547.36	2721.00
547.72	2725.92
548.07	2730.10
548.43	2733.88
548.79	2738.07
549.14	2741.93
549.50	2745.60
549.86	2748.44
550.21	2750.76
550.57	2754.27
550.92	2755.34
551.28	2757.31
551.64	2759.75
551.99	2761.63
552.35	2762.12
552.70	2763.33
553.06	2764.62
553.41	2765.75
553.77	2766.96
554.13	2767.29
554.48	2767.95
554.84	2768.22
555.19	2767.93
555.55	2767.35
555.90	2766.12
556.26	2764.93
556.61	2763.68
556.97	2761.72
557.32	2760.68
557.68	2758.21
558.03	2755.18
558.39	2753.45
558.74	2752.36
559.10	2750.18
559.45	2747.65
559.81	2745.55
560.16	2742.57
560.52	2739.97
560.87	2736.67
561.23	2732.71
561.58	2729.83
561.94	2725.68
562.29	2721.19
562.64	2717.80
563.00	2714.19
563.35	2711.92
563.71	2709.41
564.06	2706.66
564.42	2703.71
564.77	2700.81
565.12	2698.28
565.48	2695.17
565.83	2691.35
566.19	2687.73
566.54	2682.82
566.89	2677.92
567.25	2673.42
567.60	2669.39
567.96	2664.35
568.31	2659.99
568.66	2655.03
569.02	2649.43
569.37	2643.68
569.72	2638.56
570.08	2632.61
570.43	2626.77
570.78	2619.81
571.14	2612.70
571.49	2605.30
571.84	2599.74
572.20	2591.98
572.55	2585.22
572.90	2577.80
573.26	2570.05
573.61	2561.37
573.96	2554.05
574.31	2545.75
574.67	2536.83
575.02	2527.68
575.37	2519.02
575.72	2509.63
576.08	2501.80
576.43	2493.01
576.78	2484.72
577.13	2476.94
577.49	2468.64
577.84	2460.19
578.19	2452.54
578.54	2445.20
578.90	2438.02
579.25	2428.79
579.60	2419.77
579.95	2410.48
580.30	2402.19
580.66	2394.31
581.01	2385.67
581.36	2376.60
581.71	2367.83
582.06	2359.70
582.42	2351.67
582.77	2343.00
583.12	2334.66
583.47	2326.49
583.82	2318.72
584.17	2310.45
584.53	2301.69
584.88	2293.35
585.23	2284.70
585.58	2275.80
585.93	2266.76
586.28	2258.41
586.63	2249.80
586.98	2241.75
587.34	2234.28
587.69	2225.80
588.04	2217.16
588.39	2209.33
588.74	2200.70
589.09	2193.13
589.44	2184.47
589.79	2176.71
590.14	2168.82
590.49	2160.90
590.84	2152.42
591.19	2144.59
591.54	2136.47
591.89	2126.99
592.25	2118.39
592.60	2109.50
592.95	2100.60
593.30	2091.04
593.65	2081.49
594.00	2072.78
594.35	2065.65
594.70	2056.85
595.05	2048.62
595.40	2040.19
595.75	2031.02
596.10	2023.29
596.45	2015.14
596.80	2007.82
597.15	2000.12
597.50	1991.75
597.85	1983.86
598.19	1975.39
598.54	1967.17
598.89	1959.60
599.24	1953.20
599.59	1945.70
599.94	1939.27
600.29	1932.10
600.64	1925.18
600.99	1917.39
601.34	1910.35
601.69	1901.85
602.04	1893.83
602.39	1886.21
602.74	1878.76
603.08	1872.54
603.43	1865.88
603.78	1858.55
604.13	1851.26
604.48	1843.59
604.83	1837.60
605.18	1831.19
605.53	1824.02
605.87	1816.52
606.22	1809.52
606.57	1801.97
606.92	1794.48
607.27	1786.24
607.62	1778.48
607.96	1771.51
608.31	1765.10
608.66	1757.22
609.01	1749.12
609.36	1741.60
609.70	1733.30
610.05	1725.29
610.40	1717.25
610.75	1708.70
611.10	1701.32
611.44	1691.92
611.79	1682.95
612.14	1673.65
612.49	1664.18
612.83	1655.86
613.18	1646.75
613.53	1637.71
613.88	1628.30
614.22	1620.09
614.57	1611.50
614.92	1603.06
615.27	1593.95
615.61	1584.95
615.96	1576.60
616.31	1568.86
616.65	1560.95
617.00	1553.24
617.35	1545.10
617.70	1536.04
618.04	1527.14
618.39	1517.50
618.74	1509.85
619.08	1501.31
619.43	1492.86
619.78	1484.81
620.12	1476.71
620.47	1468.87
620.82	1460.20
621.16	1451.75
621.51	1443.16
621.85	1434.93
622.20	1426.38
622.55	1418.04
622.89	1409.67
623.24	1401.14
623.59	1392.21
623.93	1383.64
624.28	1375.10
624.62	1366.90
624.97	1359.00
625.32	1351.54
625.66	1344.36
626.01	1336.35
626.35	1328.96
626.70	1321.33
627.04	1314.15
627.39	1306.31
627.73	1298.83
628.08	1291.87
628.43	1284.27
628.77	1276.66
629.12	1269.01
629.46	1262.16
629.81	1254.80
630.15	1247.36
630.50	1240.05
630.84	1232.64
631.19	1225.35
631.53	1218.10
631.88	1210.39
632.22	1202.71
632.57	1195.45
632.91	1187.86
633.26	1180.57
633.60	1173.26
633.95	1166.29
634.29	1158.53
634.64	1151.83
634.98	1144.35
635.32	1137.19
635.67	1130.93
636.01	1124.22
636.36	1117.19
636.70	1110.21
637.05	1103.43
637.39	1096.82
637.73	1090.45
638.08	1084.82
638.42	1078.70
638.77	1072.29
639.11	1066.18
639.45	1060.08
639.80	1053.07
640.14	1046.14
640.49	1039.69
640.83	1033.17
641.17	1026.47
641.52	1020.07
641.86	1013.10
642.20	1006.85
642.55	999.76
642.89	992.76
643.23	985.85
643.58	979.83
643.92	973.13
644.26	966.72
644.61	960.29
644.95	953.71
645.29	946.87
645.64	940.20
645.98	933.75
646.32	927.48
646.66	920.94
647.01	915.01
647.35	909.31
647.69	902.68
648.04	896.72
648.38	890.50
648.72	884.19
649.06	878.05
649.41	871.94
649.75	866.08
650.09	860.24
650.43	854.16
650.78	847.74
651.12	841.57
651.46	835.48
651.80	829.64
652.14	823.77
652.49	817.73
652.83	811.66
653.17	805.35
653.51	799.45
653.85	793.72
654.20	787.73
654.54	781.56
654.88	776.02
655.22	770.10
655.56	764.10
655.90	758.45
656.25	752.79
656.59	746.96
656.93	741.50
657.27	735.99
657.61	730.38
657.95	725.24
658.29	719.91
658.64	714.80
658.98	709.41
659.32	703.82
659.66	698.44
660.00	693.03
660.34	687.97
660.68	682.46
661.02	677.16
661.36	672.36
661.70	667.60
662.05	662.78
662.39	658.30
662.73	653.81
663.07	649.32
663.41	644.88
663.75	640.41
664.09	635.66
664.43	630.97
664.77	626.53
665.11	621.87
665.45	617.57
665.79	613.13
666.13	608.75
666.47	604.56
666.81	600.34
667.15	596.21
667.49	592.39
667.83	588.56
668.17	584.71
668.51	580.76
668.85	576.92
669.19	573.23
669.53	569.10
669.87	565.22
670.21	561.36
670.55	557.53
670.89	554.17
671.23	550.88
671.57	547.43
671.91	543.96
672.25	540.56
672.58	537.01
672.92	533.58
673.26	530.45
673.60	527.22
673.94	524.07
674.28	521.02
674.62	517.94
674.96	514.82
675.30	511.62
675.64	508.31
675.97	505.21
676.31	502.12
676.65	499.20
676.99	496.45
677.33	493.53
677.67	490.55
678.01	487.14
678.34	484.18
678.68	481.12
679.02	478.23
679.36	475.37
679.70	472.67
680.04	469.87
680.37	466.73
680.71	463.98
681.05	461.29
681.39	458.48
681.73	455.69
682.06	453.10
682.40	450.57
682.74	448.11
683.08	445.63
683.42	443.03
683.75	440.52
684.09	437.90
684.43	435.31
684.77	432.68
685.10	430.28
685.44	427.55
685.78	425.05
686.12	422.75
686.45	420.41
686.79	418.04
687.13	415.80
687.46	413.67
687.80	411.44
688.14	409.09
688.48	406.94
688.81	404.60
689.15	402.30
689.49	400.00
689.82	397.70
690.16	395.14
690.50	392.84
690.83	390.61
691.17	388.31
691.51	386.10
691.84	384.20
692.18	382.21
692.52	380.39
692.85	378.79
693.19	376.92
693.52	374.89
693.86	372.81
694.20	370.79
694.53	368.87
694.87	366.95
695.21	365.03
695.54	363.00
695.88	361.10
696.21	359.23
696.55	357.53
696.88	355.80
697.22	354.07
697.56	352.51
697.89	350.69
698.23	349.06
698.56	347.45
698.90	345.83
699.23	344.12
699.57	342.45
699.90	340.60
700.24	338.86
700.58	337.34
700.91	335.85
701.25	334.62
701.58	333.14
701.92	331.61
702.25	330.14
702.59	328.73
702.92	327.33
703.26	326.03
703.59	324.54
703.93	323.42
704.26	322.16
704.60	320.53
704.93	319.22
705.26	317.88
705.60	316.53
705.93	315.23
706.27	314.05
706.60	312.89
706.94	311.82
707.27	310.52
707.61	309.31
707.94	308.15
708.27	306.61
708.61	305.35
708.94	304.24
709.28	303.18
709.61	302.00
709.94	300.86
710.28	299.79
710.61	298.75
710.95	297.40
711.28	296.51
711.61	295.60
711.95	294.68
712.28	293.60
712.61	292.68
712.95	291.79
713.28	290.96
713.61	289.99
713.95	289.01
714.28	288.18
714.61	287.24
714.95	286.31
715.28	285.51
715.61	284.70
715.95	283.75
716.28	282.84
716.61	282.10
716.95	281.22
717.28	280.37
717.61	279.60
717.94	278.82
718.28	277.85
718.61	277.02
718.94	276.17
719.27	275.44
719.61	274.76
719.94	273.96
720.27	273.02
720.60	272.25
720.94	271.50
721.27	270.89
721.60	270.27
721.93	269.62
722.27	268.99
722.60	268.39
722.93	267.80
723.26	267.18
723.59	266.53
723.93	266.00
724.26	265.35
724.59	264.70
724.92	264.13
725.25	263.71
725.59	263.24
725.92	262.69
726.25	262.21
726.58	261.62
726.91	261.02
727.24	260.55
727.57	260.04
727.91	259.46
728.24	258.97
728.57	258.42
728.90	257.90
729.23	257.32
729.56	256.89
729.89	256.32
730.22	255.76
730.55	255.19
730.89	254.69
731.22	254.20
731.55	253.78
731.88	253.36
732.21	252.89
732.54	252.26
732.87	251.85
733.20	251.34
733.53	250.93
733.86	250.51
734.19	250.01
734.52	249.63
734.85	249.43
735.18	248.85
735.51	248.56
735.84	248.17
736.17	247.81
736.50	247.29
736.83	247.41
737.16	247.06
737.49	246.70
737.82	246.32
738.15	246.00
738.48	245.60
738.81	245.19
739.14	244.68
739.47	244.43
739.80	244.05
740.13	243.79
740.46	243.29
740.79	242.85
741.12	242.61
741.45	242.19
741.78	241.68
742.11	241.44
742.44	240.94
742.77	240.72
743.10	240.40
743.43	240.05
743.75	239.35
744.08	239.46
744.41	239.14
744.74	238.81
745.07	238.38
745.40	238.13
745.73	237.89
746.06	237.60
746.39	237.33
746.71	237.01
747.04	236.69
747.37	236.49
747.70	236.29
748.03	235.96
748.36	235.80
748.68	235.51
749.01	235.20
749.34	235.03
749.67	234.72
750.00	234.47
750.33	234.44
750.65	234.18
750.98	233.51
751.31	233.27
751.64	233.05
751.97	233.00
752.29	232.72
752.62	232.30
752.95	232.05
753.28	231.75
753.60	231.53
753.93	231.34
754.26	231.07
754.59	230.82
754.91	230.54
755.24	230.22
755.57	230.02
755.90	229.80
756.22	229.57
756.55	229.24
756.88	228.96
757.20	228.57
757.53	228.29
757.86	228.06
758.19	227.79
758.51	227.58
758.84	227.20
759.17	227.06
759.49	226.87
759.82	226.85
760.15	226.70
760.47	226.50
760.80	226.23
761.13	226.08
761.45	225.94
761.78	225.78
762.11	225.68
762.43	225.44
762.76	225.30
763.08	225.17
763.41	225.07
763.74	224.97
764.06	224.78
764.39	224.61
764.71	224.49
765.04	224.42
765.37	224.25
765.69	224.16
766.02	223.96
766.34	223.93
766.67	223.65
767.00	223.59
767.32	223.67
767.65	223.74
767.97	223.62
768.30	223.44
768.62	223.30
768.95	223.09
769.27	223.04
769.60	222.94
769.92	222.74
770.25	222.62
770.57	222.44
770.90	222.39
771.22	222.24
771.55	222.15
771.87	222.01
772.20	221.95
772.52	222.12
772.85	222.34
773.17	222.18
773.50	222.07
773.82	221.93
774.15	221.64
774.47	221.28
774.80	221.18
775.12	221.09
775.45	221.02
775.77	220.98
776.09	220.81
776.42	220.69
776.74	220.65
777.07	220.52
777.39	220.48
777.72	220.28
778.04	220.22
778.36	220.06
778.69	219.98
779.01	219.91
779.33	219.54
779.66	219.21
779.98	219.10
780.31	219.02
780.63	219.06
780.95	219.03
781.28	219.02
781.60	218.88
781.92	218.80
782.25	218.71
782.57	218.66
782.89	218.64
783.22	218.61
783.54	218.43
783.86	218.37
784.19	218.31
784.51	218.38
784.83	218.29
785.16	218.26
785.48	218.23
785.80	218.18
786.12	218.10
786.45	218.00
