SpectraSuite Data File
++++++++++++++++++++++++++++++++++++
Date: Mon Feb 25 17:16:49 EST 2013
User: group
Dark Spectrum Present: No
Reference Spectrum Present: No
Number of Sampled Component Spectra: 1
Spectrometers: USB2E7196
Integration Time (usec): 104000 (USB2E7196)
Spectra Averaged: 20 (USB2E7196)
Boxcar Smoothing: 10 (USB2E7196)
Correct for Electrical Dark: No (USB2E7196)
Strobe/Lamp Enabled: No (USB2E7196)
Correct for Detector Non-linearity: No (USB2E7196)
Correct for Stray Light: No (USB2E7196)
Number of Pixels in Processed Spectrum: 2048
>>>>>Begin Processed Spectral Data<<<<<
339.09	0.00
339.48	199.10
339.86	200.95
340.24	202.10
340.63	203.55
341.01	209.10
341.39	206.40
341.78	207.40
342.16	210.80
342.54	209.25
342.93	198.88
343.31	208.84
343.69	209.38
344.07	209.81
344.46	210.27
344.84	210.70
345.22	210.74
345.60	211.00
345.99	211.17
346.37	211.23
346.75	211.30
347.13	211.35
347.52	211.40
347.90	211.57
348.28	211.60
348.66	211.72
349.05	211.63
349.43	211.66
349.81	211.64
350.19	211.69
350.57	211.77
350.96	211.93
351.34	212.08
351.72	212.05
352.10	212.12
352.48	212.13
352.87	212.11
353.25	212.22
353.63	212.26
354.01	212.30
354.39	212.37
354.77	212.49
355.15	212.61
355.54	212.60
355.92	212.44
356.30	212.44
356.68	212.63
357.06	212.72
357.44	212.71
357.82	212.80
358.20	212.87
358.58	212.89
358.97	212.92
359.35	213.09
359.73	213.28
360.11	213.37
360.49	213.42
360.87	213.47
361.25	213.57
361.63	213.78
362.01	213.81
362.39	213.80
362.77	213.76
363.15	213.78
363.53	213.86
363.91	214.01
364.29	214.12
364.67	213.79
365.05	213.77
365.43	213.87
365.81	213.97
366.19	214.14
366.57	214.33
366.95	214.40
367.33	214.27
367.71	214.31
368.09	214.35
368.47	214.39
368.85	214.31
369.23	214.38
369.61	214.23
369.99	214.38
370.37	214.48
370.75	214.64
371.13	214.59
371.51	214.48
371.89	214.48
372.27	214.48
372.65	214.63
373.03	214.59
373.41	214.53
373.78	214.47
374.16	214.27
374.54	214.14
374.92	214.03
375.30	214.03
375.68	213.92
376.06	213.94
376.44	213.94
376.82	214.05
377.19	214.00
377.57	213.96
377.95	213.76
378.33	213.65
378.71	213.44
379.09	213.42
379.47	213.45
379.84	213.33
380.22	213.20
380.60	213.04
380.98	213.00
381.36	212.93
381.73	212.83
382.11	212.83
382.49	212.74
382.87	212.72
383.25	212.70
383.62	213.05
384.00	212.95
384.38	212.86
384.76	212.86
385.13	212.90
385.51	212.83
385.89	212.78
386.27	212.78
386.64	212.81
387.02	212.66
387.40	212.69
387.78	212.72
388.15	212.67
388.53	212.64
388.91	212.63
389.29	212.63
389.66	212.60
390.04	212.61
390.42	212.68
390.79	212.68
391.17	212.67
391.55	212.27
391.92	212.23
392.30	212.23
392.68	212.14
393.05	212.14
393.43	212.09
393.81	212.20
394.18	212.16
394.56	212.12
394.94	212.26
395.31	212.17
395.69	212.27
396.06	212.35
396.44	212.35
396.82	212.38
397.19	212.57
397.57	212.59
397.95	212.62
398.32	212.52
398.70	212.60
399.07	212.63
399.45	212.68
399.82	212.65
400.20	212.64
400.58	212.64
400.95	212.50
401.33	212.67
401.70	212.85
402.08	212.89
402.45	212.97
402.83	213.07
403.20	213.20
403.58	213.18
403.95	213.33
404.33	213.51
404.71	213.56
405.08	213.75
405.46	213.82
405.83	214.00
406.21	214.12
406.58	214.21
406.96	214.31
407.33	214.49
407.70	214.79
408.08	215.26
408.45	215.53
408.83	215.85
409.20	215.99
409.58	216.07
409.95	216.38
410.33	216.72
410.70	216.94
411.08	217.29
411.45	217.70
411.82	218.01
412.20	218.47
412.57	219.16
412.95	219.33
413.32	219.95
413.69	220.42
414.07	220.99
414.44	221.61
414.82	222.32
415.19	223.12
415.56	223.84
415.94	224.52
416.31	225.45
416.68	226.34
417.06	227.47
417.43	228.58
417.81	229.70
418.18	230.87
418.55	232.09
418.93	233.42
419.30	234.70
419.67	236.21
420.04	237.71
420.42	239.16
420.79	241.12
421.16	242.81
421.54	244.89
421.91	246.77
422.28	248.85
422.66	250.91
423.03	253.08
423.40	255.22
423.77	257.41
424.15	259.65
424.52	262.07
424.89	264.64
425.26	267.03
425.64	269.43
426.01	272.02
426.38	274.87
426.75	277.75
427.13	280.67
427.50	283.65
427.87	286.64
428.24	289.77
428.61	292.66
428.99	296.15
429.36	299.49
429.73	303.04
430.10	306.43
430.47	310.09
430.85	313.60
431.22	317.54
431.59	321.97
431.96	325.88
432.33	330.26
432.70	334.49
433.08	339.53
433.45	344.25
433.82	348.92
434.19	354.06
434.56	359.05
434.93	363.84
435.30	368.53
435.68	373.97
436.05	379.13
436.42	384.48
436.79	389.20
437.16	394.32
437.53	399.75
437.90	405.06
438.27	410.33
438.64	415.80
439.01	420.92
439.38	425.11
439.75	429.59
440.13	434.59
440.50	439.25
440.87	443.13
441.24	447.09
441.61	451.33
441.98	454.53
442.35	458.19
442.72	461.90
443.09	465.78
443.46	467.97
443.83	469.48
444.20	470.53
444.57	472.30
444.94	473.23
445.31	474.03
445.68	475.20
446.05	475.50
446.42	474.91
446.79	474.18
447.16	473.33
447.53	472.84
447.90	470.52
448.27	468.40
448.64	465.29
449.01	463.08
449.37	459.51
449.74	455.87
450.11	451.91
450.48	447.48
450.85	442.77
451.22	438.70
451.59	434.87
451.96	431.38
452.33	426.58
452.70	422.09
453.07	416.88
453.43	411.37
453.80	406.34
454.17	401.55
454.54	396.93
454.91	392.08
455.28	387.12
455.65	382.70
456.02	378.65
456.38	374.90
456.75	370.30
457.12	366.35
457.49	362.51
457.86	358.52
458.23	355.32
458.59	351.70
458.96	348.09
459.33	344.95
459.70	341.70
460.07	339.16
460.43	336.23
460.80	333.57
461.17	331.18
461.54	328.72
461.91	326.27
462.27	323.85
462.64	321.83
463.01	319.64
463.38	317.68
463.74	315.10
464.11	313.17
464.48	311.51
464.85	309.74
465.21	308.35
465.58	306.88
465.95	304.98
466.32	303.49
466.68	302.15
467.05	300.70
467.42	299.34
467.78	297.77
468.15	296.43
468.52	295.45
468.88	294.09
469.25	292.88
469.62	292.10
469.98	291.19
470.35	290.32
470.72	289.42
471.08	288.37
471.45	287.67
471.82	287.01
472.18	286.19
472.55	285.70
472.92	285.04
473.28	284.45
473.65	283.89
474.02	283.44
474.38	283.00
474.75	282.71
475.11	282.25
475.48	282.12
475.85	281.95
476.21	281.78
476.58	281.60
476.94	281.48
477.31	281.35
477.67	281.27
478.04	281.31
478.41	281.53
478.77	281.97
479.14	282.06
479.50	282.29
479.87	282.62
480.23	282.99
480.60	283.37
480.96	283.86
481.33	284.60
481.69	285.18
482.06	285.79
482.42	286.40
482.79	287.22
483.15	287.95
483.52	288.91
483.88	289.80
484.25	290.77
484.61	291.82
484.98	292.95
485.34	294.27
485.71	295.66
486.07	297.03
486.44	298.30
486.80	299.95
487.17	301.56
487.53	303.39
487.90	305.29
488.26	307.37
488.62	309.55
488.99	311.72
489.35	314.03
489.72	316.43
490.08	319.04
490.44	321.68
490.81	324.72
491.17	327.66
491.54	330.92
491.90	334.29
492.26	337.80
492.63	341.40
492.99	345.19
493.36	349.19
493.72	353.42
494.08	357.85
494.45	362.55
494.81	367.55
495.17	372.55
495.54	377.81
495.90	383.22
496.26	389.03
496.63	395.07
496.99	401.25
497.35	407.90
497.72	414.81
498.08	421.88
498.44	429.11
498.80	436.95
499.17	444.96
499.53	453.12
499.89	461.85
500.26	470.64
500.62	479.59
500.98	488.95
501.34	498.76
501.71	508.97
502.07	519.33
502.43	529.89
502.79	540.80
503.16	552.19
503.52	563.82
503.88	575.64
504.24	587.91
504.60	600.50
504.97	613.52
505.33	626.50
505.69	640.67
506.05	654.97
506.41	669.22
506.78	683.68
507.14	698.67
507.50	713.98
507.86	729.84
508.22	746.24
508.59	762.66
508.95	779.39
509.31	796.50
509.67	813.89
510.03	831.77
510.39	850.19
510.75	868.75
511.12	887.71
511.48	906.97
511.84	926.59
512.20	946.32
512.56	966.59
512.92	987.31
513.28	1007.49
513.64	1028.24
514.00	1048.87
514.37	1070.10
514.73	1091.90
515.09	1113.66
515.45	1135.35
515.81	1157.00
516.17	1179.12
516.53	1201.38
516.89	1223.64
517.25	1246.21
517.61	1268.71
517.97	1291.39
518.33	1313.96
518.69	1336.67
519.05	1359.14
519.41	1382.09
519.77	1405.19
520.13	1427.98
520.49	1450.68
520.85	1473.91
521.21	1496.76
521.57	1520.51
521.93	1543.07
522.29	1566.45
522.65	1589.68
523.01	1612.55
523.37	1635.27
523.73	1658.14
524.09	1680.80
524.45	1703.52
524.81	1726.00
525.17	1748.82
525.53	1771.17
525.89	1793.64
526.25	1816.12
526.61	1838.06
526.97	1859.66
527.33	1881.40
527.68	1903.10
528.04	1923.74
528.40	1943.91
528.76	1964.50
529.12	1985.22
529.48	2006.61
529.84	2026.73
530.20	2046.97
530.56	2067.32
530.91	2088.00
531.27	2108.30
531.63	2128.32
531.99	2147.80
532.35	2166.81
532.71	2185.53
533.07	2204.57
533.42	2222.79
533.78	2240.84
534.14	2258.79
534.50	2275.55
534.86	2293.06
535.21	2309.68
535.57	2327.57
535.93	2344.20
536.29	2360.57
536.65	2376.81
537.00	2392.02
537.36	2406.74
537.72	2421.02
538.08	2435.23
538.44	2449.23
538.79	2463.19
539.15	2477.02
539.51	2490.58
539.87	2504.64
540.22	2517.50
540.58	2530.77
540.94	2543.70
541.29	2555.36
541.65	2566.71
542.01	2578.75
542.37	2589.69
542.72	2600.45
543.08	2610.12
543.44	2621.53
543.79	2630.94
544.15	2639.36
544.51	2648.87
544.87	2658.44
545.22	2666.95
545.58	2674.99
545.94	2682.20
546.29	2688.64
546.65	2694.23
547.01	2699.87
547.36	2705.18
547.72	2710.76
548.07	2714.67
548.43	2718.43
548.79	2722.34
549.14	2726.18
549.50	2729.75
549.86	2732.57
550.21	2735.23
550.57	2738.82
550.92	2739.72
551.28	2741.41
551.64	2743.48
551.99	2745.39
552.35	2746.21
552.70	2747.42
553.06	2748.61
553.41	2749.35
553.77	2750.05
554.13	2750.80
554.48	2751.78
554.84	2752.53
555.19	2751.99
555.55	2751.17
555.90	2750.17
556.26	2749.03
556.61	2748.13
556.97	2746.23
557.32	2744.80
557.68	2742.55
558.03	2739.83
558.39	2737.89
558.74	2736.85
559.10	2735.32
559.45	2732.86
559.81	2730.85
560.16	2727.51
560.52	2724.66
560.87	2722.11
561.23	2718.65
561.58	2715.95
561.94	2712.01
562.29	2707.19
562.64	2703.79
563.00	2700.76
563.35	2697.85
563.71	2695.69
564.06	2692.33
564.42	2689.39
564.77	2686.45
565.12	2683.51
565.48	2679.92
565.83	2676.97
566.19	2673.71
566.54	2668.72
566.89	2663.57
567.25	2659.07
567.60	2655.16
567.96	2650.36
568.31	2645.64
568.66	2640.60
569.02	2634.81
569.37	2628.88
569.72	2623.96
570.08	2618.51
570.43	2612.36
570.78	2605.87
571.14	2598.36
571.49	2591.49
571.84	2585.28
572.20	2577.71
572.55	2571.09
572.90	2563.63
573.26	2555.35
573.61	2546.89
573.96	2539.40
574.31	2531.27
574.67	2522.66
575.02	2513.84
575.37	2505.29
575.72	2495.81
576.08	2487.55
576.43	2478.68
576.78	2470.65
577.13	2462.47
577.49	2454.01
577.84	2445.71
578.19	2437.84
578.54	2431.00
578.90	2423.78
579.25	2414.92
579.60	2405.84
579.95	2396.73
580.30	2388.79
580.66	2381.66
581.01	2372.96
581.36	2363.77
581.71	2355.52
582.06	2347.40
582.42	2339.27
582.77	2330.45
583.12	2322.34
583.47	2314.66
583.82	2307.10
584.17	2298.78
584.53	2290.41
584.88	2282.00
585.23	2273.28
585.58	2264.93
585.93	2255.41
586.28	2246.89
586.63	2238.62
586.98	2230.91
587.34	2223.36
587.69	2214.97
588.04	2206.11
588.39	2198.12
588.74	2189.82
589.09	2182.18
589.44	2173.49
589.79	2165.81
590.14	2158.30
590.49	2150.28
590.84	2141.88
591.19	2134.44
591.54	2126.23
591.89	2116.99
592.25	2108.42
592.60	2099.85
592.95	2090.82
593.30	2081.56
593.65	2072.20
594.00	2063.28
594.35	2056.27
594.70	2047.52
595.05	2039.23
595.40	2030.58
595.75	2021.26
596.10	2013.59
596.45	2005.50
596.80	1997.90
597.15	1989.75
597.50	1981.57
597.85	1973.74
598.19	1965.66
598.54	1957.50
598.89	1950.10
599.24	1943.92
599.59	1936.77
599.94	1930.30
600.29	1923.25
600.64	1916.56
600.99	1908.92
601.34	1901.79
601.69	1892.96
602.04	1885.11
602.39	1877.66
602.74	1870.54
603.08	1864.81
603.43	1858.13
603.78	1850.72
604.13	1843.51
604.48	1836.11
604.83	1829.88
605.18	1823.90
605.53	1816.20
605.87	1808.45
606.22	1801.21
606.57	1793.26
606.92	1785.65
607.27	1777.81
607.62	1770.28
607.96	1763.22
608.31	1756.79
608.66	1749.28
609.01	1741.53
609.36	1734.04
609.70	1725.91
610.05	1717.75
610.40	1709.26
610.75	1701.04
611.10	1693.62
611.44	1684.58
611.79	1676.12
612.14	1666.90
612.49	1657.27
612.83	1649.02
613.18	1640.28
613.53	1631.56
613.88	1622.20
614.22	1613.65
614.57	1604.69
614.92	1595.81
615.27	1586.62
615.61	1577.32
615.96	1568.97
616.31	1560.96
616.65	1553.24
617.00	1545.15
617.35	1537.22
617.70	1528.56
618.04	1519.48
618.39	1510.05
618.74	1502.08
619.08	1493.52
619.43	1485.29
619.78	1477.10
620.12	1469.13
620.47	1461.13
620.82	1452.40
621.16	1444.08
621.51	1435.61
621.85	1427.78
622.20	1419.44
622.55	1411.20
622.89	1402.83
623.24	1394.53
623.59	1385.80
623.93	1377.18
624.28	1369.23
624.62	1361.02
624.97	1353.33
625.32	1345.73
625.66	1338.33
626.01	1330.81
626.35	1323.33
626.70	1315.56
627.04	1308.32
627.39	1300.93
627.73	1293.37
628.08	1286.15
628.43	1278.43
628.77	1270.84
629.12	1262.91
629.46	1256.15
629.81	1248.97
630.15	1241.97
630.50	1234.55
630.84	1227.29
631.19	1219.87
631.53	1212.71
631.88	1204.98
632.22	1197.27
632.57	1190.21
632.91	1182.59
633.26	1175.27
633.60	1168.13
633.95	1161.35
634.29	1153.98
634.64	1146.74
634.98	1139.26
635.32	1132.37
635.67	1126.11
636.01	1119.38
636.36	1112.63
636.70	1105.75
637.05	1098.99
637.39	1092.45
637.73	1086.25
638.08	1080.47
638.42	1074.51
638.77	1068.08
639.11	1061.87
639.45	1055.43
639.80	1048.49
640.14	1042.01
640.49	1035.25
640.83	1028.53
641.17	1021.77
641.52	1015.14
641.86	1008.31
642.20	1002.03
642.55	995.07
642.89	988.22
643.23	981.45
643.58	975.42
643.92	968.71
644.26	962.28
644.61	955.79
644.95	949.14
645.29	942.44
645.64	935.75
645.98	929.38
646.32	923.21
646.66	916.79
647.01	910.85
647.35	904.70
647.69	898.14
648.04	892.17
648.38	886.04
648.72	879.83
649.06	873.80
649.41	867.79
649.75	861.98
650.09	856.26
650.43	850.59
650.78	844.26
651.12	838.04
651.46	832.18
651.80	826.39
652.14	820.45
652.49	814.32
652.83	808.28
653.17	801.90
653.51	795.95
653.85	790.43
654.20	784.65
654.54	778.87
654.88	773.68
655.22	767.97
655.56	761.99
655.90	756.28
656.25	750.56
656.59	744.84
656.93	739.32
657.27	733.85
657.61	728.17
657.95	722.75
658.29	717.63
658.64	712.46
658.98	706.95
659.32	701.46
659.66	696.42
660.00	691.10
660.34	685.96
660.68	680.62
661.02	675.32
661.36	670.18
661.70	665.22
662.05	660.45
662.39	655.90
662.73	651.41
663.07	647.06
663.41	642.68
663.75	638.06
664.09	633.47
664.43	628.72
664.77	624.27
665.11	619.81
665.45	615.33
665.79	610.95
666.13	606.66
666.47	602.47
666.81	598.21
667.15	593.96
667.49	590.02
667.83	586.09
668.17	582.16
668.51	578.39
668.85	574.63
669.19	570.84
669.53	566.77
669.87	562.93
670.21	559.07
670.55	555.32
670.89	552.16
671.23	548.82
671.57	545.42
671.91	541.97
672.25	538.41
672.58	535.07
672.92	531.59
673.26	528.35
673.60	525.26
673.94	522.07
674.28	518.98
674.62	515.91
674.96	512.92
675.30	509.82
675.64	506.68
675.97	503.71
676.31	500.66
676.65	497.88
676.99	495.20
677.33	492.09
677.67	489.08
678.01	485.81
678.34	482.83
678.68	480.00
679.02	477.04
679.36	474.34
679.70	471.54
680.04	468.73
680.37	465.88
680.71	463.03
681.05	460.35
681.39	457.68
681.73	454.98
682.06	452.41
682.40	449.95
682.74	447.42
683.08	444.69
683.42	441.98
683.75	439.35
684.09	436.57
684.43	434.11
684.77	431.59
685.10	429.06
685.44	426.50
685.78	423.97
686.12	421.79
686.45	419.31
686.79	416.97
687.13	414.72
687.46	412.57
687.80	410.40
688.14	407.95
688.48	405.76
688.81	403.40
689.15	401.11
689.49	398.86
689.82	396.57
690.16	394.29
690.50	391.98
690.83	389.68
691.17	387.49
691.51	385.30
691.84	383.33
692.18	381.51
692.52	379.55
692.85	377.65
693.19	375.69
693.52	373.77
693.86	371.80
694.20	369.92
694.53	367.97
694.87	365.94
695.21	364.12
695.54	362.26
695.88	360.43
696.21	358.56
696.55	356.81
696.88	355.10
697.22	353.35
697.56	351.93
697.89	350.34
698.23	348.70
698.56	347.09
698.90	345.47
699.23	343.65
699.57	342.01
699.90	340.41
700.24	338.67
700.58	337.12
700.91	335.59
701.25	334.12
701.58	332.60
701.92	331.09
702.25	329.61
702.59	328.08
702.92	326.72
703.26	325.32
703.59	323.96
703.93	322.82
704.26	321.47
704.60	319.95
704.93	318.53
705.26	317.23
705.60	316.09
705.93	314.83
706.27	313.64
706.60	312.49
706.94	311.41
707.27	310.18
707.61	308.95
707.94	307.74
708.27	306.42
708.61	305.25
708.94	304.13
709.28	302.99
709.61	301.95
709.94	300.85
710.28	299.81
710.61	298.72
710.95	297.38
711.28	296.55
711.61	295.53
711.95	294.59
712.28	293.54
712.61	292.48
712.95	291.63
713.28	290.87
713.61	289.86
713.95	288.86
714.28	288.07
714.61	287.17
714.95	286.34
715.28	285.33
715.61	284.40
715.95	283.54
716.28	282.70
716.61	281.85
716.95	280.88
717.28	280.04
717.61	279.30
717.94	278.58
718.28	277.50
718.61	276.74
718.94	275.92
719.27	275.18
719.61	274.37
719.94	273.44
720.27	272.55
720.60	271.85
720.94	271.07
721.27	270.27
721.60	269.66
721.93	269.01
722.27	268.68
722.60	268.12
722.93	267.48
723.26	266.99
723.59	266.31
723.93	265.78
724.26	265.16
724.59	264.52
724.92	263.98
725.25	263.58
725.59	263.02
725.92	262.59
726.25	262.10
726.58	261.62
726.91	261.14
727.24	260.65
727.57	260.09
727.91	259.53
728.24	259.14
728.57	258.60
728.90	258.22
729.23	257.50
729.56	257.12
729.89	256.60
730.22	256.00
730.55	255.59
730.89	255.10
731.22	254.67
731.55	254.12
731.88	253.59
732.21	253.08
732.54	252.65
732.87	252.14
733.20	251.62
733.53	251.21
733.86	250.81
734.19	250.28
734.52	249.87
734.85	249.75
735.18	249.26
735.51	249.01
735.84	248.45
736.17	248.24
736.50	247.62
736.83	247.60
737.16	247.22
737.49	246.72
737.82	246.35
738.15	245.94
738.48	245.55
738.81	245.10
739.14	244.69
739.47	244.23
739.80	243.85
740.13	243.50
740.46	243.05
740.79	242.52
741.12	242.21
741.45	241.83
741.78	241.22
742.11	240.98
742.44	240.50
742.77	240.28
743.10	239.82
743.43	239.42
743.75	238.78
744.08	238.84
744.41	238.53
744.74	238.17
745.07	237.82
745.40	237.56
745.73	237.43
746.06	237.12
746.39	236.86
746.71	236.55
747.04	236.29
747.37	236.02
747.70	235.85
748.03	235.60
748.36	235.40
748.68	235.17
749.01	234.75
749.34	234.55
749.67	234.25
750.00	233.94
750.33	234.07
750.65	233.81
750.98	233.11
751.31	232.93
751.64	232.74
751.97	232.65
752.29	232.42
752.62	231.98
752.95	231.73
753.28	231.46
753.60	231.22
753.93	231.10
754.26	230.78
754.59	230.47
754.91	230.20
755.24	229.85
755.57	229.61
755.90	229.48
756.22	229.24
756.55	229.00
756.88	228.81
757.20	228.39
757.53	228.11
757.86	227.97
758.19	227.75
758.51	227.53
758.84	227.23
759.17	226.95
759.49	226.80
759.82	226.80
760.15	226.69
760.47	226.52
760.80	226.17
761.13	226.21
761.45	226.00
761.78	225.80
762.11	225.73
762.43	225.55
762.76	225.32
763.08	225.13
763.41	224.92
763.74	224.78
764.06	224.62
764.39	224.50
764.71	224.35
765.04	224.17
765.37	224.01
765.69	223.81
766.02	223.73
766.34	223.58
766.67	223.20
767.00	223.09
767.32	223.17
767.65	223.22
767.97	222.98
768.30	222.91
768.62	222.84
768.95	222.68
769.27	222.54
769.60	222.54
769.92	222.44
770.25	222.27
770.57	222.05
770.90	221.89
771.22	221.70
771.55	221.55
771.87	221.43
772.20	221.35
772.52	221.51
772.85	221.81
773.17	221.74
773.50	221.70
773.82	221.52
774.15	221.30
774.47	221.00
774.80	220.86
775.12	220.75
775.45	220.57
775.77	220.45
776.09	220.37
776.42	220.20
776.74	220.17
777.07	220.13
777.39	220.11
777.72	219.95
778.04	219.98
778.36	219.92
778.69	219.92
779.01	219.79
779.33	219.48
779.66	219.00
779.98	218.95
780.31	218.94
780.63	219.06
780.95	218.98
781.28	218.93
781.60	218.82
781.92	218.76
782.25	218.74
782.57	218.68
782.89	218.64
783.22	218.61
783.54	218.50
783.86	218.41
784.19	218.35
784.51	218.46
784.83	218.30
785.16	218.24
785.48	218.15
785.80	218.11
786.12	218.01
786.45	218.03
