SpectraSuite Data File
++++++++++++++++++++++++++++++++++++
Date: Mon Feb 25 17:06:40 EST 2013
User: group
Dark Spectrum Present: No
Reference Spectrum Present: No
Number of Sampled Component Spectra: 1
Spectrometers: USB2E7196
Integration Time (usec): 104000 (USB2E7196)
Spectra Averaged: 20 (USB2E7196)
Boxcar Smoothing: 10 (USB2E7196)
Correct for Electrical Dark: No (USB2E7196)
Strobe/Lamp Enabled: No (USB2E7196)
Correct for Detector Non-linearity: No (USB2E7196)
Correct for Stray Light: No (USB2E7196)
Number of Pixels in Processed Spectrum: 2048
>>>>>Begin Processed Spectral Data<<<<<
339.09	0.00
339.48	198.80
339.86	199.70
340.24	201.20
340.63	202.80
341.01	208.65
341.39	205.90
341.78	206.55
342.16	208.85
342.54	209.05
342.93	197.82
343.31	207.83
343.69	208.30
344.07	208.75
344.46	209.19
344.84	209.57
345.22	209.63
345.60	209.79
345.99	209.91
346.37	209.94
346.75	210.01
347.13	209.99
347.52	210.04
347.90	210.24
348.28	210.17
348.66	210.33
349.05	210.14
349.43	210.14
349.81	210.19
350.19	210.22
350.57	210.26
350.96	210.37
351.34	210.42
351.72	210.51
352.10	210.62
352.48	210.72
352.87	210.75
353.25	210.80
353.63	210.91
354.01	211.02
354.39	211.19
354.77	211.27
355.15	211.52
355.54	211.53
355.92	211.45
356.30	211.51
356.68	211.75
357.06	211.94
357.44	212.00
357.82	212.03
358.20	212.08
358.58	212.08
358.97	212.12
359.35	212.22
359.73	212.33
360.11	212.38
360.49	212.37
360.87	212.37
361.25	212.49
361.63	212.65
362.01	212.71
362.39	212.71
362.77	212.62
363.15	212.58
363.53	212.68
363.91	212.76
364.29	212.85
364.67	212.61
365.05	212.54
365.43	212.60
365.81	212.66
366.19	212.81
366.57	213.02
366.95	213.00
367.33	212.91
367.71	212.90
368.09	212.92
368.47	212.96
368.85	212.92
369.23	212.95
369.61	212.77
369.99	212.87
370.37	212.86
370.75	213.17
371.13	213.17
371.51	213.07
371.89	213.05
372.27	213.04
372.65	213.00
373.03	213.03
373.41	213.00
373.78	212.95
374.16	212.71
374.54	212.58
374.92	212.56
375.30	212.60
375.68	212.57
376.06	212.53
376.44	212.45
376.82	212.41
377.19	212.41
377.57	212.39
377.95	212.29
378.33	212.21
378.71	211.87
379.09	211.87
379.47	211.83
379.84	211.77
380.22	211.62
380.60	211.51
380.98	211.46
381.36	211.42
381.73	211.34
382.11	211.39
382.49	211.41
382.87	211.29
383.25	211.23
383.62	211.53
384.00	211.44
384.38	211.40
384.76	211.49
385.13	211.57
385.51	211.52
385.89	211.35
386.27	211.31
386.64	211.37
387.02	211.25
387.40	211.20
387.78	211.19
388.15	211.21
388.53	211.16
388.91	211.18
389.29	211.10
389.66	211.11
390.04	211.05
390.42	211.03
390.79	211.05
391.17	211.05
391.55	210.65
391.92	210.60
392.30	210.64
392.68	210.53
393.05	210.41
393.43	210.46
393.81	210.51
394.18	210.45
394.56	210.51
394.94	210.60
395.31	210.55
395.69	210.62
396.06	210.71
396.44	210.74
396.82	210.66
397.19	210.88
397.57	210.82
397.95	210.86
398.32	210.78
398.70	210.75
399.07	210.79
399.45	210.81
399.82	210.87
400.20	210.86
400.58	210.85
400.95	210.79
401.33	210.85
401.70	211.11
402.08	211.20
402.45	211.09
402.83	211.17
403.20	211.25
403.58	211.22
403.95	211.31
404.33	211.41
404.71	211.44
405.08	211.64
405.46	211.74
405.83	211.84
406.21	211.86
406.58	212.01
406.96	212.07
407.33	212.25
407.70	212.38
408.08	212.77
408.45	213.00
408.83	213.21
409.20	213.42
409.58	213.33
409.95	213.59
410.33	213.91
410.70	214.06
411.08	214.41
411.45	214.73
411.82	215.02
412.20	215.43
412.57	215.99
412.95	216.03
413.32	216.50
413.69	216.86
414.07	217.37
414.44	217.91
414.82	218.43
415.19	219.00
415.56	219.57
415.94	219.97
416.31	220.70
416.68	221.42
417.06	222.21
417.43	223.20
417.81	224.02
418.18	224.99
418.55	225.99
418.93	227.00
419.30	228.11
419.67	229.20
420.04	230.30
420.42	231.51
420.79	233.21
421.16	234.60
421.54	236.30
421.91	237.93
422.28	239.43
422.66	241.12
423.03	242.98
423.40	244.80
423.77	246.71
424.15	248.51
424.52	250.47
424.89	252.59
425.26	254.60
425.64	256.63
426.01	258.66
426.38	260.91
426.75	263.22
427.13	265.53
427.50	268.08
427.87	270.72
428.24	273.29
428.61	275.64
428.99	278.59
429.36	281.39
429.73	284.38
430.10	287.43
430.47	290.56
430.85	293.55
431.22	296.80
431.59	300.43
431.96	303.88
432.33	307.68
432.70	311.41
433.08	315.72
433.45	319.80
433.82	323.91
434.19	328.46
434.56	332.99
434.93	337.16
435.30	341.39
435.68	346.06
436.05	350.67
436.42	355.29
436.79	359.48
437.16	364.16
437.53	368.90
437.90	373.79
438.27	378.48
438.64	383.44
439.01	388.24
439.38	392.27
439.75	396.37
440.13	400.76
440.50	404.92
440.87	408.28
441.24	411.94
441.61	416.05
441.98	418.97
442.35	422.37
442.72	426.10
443.09	429.73
443.46	431.87
443.83	433.44
444.20	434.81
444.57	436.59
444.94	437.65
445.31	438.73
445.68	440.05
446.05	440.61
446.42	440.30
446.79	439.89
447.16	439.48
447.53	439.30
447.90	437.85
448.27	436.40
448.64	434.34
449.01	432.71
449.37	429.81
449.74	427.12
450.11	423.95
450.48	420.01
450.85	415.98
451.22	412.66
451.59	409.60
451.96	406.60
452.33	402.57
452.70	398.75
453.07	394.20
453.43	389.21
453.80	384.87
454.17	380.77
454.54	376.70
454.91	372.40
455.28	368.06
455.65	364.13
456.02	360.57
456.38	357.17
456.75	353.03
457.12	349.45
457.49	345.95
457.86	342.34
458.23	339.66
458.59	336.40
458.96	333.30
459.33	330.37
459.70	327.50
460.07	325.31
460.43	322.77
460.80	320.46
461.17	318.39
461.54	316.14
461.91	313.88
462.27	311.83
462.64	310.02
463.01	308.03
463.38	306.21
463.74	303.81
464.11	302.04
464.48	300.56
464.85	298.93
465.21	297.81
465.58	296.47
465.95	294.73
466.32	293.45
466.68	292.12
467.05	290.79
467.42	289.43
467.78	287.85
468.15	286.52
468.52	285.50
468.88	284.11
469.25	282.95
469.62	282.05
469.98	280.92
470.35	279.90
470.72	278.94
471.08	277.81
471.45	277.03
471.82	276.31
472.18	275.32
472.55	274.63
472.92	273.68
473.28	272.99
473.65	272.25
474.02	271.58
474.38	271.03
474.75	270.59
475.11	270.10
475.48	269.76
475.85	269.31
476.21	268.87
476.58	268.61
476.94	268.33
477.31	268.01
477.67	267.80
478.04	267.54
478.41	267.39
478.77	267.55
479.14	267.24
479.50	267.03
479.87	266.99
480.23	266.93
480.60	266.81
480.96	266.67
481.33	266.85
481.69	266.85
482.06	266.80
482.42	266.79
482.79	266.79
483.15	266.90
483.52	267.15
483.88	267.28
484.25	267.33
484.61	267.38
484.98	267.60
485.34	267.89
485.71	268.27
486.07	268.56
486.44	268.61
486.80	269.02
487.17	269.41
487.53	269.94
487.90	270.37
488.26	271.02
488.62	271.66
488.99	272.20
489.35	272.86
489.72	273.51
490.08	274.14
490.44	274.83
490.81	275.52
491.17	276.15
491.54	277.01
491.90	277.99
492.26	278.92
492.63	279.81
492.99	280.64
493.36	281.63
493.72	282.67
494.08	283.62
494.45	284.83
494.81	286.02
495.17	287.10
495.54	288.35
495.90	289.50
496.26	290.71
496.63	291.94
496.99	293.18
497.35	294.51
497.72	295.91
498.08	297.28
498.44	298.73
498.80	300.19
499.17	301.59
499.53	302.89
499.89	304.41
500.26	305.92
500.62	307.49
500.98	309.05
501.34	310.59
501.71	312.35
502.07	313.83
502.43	315.32
502.79	316.81
503.16	318.33
503.52	319.90
503.88	321.40
504.24	322.95
504.60	324.60
504.97	326.24
505.33	327.85
505.69	329.63
506.05	331.27
506.41	332.97
506.78	334.63
507.14	336.28
507.50	338.04
507.86	339.73
508.22	341.46
508.59	343.14
508.95	344.75
509.31	346.50
509.67	348.30
510.03	350.02
510.39	351.73
510.75	353.53
511.12	355.31
511.48	357.13
511.84	358.91
512.20	360.71
512.56	362.53
512.92	364.32
513.28	366.13
513.64	367.85
514.00	369.70
514.37	371.56
514.73	373.54
515.09	375.39
515.45	377.17
515.81	378.99
516.17	380.82
516.53	382.63
516.89	384.33
517.25	386.07
517.61	388.06
517.97	390.09
518.33	391.95
518.69	393.89
519.05	396.00
519.41	397.94
519.77	400.10
520.13	402.03
520.49	403.95
520.85	405.81
521.21	407.96
521.57	410.08
521.93	412.08
522.29	414.22
522.65	416.32
523.01	418.60
523.37	420.67
523.73	422.85
524.09	425.16
524.45	427.54
524.81	429.97
525.17	432.38
525.53	434.78
525.89	437.29
526.25	439.85
526.61	442.17
526.97	444.77
527.33	447.33
527.68	450.27
528.04	452.97
528.40	455.63
528.76	458.51
529.12	461.19
529.48	463.98
529.84	466.90
530.20	469.79
530.56	472.76
530.91	475.80
531.27	478.87
531.63	481.95
531.99	484.93
532.35	488.01
532.71	490.87
533.07	493.97
533.42	497.49
533.78	500.45
534.14	503.69
534.50	506.65
534.86	509.60
535.21	512.45
535.57	515.65
535.93	518.82
536.29	521.90
536.65	525.05
537.00	528.10
537.36	531.12
537.72	534.20
538.08	537.32
538.44	540.49
538.79	543.48
539.15	546.53
539.51	549.76
539.87	552.82
540.22	556.08
540.58	559.25
540.94	562.11
541.29	565.34
541.65	568.28
542.01	571.64
542.37	574.84
542.72	577.95
543.08	581.04
543.44	584.20
543.79	587.03
544.15	590.18
544.51	593.51
544.87	596.71
545.22	599.74
545.58	602.61
545.94	605.48
546.29	608.51
546.65	611.47
547.01	614.21
547.36	617.22
547.72	619.92
548.07	622.54
548.43	625.16
548.79	627.80
549.14	630.43
549.50	632.97
549.86	635.38
550.21	637.81
550.57	640.31
550.92	642.69
551.28	645.18
551.64	647.49
551.99	649.79
552.35	651.92
552.70	654.16
553.06	656.51
553.41	658.82
553.77	661.13
554.13	663.25
554.48	665.54
554.84	667.49
555.19	669.51
555.55	671.79
555.90	673.83
556.26	675.62
556.61	677.39
556.97	679.06
557.32	680.75
557.68	682.51
558.03	684.22
558.39	685.90
558.74	687.71
559.10	689.46
559.45	691.18
559.81	693.14
560.16	694.53
560.52	696.02
560.87	697.57
561.23	698.95
561.58	700.79
561.94	702.06
562.29	703.40
562.64	705.10
563.00	706.27
563.35	707.47
563.71	708.94
564.06	710.45
564.42	711.96
564.77	713.50
565.12	714.93
565.48	716.40
565.83	717.93
566.19	719.20
566.54	720.02
566.89	720.83
567.25	721.80
567.60	723.15
567.96	724.15
568.31	725.18
568.66	725.94
569.02	726.13
569.37	726.72
569.72	727.41
570.08	727.57
570.43	728.14
570.78	728.55
571.14	728.79
571.49	728.95
571.84	729.30
572.20	729.42
572.55	729.60
572.90	729.41
573.26	729.01
573.61	728.61
573.96	728.57
574.31	728.50
574.67	727.99
575.02	727.31
575.37	726.90
575.72	726.19
576.08	725.85
576.43	725.36
576.78	724.81
577.13	724.33
577.49	724.07
577.84	723.67
578.19	723.23
578.54	722.93
578.90	722.69
579.25	721.93
579.60	721.21
579.95	720.41
580.30	719.82
580.66	719.36
581.01	718.80
581.36	718.16
581.71	717.25
582.06	716.77
582.42	716.30
582.77	715.52
583.12	714.86
583.47	714.20
583.82	713.75
584.17	713.17
584.53	712.69
584.88	711.85
585.23	711.18
585.58	710.43
585.93	709.62
586.28	708.89
586.63	708.21
586.98	707.71
587.34	707.09
587.69	706.40
588.04	705.59
588.39	704.88
588.74	703.86
589.09	703.40
589.44	702.18
589.79	701.45
590.14	700.66
590.49	699.74
590.84	698.58
591.19	697.85
591.54	697.00
591.89	695.61
592.25	694.76
592.60	693.56
592.95	692.40
593.30	690.92
593.65	689.54
594.00	688.09
594.35	687.60
594.70	686.23
595.05	684.99
595.40	683.72
595.75	682.45
596.10	681.48
596.45	680.20
596.80	679.34
597.15	678.07
597.50	676.84
597.85	675.82
598.19	674.62
598.54	673.40
598.89	672.22
599.24	671.42
599.59	670.29
599.94	669.20
600.29	668.23
600.64	667.31
600.99	666.12
601.34	665.27
601.69	663.28
602.04	662.06
602.39	660.94
602.74	659.91
603.08	658.85
603.43	658.08
603.78	656.90
604.13	655.73
604.48	654.63
604.83	653.74
605.18	652.67
605.53	651.67
605.87	650.48
606.22	649.27
606.57	648.14
606.92	646.77
607.27	645.48
607.62	644.13
607.96	643.18
608.31	642.15
608.66	640.86
609.01	639.50
609.36	638.27
609.70	636.87
610.05	635.41
610.40	634.01
610.75	632.19
611.10	630.84
611.44	629.03
611.79	627.18
612.14	625.36
612.49	623.51
612.83	621.95
613.18	620.12
613.53	618.42
613.88	616.24
614.22	614.53
614.57	612.75
614.92	611.03
615.27	608.98
615.61	607.06
615.96	605.28
616.31	603.61
616.65	601.97
617.00	600.05
617.35	598.34
617.70	596.37
618.04	594.49
618.39	592.46
618.74	590.73
619.08	588.91
619.43	586.99
619.78	585.14
620.12	583.16
620.47	581.33
620.82	579.24
621.16	577.39
621.51	575.65
621.85	573.73
622.20	571.63
622.55	569.67
622.89	567.78
623.24	565.79
623.59	563.69
623.93	561.77
624.28	560.02
624.62	558.50
624.97	556.77
625.32	554.88
625.66	553.15
626.01	551.43
626.35	549.77
626.70	547.95
627.04	546.44
627.39	544.56
627.73	542.93
628.08	541.30
628.43	539.42
628.77	537.37
629.12	535.41
629.46	533.79
629.81	531.95
630.15	530.00
630.50	528.08
630.84	526.23
631.19	524.32
631.53	522.43
631.88	520.03
632.22	518.05
632.57	516.37
632.91	514.36
633.26	512.46
633.60	510.52
633.95	508.75
634.29	506.65
634.64	504.98
634.98	502.97
635.32	501.21
635.67	499.60
636.01	498.01
636.36	496.32
636.70	494.48
637.05	492.80
637.39	491.17
637.73	489.72
638.08	488.36
638.42	486.68
638.77	485.08
639.11	483.45
639.45	481.72
639.80	479.94
640.14	478.06
640.49	476.24
640.83	474.50
641.17	472.95
641.52	471.27
641.86	469.35
642.20	467.86
642.55	465.84
642.89	463.91
643.23	462.02
643.58	460.38
643.92	458.53
644.26	456.82
644.61	455.12
644.95	453.17
645.29	451.28
645.64	449.45
645.98	447.59
646.32	445.86
646.66	444.05
647.01	442.20
647.35	440.64
647.69	438.88
648.04	437.28
648.38	435.32
648.72	433.55
649.06	431.88
649.41	429.95
649.75	428.35
650.09	426.88
650.43	425.07
650.78	423.21
651.12	421.51
651.46	419.76
651.80	418.01
652.14	416.43
652.49	414.74
652.83	412.99
653.17	411.22
653.51	409.59
653.85	408.05
654.20	406.51
654.54	404.89
654.88	403.18
655.22	401.57
655.56	399.83
655.90	398.08
656.25	396.51
656.59	394.86
656.93	393.30
657.27	391.71
657.61	390.09
657.95	388.58
658.29	387.07
658.64	385.66
658.98	384.05
659.32	382.33
659.66	380.77
660.00	379.29
660.34	377.77
660.68	376.01
661.02	374.45
661.36	372.89
661.70	371.50
662.05	370.14
662.39	368.80
662.73	367.50
663.07	366.33
663.41	364.91
663.75	363.53
664.09	362.11
664.43	360.66
664.77	359.44
665.11	358.07
665.45	356.67
665.79	355.29
666.13	353.93
666.47	352.64
666.81	351.31
667.15	349.96
667.49	348.84
667.83	347.87
668.17	346.55
668.51	345.30
668.85	344.07
669.19	343.07
669.53	341.70
669.87	340.49
670.21	339.19
670.55	338.02
670.89	337.13
671.23	336.04
671.57	334.92
671.91	333.75
672.25	332.55
672.58	331.55
672.92	330.43
673.26	329.50
673.60	328.45
673.94	327.45
674.28	326.48
674.62	325.45
674.96	324.32
675.30	323.36
675.64	322.41
675.97	321.33
676.31	320.20
676.65	319.22
676.99	318.47
677.33	317.45
677.67	316.48
678.01	315.27
678.34	314.27
678.68	313.36
679.02	312.45
679.36	311.57
679.70	310.62
680.04	309.62
680.37	308.59
680.71	307.66
681.05	306.74
681.39	305.85
681.73	304.85
682.06	304.02
682.40	303.23
682.74	302.37
683.08	301.56
683.42	300.57
683.75	299.74
684.09	298.65
684.43	297.85
684.77	296.91
685.10	296.04
685.44	295.23
685.78	294.31
686.12	293.56
686.45	292.79
686.79	291.99
687.13	291.30
687.46	290.62
687.80	290.01
688.14	289.23
688.48	288.59
688.81	287.94
689.15	287.25
689.49	286.40
689.82	285.70
690.16	284.77
690.50	283.98
690.83	283.14
691.17	282.38
691.51	281.55
691.84	280.97
692.18	280.29
692.52	279.57
692.85	278.93
693.19	278.29
693.52	277.58
693.86	276.78
694.20	276.00
694.53	275.19
694.87	274.42
695.21	273.64
695.54	272.83
695.88	272.03
696.21	271.26
696.55	270.60
696.88	269.85
697.22	269.28
697.56	268.76
697.89	268.07
698.23	267.52
698.56	266.91
698.90	266.21
699.23	265.53
699.57	264.98
699.90	264.35
700.24	263.55
700.58	262.90
700.91	262.42
701.25	262.14
701.58	261.78
701.92	261.29
702.25	260.77
702.59	260.23
702.92	259.71
703.26	259.12
703.59	258.69
703.93	258.59
704.26	258.06
704.60	257.59
704.93	257.21
705.26	256.70
705.60	256.28
705.93	255.81
706.27	255.44
706.60	255.05
706.94	254.75
707.27	254.29
707.61	253.85
707.94	253.35
708.27	252.65
708.61	252.03
708.94	251.53
709.28	251.09
709.61	250.69
709.94	250.33
710.28	250.01
710.61	249.61
710.95	248.79
711.28	248.65
711.61	248.17
711.95	247.81
712.28	247.41
712.61	247.08
712.95	246.91
713.28	246.71
713.61	246.28
713.95	245.82
714.28	245.56
714.61	245.27
714.95	244.95
715.28	244.55
715.61	244.23
715.95	243.90
716.28	243.55
716.61	243.23
716.95	242.90
717.28	242.57
717.61	242.22
717.94	241.91
718.28	241.44
718.61	241.24
718.94	240.93
719.27	240.59
719.61	240.32
719.94	239.88
720.27	239.39
720.60	239.01
720.94	238.77
721.27	238.50
721.60	238.25
721.93	237.95
722.27	237.81
722.60	237.62
722.93	237.32
723.26	237.09
723.59	236.77
723.93	236.51
724.26	236.29
724.59	236.00
724.92	235.90
725.25	235.69
725.59	235.39
725.92	235.26
726.25	235.07
726.58	234.81
726.91	234.58
727.24	234.36
727.57	234.23
727.91	234.01
728.24	233.78
728.57	233.54
728.90	233.40
729.23	233.11
729.56	233.09
729.89	232.89
730.22	232.75
730.55	232.56
730.89	232.35
731.22	232.09
731.55	231.88
731.88	231.54
732.21	231.25
732.54	231.01
732.87	230.73
733.20	230.58
733.53	230.42
733.86	230.25
734.19	230.07
734.52	229.87
734.85	229.82
735.18	229.60
735.51	229.60
735.84	229.40
736.17	229.34
736.50	228.87
736.83	229.22
737.16	229.03
737.49	228.91
737.82	228.73
738.15	228.65
738.48	228.52
738.81	228.45
739.14	228.23
739.47	228.11
739.80	227.88
740.13	227.69
740.46	227.41
740.79	227.20
741.12	227.05
741.45	226.85
741.78	226.49
742.11	226.45
742.44	226.14
742.77	226.01
743.10	225.80
743.43	225.74
743.75	225.09
744.08	225.35
744.41	225.14
744.74	224.94
745.07	224.65
745.40	224.49
745.73	224.39
746.06	224.34
746.39	224.24
746.71	224.16
747.04	223.92
747.37	223.79
747.70	223.77
748.03	223.63
748.36	223.53
748.68	223.36
749.01	223.12
749.34	222.99
749.67	222.88
750.00	222.78
750.33	222.84
750.65	222.77
750.98	222.20
751.31	222.08
751.64	222.03
751.97	222.11
752.29	222.00
752.62	221.78
752.95	221.58
753.28	221.38
753.60	221.25
753.93	221.33
754.26	221.29
754.59	221.06
754.91	220.90
755.24	220.82
755.57	220.77
755.90	220.63
756.22	220.53
756.55	220.35
756.88	220.19
757.20	219.84
757.53	219.62
757.86	219.54
758.19	219.47
758.51	219.33
758.84	219.08
759.17	218.94
759.49	218.81
759.82	218.94
760.15	218.85
760.47	218.72
760.80	218.45
761.13	218.41
761.45	218.30
761.78	218.16
762.11	218.03
762.43	217.93
762.76	217.88
763.08	217.83
763.41	217.77
763.74	217.67
764.06	217.63
764.39	217.59
764.71	217.50
765.04	217.36
765.37	217.30
765.69	217.25
766.02	217.19
766.34	217.15
766.67	216.91
767.00	216.92
767.32	217.01
767.65	217.17
767.97	217.04
768.30	216.90
768.62	216.92
768.95	216.76
769.27	216.73
769.60	216.69
769.92	216.59
770.25	216.55
770.57	216.41
770.90	216.30
771.22	216.22
771.55	216.25
771.87	216.25
772.20	216.13
772.52	216.31
772.85	216.71
773.17	216.69
773.50	216.63
773.82	216.51
774.15	216.30
774.47	216.10
774.80	216.04
775.12	216.09
775.45	216.06
775.77	216.09
776.09	216.00
776.42	215.97
776.74	216.03
777.07	215.92
777.39	215.93
777.72	215.88
778.04	215.91
778.36	215.78
778.69	215.77
779.01	215.91
779.33	215.67
779.66	215.24
779.98	215.11
780.31	215.13
780.63	215.23
780.95	215.27
781.28	215.25
781.60	215.17
781.92	215.17
782.25	215.07
782.57	215.05
782.89	215.03
783.22	214.97
783.54	214.79
783.86	214.76
784.19	214.75
784.51	214.85
784.83	214.71
785.16	214.65
785.48	214.58
785.80	214.45
786.12	214.45
786.45	214.44
786.77	214.49
787.09	214.44
787.42	214.28
787.74	214.21
788.06	214.20
788.38	214.18
788.71	214.04
789.03	214.12
789.35	214.14
789.67	214.10
789.99	214.12
790.32	214.09
790.64	214.10
790.96	214.35
791.28	214.21
791.61	214.25
791.93	214.30
792.25	214.27
792.57	214.50
792.89	214.35
793.21	214.36
793.54	214.30
793.86	214.21
794.18	214.31
