SpectraSuite Data File
++++++++++++++++++++++++++++++++++++
Date: Mon Feb 25 16:57:28 EST 2013
User: group
Dark Spectrum Present: No
Reference Spectrum Present: No
Number of Sampled Component Spectra: 1
Spectrometers: USB2E7196
Integration Time (usec): 104000 (USB2E7196)
Spectra Averaged: 20 (USB2E7196)
Boxcar Smoothing: 10 (USB2E7196)
Correct for Electrical Dark: No (USB2E7196)
Strobe/Lamp Enabled: No (USB2E7196)
Correct for Detector Non-linearity: No (USB2E7196)
Correct for Stray Light: No (USB2E7196)
Number of Pixels in Processed Spectrum: 2048
>>>>>Begin Processed Spectral Data<<<<<
339.09	0.00
339.48	198.25
339.86	199.80
340.24	202.15
340.63	203.15
341.01	209.70
341.39	206.80
341.78	208.55
342.16	208.60
342.54	210.30
342.93	198.76
343.31	208.72
343.69	209.36
344.07	209.82
344.46	210.31
344.84	210.70
345.22	210.75
345.60	211.05
345.99	211.19
346.37	211.31
346.75	211.37
347.13	211.39
347.52	211.44
347.90	211.69
348.28	211.70
348.66	211.80
349.05	211.69
349.43	211.73
349.81	211.74
350.19	211.74
350.57	211.73
350.96	211.82
351.34	211.95
351.72	211.95
352.10	212.07
352.48	212.00
352.87	212.01
353.25	212.10
353.63	212.13
354.01	212.16
354.39	212.28
354.77	212.30
355.15	212.45
355.54	212.51
355.92	212.29
356.30	212.34
356.68	212.55
357.06	212.58
357.44	212.65
357.82	212.72
358.20	212.81
358.58	212.88
358.97	212.91
359.35	213.02
359.73	213.17
360.11	213.21
360.49	213.32
360.87	213.40
361.25	213.41
361.63	213.48
362.01	213.58
362.39	213.55
362.77	213.59
363.15	213.61
363.53	213.60
363.91	213.66
364.29	213.71
364.67	213.49
365.05	213.53
365.43	213.58
365.81	213.55
366.19	213.66
366.57	213.84
366.95	213.83
367.33	213.75
367.71	213.70
368.09	213.74
368.47	213.70
368.85	213.71
369.23	213.78
369.61	213.65
369.99	213.67
370.37	213.69
370.75	213.86
371.13	213.81
371.51	213.78
371.89	213.87
372.27	213.76
372.65	213.69
373.03	213.72
373.41	213.58
373.78	213.59
374.16	213.39
374.54	213.17
374.92	213.12
375.30	213.07
375.68	213.00
376.06	212.95
376.44	212.93
376.82	212.87
377.19	212.83
377.57	212.79
377.95	212.68
378.33	212.63
378.71	212.39
379.09	212.34
379.47	212.31
379.84	212.19
380.22	212.17
380.60	212.08
380.98	211.93
381.36	211.95
381.73	211.82
382.11	211.87
382.49	211.90
382.87	211.83
383.25	211.84
383.62	212.15
384.00	211.97
384.38	211.86
384.76	211.95
385.13	212.09
385.51	212.07
385.89	211.98
386.27	211.92
386.64	211.97
387.02	212.00
387.40	212.00
387.78	212.02
388.15	212.01
388.53	211.99
388.91	212.01
389.29	211.95
389.66	212.05
390.04	212.00
390.42	211.97
390.79	211.93
391.17	211.91
391.55	211.56
391.92	211.63
392.30	211.73
392.68	211.60
393.05	211.54
393.43	211.49
393.81	211.50
394.18	211.43
394.56	211.45
394.94	211.49
395.31	211.47
395.69	211.54
396.06	211.56
396.44	211.69
396.82	211.69
397.19	211.91
397.57	211.84
397.95	211.95
398.32	211.98
398.70	212.14
399.07	212.22
399.45	212.25
399.82	212.34
400.20	212.41
400.58	212.43
400.95	212.39
401.33	212.61
401.70	212.91
402.08	213.08
402.45	213.13
402.83	213.29
403.20	213.43
403.58	213.47
403.95	213.71
404.33	213.90
404.71	214.12
405.08	214.45
405.46	214.75
405.83	215.02
406.21	215.32
406.58	215.59
406.96	215.91
407.33	216.40
407.70	216.86
408.08	217.54
408.45	218.09
408.83	218.67
409.20	219.20
409.58	219.61
409.95	220.34
410.33	221.00
410.70	221.56
411.08	222.35
411.45	223.26
411.82	224.09
412.20	225.10
412.57	226.27
412.95	227.11
413.32	228.33
413.69	229.58
414.07	230.86
414.44	232.35
414.82	233.89
415.19	235.52
415.56	237.30
415.94	239.03
416.31	241.13
416.68	243.23
417.06	245.54
417.43	247.86
417.81	250.42
418.18	253.20
418.55	256.16
418.93	259.18
419.30	262.36
419.67	265.73
420.04	269.21
420.42	272.87
420.79	277.16
421.16	281.32
421.54	285.69
421.91	290.33
422.28	295.02
422.66	300.01
423.03	305.00
423.40	310.14
423.77	315.64
424.15	321.23
424.52	327.05
424.89	333.57
425.26	339.81
425.64	345.80
426.01	352.36
426.38	359.19
426.75	366.28
427.13	373.55
427.50	381.10
427.87	389.06
428.24	397.00
428.61	404.65
428.99	413.20
429.36	422.37
429.73	431.32
430.10	440.28
430.47	449.59
430.85	459.14
431.22	469.28
431.59	480.14
431.96	490.37
432.33	501.98
432.70	513.11
433.08	526.34
433.45	538.66
433.82	550.99
434.19	564.58
434.56	578.28
434.93	591.40
435.30	604.71
435.68	619.32
436.05	633.76
436.42	648.26
436.79	661.38
437.16	675.61
437.53	690.79
437.90	706.04
438.27	721.00
438.64	736.65
439.01	751.32
439.38	764.49
439.75	777.47
440.13	791.78
440.50	805.45
440.87	816.84
441.24	828.58
441.61	841.52
441.98	851.49
442.35	862.79
442.72	874.35
443.09	885.28
443.46	892.41
443.83	897.84
444.20	902.38
444.57	909.01
444.94	912.71
445.31	916.45
445.68	920.05
446.05	922.29
446.42	922.09
446.79	921.43
447.16	920.45
447.53	920.10
447.90	915.75
448.27	911.40
448.64	904.55
449.01	900.19
449.37	891.30
449.74	882.79
450.11	872.37
450.48	860.87
450.85	849.16
451.22	839.10
451.59	829.44
451.96	820.41
452.33	807.63
452.70	796.34
453.07	782.52
453.43	768.41
453.80	754.85
454.17	741.82
454.54	729.63
454.91	716.55
455.28	703.75
455.65	691.85
456.02	679.72
456.38	669.63
456.75	656.80
457.12	646.25
457.49	635.84
457.86	625.57
458.23	616.58
458.59	606.99
458.96	597.27
459.33	588.52
459.70	579.65
460.07	572.67
460.43	564.56
460.80	557.16
461.17	550.56
461.54	543.72
461.91	537.37
462.27	530.70
462.64	524.91
463.01	518.54
463.38	512.56
463.74	506.49
464.11	501.15
464.48	496.42
464.85	491.48
465.21	487.64
465.58	483.41
465.95	478.46
466.32	474.27
466.68	469.98
467.05	465.81
467.42	461.67
467.78	457.37
468.15	453.39
468.52	450.31
468.88	446.51
469.25	442.89
469.62	439.84
469.98	436.70
470.35	433.88
470.72	431.06
471.08	427.87
471.45	425.33
471.82	422.70
472.18	419.92
472.55	417.82
472.92	415.34
473.28	413.18
473.65	411.24
474.02	409.21
474.38	407.65
474.75	406.26
475.11	404.78
475.48	403.70
475.85	402.64
476.21	401.61
476.58	400.64
476.94	400.07
477.31	399.16
477.67	398.38
478.04	397.79
478.41	397.37
478.77	397.40
479.14	396.89
479.50	396.77
479.87	396.90
480.23	396.94
480.60	396.88
480.96	396.77
481.33	397.15
481.69	397.54
482.06	397.78
482.42	398.03
482.79	398.50
483.15	399.20
483.52	400.19
483.88	400.80
484.25	401.46
484.61	402.36
484.98	403.39
485.34	404.72
485.71	406.13
486.07	407.64
486.44	408.89
486.80	410.65
487.17	412.46
487.53	414.43
487.90	416.42
488.26	418.66
488.62	421.26
488.99	423.53
489.35	425.85
489.72	428.59
490.08	431.42
490.44	434.25
490.81	437.10
491.17	439.92
491.54	443.23
491.90	446.58
492.26	449.95
492.63	453.63
492.99	457.31
493.36	461.13
493.72	465.21
494.08	469.43
494.45	473.89
494.81	478.30
495.17	482.78
495.54	487.43
495.90	492.28
496.26	497.04
496.63	502.01
496.99	507.25
497.35	512.44
497.72	517.91
498.08	523.43
498.44	529.09
498.80	535.08
499.17	541.14
499.53	547.23
499.89	553.51
500.26	559.59
500.62	565.61
500.98	571.98
501.34	578.25
501.71	584.73
502.07	591.06
502.43	597.43
502.79	603.90
503.16	610.57
503.52	617.26
503.88	623.77
504.24	630.46
504.60	637.20
504.97	644.10
505.33	650.56
505.69	657.55
506.05	664.37
506.41	671.10
506.78	677.56
507.14	684.00
507.50	690.53
507.86	697.08
508.22	703.75
508.59	710.17
508.95	716.61
509.31	722.84
509.67	729.10
510.03	735.63
510.39	742.21
510.75	748.64
511.12	754.80
511.48	761.03
511.84	767.20
512.20	773.06
512.56	778.96
512.92	785.04
513.28	790.90
513.64	796.60
514.00	802.02
514.37	807.65
514.73	813.44
515.09	819.07
515.45	824.41
515.81	829.84
516.17	834.95
516.53	839.95
516.89	844.83
517.25	849.62
517.61	854.25
517.97	858.61
518.33	862.70
518.69	866.75
519.05	871.17
519.41	875.36
519.77	879.90
520.13	883.80
520.49	887.61
520.85	891.35
521.21	895.34
521.57	899.17
521.93	902.53
522.29	906.20
522.65	909.40
523.01	912.90
523.37	915.80
523.73	919.15
524.09	922.31
524.45	925.60
524.81	928.80
525.17	931.91
525.53	935.15
525.89	938.50
526.25	941.65
526.61	944.25
526.97	946.93
527.33	949.36
527.68	952.35
528.04	955.01
528.40	957.40
528.76	959.80
529.12	962.48
529.48	965.53
529.84	968.04
530.20	970.62
530.56	973.22
530.91	976.30
531.27	979.08
531.63	981.60
531.99	984.16
532.35	986.63
532.71	989.06
533.07	991.70
533.42	993.99
533.78	996.56
534.14	999.05
534.50	1001.36
534.86	1004.02
535.21	1006.27
535.57	1008.87
535.93	1011.20
536.29	1013.35
536.65	1015.66
537.00	1017.49
537.36	1019.42
537.72	1021.49
538.08	1023.55
538.44	1025.28
538.79	1027.38
539.15	1029.63
539.51	1031.81
539.87	1034.18
540.22	1036.39
540.58	1038.56
540.94	1040.89
541.29	1042.74
541.65	1044.60
542.01	1046.72
542.37	1048.61
542.72	1050.43
543.08	1052.14
543.44	1054.34
543.79	1056.03
544.15	1057.65
544.51	1059.97
544.87	1062.32
545.22	1064.22
545.58	1065.82
545.94	1067.50
546.29	1068.45
546.65	1069.82
547.01	1070.91
547.36	1072.14
547.72	1073.32
548.07	1074.50
548.43	1075.35
548.79	1076.32
549.14	1077.70
549.50	1078.79
549.86	1079.94
550.21	1081.32
550.57	1082.77
550.92	1083.69
551.28	1084.96
551.64	1086.28
551.99	1087.33
552.35	1088.02
552.70	1089.06
553.06	1090.24
553.41	1091.28
553.77	1092.96
554.13	1094.29
554.48	1096.02
554.84	1097.49
555.19	1098.81
555.55	1099.83
555.90	1100.85
556.26	1102.05
556.61	1102.89
556.97	1103.77
557.32	1104.55
557.68	1105.10
558.03	1105.56
558.39	1106.17
558.74	1107.05
559.10	1107.53
559.45	1107.94
559.81	1108.81
560.16	1109.32
560.52	1110.03
560.87	1110.69
561.23	1110.64
561.58	1111.14
561.94	1111.13
562.29	1110.87
562.64	1111.19
563.00	1111.45
563.35	1112.09
563.71	1113.10
564.06	1113.48
564.42	1114.18
564.77	1114.87
565.12	1115.62
565.48	1116.38
565.83	1116.97
566.19	1117.66
566.54	1118.13
566.89	1118.39
567.25	1118.90
567.60	1119.48
567.96	1119.85
568.31	1120.44
568.66	1121.15
569.02	1120.91
569.37	1120.65
569.72	1121.09
570.08	1121.17
570.43	1121.06
570.78	1120.70
571.14	1119.80
571.49	1119.45
571.84	1119.06
572.20	1118.22
572.55	1117.52
572.90	1116.17
573.26	1115.06
573.61	1113.77
573.96	1112.59
574.31	1111.22
574.67	1109.68
575.02	1107.84
575.37	1106.06
575.72	1103.90
576.08	1102.17
576.43	1100.48
576.78	1098.97
577.13	1097.24
577.49	1095.36
577.84	1093.40
578.19	1091.74
578.54	1090.57
578.90	1089.17
579.25	1087.08
579.60	1084.96
579.95	1082.44
580.30	1080.85
580.66	1079.17
581.01	1076.90
581.36	1074.49
581.71	1072.27
582.06	1070.07
582.42	1068.16
582.77	1065.57
583.12	1063.15
583.47	1060.70
583.82	1058.46
584.17	1055.92
584.53	1053.64
584.88	1050.87
585.23	1048.59
585.58	1045.90
585.93	1042.69
586.28	1039.76
586.63	1036.99
586.98	1034.66
587.34	1032.54
587.69	1029.69
588.04	1026.93
588.39	1024.43
588.74	1021.74
589.09	1019.54
589.44	1016.53
589.79	1013.86
590.14	1011.54
590.49	1009.28
590.84	1006.64
591.19	1004.12
591.54	1001.54
591.89	998.07
592.25	995.59
592.60	992.26
592.95	988.90
593.30	985.59
593.65	982.32
594.00	979.02
594.35	976.87
594.70	973.49
595.05	970.42
595.40	967.18
595.75	963.92
596.10	961.19
596.45	957.96
596.80	955.23
597.15	952.20
597.50	948.91
597.85	945.71
598.19	942.43
598.54	939.21
598.89	935.94
599.24	933.37
599.59	930.21
599.94	927.36
600.29	924.49
600.64	921.71
600.99	918.57
601.34	915.66
601.69	911.53
602.04	908.22
602.39	905.07
602.74	902.00
603.08	899.06
603.43	896.06
603.78	892.80
604.13	889.24
604.48	886.09
604.83	883.27
605.18	880.47
605.53	877.27
605.87	874.05
606.22	871.10
606.57	867.60
606.92	864.03
607.27	860.56
607.62	857.51
607.96	854.40
608.31	851.62
608.66	848.55
609.01	844.95
609.36	841.62
609.70	838.34
610.05	834.83
610.40	831.23
610.75	827.45
611.10	824.26
611.44	820.65
611.79	816.83
612.14	813.11
612.49	808.95
612.83	805.50
613.18	801.64
613.53	797.85
613.88	794.05
614.22	790.60
614.57	787.09
614.92	783.23
615.27	779.45
615.61	775.49
615.96	771.88
616.31	768.57
616.65	765.64
617.00	762.02
617.35	758.54
617.70	754.96
618.04	751.36
618.39	747.47
618.74	744.22
619.08	740.67
619.43	737.16
619.78	733.86
620.12	730.45
620.47	727.15
620.82	723.57
621.16	719.99
621.51	716.39
621.85	712.98
622.20	709.51
622.55	705.82
622.89	702.28
623.24	698.66
623.59	695.01
623.93	691.22
624.28	687.89
624.62	684.76
624.97	681.46
625.32	677.95
625.66	674.65
626.01	671.23
626.35	667.92
626.70	664.56
627.04	661.29
627.39	657.96
627.73	654.94
628.08	652.15
628.43	648.96
628.77	645.98
629.12	642.75
629.46	639.83
629.81	637.01
630.15	634.01
630.50	631.12
630.84	628.13
631.19	625.04
631.53	621.96
631.88	618.55
632.22	615.47
632.57	612.87
632.91	609.95
633.26	606.95
633.60	604.08
633.95	601.26
634.29	598.38
634.64	595.62
634.98	592.55
635.32	589.63
635.67	587.19
636.01	584.36
636.36	581.53
636.70	578.85
637.05	576.11
637.39	573.70
637.73	571.12
638.08	568.85
638.42	566.39
638.77	563.80
639.11	561.34
639.45	558.96
639.80	556.18
640.14	553.54
640.49	551.03
640.83	548.33
641.17	545.75
641.52	543.13
641.86	540.41
642.20	538.01
642.55	535.12
642.89	532.42
643.23	529.88
643.58	527.72
643.92	524.99
644.26	522.36
644.61	519.73
644.95	517.04
645.29	514.26
645.64	511.66
645.98	509.24
646.32	506.83
646.66	504.02
647.01	501.56
647.35	499.22
647.69	496.78
648.04	494.62
648.38	492.16
648.72	489.69
649.06	487.21
649.41	484.71
649.75	482.52
650.09	480.32
650.43	477.99
650.78	475.29
651.12	472.85
651.46	470.54
651.80	468.34
652.14	466.18
652.49	464.01
652.83	461.73
653.17	459.35
653.51	457.07
653.85	455.16
654.20	452.96
654.54	450.71
654.88	448.54
655.22	446.23
655.56	444.02
655.90	441.93
656.25	439.80
656.59	437.72
656.93	435.63
657.27	433.53
657.61	431.17
657.95	429.29
658.29	427.34
658.64	425.48
658.98	423.33
659.32	421.05
659.66	418.97
660.00	417.03
660.34	415.05
660.68	412.99
661.02	410.76
661.36	408.77
661.70	406.87
662.05	404.95
662.39	403.20
662.73	401.55
663.07	399.90
663.41	398.16
663.75	396.33
664.09	394.51
664.43	392.62
664.77	391.09
665.11	389.28
665.45	387.53
665.79	385.86
666.13	384.16
666.47	382.62
666.81	381.00
667.15	379.17
667.49	377.58
667.83	376.06
668.17	374.57
668.51	373.18
668.85	371.74
669.19	370.39
669.53	368.79
669.87	367.20
670.21	365.59
670.55	364.12
670.89	362.83
671.23	361.58
671.57	360.26
671.91	358.86
672.25	357.48
672.58	356.28
672.92	354.82
673.26	353.61
673.60	352.33
673.94	350.90
674.28	349.70
674.62	348.56
674.96	347.31
675.30	346.19
675.64	344.91
675.97	343.58
676.31	342.20
676.65	340.99
676.99	339.98
677.33	338.77
677.67	337.65
678.01	336.31
678.34	334.96
678.68	333.82
679.02	332.55
679.36	331.36
679.70	330.19
680.04	329.14
680.37	327.91
680.71	326.68
681.05	325.62
681.39	324.55
681.73	323.43
682.06	322.34
682.40	321.26
682.74	320.25
683.08	319.25
683.42	318.16
683.75	317.20
684.09	315.92
684.43	314.94
684.77	313.78
685.10	312.77
685.44	311.82
685.78	310.73
686.12	309.85
686.45	308.87
686.79	307.83
687.13	306.92
687.46	305.90
687.80	305.09
688.14	304.21
688.48	303.31
688.81	302.35
689.15	301.52
689.49	300.48
689.82	299.59
690.16	298.62
690.50	297.81
690.83	296.84
691.17	295.98
691.51	294.95
691.84	294.17
692.18	293.29
692.52	292.43
692.85	291.68
693.19	290.95
693.52	290.17
693.86	289.30
694.20	288.45
694.53	287.73
694.87	286.89
695.21	286.00
695.54	285.12
695.88	284.20
696.21	283.23
696.55	282.54
696.88	281.76
697.22	281.05
697.56	280.33
697.89	279.47
698.23	278.74
698.56	278.13
698.90	277.49
699.23	276.77
699.57	276.07
699.90	275.35
700.24	274.54
700.58	273.83
700.91	273.31
701.25	272.87
701.58	272.32
701.92	271.74
702.25	271.13
702.59	270.53
702.92	269.98
703.26	269.45
703.59	268.86
703.93	268.45
704.26	267.77
704.60	267.17
704.93	266.65
705.26	266.09
705.60	265.59
705.93	264.90
706.27	264.41
706.60	264.01
706.94	263.62
707.27	262.97
707.61	262.46
707.94	261.88
708.27	261.01
708.61	260.32
708.94	259.79
709.28	259.34
709.61	258.79
709.94	258.31
710.28	257.80
710.61	257.33
710.95	256.58
711.28	256.44
711.61	255.95
711.95	255.62
712.28	255.17
712.61	254.67
712.95	254.45
713.28	254.15
713.61	253.55
713.95	252.96
714.28	252.67
714.61	252.20
714.95	251.69
715.28	251.25
715.61	250.89
715.95	250.39
716.28	249.95
716.61	249.59
716.95	249.11
717.28	248.78
717.61	248.33
717.94	248.04
718.28	247.36
718.61	246.93
718.94	246.45
719.27	246.01
719.61	245.65
719.94	245.14
720.27	244.55
720.60	244.19
720.94	243.83
721.27	243.44
721.60	243.09
721.93	242.82
722.27	242.63
722.60	242.31
722.93	242.06
723.26	241.72
723.59	241.42
723.93	241.10
724.26	240.76
724.59	240.53
724.92	240.19
725.25	240.02
725.59	239.72
725.92	239.56
726.25	239.25
726.58	239.00
726.91	238.69
727.24	238.49
727.57	238.23
727.91	237.93
728.24	237.77
728.57	237.53
728.90	237.29
729.23	236.93
729.56	236.85
729.89	236.54
730.22	236.28
730.55	235.99
730.89	235.77
731.22	235.40
731.55	235.15
731.88	234.89
732.21	234.55
732.54	234.29
732.87	233.94
733.20	233.76
733.53	233.50
733.86	233.38
734.19	233.08
734.52	232.90
734.85	232.88
735.18	232.62
735.51	232.55
735.84	232.34
736.17	232.31
736.50	231.90
736.83	232.13
737.16	231.92
737.49	231.84
737.82	231.65
738.15	231.60
738.48	231.35
738.81	231.21
739.14	230.95
739.47	230.82
739.80	230.63
740.13	230.49
740.46	230.24
740.79	229.99
741.12	229.78
741.45	229.52
741.78	229.11
742.11	228.99
742.44	228.76
742.77	228.67
743.10	228.42
743.43	228.20
743.75	227.62
744.08	227.89
744.41	227.68
744.74	227.54
745.07	227.25
745.40	227.17
745.73	227.13
746.06	227.04
746.39	226.92
746.71	226.67
747.04	226.45
747.37	226.30
747.70	226.20
748.03	226.15
748.36	226.05
748.68	225.89
749.01	225.65
749.34	225.47
749.67	225.28
750.00	225.11
750.33	225.27
750.65	225.22
750.98	224.64
751.31	224.46
751.64	224.33
751.97	224.46
752.29	224.31
752.62	223.96
752.95	223.79
753.28	223.57
753.60	223.55
753.93	223.53
754.26	223.33
754.59	223.07
754.91	222.93
755.24	222.83
755.57	222.81
755.90	222.66
756.22	222.50
756.55	222.31
756.88	222.16
757.20	221.80
757.53	221.56
757.86	221.47
758.19	221.45
758.51	221.41
758.84	221.14
759.17	220.97
759.49	220.91
759.82	220.98
760.15	220.91
760.47	220.79
760.80	220.58
761.13	220.60
761.45	220.55
761.78	220.48
762.11	220.45
762.43	220.27
762.76	220.23
763.08	220.11
763.41	220.09
763.74	220.01
764.06	219.96
764.39	219.88
764.71	219.84
765.04	219.63
765.37	219.45
765.69	219.36
766.02	219.28
766.34	219.19
766.67	218.93
767.00	218.92
767.32	219.01
767.65	219.19
767.97	219.15
768.30	219.09
768.62	219.04
768.95	218.84
769.27	218.75
769.60	218.73
769.92	218.64
770.25	218.48
770.57	218.39
770.90	218.32
771.22	218.23
771.55	218.16
771.87	218.11
772.20	218.05
772.52	218.26
772.85	218.60
773.17	218.51
773.50	218.46
773.82	218.29
774.15	218.09
774.47	217.75
774.80	217.58
775.12	217.48
775.45	217.39
775.77	217.35
776.09	217.37
776.42	217.28
776.74	217.29
777.07	217.28
777.39	217.16
777.72	217.04
778.04	217.09
778.36	217.02
778.69	216.99
779.01	216.99
779.33	216.56
779.66	216.05
779.98	215.99
780.31	215.95
780.63	216.13
780.95	216.16
781.28	216.14
781.60	216.10
781.92	216.08
782.25	215.96
782.57	215.91
782.89	215.78
783.22	215.70
783.54	215.60
783.86	215.59
784.19	215.54
784.51	215.60
784.83	215.44
785.16	215.31
785.48	215.23
785.80	215.18
786.12	215.23
786.45	215.26
786.77	215.24
787.09	215.23
787.42	215.02
787.74	214.89
788.06	214.83
788.38	214.70
788.71	214.65
789.03	214.61
789.35	214.61
789.67	214.55
789.99	214.54
790.32	214.50
790.64	214.45
