SpectraSuite Data File
++++++++++++++++++++++++++++++++++++
Date: Mon Feb 25 16:58:28 EST 2013
User: group
Dark Spectrum Present: No
Reference Spectrum Present: No
Number of Sampled Component Spectra: 1
Spectrometers: USB2E7196
Integration Time (usec): 104000 (USB2E7196)
Spectra Averaged: 20 (USB2E7196)
Boxcar Smoothing: 10 (USB2E7196)
Correct for Electrical Dark: No (USB2E7196)
Strobe/Lamp Enabled: No (USB2E7196)
Correct for Detector Non-linearity: No (USB2E7196)
Correct for Stray Light: No (USB2E7196)
Number of Pixels in Processed Spectrum: 2048
>>>>>Begin Processed Spectral Data<<<<<
339.09	0.00
339.48	198.30
339.86	199.35
340.24	202.40
340.63	203.00
341.01	208.40
341.39	205.90
341.78	208.15
342.16	210.00
342.54	209.15
342.93	198.49
343.31	208.54
343.69	209.12
344.07	209.64
344.46	210.06
344.84	210.45
345.22	210.53
345.60	210.75
345.99	210.93
346.37	210.94
346.75	210.97
347.13	211.08
347.52	211.12
347.90	211.25
348.28	211.29
348.66	211.40
349.05	211.32
349.43	211.39
349.81	211.43
350.19	211.45
350.57	211.50
350.96	211.48
351.34	211.57
351.72	211.63
352.10	211.74
352.48	211.73
352.87	211.80
353.25	211.93
353.63	211.99
354.01	212.02
354.39	212.16
354.77	212.20
355.15	212.30
355.54	212.21
355.92	212.19
356.30	212.20
356.68	212.40
357.06	212.47
357.44	212.50
357.82	212.56
358.20	212.64
358.58	212.67
358.97	212.80
359.35	212.86
359.73	212.96
360.11	212.91
360.49	213.06
360.87	213.05
361.25	213.12
361.63	213.25
362.01	213.30
362.39	213.31
362.77	213.45
363.15	213.47
363.53	213.62
363.91	213.58
364.29	213.63
364.67	213.36
365.05	213.38
365.43	213.46
365.81	213.42
366.19	213.58
366.57	213.70
366.95	213.71
367.33	213.65
367.71	213.62
368.09	213.76
368.47	213.70
368.85	213.68
369.23	213.71
369.61	213.64
369.99	213.76
370.37	213.78
370.75	213.94
371.13	213.90
371.51	213.76
371.89	213.85
372.27	213.81
372.65	213.84
373.03	213.81
373.41	213.67
373.78	213.66
374.16	213.48
374.54	213.29
374.92	213.19
375.30	213.13
375.68	213.06
376.06	212.97
376.44	212.85
376.82	212.87
377.19	212.77
377.57	212.69
377.95	212.46
378.33	212.39
378.71	212.16
379.09	212.18
379.47	212.25
379.84	212.16
380.22	212.14
380.60	212.04
380.98	211.91
381.36	211.89
381.73	211.82
382.11	211.77
382.49	211.77
382.87	211.67
383.25	211.64
383.62	212.00
384.00	211.95
384.38	211.99
384.76	212.06
385.13	212.16
385.51	212.12
385.89	212.08
386.27	212.06
386.64	212.03
387.02	211.94
387.40	211.78
387.78	211.76
388.15	211.69
388.53	211.64
388.91	211.71
389.29	211.75
389.66	211.81
390.04	211.75
390.42	211.75
390.79	211.83
391.17	211.80
391.55	211.42
391.92	211.39
392.30	211.37
392.68	211.23
393.05	211.20
393.43	211.19
393.81	211.24
394.18	211.19
394.56	211.24
394.94	211.30
395.31	211.35
395.69	211.53
396.06	211.58
396.44	211.63
396.82	211.58
397.19	211.71
397.57	211.68
397.95	211.85
398.32	211.77
398.70	211.80
399.07	211.90
399.45	211.93
399.82	212.00
400.20	212.05
400.58	212.12
400.95	212.00
401.33	212.19
401.70	212.45
402.08	212.54
402.45	212.58
402.83	212.75
403.20	212.83
403.58	212.85
403.95	213.06
404.33	213.30
404.71	213.51
405.08	213.87
405.46	214.06
405.83	214.22
406.21	214.53
406.58	214.83
406.96	215.09
407.33	215.44
407.70	215.81
408.08	216.49
408.45	217.04
408.83	217.64
409.20	218.10
409.58	218.41
409.95	219.07
410.33	219.70
410.70	220.16
411.08	221.00
411.45	221.78
411.82	222.50
412.20	223.32
412.57	224.33
412.95	224.98
413.32	226.08
413.69	227.19
414.07	228.35
414.44	229.63
414.82	230.95
415.19	232.36
415.56	233.86
415.94	235.29
416.31	236.99
416.68	238.75
417.06	240.79
417.43	242.88
417.81	245.13
418.18	247.42
418.55	249.99
418.93	252.60
419.30	255.30
419.67	258.24
420.04	261.19
420.42	264.33
420.79	268.09
421.16	271.77
421.54	275.62
421.91	279.63
422.28	283.76
422.66	288.22
423.03	292.71
423.40	297.28
423.77	302.12
424.15	307.11
424.52	312.20
424.89	317.73
425.26	323.09
425.64	328.29
426.01	334.10
426.38	340.20
426.75	346.30
427.13	352.71
427.50	359.33
427.87	366.35
428.24	373.30
428.61	380.03
428.99	387.42
429.36	395.45
429.73	403.28
430.10	410.99
430.47	419.02
430.85	427.33
431.22	436.06
431.59	445.45
431.96	454.43
432.33	464.52
432.70	474.29
433.08	485.66
433.45	496.38
433.82	507.11
434.19	518.91
434.56	530.60
434.93	542.00
435.30	553.51
435.68	566.08
436.05	578.64
436.42	591.20
436.79	602.70
437.16	614.91
437.53	628.16
437.90	641.42
438.27	654.16
438.64	667.55
439.01	680.10
439.38	691.40
439.75	702.37
440.13	714.79
440.50	726.47
440.87	736.30
441.24	746.47
441.61	757.71
441.98	766.42
442.35	776.45
442.72	786.45
443.09	796.10
443.46	802.28
443.83	806.62
444.20	810.55
444.57	816.10
444.94	819.34
445.31	822.52
445.68	825.46
446.05	827.30
446.42	827.13
446.79	826.64
447.16	826.15
447.53	826.10
447.90	822.46
448.27	818.77
448.64	812.97
449.01	809.23
449.37	801.50
449.74	793.89
450.11	784.90
450.48	774.90
450.85	764.40
451.22	755.82
451.59	747.69
451.96	739.84
452.33	728.85
452.70	718.98
453.07	707.02
453.43	694.98
453.80	683.42
454.17	672.33
454.54	661.80
454.91	650.23
455.28	638.95
455.65	628.52
456.02	618.16
456.38	609.33
456.75	598.14
457.12	588.87
457.49	579.86
457.86	570.78
458.23	563.01
458.59	554.74
458.96	546.25
459.33	538.67
459.70	531.00
460.07	525.01
460.43	518.11
460.80	511.55
461.17	505.83
461.54	500.00
461.91	494.18
462.27	488.30
462.64	483.30
463.01	477.79
463.38	472.42
463.74	466.99
464.11	462.36
464.48	458.29
464.85	453.94
465.21	450.55
465.58	446.97
465.95	442.64
466.32	438.95
466.68	435.33
467.05	431.75
467.42	428.10
467.78	424.20
468.15	420.61
468.52	417.94
468.88	414.40
469.25	411.30
469.62	408.77
469.98	406.13
470.35	403.68
470.72	401.21
471.08	398.62
471.45	396.40
471.82	394.16
472.18	391.71
472.55	389.87
472.92	387.74
473.28	385.83
473.65	383.99
474.02	382.20
474.38	380.60
474.75	379.23
475.11	377.91
475.48	376.96
475.85	375.98
476.21	375.05
476.58	374.27
476.94	373.62
477.31	372.73
477.67	372.08
478.04	371.35
478.41	370.95
478.77	370.92
479.14	370.63
479.50	370.45
479.87	370.42
480.23	370.40
480.60	370.18
480.96	370.20
481.33	370.73
481.69	371.04
482.06	371.24
482.42	371.46
482.79	371.70
483.15	372.17
483.52	372.91
483.88	373.40
484.25	374.05
484.61	374.78
484.98	375.69
485.34	376.79
485.71	378.03
486.07	379.16
486.44	380.14
486.80	381.42
487.17	382.76
487.53	384.33
487.90	386.02
488.26	387.94
488.62	389.80
488.99	391.35
489.35	393.29
489.72	395.61
490.08	397.92
490.44	400.13
490.81	402.54
491.17	404.84
491.54	407.47
491.90	410.20
492.26	412.97
492.63	415.81
492.99	418.61
493.36	421.58
493.72	424.81
494.08	427.92
494.45	431.37
494.81	434.97
495.17	438.54
495.54	442.37
495.90	446.13
496.26	449.90
496.63	454.07
496.99	458.09
497.35	462.18
497.72	466.48
498.08	470.93
498.44	475.14
498.80	479.78
499.17	484.40
499.53	488.87
499.89	493.70
500.26	498.28
500.62	502.87
500.98	507.79
501.34	512.66
501.71	517.66
502.07	522.56
502.43	527.47
502.79	532.23
503.16	537.00
503.52	541.88
503.88	546.80
504.24	551.54
504.60	556.51
504.97	561.41
505.33	566.19
505.69	571.25
506.05	576.37
506.41	581.19
506.78	585.84
507.14	590.46
507.50	595.03
507.86	599.73
508.22	604.40
508.59	608.61
508.95	612.99
509.31	617.43
509.67	621.73
510.03	625.91
510.39	630.44
510.75	634.62
511.12	638.80
511.48	642.93
511.84	647.06
512.20	650.88
512.56	654.92
512.92	658.95
513.28	662.55
513.64	666.01
514.00	669.47
514.37	672.83
514.73	676.52
515.09	679.83
515.45	683.18
515.81	686.18
516.17	689.34
516.53	692.40
516.89	695.25
517.25	698.08
517.61	700.83
517.97	703.25
518.33	705.76
518.69	708.30
519.05	710.63
519.41	712.86
519.77	715.56
520.13	717.53
520.49	719.23
520.85	721.27
521.21	723.50
521.57	725.60
521.93	727.46
522.29	729.49
522.65	731.41
523.01	733.22
523.37	735.00
523.73	736.86
524.09	738.48
524.45	740.11
524.81	741.75
525.17	743.47
525.53	745.30
525.89	747.00
526.25	748.62
526.61	750.04
526.97	751.72
527.33	753.27
527.68	755.10
528.04	756.93
528.40	758.44
528.76	759.95
529.12	761.74
529.48	763.95
529.84	765.43
530.20	766.91
530.56	768.55
530.91	770.70
531.27	772.63
531.63	774.50
531.99	776.31
532.35	778.19
532.71	779.98
533.07	781.99
533.42	784.18
533.78	785.93
534.14	788.07
534.50	789.69
534.86	791.62
535.21	793.28
535.57	795.42
535.93	797.34
536.29	799.34
536.65	801.25
537.00	802.87
537.36	804.65
537.72	806.64
538.08	808.70
538.44	810.49
538.79	812.35
539.15	814.47
539.51	816.68
539.87	818.79
540.22	821.11
540.58	823.31
540.94	825.38
541.29	827.50
541.65	829.51
542.01	831.80
542.37	833.83
542.72	835.91
543.08	837.71
543.44	840.20
543.79	841.84
544.15	843.66
544.51	846.09
544.87	848.56
545.22	850.77
545.58	852.90
545.94	854.99
546.29	857.11
546.65	858.99
547.01	860.81
547.36	862.80
547.72	864.60
548.07	866.38
548.43	867.94
548.79	869.86
549.14	871.78
549.50	873.58
549.86	875.23
550.21	877.20
550.57	879.39
550.92	881.06
551.28	883.28
551.64	885.23
551.99	886.95
552.35	888.57
552.70	890.15
553.06	892.05
553.41	893.82
553.77	895.77
554.13	897.75
554.48	899.77
554.84	901.97
555.19	903.76
555.55	905.64
555.90	907.61
556.26	909.23
556.61	910.78
556.97	912.37
557.32	914.24
557.68	915.70
558.03	917.11
558.39	918.30
558.74	919.76
559.10	921.55
559.45	923.02
559.81	924.60
560.16	926.02
560.52	927.40
560.87	928.80
561.23	929.82
561.58	931.32
561.94	932.39
562.29	932.96
562.64	934.27
563.00	935.36
563.35	936.43
563.71	938.13
564.06	939.45
564.42	940.90
564.77	942.26
565.12	943.80
565.48	945.57
565.83	946.95
566.19	948.60
566.54	949.66
566.89	950.79
567.25	952.23
567.60	953.86
567.96	955.31
568.31	956.78
568.66	958.06
569.02	958.76
569.37	959.47
569.72	960.72
570.08	961.50
570.43	962.14
570.78	962.94
571.14	963.14
571.49	963.54
571.84	964.09
572.20	964.15
572.55	964.23
572.90	963.75
573.26	963.79
573.61	963.33
573.96	963.19
574.31	962.74
574.67	961.86
575.02	960.95
575.37	959.87
575.72	958.71
576.08	957.88
576.43	957.05
576.78	956.40
577.13	955.50
577.49	954.61
577.84	953.72
578.19	952.79
578.54	952.08
578.90	951.53
579.25	950.35
579.60	948.99
579.95	947.50
580.30	946.29
580.66	945.30
581.01	943.84
581.36	942.26
581.71	940.87
582.06	939.79
582.42	938.50
582.77	936.73
583.12	935.22
583.47	933.71
583.82	932.05
584.17	930.54
584.53	929.05
584.88	927.33
585.23	925.52
585.58	923.80
585.93	921.80
586.28	919.84
586.63	918.11
586.98	916.82
587.34	915.62
587.69	913.78
588.04	911.77
588.39	910.21
588.74	908.30
589.09	906.79
589.44	904.50
589.79	902.70
590.14	901.17
590.49	899.36
590.84	897.28
591.19	895.84
591.54	893.67
591.89	891.19
592.25	889.50
592.60	887.25
592.95	884.75
593.30	882.46
593.65	879.92
594.00	877.54
594.35	876.11
594.70	873.52
595.05	871.54
595.40	869.29
595.75	866.66
596.10	864.34
596.45	861.86
596.80	859.91
597.15	857.65
597.50	855.08
597.85	852.76
598.19	850.51
598.54	847.90
598.89	845.72
599.24	843.83
599.59	841.29
599.94	839.11
600.29	836.82
600.64	834.39
600.99	832.02
601.34	829.79
601.69	826.21
602.04	823.64
602.39	820.89
602.74	818.53
603.08	816.44
603.43	814.38
603.78	811.68
604.13	809.20
604.48	806.68
604.83	804.78
605.18	802.59
605.53	800.10
605.87	797.42
606.22	794.99
606.57	792.12
606.92	789.27
607.27	786.58
607.62	784.18
607.96	781.71
608.31	779.47
608.66	776.58
609.01	774.00
609.36	771.27
609.70	768.48
610.05	765.58
610.40	762.71
610.75	759.69
611.10	757.38
611.44	754.08
611.79	750.99
612.14	747.78
612.49	744.41
612.83	741.50
613.18	738.56
613.53	735.43
613.88	732.10
614.22	729.30
614.57	726.43
614.92	723.41
615.27	720.53
615.61	717.40
615.96	714.67
616.31	711.82
616.65	709.20
617.00	706.33
617.35	703.36
617.70	700.37
618.04	697.29
618.39	693.80
618.74	691.02
619.08	688.08
619.43	685.09
619.78	682.32
620.12	679.38
620.47	676.47
620.82	673.42
621.16	670.61
621.51	667.65
621.85	664.78
622.20	661.74
622.55	658.60
622.89	655.40
623.24	652.34
623.59	649.20
623.93	646.21
624.28	643.53
624.62	641.05
624.97	638.29
625.32	635.50
625.66	632.83
626.01	630.00
626.35	627.21
626.70	624.26
627.04	621.68
627.39	618.94
627.73	616.29
628.08	613.87
628.43	611.15
628.77	608.40
629.12	605.53
629.46	603.06
629.81	600.45
630.15	598.05
630.50	595.35
630.84	592.58
631.19	589.94
631.53	587.29
631.88	584.24
632.22	581.43
632.57	578.88
632.91	576.34
633.26	573.83
633.60	571.33
633.95	568.98
634.29	566.29
634.64	563.87
634.98	561.09
635.32	558.57
635.67	556.42
636.01	554.04
636.36	551.64
636.70	549.09
637.05	546.77
637.39	544.31
637.73	542.15
638.08	540.24
638.42	537.99
638.77	535.78
639.11	533.79
639.45	531.61
639.80	529.20
640.14	526.69
640.49	524.43
640.83	522.15
641.17	519.97
641.52	517.60
641.86	515.23
642.20	513.27
642.55	510.80
642.89	508.27
643.23	505.91
643.58	503.97
643.92	501.78
644.26	499.58
644.61	497.45
644.95	495.21
645.29	492.83
645.64	490.57
645.98	488.20
646.32	485.86
646.66	483.49
647.01	481.44
647.35	479.47
647.69	477.22
648.04	475.08
648.38	472.89
648.72	470.79
649.06	468.53
649.41	466.11
649.75	464.02
650.09	462.14
650.43	460.05
650.78	457.58
651.12	455.20
651.46	453.06
651.80	451.05
652.14	448.98
652.49	446.91
652.83	444.77
653.17	442.68
653.51	440.55
653.85	438.71
654.20	436.61
654.54	434.44
654.88	432.45
655.22	430.43
655.56	428.20
655.90	426.21
656.25	424.21
656.59	422.28
656.93	420.37
657.27	418.49
657.61	416.51
657.95	414.65
658.29	412.91
658.64	411.08
658.98	409.10
659.32	407.09
659.66	405.12
660.00	403.22
660.34	401.29
660.68	399.35
661.02	397.38
661.36	395.67
661.70	393.99
662.05	392.21
662.39	390.64
662.73	389.12
663.07	387.57
663.41	386.07
663.75	384.48
664.09	382.82
664.43	381.05
664.77	379.48
665.11	378.01
665.45	376.44
665.79	374.89
666.13	373.35
666.47	371.83
666.81	370.45
667.15	369.00
667.49	367.70
667.83	366.36
668.17	364.98
668.51	363.41
668.85	362.13
669.19	360.92
669.53	359.35
669.87	357.96
670.21	356.49
670.55	355.03
670.89	354.01
671.23	352.87
671.57	351.75
671.91	350.51
672.25	349.20
672.58	348.07
672.92	346.75
673.26	345.49
673.60	344.26
673.94	343.02
674.28	341.86
674.62	340.74
674.96	339.54
675.30	338.40
675.64	337.33
675.97	336.11
676.31	334.96
676.65	333.95
676.99	333.00
677.33	331.76
677.67	330.78
678.01	329.38
678.34	328.18
678.68	326.94
679.02	325.77
679.36	324.65
679.70	323.49
680.04	322.47
680.37	321.32
680.71	320.25
681.05	319.31
681.39	318.30
681.73	317.30
682.06	316.37
682.40	315.40
682.74	314.39
683.08	313.46
683.42	312.41
683.75	311.40
684.09	310.25
684.43	309.35
684.77	308.28
685.10	307.36
685.44	306.35
685.78	305.41
686.12	304.52
686.45	303.60
686.79	302.71
687.13	301.90
687.46	301.03
687.80	300.30
688.14	299.37
688.48	298.48
688.81	297.55
689.15	296.71
689.49	295.78
689.82	294.98
690.16	294.00
690.50	293.15
690.83	292.34
691.17	291.51
691.51	290.76
691.84	289.98
692.18	289.09
692.52	288.31
692.85	287.62
693.19	286.98
693.52	286.17
693.86	285.30
694.20	284.42
694.53	283.76
694.87	282.87
695.21	282.04
695.54	281.30
695.88	280.45
696.21	279.56
696.55	278.87
696.88	278.16
697.22	277.39
697.56	276.74
697.89	275.94
698.23	275.26
698.56	274.48
698.90	273.94
699.23	273.30
699.57	272.63
699.90	271.78
700.24	271.02
700.58	270.45
700.91	269.86
701.25	269.50
701.58	268.86
701.92	268.27
702.25	267.64
702.59	266.90
702.92	266.37
703.26	265.80
703.59	265.24
703.93	264.94
704.26	264.44
704.60	263.92
704.93	263.35
705.26	262.83
705.60	262.33
705.93	261.60
706.27	261.10
706.60	260.69
706.94	260.44
707.27	259.88
707.61	259.38
707.94	258.90
708.27	258.04
708.61	257.58
708.94	257.08
709.28	256.63
709.61	256.26
709.94	255.81
710.28	255.40
710.61	254.93
710.95	254.09
711.28	253.87
711.61	253.33
711.95	253.02
712.28	252.55
712.61	252.13
712.95	251.88
713.28	251.66
713.61	251.20
713.95	250.63
714.28	250.28
714.61	249.86
714.95	249.49
715.28	249.12
715.61	248.57
715.95	248.30
716.28	247.85
716.61	247.49
716.95	247.03
717.28	246.61
717.61	246.24
717.94	245.90
718.28	245.29
718.61	244.84
718.94	244.36
719.27	243.99
719.61	243.63
719.94	243.29
720.27	242.70
720.60	242.34
720.94	242.05
721.27	241.71
721.60	241.42
721.93	241.06
722.27	240.94
722.60	240.80
722.93	240.38
723.26	240.16
723.59	239.80
723.93	239.59
724.26	239.29
724.59	239.03
724.92	238.79
725.25	238.62
725.59	238.48
725.92	238.31
726.25	238.01
726.58	237.76
726.91	237.45
727.24	237.36
727.57	237.16
727.91	236.80
728.24	236.58
728.57	236.25
728.90	236.10
729.23	235.69
729.56	235.56
729.89	235.30
730.22	235.06
730.55	234.87
730.89	234.59
731.22	234.35
731.55	234.10
731.88	233.97
732.21	233.66
732.54	233.38
732.87	233.13
733.20	233.00
733.53	232.82
733.86	232.64
734.19	232.28
734.52	232.10
734.85	232.22
735.18	231.88
735.51	231.79
735.84	231.53
736.17	231.40
736.50	230.98
736.83	231.28
737.16	231.09
737.49	230.89
737.82	230.63
738.15	230.50
738.48	230.26
738.81	229.99
739.14	229.80
739.47	229.60
739.80	229.42
740.13	229.19
740.46	228.95
740.79	228.70
741.12	228.55
741.45	228.28
741.78	227.86
742.11	227.90
742.44	227.65
742.77	227.55
743.10	227.40
743.43	227.28
743.75	226.73
744.08	226.99
744.41	226.77
744.74	226.61
745.07	226.43
745.40	226.39
745.73	226.35
746.06	226.23
746.39	226.11
746.71	225.95
747.04	225.79
747.37	225.66
747.70	225.62
748.03	225.48
748.36	225.44
748.68	225.30
749.01	225.02
749.34	224.90
749.67	224.79
750.00	224.63
750.33	224.74
750.65	224.62
750.98	224.10
751.31	224.01
751.64	223.92
751.97	223.97
752.29	223.80
752.62	223.54
752.95	223.35
753.28	223.15
753.60	223.01
753.93	223.05
754.26	222.99
754.59	222.81
754.91	222.68
755.24	222.47
755.57	222.35
755.90	222.30
756.22	222.16
756.55	221.92
756.88	221.82
757.20	221.46
757.53	221.29
757.86	221.15
758.19	221.10
758.51	221.01
758.84	220.79
759.17	220.64
759.49	220.57
759.82	220.72
760.15	220.74
760.47	220.63
760.80	220.36
761.13	220.28
761.45	220.10
761.78	220.02
762.11	219.93
762.43	219.82
762.76	219.73
763.08	219.71
763.41	219.69
763.74	219.59
764.06	219.50
764.39	219.45
764.71	219.40
765.04	219.28
765.37	219.21
765.69	219.11
766.02	219.10
766.34	219.01
766.67	218.76
767.00	218.75
767.32	218.96
767.65	219.06
767.97	218.97
768.30	219.03
768.62	218.96
768.95	218.95
769.27	218.87
769.60	218.85
769.92	218.73
770.25	218.66
770.57	218.62
770.90	218.55
771.22	218.44
771.55	218.31
771.87	218.25
772.20	218.17
772.52	218.39
772.85	218.68
773.17	218.58
773.50	218.48
773.82	218.32
774.15	218.07
774.47	217.81
774.80	217.71
775.12	217.50
775.45	217.49
775.77	217.43
776.09	217.43
776.42	217.34
776.74	217.35
777.07	217.22
777.39	217.13
777.72	217.07
778.04	217.12
778.36	217.08
778.69	217.05
779.01	216.98
779.33	216.63
779.66	216.21
779.98	216.23
780.31	216.22
780.63	216.28
780.95	216.30
781.28	216.29
781.60	216.20
781.92	216.17
782.25	216.03
782.57	215.93
782.89	215.80
783.22	215.68
783.54	215.58
783.86	215.63
784.19	215.55
784.51	215.59
784.83	215.45
785.16	215.37
785.48	215.35
785.80	215.37
786.12	215.31
786.45	215.25
786.77	215.26
787.09	215.17
787.42	214.96
787.74	214.79
788.06	214.77
788.38	214.72
788.71	214.71
789.03	214.66
789.35	214.68
789.67	214.65
789.99	214.65
790.32	214.51
790.64	214.47
790.96	214.74
791.28	214.58
791.61	214.56
791.93	214.54
792.25	214.49
792.57	214.59
792.89	214.59
793.21	214.58
793.54	214.46
793.86	214.43
794.18	214.52
