SpectraSuite Data File
++++++++++++++++++++++++++++++++++++
Date: Mon Feb 25 17:04:41 EST 2013
User: group
Dark Spectrum Present: No
Reference Spectrum Present: No
Number of Sampled Component Spectra: 1
Spectrometers: USB2E7196
Integration Time (usec): 104000 (USB2E7196)
Spectra Averaged: 20 (USB2E7196)
Boxcar Smoothing: 10 (USB2E7196)
Correct for Electrical Dark: No (USB2E7196)
Strobe/Lamp Enabled: No (USB2E7196)
Correct for Detector Non-linearity: No (USB2E7196)
Correct for Stray Light: No (USB2E7196)
Number of Pixels in Processed Spectrum: 2048
>>>>>Begin Processed Spectral Data<<<<<
339.09	0.00
339.48	198.15
339.86	200.95
340.24	201.75
340.63	203.35
341.01	210.45
341.39	205.60
341.78	207.05
342.16	208.85
342.54	209.00
342.93	198.48
343.31	208.53
343.69	209.09
344.07	209.52
344.46	210.01
344.84	210.39
345.22	210.38
345.60	210.58
345.99	210.73
346.37	210.85
346.75	210.92
347.13	210.90
347.52	210.97
347.90	211.08
348.28	211.12
348.66	211.21
349.05	211.03
349.43	211.10
349.81	211.08
350.19	211.04
350.57	211.09
350.96	211.11
351.34	211.09
351.72	211.19
352.10	211.25
352.48	211.22
352.87	211.26
353.25	211.29
353.63	211.28
354.01	211.30
354.39	211.33
354.77	211.33
355.15	211.49
355.54	211.46
355.92	211.39
356.30	211.41
356.68	211.71
357.06	211.79
357.44	211.75
357.82	211.78
358.20	211.82
358.58	211.88
358.97	212.02
359.35	212.16
359.73	212.17
360.11	212.20
360.49	212.21
360.87	212.23
361.25	212.30
361.63	212.52
362.01	212.62
362.39	212.65
362.77	212.73
363.15	212.80
363.53	212.81
363.91	212.91
364.29	212.92
364.67	212.56
365.05	212.60
365.43	212.73
365.81	212.80
366.19	212.95
366.57	213.11
366.95	213.05
367.33	212.99
367.71	212.98
368.09	213.06
368.47	213.13
368.85	213.06
369.23	213.15
369.61	213.03
369.99	213.16
370.37	213.22
370.75	213.34
371.13	213.20
371.51	213.15
371.89	213.15
372.27	213.17
372.65	213.13
373.03	213.09
373.41	212.97
373.78	212.94
374.16	212.71
374.54	212.58
374.92	212.51
375.30	212.50
375.68	212.49
376.06	212.43
376.44	212.25
376.82	212.29
377.19	212.17
377.57	212.10
377.95	211.85
378.33	211.74
378.71	211.51
379.09	211.50
379.47	211.50
379.84	211.40
380.22	211.33
380.60	211.24
380.98	211.24
381.36	211.25
381.73	211.15
382.11	211.19
382.49	211.13
382.87	211.01
383.25	210.91
383.62	211.31
384.00	211.22
384.38	211.25
384.76	211.26
385.13	211.40
385.51	211.37
385.89	211.32
386.27	211.22
386.64	211.21
387.02	211.09
387.40	211.04
387.78	211.06
388.15	211.05
388.53	211.07
388.91	210.99
389.29	210.95
389.66	210.99
390.04	210.91
390.42	210.94
390.79	211.03
391.17	211.06
391.55	210.61
391.92	210.56
392.30	210.60
392.68	210.55
393.05	210.45
393.43	210.48
393.81	210.52
394.18	210.45
394.56	210.50
394.94	210.59
395.31	210.54
395.69	210.51
396.06	210.52
396.44	210.50
396.82	210.47
397.19	210.60
397.57	210.52
397.95	210.59
398.32	210.52
398.70	210.51
399.07	210.60
399.45	210.61
399.82	210.66
400.20	210.54
400.58	210.55
400.95	210.46
401.33	210.50
401.70	210.76
402.08	210.93
402.45	210.94
402.83	211.05
403.20	211.12
403.58	211.12
403.95	211.20
404.33	211.35
404.71	211.48
405.08	211.66
405.46	211.81
405.83	211.99
406.21	212.05
406.58	212.16
406.96	212.20
407.33	212.38
407.70	212.58
408.08	213.11
408.45	213.34
408.83	213.63
409.20	213.80
409.58	213.80
409.95	214.06
410.33	214.39
410.70	214.59
411.08	214.99
411.45	215.42
411.82	215.71
412.20	216.18
412.57	216.74
412.95	216.98
413.32	217.52
413.69	217.99
414.07	218.61
414.44	219.26
414.82	219.92
415.19	220.64
415.56	221.33
415.94	221.87
416.31	222.70
416.68	223.58
417.06	224.64
417.43	225.70
417.81	226.84
418.18	227.91
418.55	229.10
418.93	230.36
419.30	231.59
419.67	232.98
420.04	234.35
420.42	235.78
420.79	237.69
421.16	239.38
421.54	241.30
421.91	243.05
422.28	244.93
422.66	246.99
423.03	249.13
423.40	251.21
423.77	253.51
424.15	255.68
424.52	258.08
424.89	260.72
425.26	263.26
425.64	265.57
426.01	268.24
426.38	271.00
426.75	273.92
427.13	276.77
427.50	279.83
427.87	282.93
428.24	286.06
428.61	289.00
428.99	292.48
429.36	295.95
429.73	299.58
430.10	303.17
430.47	306.87
430.85	310.65
431.22	314.79
431.59	319.21
431.96	323.34
432.33	327.88
432.70	332.27
433.08	337.41
433.45	342.39
433.82	347.38
434.19	352.84
434.56	358.14
434.93	363.45
435.30	368.67
435.68	374.38
436.05	380.15
436.42	385.79
436.79	390.96
437.16	396.60
437.53	402.50
437.90	408.45
438.27	414.28
438.64	420.22
439.01	425.74
439.38	430.61
439.75	435.65
440.13	441.15
440.50	446.34
440.87	450.79
441.24	455.24
441.61	460.13
441.98	464.02
442.35	468.33
442.72	472.65
443.09	476.83
443.46	479.61
443.83	481.62
444.20	483.35
444.57	485.60
444.94	486.90
445.31	488.40
445.68	489.95
446.05	490.65
446.42	490.44
446.79	490.27
447.16	489.89
447.53	489.80
447.90	488.06
448.27	486.21
448.64	483.43
449.01	481.70
449.37	478.17
449.74	474.73
450.11	470.75
450.48	466.22
450.85	461.60
451.22	457.48
451.59	453.50
451.96	449.86
452.33	444.98
452.70	440.47
453.07	434.79
453.43	429.02
453.80	423.83
454.17	418.85
454.54	413.85
454.91	408.69
455.28	403.42
455.65	398.60
456.02	394.29
456.38	390.16
456.75	385.01
457.12	380.85
457.49	376.60
457.86	372.35
458.23	368.97
458.59	365.13
458.96	361.34
459.33	357.89
459.70	354.40
460.07	351.61
460.43	348.49
460.80	345.67
461.17	343.14
461.54	340.36
461.91	337.62
462.27	335.09
462.64	332.79
463.01	330.27
463.38	328.02
463.74	325.17
464.11	323.09
464.48	321.30
464.85	319.15
465.21	317.65
465.58	316.01
465.95	313.93
466.32	312.21
466.68	310.60
467.05	308.97
467.42	307.25
467.78	305.53
468.15	303.80
468.52	302.63
468.88	300.92
469.25	299.37
469.62	298.23
469.98	296.94
470.35	295.85
470.72	294.82
471.08	293.53
471.45	292.58
471.82	291.60
472.18	290.43
472.55	289.63
472.92	288.61
473.28	287.66
473.65	286.73
474.02	285.97
474.38	285.24
474.75	284.59
475.11	283.94
475.48	283.43
475.85	283.00
476.21	282.48
476.58	282.08
476.94	281.80
477.31	281.34
477.67	280.93
478.04	280.47
478.41	280.19
478.77	280.26
479.14	279.97
479.50	279.77
479.87	279.64
480.23	279.56
480.60	279.32
480.96	279.23
481.33	279.41
481.69	279.40
482.06	279.47
482.42	279.45
482.79	279.53
483.15	279.61
483.52	279.89
483.88	279.99
484.25	280.11
484.61	280.29
484.98	280.42
485.34	280.78
485.71	281.13
486.07	281.47
486.44	281.49
486.80	281.81
487.17	282.19
487.53	282.75
487.90	283.30
488.26	284.00
488.62	284.63
488.99	285.11
489.35	285.80
489.72	286.38
490.08	287.09
490.44	287.74
490.81	288.47
491.17	289.13
491.54	289.95
491.90	290.87
492.26	291.83
492.63	292.74
492.99	293.71
493.36	294.73
493.72	295.83
494.08	296.88
494.45	298.11
494.81	299.33
495.17	300.41
495.54	301.56
495.90	302.72
496.26	303.97
496.63	305.18
496.99	306.29
497.35	307.56
497.72	308.87
498.08	310.20
498.44	311.51
498.80	312.89
499.17	314.21
499.53	315.47
499.89	316.85
500.26	318.23
500.62	319.48
500.98	320.83
501.34	322.16
501.71	323.65
502.07	324.92
502.43	326.14
502.79	327.34
503.16	328.55
503.52	329.71
503.88	330.89
504.24	332.14
504.60	333.48
504.97	334.69
505.33	335.82
505.69	337.10
506.05	338.26
506.41	339.30
506.78	340.34
507.14	341.43
507.50	342.37
507.86	343.52
508.22	344.50
508.59	345.31
508.95	346.25
509.31	347.14
509.67	348.00
510.03	348.85
510.39	349.81
510.75	350.67
511.12	351.53
511.48	352.24
511.84	352.84
512.20	353.53
512.56	354.20
512.92	354.91
513.28	355.48
513.64	356.10
514.00	356.72
514.37	357.44
514.73	357.97
515.09	358.54
515.45	358.91
515.81	359.44
516.17	360.01
516.53	360.32
516.89	360.59
517.25	361.01
517.61	361.55
517.97	361.89
518.33	362.34
518.69	362.80
519.05	363.38
519.41	364.01
519.77	364.64
520.13	365.16
520.49	365.66
520.85	366.13
521.21	366.83
521.57	367.41
521.93	367.85
522.29	368.45
522.65	368.94
523.01	369.67
523.37	370.34
523.73	371.02
524.09	371.78
524.45	372.54
524.81	373.43
525.17	374.34
525.53	375.39
525.89	376.24
526.25	377.30
526.61	378.16
526.97	379.20
527.33	380.14
527.68	381.62
528.04	382.93
528.40	384.15
528.76	385.34
529.12	386.72
529.48	388.27
529.84	389.74
530.20	391.38
530.56	392.96
530.91	394.60
531.27	396.35
531.63	398.10
531.99	399.95
532.35	401.75
532.71	403.43
533.07	405.24
533.42	407.74
533.78	409.62
534.14	411.69
534.50	413.69
534.86	415.98
535.21	417.56
535.57	419.53
535.93	421.72
536.29	424.02
536.65	426.19
537.00	428.13
537.36	430.35
537.72	432.59
538.08	434.88
538.44	437.20
538.79	439.58
539.15	441.95
539.51	444.35
539.87	446.92
540.22	449.40
540.58	451.90
540.94	454.01
541.29	456.58
541.65	459.05
542.01	461.67
542.37	464.23
542.72	467.06
543.08	469.77
543.44	472.55
543.79	474.98
544.15	477.81
544.51	480.85
544.87	483.75
545.22	486.47
545.58	489.16
545.94	491.88
546.29	494.58
546.65	497.23
547.01	500.05
547.36	502.66
547.72	505.42
548.07	508.10
548.43	510.74
548.79	513.28
549.14	516.04
549.50	518.73
549.86	521.20
550.21	523.92
550.57	526.61
550.92	529.14
551.28	531.79
551.64	534.18
551.99	536.70
552.35	539.08
552.70	541.61
553.06	544.16
553.41	546.52
553.77	549.15
554.13	551.73
554.48	554.33
554.84	556.81
555.19	559.41
555.55	562.11
555.90	564.40
556.26	566.75
556.61	569.01
556.97	571.11
557.32	573.42
557.68	575.31
558.03	577.33
558.39	579.27
558.74	581.54
559.10	583.67
559.45	585.62
559.81	587.73
560.16	589.60
560.52	591.61
560.87	593.74
561.23	595.43
561.58	597.66
561.94	599.42
562.29	601.20
562.64	602.80
563.00	604.35
563.35	606.17
563.71	608.05
564.06	609.85
564.42	611.78
564.77	613.61
565.12	615.63
565.48	617.79
565.83	619.62
566.19	621.28
566.54	622.85
566.89	624.45
567.25	626.14
567.60	628.24
567.96	630.01
568.31	631.74
568.66	633.25
569.02	634.25
569.37	635.18
569.72	636.56
570.08	637.77
570.43	638.85
570.78	639.82
571.14	640.70
571.49	641.56
571.84	642.33
572.20	642.83
572.55	643.51
572.90	643.73
573.26	644.24
573.61	644.57
573.96	645.03
574.31	645.36
574.67	645.46
575.02	645.19
575.37	645.01
575.72	644.70
576.08	644.77
576.43	644.74
576.78	645.01
577.13	644.98
577.49	645.12
577.84	645.28
578.19	645.32
578.54	645.68
578.90	645.75
579.25	645.77
579.60	645.68
579.95	645.47
580.30	645.46
580.66	645.49
581.01	645.32
581.36	645.13
581.71	645.00
582.06	645.09
582.42	645.09
582.77	644.91
583.12	644.83
583.47	644.78
583.82	644.74
584.17	644.60
584.53	644.50
584.88	644.15
585.23	643.88
585.58	643.73
585.93	643.13
586.28	642.93
586.63	642.53
586.98	642.42
587.34	642.35
587.69	642.05
588.04	641.73
588.39	641.51
588.74	641.07
589.09	640.73
589.44	640.04
589.79	639.70
590.14	639.42
590.49	639.02
590.84	638.27
591.19	637.97
591.54	637.38
591.89	636.46
592.25	636.12
592.60	635.39
592.95	634.50
593.30	633.66
593.65	632.59
594.00	631.87
594.35	631.93
594.70	630.97
595.05	630.15
595.40	629.22
595.75	628.15
596.10	627.35
596.45	626.59
596.80	625.94
597.15	625.01
597.50	623.90
597.85	623.10
598.19	622.30
598.54	621.12
598.89	620.21
599.24	619.43
599.59	618.21
599.94	617.34
600.29	616.56
600.64	615.81
600.99	614.95
601.34	614.10
601.69	612.34
602.04	611.40
602.39	610.43
602.74	609.68
603.08	609.06
603.43	608.53
603.78	607.55
604.13	606.51
604.48	605.66
604.83	605.10
605.18	604.41
605.53	603.53
605.87	602.65
606.22	601.80
606.57	600.96
606.92	600.24
607.27	599.22
607.62	598.33
607.96	597.44
608.31	596.76
608.66	595.60
609.01	594.41
609.36	593.23
609.70	592.12
610.05	590.88
610.40	589.60
610.75	588.06
611.10	587.13
611.44	585.74
611.79	584.27
612.14	582.90
612.49	581.21
612.83	579.83
613.18	578.40
613.53	577.00
613.88	575.50
614.22	573.89
614.57	572.48
614.92	570.90
615.27	569.34
615.61	567.73
615.96	566.29
616.31	564.97
616.65	563.65
617.00	562.25
617.35	560.62
617.70	559.10
618.04	557.54
618.39	555.63
618.74	554.23
619.08	552.52
619.43	550.84
619.78	549.34
620.12	547.82
620.47	546.30
620.82	544.48
621.16	542.65
621.51	541.11
621.85	539.52
622.20	537.85
622.55	535.95
622.89	534.20
623.24	532.61
623.59	530.72
623.93	529.10
624.28	527.46
624.62	526.21
624.97	524.74
625.32	523.13
625.66	521.54
626.01	519.83
626.35	518.36
626.70	516.64
627.04	515.12
627.39	513.42
627.73	511.88
628.08	510.54
628.43	508.97
628.77	507.16
629.12	505.33
629.46	503.88
629.81	502.48
630.15	500.81
630.50	499.04
630.84	497.50
631.19	495.95
631.53	494.23
631.88	492.17
632.22	490.25
632.57	488.79
632.91	487.16
633.26	485.62
633.60	484.00
633.95	482.53
634.29	480.74
634.64	479.20
634.98	477.34
635.32	475.78
635.67	474.27
636.01	472.79
636.36	471.16
636.70	469.70
637.05	468.14
637.39	466.80
637.73	465.55
638.08	464.26
638.42	462.74
638.77	461.25
639.11	459.78
639.45	458.31
639.80	456.53
640.14	454.87
640.49	453.35
640.83	451.68
641.17	449.95
641.52	448.31
641.86	446.62
642.20	445.26
642.55	443.42
642.89	441.85
643.23	440.27
643.58	438.94
643.92	437.13
644.26	435.45
644.61	433.74
644.95	432.06
645.29	430.27
645.64	428.54
645.98	426.98
646.32	425.54
646.66	423.90
647.01	422.32
647.35	420.88
647.69	419.18
648.04	417.81
648.38	416.41
648.72	414.90
649.06	413.40
649.41	411.85
649.75	410.40
650.09	408.88
650.43	407.38
650.78	405.70
651.12	404.13
651.46	402.77
651.80	401.38
652.14	399.87
652.49	398.45
652.83	396.96
653.17	395.37
653.51	393.74
653.85	392.37
654.20	390.95
654.54	389.42
654.88	387.90
655.22	386.45
655.56	384.81
655.90	383.38
656.25	381.94
656.59	380.39
656.93	378.97
657.27	377.65
657.61	376.01
657.95	374.64
658.29	373.32
658.64	371.91
658.98	370.41
659.32	368.80
659.66	367.50
660.00	366.07
660.34	364.58
660.68	363.20
661.02	361.68
661.36	360.35
661.70	359.15
662.05	357.88
662.39	356.57
662.73	355.50
663.07	354.41
663.41	353.18
663.75	351.79
664.09	350.49
664.43	349.19
664.77	348.05
665.11	346.81
665.45	345.52
665.79	344.24
666.13	343.02
666.47	342.00
666.81	340.69
667.15	339.47
667.49	338.54
667.83	337.49
668.17	336.45
668.51	335.35
668.85	334.26
669.19	333.44
669.53	332.24
669.87	331.03
670.21	329.80
670.55	328.68
670.89	327.90
671.23	326.90
671.57	325.86
671.91	324.93
672.25	323.83
672.58	323.04
672.92	322.00
673.26	321.03
673.60	319.95
673.94	318.91
674.28	317.99
674.62	317.11
674.96	316.20
675.30	315.42
675.64	314.49
675.97	313.48
676.31	312.40
676.65	311.60
676.99	310.96
677.33	310.06
677.67	309.24
678.01	308.30
678.34	307.55
678.68	306.73
679.02	305.77
679.36	305.00
679.70	304.02
680.04	303.29
680.37	302.41
680.71	301.63
681.05	300.90
681.39	300.05
681.73	299.14
682.06	298.30
682.40	297.39
682.74	296.67
683.08	296.01
683.42	295.14
683.75	294.33
684.09	293.30
684.43	292.58
684.77	291.71
685.10	290.90
685.44	290.00
685.78	289.25
686.12	288.56
686.45	287.77
686.79	287.01
687.13	286.34
687.46	285.73
687.80	285.10
688.14	284.43
688.48	283.87
688.81	283.15
689.15	282.47
689.49	281.75
689.82	280.89
690.16	279.94
690.50	279.37
690.83	278.60
691.17	277.86
691.51	277.16
691.84	276.55
692.18	275.92
692.52	275.30
692.85	274.70
693.19	274.19
693.52	273.59
693.86	272.88
694.20	272.17
694.53	271.54
694.87	270.83
695.21	270.11
695.54	269.45
695.88	268.75
696.21	267.99
696.55	267.35
696.88	266.83
697.22	266.27
697.56	265.74
697.89	265.12
698.23	264.68
698.56	264.06
698.90	263.56
699.23	262.94
699.57	262.34
699.90	261.67
700.24	261.01
700.58	260.53
700.91	260.10
701.25	259.79
701.58	259.30
701.92	258.89
702.25	258.40
702.59	257.91
702.92	257.43
703.26	257.07
703.59	256.62
703.93	256.49
704.26	256.12
704.60	255.54
704.93	255.20
705.26	254.65
705.60	254.29
705.93	253.70
706.27	253.35
706.60	253.03
706.94	252.79
707.27	252.33
707.61	251.90
707.94	251.46
708.27	250.81
708.61	250.24
708.94	249.79
709.28	249.40
709.61	248.94
709.94	248.66
710.28	248.22
710.61	247.86
710.95	247.11
711.28	246.97
711.61	246.63
711.95	246.27
712.28	245.96
712.61	245.52
712.95	245.40
713.28	245.20
713.61	244.70
713.95	244.20
714.28	243.94
714.61	243.55
714.95	243.22
715.28	242.85
715.61	242.53
715.95	242.21
716.28	241.89
716.61	241.63
716.95	241.27
717.28	240.99
717.61	240.67
717.94	240.41
718.28	239.89
718.61	239.62
718.94	239.25
719.27	238.87
719.61	238.55
719.94	238.26
720.27	237.75
720.60	237.51
720.94	237.29
721.27	236.97
721.60	236.80
721.93	236.52
722.27	236.37
722.60	236.20
722.93	235.96
723.26	235.72
723.59	235.42
723.93	235.19
724.26	234.98
724.59	234.74
724.92	234.54
725.25	234.33
725.59	234.03
725.92	233.87
726.25	233.67
726.58	233.60
726.91	233.31
727.24	233.21
727.57	233.02
727.91	232.79
728.24	232.62
728.57	232.30
728.90	232.19
729.23	231.92
729.56	231.87
729.89	231.64
730.22	231.39
730.55	231.19
730.89	230.98
731.22	230.76
731.55	230.62
731.88	230.37
732.21	230.11
732.54	229.88
732.87	229.70
733.20	229.55
733.53	229.36
733.86	229.26
734.19	229.02
734.52	228.91
734.85	228.90
735.18	228.67
735.51	228.60
735.84	228.42
736.17	228.43
736.50	228.09
736.83	228.30
737.16	228.17
737.49	228.03
737.82	227.77
738.15	227.69
738.48	227.55
738.81	227.45
739.14	227.30
739.47	227.24
739.80	227.11
740.13	227.07
740.46	226.83
740.79	226.65
741.12	226.54
741.45	226.30
741.78	226.06
742.11	225.97
742.44	225.76
742.77	225.64
743.10	225.35
743.43	225.12
743.75	224.64
744.08	225.01
744.41	224.79
744.74	224.69
745.07	224.51
745.40	224.39
745.73	224.44
746.06	224.34
746.39	224.17
746.71	224.02
747.04	223.83
747.37	223.64
747.70	223.54
748.03	223.35
748.36	223.30
748.68	223.09
749.01	222.92
749.34	222.85
749.67	222.76
750.00	222.69
750.33	222.85
750.65	222.72
750.98	222.11
751.31	222.07
751.64	221.94
751.97	222.02
752.29	221.88
752.62	221.53
752.95	221.36
753.28	221.22
753.60	221.06
753.93	221.00
754.26	220.92
754.59	220.66
754.91	220.60
755.24	220.47
755.57	220.32
755.90	220.20
756.22	220.07
756.55	219.86
756.88	219.68
757.20	219.43
757.53	219.31
757.86	219.19
758.19	219.19
758.51	219.15
758.84	218.88
759.17	218.81
759.49	218.77
759.82	218.91
760.15	218.87
760.47	218.79
760.80	218.62
761.13	218.65
761.45	218.60
761.78	218.50
762.11	218.42
762.43	218.38
762.76	218.31
763.08	218.24
763.41	218.20
763.74	218.19
764.06	218.03
764.39	217.98
764.71	217.90
765.04	217.66
765.37	217.57
765.69	217.50
766.02	217.40
766.34	217.31
766.67	217.12
767.00	217.11
767.32	217.23
767.65	217.31
767.97	217.16
768.30	217.11
768.62	217.05
768.95	216.94
769.27	216.93
769.60	216.95
769.92	216.80
770.25	216.73
770.57	216.56
770.90	216.57
771.22	216.38
771.55	216.34
771.87	216.40
772.20	216.32
772.52	216.56
772.85	216.94
773.17	216.92
773.50	216.73
773.82	216.65
774.15	216.41
774.47	216.21
774.80	216.10
775.12	216.03
775.45	215.97
775.77	215.98
776.09	215.93
776.42	215.86
776.74	216.04
777.07	216.00
777.39	216.00
777.72	215.91
778.04	215.94
778.36	215.90
778.69	215.87
779.01	215.85
779.33	215.52
779.66	215.07
779.98	214.95
780.31	214.98
780.63	215.07
780.95	215.14
781.28	215.07
781.60	215.12
781.92	215.16
782.25	215.11
782.57	215.11
782.89	215.03
783.22	214.95
783.54	214.79
783.86	214.79
784.19	214.75
784.51	214.82
784.83	214.77
785.16	214.76
785.48	214.67
785.80	214.67
786.12	214.68
786.45	214.65
786.77	214.69
787.09	214.64
787.42	214.47
787.74	214.43
788.06	214.47
788.38	214.41
788.71	214.28
789.03	214.21
789.35	214.21
789.67	214.08
789.99	214.06
790.32	214.04
790.64	214.05
790.96	214.32
791.28	214.23
791.61	214.20
791.93	214.22
792.25	214.28
792.57	214.53
792.89	214.42
793.21	214.43
793.54	214.38
793.86	214.37
794.18	214.35
