SpectraSuite Data File
++++++++++++++++++++++++++++++++++++
Date: Mon Feb 25 17:05:02 EST 2013
User: group
Dark Spectrum Present: No
Reference Spectrum Present: No
Number of Sampled Component Spectra: 1
Spectrometers: USB2E7196
Integration Time (usec): 104000 (USB2E7196)
Spectra Averaged: 20 (USB2E7196)
Boxcar Smoothing: 10 (USB2E7196)
Correct for Electrical Dark: No (USB2E7196)
Strobe/Lamp Enabled: No (USB2E7196)
Correct for Detector Non-linearity: No (USB2E7196)
Correct for Stray Light: No (USB2E7196)
Number of Pixels in Processed Spectrum: 2048
>>>>>Begin Processed Spectral Data<<<<<
339.09	0.00
339.48	198.05
339.86	201.50
340.24	202.50
340.63	204.25
341.01	210.60
341.39	204.45
341.78	208.15
342.16	209.70
342.54	209.20
342.93	198.63
343.31	208.61
343.69	209.15
344.07	209.58
344.46	209.97
344.84	210.28
345.22	210.26
345.60	210.61
345.99	210.70
346.37	210.78
346.75	210.85
347.13	210.92
347.52	210.97
347.90	211.07
348.28	211.06
348.66	211.04
349.05	210.96
349.43	210.82
349.81	210.82
350.19	210.78
350.57	210.79
350.96	210.88
351.34	210.94
351.72	211.00
352.10	210.98
352.48	211.02
352.87	211.04
353.25	211.08
353.63	211.03
354.01	211.08
354.39	211.11
354.77	211.09
355.15	211.20
355.54	211.21
355.92	211.15
356.30	211.15
356.68	211.39
357.06	211.43
357.44	211.49
357.82	211.47
358.20	211.56
358.58	211.56
358.97	211.72
359.35	211.83
359.73	211.91
360.11	211.94
360.49	211.96
360.87	211.98
361.25	212.06
361.63	212.23
362.01	212.33
362.39	212.37
362.77	212.53
363.15	212.61
363.53	212.59
363.91	212.68
364.29	212.74
364.67	212.46
365.05	212.53
365.43	212.62
365.81	212.69
366.19	212.84
366.57	213.00
366.95	212.93
367.33	212.85
367.71	212.91
368.09	213.03
368.47	213.05
368.85	213.03
369.23	213.07
369.61	212.93
369.99	212.97
370.37	212.96
370.75	213.05
371.13	212.89
371.51	212.84
371.89	212.82
372.27	212.82
372.65	212.89
373.03	212.90
373.41	212.85
373.78	212.89
374.16	212.69
374.54	212.58
374.92	212.57
375.30	212.56
375.68	212.40
376.06	212.38
376.44	212.32
376.82	212.30
377.19	212.25
377.57	212.17
377.95	212.06
378.33	211.96
378.71	211.69
379.09	211.67
379.47	211.72
379.84	211.62
380.22	211.50
380.60	211.34
380.98	211.21
381.36	211.11
381.73	210.92
382.11	211.00
382.49	211.01
382.87	210.96
383.25	210.92
383.62	211.27
384.00	211.15
384.38	211.14
384.76	211.24
385.13	211.34
385.51	211.34
385.89	211.25
386.27	211.30
386.64	211.40
387.02	211.34
387.40	211.21
387.78	211.22
388.15	211.20
388.53	211.13
388.91	211.09
389.29	211.05
389.66	211.04
390.04	210.88
390.42	210.91
390.79	210.88
391.17	210.84
391.55	210.49
391.92	210.48
392.30	210.49
392.68	210.34
393.05	210.28
393.43	210.26
393.81	210.30
394.18	210.23
394.56	210.22
394.94	210.26
395.31	210.27
395.69	210.35
396.06	210.50
396.44	210.53
396.82	210.50
397.19	210.66
397.57	210.74
397.95	210.75
398.32	210.59
398.70	210.60
399.07	210.66
399.45	210.72
399.82	210.72
400.20	210.74
400.58	210.75
400.95	210.62
401.33	210.76
401.70	210.96
402.08	210.92
402.45	210.99
402.83	211.14
403.20	211.26
403.58	211.23
403.95	211.29
404.33	211.48
404.71	211.62
405.08	211.91
405.46	211.99
405.83	212.15
406.21	212.30
406.58	212.47
406.96	212.62
407.33	212.67
407.70	212.84
408.08	213.28
408.45	213.52
408.83	213.80
409.20	213.95
409.58	214.07
409.95	214.48
410.33	214.67
410.70	214.84
411.08	215.20
411.45	215.58
411.82	215.96
412.20	216.36
412.57	216.96
412.95	217.13
413.32	217.63
413.69	218.13
414.07	218.71
414.44	219.24
414.82	219.84
415.19	220.62
415.56	221.32
415.94	221.81
416.31	222.65
416.68	223.47
417.06	224.47
417.43	225.42
417.81	226.42
418.18	227.55
418.55	228.74
418.93	229.96
419.30	231.19
419.67	232.48
420.04	233.85
420.42	235.15
420.79	237.00
421.16	238.71
421.54	240.62
421.91	242.35
422.28	244.23
422.66	246.21
423.03	248.35
423.40	250.43
423.77	252.64
424.15	254.78
424.52	257.06
424.89	259.55
425.26	261.97
425.64	264.28
426.01	266.78
426.38	269.46
426.75	272.16
427.13	274.97
427.50	277.91
427.87	280.91
428.24	284.08
428.61	286.92
428.99	290.32
429.36	293.75
429.73	297.28
430.10	300.75
430.47	304.36
430.85	307.91
431.22	311.78
431.59	316.18
431.96	320.26
432.33	324.74
432.70	329.06
433.08	334.04
433.45	338.77
433.82	343.56
434.19	348.86
434.56	354.09
434.93	359.06
435.30	364.10
435.68	369.57
436.05	374.94
436.42	380.33
436.79	385.33
437.16	390.84
437.53	396.47
437.90	402.17
438.27	407.70
438.64	413.56
439.01	419.04
439.38	423.72
439.75	428.39
440.13	433.75
440.50	438.82
440.87	443.02
441.24	447.57
441.61	452.40
441.98	456.00
442.35	460.10
442.72	464.39
443.09	468.46
443.46	471.25
443.83	473.24
444.20	475.02
444.57	477.12
444.94	478.24
445.31	479.55
445.68	481.01
446.05	481.77
446.42	481.53
446.79	481.29
447.16	480.90
447.53	480.80
447.90	479.07
448.27	477.35
448.64	474.87
449.01	472.93
449.37	469.45
449.74	466.07
450.11	462.39
450.48	457.94
450.85	453.28
451.22	449.37
451.59	445.52
451.96	441.91
452.33	437.08
452.70	432.74
453.07	427.47
453.43	421.88
453.80	416.77
454.17	411.80
454.54	407.03
454.91	401.97
455.28	397.11
455.65	392.42
456.02	388.15
456.38	384.13
456.75	379.17
457.12	375.14
457.49	371.16
457.86	366.94
458.23	363.77
458.59	360.17
458.96	356.41
459.33	353.21
459.70	349.85
460.07	347.28
460.43	344.31
460.80	341.50
461.17	339.09
461.54	336.46
461.91	333.93
462.27	331.34
462.64	329.04
463.01	326.46
463.38	324.25
463.74	321.53
464.11	319.42
464.48	317.81
464.85	315.80
465.21	314.32
465.58	312.69
465.95	310.56
466.32	308.97
466.68	307.20
467.05	305.59
467.42	303.92
467.78	302.13
468.15	300.47
468.52	299.39
468.88	297.67
469.25	296.14
469.62	295.05
469.98	293.79
470.35	292.74
470.72	291.68
471.08	290.43
471.45	289.43
471.82	288.55
472.18	287.31
472.55	286.48
472.92	285.40
473.28	284.56
473.65	283.68
474.02	282.85
474.38	282.29
474.75	281.65
475.11	281.08
475.48	280.70
475.85	280.13
476.21	279.56
476.58	279.23
476.94	279.00
477.31	278.63
477.67	278.26
478.04	277.86
478.41	277.64
478.77	277.68
479.14	277.29
479.50	277.02
479.87	276.94
480.23	276.87
480.60	276.75
480.96	276.60
481.33	276.82
481.69	276.89
482.06	276.75
482.42	276.64
482.79	276.54
483.15	276.57
483.52	276.81
483.88	276.78
484.25	276.84
484.61	276.98
484.98	277.16
485.34	277.57
485.71	277.98
486.07	278.35
486.44	278.36
486.80	278.90
487.17	279.29
487.53	279.81
487.90	280.30
488.26	281.04
488.62	281.64
488.99	282.05
489.35	282.60
489.72	283.46
490.08	284.16
490.44	284.94
490.81	285.71
491.17	286.46
491.54	287.40
491.90	288.38
492.26	289.25
492.63	290.13
492.99	290.97
493.36	291.97
493.72	293.01
494.08	294.15
494.45	295.30
494.81	296.48
495.17	297.59
495.54	298.90
495.90	300.04
496.26	301.23
496.63	302.54
496.99	303.70
497.35	304.90
497.72	306.35
498.08	307.66
498.44	308.94
498.80	310.28
499.17	311.68
499.53	312.93
499.89	314.41
500.26	315.73
500.62	317.04
500.98	318.34
501.34	319.52
501.71	320.85
502.07	321.97
502.43	323.30
502.79	324.55
503.16	325.71
503.52	326.83
503.88	328.01
504.24	329.15
504.60	330.43
504.97	331.68
505.33	332.70
505.69	334.05
506.05	335.27
506.41	336.45
506.78	337.51
507.14	338.69
507.50	339.76
507.86	340.88
508.22	341.92
508.59	342.87
508.95	343.86
509.31	344.95
509.67	345.93
510.03	346.85
510.39	347.68
510.75	348.51
511.12	349.49
511.48	350.39
511.84	351.28
512.20	352.19
512.56	352.93
512.92	353.79
513.28	354.50
513.64	355.21
514.00	355.95
514.37	356.71
514.73	357.43
515.09	358.17
515.45	358.82
515.81	359.54
516.17	360.16
516.53	360.90
516.89	361.42
517.25	361.97
517.61	362.63
517.97	363.26
518.33	363.93
518.69	364.59
519.05	365.30
519.41	365.98
519.77	366.83
520.13	367.53
520.49	368.22
520.85	368.82
521.21	369.62
521.57	370.26
521.93	370.86
522.29	371.53
522.65	372.19
523.01	373.10
523.37	373.92
523.73	374.89
524.09	375.96
524.45	376.91
524.81	378.01
525.17	379.06
525.53	380.24
525.89	381.35
526.25	382.54
526.61	383.68
526.97	384.88
527.33	386.04
527.68	387.70
528.04	389.07
528.40	390.43
528.76	391.85
529.12	393.51
529.48	395.26
529.84	396.87
530.20	398.56
530.56	400.26
530.91	402.19
531.27	404.02
531.63	405.75
531.99	407.69
532.35	409.57
532.71	411.52
533.07	413.63
533.42	416.12
533.78	418.24
534.14	420.36
534.50	422.47
534.86	424.72
535.21	426.56
535.57	428.96
535.93	431.20
536.29	433.77
536.65	436.13
537.00	438.28
537.36	440.68
537.72	443.11
538.08	445.52
538.44	447.84
538.79	450.37
539.15	452.81
539.51	455.29
539.87	457.94
540.22	460.52
540.58	463.12
540.94	465.43
541.29	467.98
541.65	470.62
542.01	473.40
542.37	476.20
542.72	478.95
543.08	481.52
543.44	484.42
543.79	486.85
544.15	489.71
544.51	492.62
544.87	495.62
545.22	498.35
545.58	501.15
545.94	503.90
546.29	506.54
546.65	509.31
547.01	511.92
547.36	514.72
547.72	517.52
548.07	520.16
548.43	522.75
548.79	525.37
549.14	527.90
549.50	530.49
549.86	532.87
550.21	535.51
550.57	538.35
550.92	540.86
551.28	543.43
551.64	545.84
551.99	548.39
552.35	550.59
552.70	552.89
553.06	555.37
553.41	557.82
553.77	560.40
554.13	562.85
554.48	565.46
554.84	567.95
555.19	570.25
555.55	572.89
555.90	575.22
556.26	577.41
556.61	579.60
556.97	581.74
557.32	583.68
557.68	585.68
558.03	587.73
558.39	589.84
558.74	591.99
559.10	594.06
559.45	596.23
559.81	598.44
560.16	600.51
560.52	602.33
560.87	604.53
561.23	606.32
561.58	608.42
561.94	610.10
562.29	611.76
562.64	613.63
563.00	615.05
563.35	616.81
563.71	618.74
564.06	620.46
564.42	622.22
564.77	624.25
565.12	626.16
565.48	627.93
565.83	629.62
566.19	631.30
566.54	632.60
566.89	633.88
567.25	635.49
567.60	637.10
567.96	638.80
568.31	640.18
568.66	641.33
569.02	642.11
569.37	643.30
569.72	644.39
570.08	645.31
570.43	646.27
570.78	647.07
571.14	647.74
571.49	648.63
571.84	649.48
572.20	649.98
572.55	650.51
572.90	650.75
573.26	651.11
573.61	651.28
573.96	651.80
574.31	652.15
574.67	652.19
575.02	652.07
575.37	652.10
575.72	651.75
576.08	651.92
576.43	652.03
576.78	652.10
577.13	652.17
577.49	652.22
577.84	652.10
578.19	652.17
578.54	652.39
578.90	652.56
579.25	652.53
579.60	652.20
579.95	651.90
580.30	651.91
580.66	652.02
581.01	652.00
581.36	651.66
581.71	651.48
582.06	651.41
582.42	651.42
582.77	651.12
583.12	650.98
583.47	650.81
583.82	650.79
584.17	650.51
584.53	650.50
584.88	650.13
585.23	650.05
585.58	649.67
585.93	649.14
586.28	648.76
586.63	648.16
586.98	648.11
587.34	648.05
587.69	647.54
588.04	646.94
588.39	646.55
588.74	646.19
589.09	645.79
589.44	645.04
589.79	644.49
590.14	643.92
590.49	643.44
590.84	642.74
591.19	642.23
591.54	641.53
591.89	640.48
592.25	640.15
592.60	639.26
592.95	638.44
593.30	637.61
593.65	636.64
594.00	635.75
594.35	635.85
594.70	634.83
595.05	633.93
595.40	633.06
595.75	632.02
596.10	631.21
596.45	630.20
596.80	629.42
597.15	628.47
597.50	627.64
597.85	626.80
598.19	625.92
598.54	624.99
598.89	624.11
599.24	623.37
599.59	622.33
599.94	621.73
600.29	621.08
600.64	620.19
600.99	619.31
601.34	618.64
601.69	616.82
602.04	615.80
602.39	615.02
602.74	614.13
603.08	613.45
603.43	612.82
603.78	611.92
604.13	611.19
604.48	610.40
604.83	609.66
605.18	608.91
605.53	608.12
605.87	607.21
606.22	606.55
606.57	605.53
606.92	604.48
607.27	603.48
607.62	602.50
607.96	601.82
608.31	600.91
608.66	599.73
609.01	598.50
609.36	597.49
609.70	596.39
610.05	595.11
610.40	593.90
610.75	592.43
611.10	591.28
611.44	589.77
611.79	588.39
612.14	586.86
612.49	585.13
612.83	583.57
613.18	581.98
613.53	580.32
613.88	578.69
614.22	577.26
614.57	575.56
614.92	573.99
615.27	572.20
615.61	570.58
615.96	569.13
616.31	567.75
616.65	566.41
617.00	564.87
617.35	563.38
617.70	561.70
618.04	559.91
618.39	558.26
618.74	556.66
619.08	554.91
619.43	553.33
619.78	551.73
620.12	550.38
620.47	548.81
620.82	547.01
621.16	545.23
621.51	543.56
621.85	541.94
622.20	540.24
622.55	538.50
622.89	536.83
623.24	535.19
623.59	533.35
623.93	531.55
624.28	529.88
624.62	528.52
624.97	527.10
625.32	525.48
625.66	523.80
626.01	522.23
626.35	520.71
626.70	519.07
627.04	517.60
627.39	515.95
627.73	514.35
628.08	512.91
628.43	511.42
628.77	509.67
629.12	508.01
629.46	506.57
629.81	504.99
630.15	503.27
630.50	501.50
630.84	499.90
631.19	498.14
631.53	496.45
631.88	494.35
632.22	492.45
632.57	491.10
632.91	489.50
633.26	487.94
633.60	486.35
633.95	484.74
634.29	483.10
634.64	481.45
634.98	479.72
635.32	478.26
635.67	476.91
636.01	475.41
636.36	473.82
636.70	472.29
637.05	470.75
637.39	469.29
637.73	467.95
638.08	466.68
638.42	465.23
638.77	463.77
639.11	462.47
639.45	460.92
639.80	459.18
640.14	457.58
640.49	455.95
640.83	454.34
641.17	452.79
641.52	451.17
641.86	449.55
642.20	448.20
642.55	446.38
642.89	444.61
643.23	442.89
643.58	441.47
643.92	439.63
644.26	438.10
644.61	436.61
644.95	434.90
645.29	433.09
645.64	431.59
645.98	429.94
646.32	428.34
646.66	426.71
647.01	425.23
647.35	423.75
647.69	422.15
648.04	420.64
648.38	419.06
648.72	417.59
649.06	415.98
649.41	414.20
649.75	412.80
650.09	411.39
650.43	409.98
650.78	408.32
651.12	406.68
651.46	405.03
651.80	403.39
652.14	401.96
652.49	400.52
652.83	398.96
653.17	397.33
653.51	395.82
653.85	394.38
654.20	392.88
654.54	391.18
654.88	389.56
655.22	388.10
655.56	386.55
655.90	384.95
656.25	383.41
656.59	382.01
656.93	380.34
657.27	378.88
657.61	377.27
657.95	375.92
658.29	374.58
658.64	373.35
658.98	371.92
659.32	370.31
659.66	368.82
660.00	367.28
660.34	365.87
660.68	364.33
661.02	362.96
661.36	361.54
661.70	360.29
662.05	359.10
662.39	357.95
662.73	356.80
663.07	355.69
663.41	354.41
663.75	353.06
664.09	351.87
664.43	350.48
664.77	349.30
665.11	347.97
665.45	346.68
665.79	345.42
666.13	344.28
666.47	343.17
666.81	342.06
667.15	340.91
667.49	340.00
667.83	339.06
668.17	337.81
668.51	336.66
668.85	335.61
669.19	334.58
669.53	333.25
669.87	332.02
670.21	330.76
670.55	329.77
670.89	328.93
671.23	327.93
671.57	326.92
671.91	325.88
672.25	324.84
672.58	323.93
672.92	322.85
673.26	321.83
673.60	320.79
673.94	319.74
674.28	318.82
674.62	317.75
674.96	316.74
675.30	315.89
675.64	315.01
675.97	314.10
676.31	313.15
676.65	312.25
676.99	311.57
677.33	310.72
677.67	309.81
678.01	308.76
678.34	307.87
678.68	307.15
679.02	306.28
679.36	305.40
679.70	304.49
680.04	303.62
680.37	302.74
680.71	301.94
681.05	301.17
681.39	300.41
681.73	299.61
682.06	298.68
682.40	297.96
682.74	297.16
683.08	296.44
683.42	295.61
683.75	294.89
684.09	294.00
684.43	293.17
684.77	292.33
685.10	291.53
685.44	290.78
685.78	289.91
686.12	289.26
686.45	288.55
686.79	287.76
687.13	287.17
687.46	286.50
687.80	285.83
688.14	285.05
688.48	284.38
688.81	283.61
689.15	283.07
689.49	282.25
689.82	281.54
690.16	280.72
690.50	280.01
690.83	279.16
691.17	278.34
691.51	277.66
691.84	276.99
692.18	276.33
692.52	275.66
692.85	275.02
693.19	274.50
693.52	273.87
693.86	273.20
694.20	272.49
694.53	271.84
694.87	271.16
695.21	270.52
695.54	269.78
695.88	269.10
696.21	268.38
696.55	267.80
696.88	267.18
697.22	266.47
697.56	265.87
697.89	265.30
698.23	264.82
698.56	264.17
698.90	263.75
699.23	263.20
699.57	262.58
699.90	262.00
700.24	261.22
700.58	260.60
700.91	260.14
701.25	259.79
701.58	259.39
701.92	258.91
702.25	258.43
702.59	257.95
702.92	257.54
703.26	257.09
703.59	256.61
703.93	256.45
704.26	256.14
704.60	255.65
704.93	255.20
705.26	254.67
705.60	254.39
705.93	253.83
706.27	253.50
706.60	253.19
706.94	252.90
707.27	252.48
707.61	252.12
707.94	251.66
708.27	251.08
708.61	250.55
708.94	250.12
709.28	249.78
709.61	249.37
709.94	249.01
710.28	248.63
710.61	248.29
710.95	247.56
711.28	247.44
711.61	247.11
711.95	246.91
712.28	246.52
712.61	246.12
712.95	245.98
713.28	245.77
713.61	245.32
713.95	244.87
714.28	244.63
714.61	244.19
714.95	243.87
715.28	243.46
715.61	243.07
715.95	242.79
716.28	242.37
716.61	242.12
716.95	241.71
717.28	241.41
717.61	241.12
717.94	240.88
718.28	240.25
718.61	239.95
718.94	239.50
719.27	239.25
719.61	238.95
719.94	238.54
720.27	238.04
720.60	237.85
720.94	237.66
721.27	237.33
721.60	237.22
721.93	237.04
722.27	236.94
722.60	236.79
722.93	236.48
723.26	236.25
723.59	235.91
723.93	235.74
724.26	235.54
724.59	235.30
724.92	235.03
725.25	234.90
725.59	234.68
725.92	234.51
726.25	234.32
726.58	234.16
726.91	233.92
727.24	233.79
727.57	233.49
727.91	233.12
728.24	232.99
728.57	232.69
728.90	232.46
729.23	232.11
729.56	232.00
729.89	231.83
730.22	231.63
730.55	231.40
730.89	231.15
731.22	230.82
731.55	230.53
731.88	230.37
732.21	230.07
732.54	229.81
732.87	229.63
733.20	229.36
733.53	229.18
733.86	229.00
734.19	228.76
734.52	228.66
734.85	228.73
735.18	228.44
735.51	228.44
735.84	228.26
736.17	228.20
736.50	227.89
736.83	228.06
737.16	227.83
737.49	227.78
737.82	227.55
738.15	227.53
738.48	227.33
738.81	227.13
739.14	227.00
739.47	226.86
739.80	226.67
740.13	226.63
740.46	226.34
740.79	226.14
741.12	225.89
741.45	225.69
741.78	225.35
742.11	225.29
742.44	224.96
742.77	224.86
743.10	224.64
743.43	224.48
743.75	223.99
744.08	224.43
744.41	224.19
744.74	224.09
745.07	223.82
745.40	223.85
745.73	223.96
746.06	223.84
746.39	223.73
746.71	223.61
747.04	223.35
747.37	223.33
747.70	223.27
748.03	223.26
748.36	223.18
748.68	223.09
749.01	222.90
749.34	222.72
749.67	222.60
750.00	222.53
750.33	222.67
750.65	222.58
750.98	221.99
751.31	221.87
751.64	221.84
751.97	221.94
752.29	221.72
752.62	221.33
752.95	221.16
753.28	221.06
753.60	220.96
753.93	221.05
754.26	220.90
754.59	220.75
754.91	220.66
755.24	220.53
755.57	220.43
755.90	220.29
756.22	220.31
756.55	220.15
756.88	220.02
757.20	219.67
757.53	219.55
757.86	219.43
758.19	219.42
758.51	219.30
758.84	219.01
759.17	218.94
759.49	218.87
759.82	218.95
760.15	218.83
760.47	218.72
760.80	218.49
761.13	218.43
761.45	218.30
761.78	218.21
762.11	218.14
762.43	218.02
762.76	218.01
763.08	217.92
763.41	217.89
763.74	217.81
764.06	217.79
764.39	217.60
764.71	217.48
765.04	217.41
765.37	217.34
765.69	217.28
766.02	217.17
766.34	217.15
766.67	217.03
767.00	217.04
767.32	217.15
767.65	217.25
767.97	217.20
768.30	217.15
768.62	216.98
768.95	216.91
769.27	216.91
769.60	216.89
769.92	216.74
770.25	216.59
770.57	216.47
770.90	216.45
771.22	216.44
771.55	216.48
771.87	216.39
772.20	216.27
772.52	216.52
772.85	216.88
773.17	216.85
773.50	216.70
773.82	216.61
774.15	216.47
774.47	216.23
774.80	216.16
775.12	216.15
775.45	216.18
775.77	216.08
776.09	216.04
776.42	215.97
776.74	216.09
777.07	216.07
777.39	216.04
777.72	215.87
778.04	215.91
778.36	215.82
778.69	215.79
779.01	215.75
779.33	215.40
779.66	215.00
779.98	214.95
780.31	214.93
780.63	215.03
780.95	215.04
781.28	215.05
781.60	214.91
781.92	214.79
782.25	214.68
782.57	214.64
782.89	214.51
783.22	214.42
783.54	214.28
783.86	214.26
784.19	214.16
784.51	214.28
784.83	214.15
785.16	214.11
785.48	214.10
785.80	214.09
786.12	214.12
786.45	214.08
786.77	214.03
787.09	213.95
787.42	213.79
787.74	213.72
788.06	213.67
788.38	213.68
788.71	213.63
789.03	213.68
789.35	213.71
789.67	213.68
789.99	213.64
790.32	213.64
790.64	213.64
790.96	213.97
791.28	213.78
791.61	213.81
791.93	213.84
792.25	213.74
792.57	213.99
792.89	213.87
793.21	213.88
793.54	213.86
793.86	213.85
794.18	213.89
