SpectraSuite Data File
++++++++++++++++++++++++++++++++++++
Date: Mon Feb 25 17:15:13 EST 2013
User: group
Dark Spectrum Present: No
Reference Spectrum Present: No
Number of Sampled Component Spectra: 1
Spectrometers: USB2E7196
Integration Time (usec): 104000 (USB2E7196)
Spectra Averaged: 20 (USB2E7196)
Boxcar Smoothing: 10 (USB2E7196)
Correct for Electrical Dark: No (USB2E7196)
Strobe/Lamp Enabled: No (USB2E7196)
Correct for Detector Non-linearity: No (USB2E7196)
Correct for Stray Light: No (USB2E7196)
Number of Pixels in Processed Spectrum: 2048
>>>>>Begin Processed Spectral Data<<<<<
339.09	0.00
339.48	198.35
339.86	201.10
340.24	201.95
340.63	203.30
341.01	209.65
341.39	206.35
341.78	208.35
342.16	209.95
342.54	209.25
342.93	198.75
343.31	208.80
343.69	209.34
344.07	209.74
344.46	210.21
344.84	210.56
345.22	210.67
345.60	210.94
345.99	211.04
346.37	211.18
346.75	211.25
347.13	211.32
347.52	211.32
347.90	211.47
348.28	211.51
348.66	211.65
349.05	211.46
349.43	211.58
349.81	211.62
350.19	211.63
350.57	211.57
350.96	211.65
351.34	211.69
351.72	211.77
352.10	211.89
352.48	211.92
352.87	211.95
353.25	211.95
353.63	211.98
354.01	212.06
354.39	212.06
354.77	212.12
355.15	212.20
355.54	212.23
355.92	212.20
356.30	212.22
356.68	212.44
357.06	212.52
357.44	212.50
357.82	212.59
358.20	212.64
358.58	212.80
358.97	212.80
359.35	212.98
359.73	213.11
360.11	213.13
360.49	213.17
360.87	213.25
361.25	213.33
361.63	213.44
362.01	213.47
362.39	213.47
362.77	213.52
363.15	213.60
363.53	213.67
363.91	213.67
364.29	213.69
364.67	213.48
365.05	213.56
365.43	213.66
365.81	213.75
366.19	213.94
366.57	214.07
366.95	214.11
367.33	213.94
367.71	214.03
368.09	214.12
368.47	214.11
368.85	214.12
369.23	214.21
369.61	214.08
369.99	214.19
370.37	214.29
370.75	214.49
371.13	214.35
371.51	214.23
371.89	214.25
372.27	214.25
372.65	214.26
373.03	214.32
373.41	214.31
373.78	214.21
374.16	214.01
374.54	213.90
374.92	213.88
375.30	213.95
375.68	213.76
376.06	213.81
376.44	213.71
376.82	213.70
377.19	213.65
377.57	213.64
377.95	213.58
378.33	213.52
378.71	213.25
379.09	213.36
379.47	213.37
379.84	213.37
380.22	213.34
380.60	213.26
380.98	213.14
381.36	212.98
381.73	212.86
382.11	212.93
382.49	212.84
382.87	212.74
383.25	212.67
383.62	213.01
384.00	212.86
384.38	212.97
384.76	213.01
385.13	213.11
385.51	213.13
385.89	213.04
386.27	212.96
386.64	212.93
387.02	212.83
387.40	212.80
387.78	212.78
388.15	212.75
388.53	212.68
388.91	212.67
389.29	212.70
389.66	212.81
390.04	212.66
390.42	212.66
390.79	212.70
391.17	212.68
391.55	212.29
391.92	212.24
392.30	212.23
392.68	212.10
393.05	212.01
393.43	211.95
393.81	211.90
394.18	211.81
394.56	211.88
394.94	211.96
395.31	211.99
395.69	212.01
396.06	212.07
396.44	212.14
396.82	212.05
397.19	212.20
397.57	212.17
397.95	212.22
398.32	212.17
398.70	212.15
399.07	212.20
399.45	212.27
399.82	212.31
400.20	212.25
400.58	212.28
400.95	212.17
401.33	212.30
401.70	212.60
402.08	212.68
402.45	212.70
402.83	212.82
403.20	212.81
403.58	212.83
403.95	212.90
404.33	212.93
404.71	213.04
405.08	213.21
405.46	213.25
405.83	213.42
406.21	213.52
406.58	213.68
406.96	213.74
407.33	213.83
407.70	214.03
408.08	214.49
408.45	214.74
408.83	214.94
409.20	215.04
409.58	215.05
409.95	215.37
410.33	215.66
410.70	215.84
411.08	216.18
411.45	216.49
411.82	216.73
412.20	217.18
412.57	217.72
412.95	217.92
413.32	218.38
413.69	218.86
414.07	219.45
414.44	219.90
414.82	220.60
415.19	221.29
415.56	221.85
415.94	222.32
416.31	223.15
416.68	223.96
417.06	224.89
417.43	225.79
417.81	226.75
418.18	227.75
418.55	228.76
418.93	229.88
419.30	231.01
419.67	232.31
420.04	233.57
420.42	234.91
420.79	236.62
421.16	238.08
421.54	239.72
421.91	241.30
422.28	243.01
422.66	244.71
423.03	246.71
423.40	248.64
423.77	250.50
424.15	252.32
424.52	254.30
424.89	256.63
425.26	258.74
425.64	260.77
426.01	263.03
426.38	265.37
426.75	267.84
427.13	270.31
427.50	272.87
427.87	275.52
428.24	278.16
428.61	280.55
428.99	283.57
429.36	286.50
429.73	289.51
430.10	292.64
430.47	295.74
430.85	298.72
431.22	302.13
431.59	305.96
431.96	309.48
432.33	313.26
432.70	316.85
433.08	321.11
433.45	325.23
433.82	329.20
434.19	333.63
434.56	337.99
434.93	342.11
435.30	346.28
435.68	350.81
436.05	355.23
436.42	359.72
436.79	363.75
437.16	368.21
437.53	372.83
437.90	377.31
438.27	381.92
438.64	386.65
439.01	390.94
439.38	394.61
439.75	398.32
440.13	402.58
440.50	406.60
440.87	409.90
441.24	413.22
441.61	416.89
441.98	419.62
442.35	422.73
442.72	426.08
443.09	429.33
443.46	431.10
443.83	432.45
444.20	433.51
444.57	435.05
444.94	435.76
445.31	436.61
445.68	437.61
446.05	437.74
446.42	437.17
446.79	436.59
447.16	435.84
447.53	435.33
447.90	433.61
448.27	431.70
448.64	429.25
449.01	427.44
449.37	424.47
449.74	421.49
450.11	418.05
450.48	414.00
450.85	409.83
451.22	406.54
451.59	403.18
451.96	400.04
452.33	395.86
452.70	392.09
453.07	387.54
453.43	382.80
453.80	378.52
454.17	374.34
454.54	370.29
454.91	366.08
455.28	361.92
455.65	357.97
456.02	354.68
456.38	351.32
456.75	347.30
457.12	343.80
457.49	340.41
457.86	337.03
458.23	334.36
458.59	331.38
458.96	328.32
459.33	325.62
459.70	322.85
460.07	320.70
460.43	318.16
460.80	315.90
461.17	313.84
461.54	311.65
461.91	309.55
462.27	307.56
462.64	305.87
463.01	303.98
463.38	302.34
463.74	300.00
464.11	298.45
464.48	296.96
464.85	295.36
465.21	294.34
465.58	293.10
465.95	291.58
466.32	290.30
466.68	288.97
467.05	287.68
467.42	286.46
467.78	285.10
468.15	283.95
468.52	283.02
468.88	281.83
469.25	280.84
469.62	280.13
469.98	279.35
470.35	278.58
470.72	277.85
471.08	276.84
471.45	276.22
471.82	275.55
472.18	274.84
472.55	274.46
472.92	273.62
473.28	273.08
473.65	272.60
474.02	272.07
474.38	271.80
474.75	271.55
475.11	271.22
475.48	271.08
475.85	270.89
476.21	270.83
476.58	270.74
476.94	270.69
477.31	270.58
477.67	270.41
478.04	270.40
478.41	270.48
478.77	270.99
479.14	271.00
479.50	271.15
479.87	271.38
480.23	271.58
480.60	271.97
480.96	272.32
481.33	272.91
481.69	273.35
482.06	273.80
482.42	274.29
482.79	274.83
483.15	275.46
483.52	276.26
483.88	276.90
484.25	277.64
484.61	278.42
484.98	279.22
485.34	280.40
485.71	281.45
486.07	282.54
486.44	283.30
486.80	284.54
487.17	285.86
487.53	287.37
487.90	288.91
488.26	290.57
488.62	292.25
488.99	293.83
489.35	295.64
489.72	297.60
490.08	299.72
490.44	301.88
490.81	304.20
491.17	306.55
491.54	309.08
491.90	311.78
492.26	314.57
492.63	317.51
492.99	320.43
493.36	323.66
493.72	327.10
494.08	330.72
494.45	334.46
494.81	338.37
495.17	342.31
495.54	346.66
495.90	350.89
496.26	355.46
496.63	360.20
496.99	365.19
497.35	370.44
497.72	375.87
498.08	381.49
498.44	387.22
498.80	393.33
499.17	399.59
499.53	406.05
499.89	412.90
500.26	419.85
500.62	426.83
500.98	434.37
501.34	442.02
501.71	450.04
502.07	458.30
502.43	466.71
502.79	475.33
503.16	484.14
503.52	493.52
503.88	502.77
504.24	512.50
504.60	522.57
504.97	532.80
505.33	543.03
505.69	554.37
506.05	565.78
506.41	577.03
506.78	588.61
507.14	600.48
507.50	612.55
507.86	625.11
508.22	637.95
508.59	650.74
508.95	663.97
509.31	677.65
509.67	691.31
510.03	705.35
510.39	719.95
510.75	734.78
511.12	749.47
511.48	764.80
511.84	780.15
512.20	795.67
512.56	811.60
512.92	828.06
513.28	844.15
513.64	860.33
514.00	876.83
514.37	893.49
514.73	910.45
515.09	927.73
515.45	944.61
515.81	962.00
516.17	979.56
516.53	997.24
516.89	1014.82
517.25	1032.72
517.61	1050.55
517.97	1068.25
518.33	1086.05
518.69	1104.06
519.05	1122.29
519.41	1140.82
519.77	1159.29
520.13	1177.44
520.49	1195.39
520.85	1213.60
521.21	1232.13
521.57	1250.95
521.93	1269.13
522.29	1288.13
522.65	1306.61
523.01	1325.34
523.37	1343.56
523.73	1361.92
524.09	1380.14
524.45	1398.27
524.81	1416.61
525.17	1435.26
525.53	1453.70
525.89	1472.04
526.25	1490.48
526.61	1507.83
526.97	1525.59
527.33	1543.15
527.68	1561.13
528.04	1578.26
528.40	1594.74
528.76	1611.43
529.12	1628.49
529.48	1646.09
529.84	1662.64
530.20	1679.22
530.56	1695.82
530.91	1712.76
531.27	1729.48
531.63	1745.80
531.99	1762.10
532.35	1777.74
532.71	1792.89
533.07	1808.40
533.42	1823.33
533.78	1838.38
534.14	1853.68
534.50	1867.48
534.86	1882.04
535.21	1895.33
535.57	1910.31
535.93	1924.02
536.29	1937.59
536.65	1950.89
537.00	1963.29
537.36	1975.35
537.72	1987.29
538.08	1999.33
538.44	2011.07
538.79	2022.71
539.15	2034.22
539.51	2045.48
539.87	2057.14
540.22	2068.06
540.58	2079.34
540.94	2090.12
541.29	2099.76
541.65	2109.02
542.01	2118.66
542.37	2127.68
542.72	2137.27
543.08	2145.35
543.44	2154.80
543.79	2162.88
544.15	2170.15
544.51	2178.23
544.87	2186.41
545.22	2193.65
545.58	2200.13
545.94	2205.58
546.29	2210.76
546.65	2216.06
547.01	2220.99
547.36	2225.81
547.72	2230.58
548.07	2233.90
548.43	2237.36
548.79	2241.00
549.14	2244.29
549.50	2247.94
549.86	2250.43
550.21	2252.69
550.57	2255.23
550.92	2256.71
551.28	2258.45
551.64	2260.50
551.99	2262.35
552.35	2263.28
552.70	2264.55
553.06	2265.99
553.41	2267.35
553.77	2268.54
554.13	2269.26
554.48	2270.09
554.84	2270.73
555.19	2270.92
555.55	2270.72
555.90	2270.22
556.26	2269.56
556.61	2269.20
556.97	2267.60
557.32	2266.89
557.68	2265.32
558.03	2263.70
558.39	2262.24
558.74	2261.51
559.10	2260.22
559.45	2258.43
559.81	2256.93
560.16	2254.88
560.52	2252.86
560.87	2251.16
561.23	2248.43
561.58	2246.25
561.94	2243.16
562.29	2239.51
562.64	2236.45
563.00	2234.16
563.35	2231.91
563.71	2229.93
564.06	2227.52
564.42	2225.36
564.77	2223.36
565.12	2221.36
565.48	2219.17
565.83	2216.72
566.19	2213.95
566.54	2210.34
566.89	2206.50
567.25	2203.12
567.60	2199.88
567.96	2196.35
568.31	2192.95
568.66	2189.14
569.02	2184.92
569.37	2180.80
569.72	2176.75
570.08	2172.46
570.43	2167.57
570.78	2162.93
571.14	2157.41
571.49	2151.83
571.84	2147.04
572.20	2140.77
572.55	2135.39
572.90	2129.07
573.26	2122.96
573.61	2116.59
573.96	2110.65
574.31	2104.29
574.67	2097.42
575.02	2090.40
575.37	2083.44
575.72	2075.65
576.08	2069.53
576.43	2062.43
576.78	2055.72
577.13	2049.29
577.49	2042.84
577.84	2036.10
578.19	2029.70
578.54	2024.03
578.90	2018.24
579.25	2011.29
579.60	2004.52
579.95	1997.21
580.30	1990.96
580.66	1984.86
581.01	1977.99
581.36	1970.71
581.71	1964.02
582.06	1957.41
582.42	1951.03
582.77	1943.93
583.12	1937.30
583.47	1930.76
583.82	1924.95
584.17	1918.45
584.53	1911.78
584.88	1905.14
585.23	1898.78
585.58	1891.72
585.93	1884.29
586.28	1877.72
586.63	1870.84
586.98	1864.49
587.34	1858.40
587.69	1851.50
588.04	1844.76
588.39	1838.45
588.74	1831.52
589.09	1825.25
589.44	1818.72
589.79	1812.72
590.14	1806.74
590.49	1800.33
590.84	1793.55
591.19	1787.19
591.54	1780.70
591.89	1773.31
592.25	1766.41
592.60	1759.04
592.95	1752.05
593.30	1744.72
593.65	1737.12
594.00	1730.29
594.35	1724.51
594.70	1717.65
595.05	1711.21
595.40	1704.24
595.75	1696.97
596.10	1691.00
596.45	1684.54
596.80	1678.18
597.15	1671.52
597.50	1665.03
597.85	1659.00
598.19	1652.27
598.54	1645.54
598.89	1639.13
599.24	1633.93
599.59	1627.87
599.94	1622.85
600.29	1617.25
600.64	1611.83
600.99	1605.76
601.34	1600.06
601.69	1593.01
602.04	1586.49
602.39	1580.19
602.74	1574.33
603.08	1569.46
603.43	1564.24
603.78	1558.51
604.13	1552.65
604.48	1546.78
604.83	1541.66
605.18	1536.76
605.53	1531.03
605.87	1525.14
606.22	1519.74
606.57	1513.49
606.92	1507.61
607.27	1500.96
607.62	1494.60
607.96	1488.71
608.31	1483.33
608.66	1476.98
609.01	1470.66
609.36	1464.82
609.70	1458.27
610.05	1451.77
610.40	1444.77
610.75	1437.95
611.10	1431.67
611.44	1424.72
611.79	1417.60
612.14	1409.89
612.49	1401.89
612.83	1395.11
613.18	1387.72
613.53	1380.37
613.88	1372.90
614.22	1365.93
614.57	1358.85
614.92	1351.58
615.27	1344.24
615.61	1336.77
615.96	1330.02
616.31	1323.89
616.65	1317.40
617.00	1311.05
617.35	1304.31
617.70	1297.15
618.04	1289.63
618.39	1281.93
618.74	1275.08
619.08	1268.21
619.43	1261.52
619.78	1254.76
620.12	1248.30
620.47	1241.90
620.82	1234.88
621.16	1228.14
621.51	1221.23
621.85	1214.60
622.20	1207.71
622.55	1200.87
622.89	1194.15
623.24	1187.39
623.59	1179.98
623.93	1172.77
624.28	1166.06
624.62	1159.70
624.97	1153.43
625.32	1147.31
625.66	1141.29
626.01	1134.93
626.35	1128.84
626.70	1122.56
627.04	1116.77
627.39	1110.32
627.73	1103.98
628.08	1098.06
628.43	1091.75
628.77	1085.50
629.12	1079.28
629.46	1073.84
629.81	1068.10
630.15	1062.06
630.50	1055.95
630.84	1049.90
631.19	1044.10
631.53	1038.17
631.88	1031.67
632.22	1025.33
632.57	1019.59
632.91	1013.37
633.26	1007.36
633.60	1001.41
633.95	995.62
634.29	989.62
634.64	983.89
634.98	977.85
635.32	972.13
635.67	967.17
636.01	961.88
636.36	956.00
636.70	950.31
637.05	944.65
637.39	939.43
637.73	934.32
638.08	929.53
638.42	924.40
638.77	919.17
639.11	914.07
639.45	908.98
639.80	903.20
640.14	897.77
640.49	892.60
640.83	887.07
641.17	881.76
641.52	876.23
641.86	870.61
642.20	865.44
642.55	859.71
642.89	853.89
643.23	848.25
643.58	843.65
643.92	838.24
644.26	832.98
644.61	827.57
644.95	821.96
645.29	816.49
645.64	811.00
645.98	805.77
646.32	800.65
646.66	795.18
647.01	790.34
647.35	785.55
647.69	780.22
648.04	775.39
648.38	770.45
648.72	765.48
649.06	760.54
649.41	755.65
649.75	751.07
650.09	746.25
650.43	741.43
650.78	735.87
651.12	730.90
651.46	725.94
651.80	721.23
652.14	716.65
652.49	711.91
652.83	707.15
653.17	702.11
653.51	697.29
653.85	692.94
654.20	688.24
654.54	683.16
654.88	678.47
655.22	673.88
655.56	668.93
655.90	664.28
656.25	659.77
656.59	655.16
656.93	650.57
657.27	646.24
657.61	641.57
657.95	637.53
658.29	633.20
658.64	629.06
658.98	624.68
659.32	620.04
659.66	615.64
660.00	611.35
660.34	606.95
660.68	602.50
661.02	597.99
661.36	593.84
661.70	590.09
662.05	586.29
662.39	582.48
662.73	578.96
663.07	575.43
663.41	571.70
663.75	567.89
664.09	564.01
664.43	560.10
664.77	556.58
665.11	552.77
665.45	549.30
665.79	545.67
666.13	542.12
666.47	538.89
666.81	535.31
667.15	531.87
667.49	528.90
667.83	525.98
668.17	522.85
668.51	519.70
668.85	516.62
669.19	513.70
669.53	510.30
669.87	506.92
670.21	503.74
670.55	500.81
670.89	498.09
671.23	495.42
671.57	492.57
671.91	489.55
672.25	486.74
672.58	483.86
672.92	480.91
673.26	478.19
673.60	475.35
673.94	472.68
674.28	469.96
674.62	467.33
674.96	464.51
675.30	461.90
675.64	459.28
675.97	456.65
676.31	453.98
676.65	451.56
676.99	449.33
677.33	446.75
677.67	444.06
678.01	441.43
678.34	438.93
678.68	436.56
679.02	434.07
679.36	431.69
679.70	429.21
680.04	427.01
680.37	424.61
680.71	422.34
681.05	420.15
681.39	417.97
681.73	415.61
682.06	413.52
682.40	411.46
682.74	409.37
683.08	407.27
683.42	405.03
683.75	402.87
684.09	400.62
684.43	398.69
684.77	396.60
685.10	394.52
685.44	392.36
685.78	390.30
686.12	388.55
686.45	386.56
686.79	384.75
687.13	382.92
687.46	381.07
687.80	379.24
688.14	377.32
688.48	375.63
688.81	373.77
689.15	371.82
689.49	369.85
689.82	367.88
690.16	365.88
690.50	364.02
690.83	362.26
691.17	360.47
691.51	358.59
691.84	356.89
692.18	355.21
692.52	353.59
692.85	352.12
693.19	350.55
693.52	348.95
693.86	347.25
694.20	345.68
694.53	344.11
694.87	342.42
695.21	340.79
695.54	339.03
695.88	337.32
696.21	335.74
696.55	334.34
696.88	332.99
697.22	331.55
697.56	330.21
697.89	328.71
698.23	327.29
698.56	325.83
698.90	324.66
699.23	323.30
699.57	321.88
699.90	320.34
700.24	318.88
700.58	317.55
700.91	316.26
701.25	315.14
701.58	313.92
701.92	312.78
702.25	311.62
702.59	310.38
702.92	309.22
703.26	308.14
703.59	306.99
703.93	306.12
704.26	305.00
704.60	303.81
704.93	302.78
705.26	301.59
705.60	300.59
705.93	299.35
706.27	298.34
706.60	297.50
706.94	296.76
707.27	295.81
707.61	294.69
707.94	293.69
708.27	292.48
708.61	291.40
708.94	290.45
709.28	289.53
709.61	288.70
709.94	287.90
710.28	286.96
710.61	286.09
710.95	284.87
711.28	284.28
711.61	283.44
711.95	282.60
712.28	281.82
712.61	281.01
712.95	280.43
713.28	279.79
713.61	278.87
713.95	277.88
714.28	277.15
714.61	276.53
714.95	275.73
715.28	274.90
715.61	274.14
715.95	273.41
716.28	272.67
716.61	271.98
716.95	271.23
717.28	270.55
717.61	269.93
717.94	269.36
718.28	268.46
718.61	267.83
718.94	267.21
719.27	266.64
719.61	266.06
719.94	265.33
720.27	264.55
720.60	264.00
720.94	263.43
721.27	262.79
721.60	262.23
721.93	261.71
722.27	261.30
722.60	260.83
722.93	260.33
723.26	259.85
723.59	259.21
723.93	258.68
724.26	258.23
724.59	257.62
724.92	257.03
725.25	256.55
725.59	256.08
725.92	255.60
726.25	255.10
726.58	254.68
726.91	254.23
727.24	253.83
727.57	253.35
727.91	252.86
728.24	252.44
728.57	252.04
728.90	251.66
729.23	251.15
729.56	250.91
729.89	250.48
730.22	250.05
730.55	249.71
730.89	249.36
731.22	248.89
731.55	248.40
731.88	248.07
732.21	247.72
732.54	247.26
732.87	246.87
733.20	246.43
733.53	246.05
733.86	245.64
734.19	245.14
734.52	244.86
734.85	244.79
735.18	244.42
735.51	244.10
735.84	243.74
736.17	243.46
736.50	242.96
736.83	242.95
737.16	242.59
737.49	242.22
737.82	241.84
738.15	241.58
738.48	241.38
738.81	241.04
739.14	240.55
739.47	240.26
739.80	240.00
740.13	239.76
740.46	239.36
740.79	239.07
741.12	238.82
741.45	238.35
741.78	237.82
742.11	237.62
742.44	237.27
742.77	237.08
743.10	236.78
743.43	236.40
743.75	235.76
744.08	235.90
744.41	235.61
744.74	235.36
745.07	235.05
745.40	234.82
745.73	234.71
746.06	234.58
746.39	234.41
746.71	234.02
747.04	233.74
747.37	233.53
747.70	233.36
748.03	233.12
748.36	233.08
748.68	232.83
749.01	232.42
749.34	232.19
749.67	231.87
750.00	231.64
750.33	231.69
750.65	231.53
750.98	230.81
751.31	230.61
751.64	230.39
751.97	230.37
752.29	230.08
752.62	229.66
752.95	229.39
753.28	229.15
753.60	229.06
753.93	228.97
754.26	228.72
754.59	228.43
754.91	228.18
755.24	227.89
755.57	227.65
755.90	227.60
756.22	227.39
756.55	227.21
756.88	226.92
757.20	226.45
757.53	226.13
757.86	226.00
758.19	225.86
758.51	225.65
758.84	225.25
759.17	225.07
759.49	224.94
759.82	224.96
760.15	224.85
760.47	224.61
760.80	224.33
761.13	224.26
761.45	224.02
761.78	223.89
762.11	223.79
762.43	223.74
762.76	223.50
763.08	223.43
763.41	223.31
763.74	223.25
764.06	223.14
764.39	223.03
764.71	222.90
765.04	222.73
765.37	222.57
765.69	222.46
766.02	222.37
766.34	222.19
766.67	221.91
767.00	221.87
767.32	221.98
767.65	222.08
767.97	221.92
768.30	221.88
768.62	221.71
768.95	221.56
769.27	221.39
769.60	221.30
769.92	221.13
770.25	220.90
770.57	220.71
770.90	220.57
771.22	220.46
771.55	220.45
771.87	220.34
772.20	220.23
772.52	220.45
772.85	220.77
773.17	220.75
773.50	220.68
773.82	220.49
774.15	220.21
774.47	219.86
774.80	219.74
775.12	219.59
775.45	219.60
775.77	219.41
776.09	219.34
776.42	219.34
776.74	219.32
777.07	219.33
777.39	219.32
777.72	219.33
778.04	219.27
778.36	219.08
778.69	219.04
779.01	219.04
779.33	218.66
779.66	218.12
779.98	218.00
780.31	217.91
780.63	217.90
780.95	217.87
781.28	217.84
781.60	217.72
781.92	217.70
782.25	217.54
782.57	217.52
782.89	217.44
783.22	217.32
783.54	217.26
783.86	217.17
784.19	217.04
784.51	217.00
784.83	216.91
785.16	216.79
785.48	216.70
785.80	216.61
786.12	216.64
786.45	216.64
786.77	216.58
787.09	216.50
