SpectraSuite Data File
++++++++++++++++++++++++++++++++++++
Date: Mon Feb 25 17:20:46 EST 2013
User: group
Dark Spectrum Present: No
Reference Spectrum Present: No
Number of Sampled Component Spectra: 1
Spectrometers: USB2E7196
Integration Time (usec): 104000 (USB2E7196)
Spectra Averaged: 20 (USB2E7196)
Boxcar Smoothing: 10 (USB2E7196)
Correct for Electrical Dark: No (USB2E7196)
Strobe/Lamp Enabled: No (USB2E7196)
Correct for Detector Non-linearity: No (USB2E7196)
Correct for Stray Light: No (USB2E7196)
Number of Pixels in Processed Spectrum: 2048
>>>>>Begin Processed Spectral Data<<<<<
339.09	0.00
339.48	198.05
339.86	200.00
340.24	200.80
340.63	202.65
341.01	210.00
341.39	206.50
341.78	206.40
342.16	209.35
342.54	208.60
342.93	198.39
343.31	208.38
343.69	208.93
344.07	209.43
344.46	210.02
344.84	210.54
345.22	210.65
345.60	210.89
345.99	211.16
346.37	211.33
346.75	211.53
347.13	211.70
347.52	211.88
347.90	212.06
348.28	212.14
348.66	212.35
349.05	212.39
349.43	212.57
349.81	212.68
350.19	212.85
350.57	212.91
350.96	213.02
351.34	213.21
351.72	213.42
352.10	213.57
352.48	213.61
352.87	213.66
353.25	213.69
353.63	213.78
354.01	213.91
354.39	214.00
354.77	214.04
355.15	214.19
355.54	214.16
355.92	214.15
356.30	214.21
356.68	214.45
357.06	214.55
357.44	214.56
357.82	214.56
358.20	214.49
358.58	214.57
358.97	214.63
359.35	214.81
359.73	214.91
360.11	214.98
360.49	215.05
360.87	215.11
361.25	215.24
361.63	215.46
362.01	215.48
362.39	215.53
362.77	215.63
363.15	215.66
363.53	215.73
363.91	215.83
364.29	215.91
364.67	215.60
365.05	215.69
365.43	215.74
365.81	215.86
366.19	216.12
366.57	216.23
366.95	216.21
367.33	216.04
367.71	216.05
368.09	216.08
368.47	216.01
368.85	215.95
369.23	215.98
369.61	215.80
369.99	215.95
370.37	215.94
370.75	216.07
371.13	215.95
371.51	215.84
371.89	215.78
372.27	215.69
372.65	215.71
373.03	215.64
373.41	215.58
373.78	215.59
374.16	215.37
374.54	215.28
374.92	215.18
375.30	215.17
375.68	215.07
376.06	215.09
376.44	215.04
376.82	215.03
377.19	215.03
377.57	214.93
377.95	214.68
378.33	214.66
378.71	214.45
379.09	214.44
379.47	214.44
379.84	214.40
380.22	214.41
380.60	214.30
380.98	214.17
381.36	214.12
381.73	213.97
382.11	214.05
382.49	214.03
382.87	213.98
383.25	213.95
383.62	214.32
384.00	214.17
384.38	214.21
384.76	214.28
385.13	214.35
385.51	214.37
385.89	214.35
386.27	214.25
386.64	214.25
387.02	214.18
387.40	214.13
387.78	214.07
388.15	213.97
388.53	214.00
388.91	213.98
389.29	213.91
389.66	214.02
390.04	213.89
390.42	213.90
390.79	213.92
391.17	213.97
391.55	213.52
391.92	213.52
392.30	213.50
392.68	213.42
393.05	213.34
393.43	213.37
393.81	213.41
394.18	213.43
394.56	213.45
394.94	213.44
395.31	213.43
395.69	213.60
396.06	213.67
396.44	213.69
396.82	213.69
397.19	213.89
397.57	213.85
397.95	213.95
398.32	213.83
398.70	213.88
399.07	213.96
399.45	214.01
399.82	214.06
400.20	214.05
400.58	214.08
400.95	214.03
401.33	214.13
401.70	214.43
402.08	214.47
402.45	214.54
402.83	214.73
403.20	214.89
403.58	214.94
403.95	215.07
404.33	215.31
404.71	215.50
405.08	215.82
405.46	215.93
405.83	216.15
406.21	216.43
406.58	216.67
406.96	216.86
407.33	217.15
407.70	217.56
408.08	218.19
408.45	218.58
408.83	219.00
409.20	219.37
409.58	219.59
409.95	220.14
410.33	220.64
410.70	221.07
411.08	221.55
411.45	222.15
411.82	222.69
412.20	223.32
412.57	224.20
412.95	224.65
413.32	225.54
413.69	226.30
414.07	227.19
414.44	228.11
414.82	229.13
415.19	230.25
415.56	231.34
415.94	232.31
416.31	233.79
416.68	235.18
417.06	236.73
417.43	238.30
417.81	239.96
418.18	241.79
418.55	243.69
418.93	245.75
419.30	247.77
419.67	250.06
420.04	252.25
420.42	254.60
420.79	257.51
421.16	260.17
421.54	263.18
421.91	266.14
422.28	269.28
422.66	272.51
423.03	275.81
423.40	279.00
423.77	282.53
424.15	285.88
424.52	289.55
424.89	293.64
425.26	297.45
425.64	301.25
426.01	305.20
426.38	309.44
426.75	313.80
427.13	318.32
427.50	322.92
427.87	327.92
428.24	332.79
428.61	337.27
428.99	342.48
429.36	347.82
429.73	353.18
430.10	358.51
430.47	363.97
430.85	369.71
431.22	375.86
431.59	382.48
431.96	388.68
432.33	395.48
432.70	401.98
433.08	409.64
433.45	416.81
433.82	424.02
434.19	431.98
434.56	439.79
434.93	447.19
435.30	454.61
435.68	462.81
436.05	470.92
436.42	479.15
436.79	486.57
437.16	494.57
437.53	503.04
437.90	511.41
438.27	519.85
438.64	528.44
439.01	536.50
439.38	543.37
439.75	550.20
440.13	557.99
440.50	565.35
440.87	571.28
441.24	577.57
441.61	584.57
441.98	589.60
442.35	595.34
442.72	601.31
443.09	607.11
443.46	610.45
443.83	612.77
444.20	614.54
444.57	617.37
444.94	618.80
445.31	620.18
445.68	621.67
446.05	622.02
446.42	621.01
446.79	619.85
447.16	618.64
447.53	617.77
447.90	614.55
448.27	611.31
448.64	606.95
449.01	603.58
449.37	597.78
449.74	592.36
450.11	586.03
450.48	578.96
450.85	571.80
451.22	565.73
451.59	559.80
451.96	554.30
452.33	546.83
452.70	539.99
453.07	531.81
453.43	523.38
453.80	515.56
454.17	507.97
454.54	500.71
454.91	493.05
455.28	485.62
455.65	478.68
456.02	472.00
456.38	466.10
456.75	458.79
457.12	452.63
457.49	446.63
457.86	440.79
458.23	435.85
458.59	430.29
458.96	424.74
459.33	419.72
459.70	414.68
460.07	410.75
460.43	406.23
460.80	402.14
461.17	398.57
461.54	394.58
461.91	390.90
462.27	387.24
462.64	384.12
463.01	380.64
463.38	377.29
463.74	373.66
464.11	370.75
464.48	368.28
464.85	365.57
465.21	363.52
465.58	361.25
465.95	358.49
466.32	356.33
466.68	354.10
467.05	352.02
467.42	349.92
467.78	347.70
468.15	345.55
468.52	344.01
468.88	341.86
469.25	340.13
469.62	338.75
469.98	337.30
470.35	335.98
470.72	334.65
471.08	333.17
471.45	332.07
471.82	330.92
472.18	329.63
472.55	328.78
472.92	327.68
473.28	326.79
473.65	325.88
474.02	325.05
474.38	324.49
474.75	324.01
475.11	323.55
475.48	323.25
475.85	323.13
476.21	322.94
476.58	322.94
476.94	323.11
477.31	323.19
477.67	323.20
478.04	323.30
478.41	323.65
478.77	324.41
479.14	324.67
479.50	325.15
479.87	325.79
480.23	326.56
480.60	327.17
480.96	327.97
481.33	329.26
481.69	330.25
482.06	331.24
482.42	332.36
482.79	333.49
483.15	334.95
483.52	336.50
483.88	338.05
484.25	339.72
484.61	341.42
484.98	343.20
485.34	345.41
485.71	347.65
486.07	349.95
486.44	352.20
486.80	354.88
487.17	357.67
487.53	360.85
487.90	364.10
488.26	367.60
488.62	371.18
488.99	374.71
489.35	378.75
489.72	382.95
490.08	387.45
490.44	392.10
490.81	396.87
491.17	401.76
491.54	407.17
491.90	412.74
492.26	418.67
492.63	424.73
492.99	431.12
493.36	438.03
493.72	445.28
494.08	452.57
494.45	460.48
494.81	468.82
495.17	477.24
495.54	486.14
495.90	495.35
496.26	504.93
496.63	515.09
496.99	525.45
497.35	536.42
497.72	547.57
498.08	559.32
498.44	571.49
498.80	584.69
499.17	597.93
499.53	611.63
499.89	625.94
500.26	640.60
500.62	655.61
500.98	671.51
501.34	687.83
501.71	704.78
502.07	722.09
502.43	739.89
502.79	758.05
503.16	777.25
503.52	796.91
503.88	817.03
504.24	837.50
504.60	858.68
504.97	880.40
505.33	902.62
505.69	926.22
506.05	949.89
506.41	973.95
506.78	998.63
507.14	1023.72
507.50	1049.22
507.86	1075.71
508.22	1102.69
508.59	1129.80
508.95	1157.57
509.31	1185.85
509.67	1214.94
510.03	1244.57
510.39	1275.11
510.75	1305.46
511.12	1336.47
511.48	1368.05
511.84	1400.02
512.20	1432.01
512.56	1465.01
512.92	1498.58
513.28	1531.87
513.64	1565.53
514.00	1599.11
514.37	1633.31
514.73	1667.86
515.09	1703.12
515.45	1738.10
515.81	1773.45
516.17	1808.43
516.53	1843.79
516.89	1879.54
517.25	1915.19
517.61	1950.79
517.97	1986.07
518.33	2021.40
518.69	2056.85
519.05	2092.72
519.41	2129.02
519.77	2165.87
520.13	2201.60
520.49	2236.87
520.85	2273.12
521.21	2309.40
521.57	2346.27
521.93	2381.31
522.29	2418.32
522.65	2454.65
523.01	2490.63
523.37	2525.14
523.73	2561.00
524.09	2596.23
524.45	2631.76
524.81	2666.68
525.17	2702.17
525.53	2737.31
525.89	2772.77
526.25	2807.63
526.61	2841.05
526.97	2874.24
527.33	2907.01
527.68	2940.56
528.04	2973.02
528.40	3004.07
528.76	3035.74
529.12	3067.39
529.48	3100.42
529.84	3131.30
530.20	3161.88
530.56	3192.82
530.91	3224.95
531.27	3255.79
531.63	3285.68
531.99	3315.35
532.35	3344.23
532.71	3372.12
533.07	3400.70
533.42	3427.60
533.78	3455.32
534.14	3482.12
534.50	3507.55
534.86	3533.90
535.21	3557.92
535.57	3584.05
535.93	3608.62
536.29	3632.15
536.65	3655.58
537.00	3677.44
537.36	3698.62
537.72	3719.52
538.08	3739.83
538.44	3760.20
538.79	3780.36
539.15	3800.81
539.51	3820.10
539.87	3840.45
540.22	3859.64
540.58	3878.86
540.94	3897.67
541.29	3914.09
541.65	3930.54
542.01	3947.35
542.37	3962.40
542.72	3977.85
543.08	3991.00
543.44	4004.32
543.79	4016.71
544.15	4027.12
544.51	4037.66
544.87	4047.45
545.22	4056.35
545.58	4064.52
545.94	4071.00
546.29	4076.43
546.65	4081.16
547.01	4085.05
547.36	4087.51
547.72	4089.99
548.07	4090.60
548.43	4091.39
548.79	4092.62
549.14	4094.02
549.50	4094.73
549.86	4094.86
550.21	4094.92
550.57	4095.00
550.92	4095.00
551.28	4095.00
551.64	4095.00
551.99	4095.00
552.35	4095.00
552.70	4095.00
553.06	4095.00
553.41	4095.00
553.77	4095.00
554.13	4095.00
554.48	4095.00
554.84	4095.00
555.19	4095.00
555.55	4095.00
555.90	4095.00
556.26	4095.00
556.61	4094.99
556.97	4094.98
557.32	4094.98
557.68	4094.93
558.03	4094.90
558.39	4094.75
558.74	4094.75
559.10	4094.75
559.45	4094.74
559.81	4094.73
560.16	4094.40
560.52	4094.19
560.87	4093.21
561.23	4091.75
561.58	4090.94
561.94	4088.71
562.29	4086.22
562.64	4084.05
563.00	4082.06
563.35	4079.69
563.71	4077.56
564.06	4073.86
564.42	4070.38
564.77	4067.19
565.12	4063.46
565.48	4058.73
565.83	4053.98
566.19	4049.78
566.54	4043.50
566.89	4037.43
567.25	4031.74
567.60	4025.15
567.96	4017.85
568.31	4011.45
568.66	4003.72
569.02	3995.12
569.37	3986.48
569.72	3978.63
570.08	3969.93
570.43	3960.35
570.78	3950.59
571.14	3939.54
571.49	3929.24
571.84	3919.74
572.20	3907.97
572.55	3897.37
572.90	3886.00
573.26	3873.70
573.61	3861.10
573.96	3849.30
574.31	3836.37
574.67	3822.79
575.02	3808.97
575.37	3795.61
575.72	3780.95
576.08	3768.56
576.43	3754.61
576.78	3741.96
577.13	3729.54
577.49	3716.63
577.84	3703.79
578.19	3691.56
578.54	3680.30
578.90	3668.84
579.25	3654.99
579.60	3641.04
579.95	3625.94
580.30	3613.26
580.66	3601.16
581.01	3587.40
581.36	3573.68
581.71	3560.35
582.06	3547.49
582.42	3534.48
582.77	3520.48
583.12	3507.17
583.47	3494.25
583.82	3482.30
584.17	3469.51
584.53	3456.38
584.88	3443.08
585.23	3429.32
585.58	3415.57
585.93	3400.88
586.28	3387.27
586.63	3373.54
586.98	3360.96
587.34	3349.01
587.69	3335.66
588.04	3322.40
588.39	3309.83
588.74	3296.33
589.09	3283.78
589.44	3269.76
589.79	3257.43
590.14	3245.44
590.49	3232.64
590.84	3219.13
591.19	3207.20
591.54	3194.23
591.89	3179.35
592.25	3165.60
592.60	3151.96
592.95	3137.48
593.30	3122.90
593.65	3108.17
594.00	3094.22
594.35	3082.22
594.70	3068.57
595.05	3055.50
595.40	3042.11
595.75	3027.55
596.10	3015.37
596.45	3003.07
596.80	2991.44
597.15	2979.19
597.50	2966.10
597.85	2953.44
598.19	2940.60
598.54	2927.47
598.89	2915.21
599.24	2905.25
599.59	2893.60
599.94	2883.08
600.29	2872.07
600.64	2860.76
600.99	2848.07
601.34	2837.17
601.69	2823.91
602.04	2811.45
602.39	2799.09
602.74	2787.31
603.08	2777.23
603.43	2766.88
603.78	2755.16
604.13	2743.69
604.48	2731.90
604.83	2721.99
605.18	2712.39
605.53	2701.00
605.87	2688.89
606.22	2677.96
606.57	2665.62
606.92	2653.98
607.27	2641.55
607.62	2629.47
607.96	2618.81
608.31	2608.98
608.66	2596.59
609.01	2584.71
609.36	2573.02
609.70	2560.52
610.05	2547.91
610.40	2535.16
610.75	2521.64
611.10	2509.66
611.44	2495.62
611.79	2481.76
612.14	2467.22
612.49	2452.56
612.83	2439.63
613.18	2425.89
613.53	2411.86
613.88	2397.10
614.22	2384.10
614.57	2370.63
614.92	2357.44
615.27	2343.32
615.61	2329.41
615.96	2316.74
616.31	2304.51
616.65	2292.51
617.00	2280.68
617.35	2268.20
617.70	2254.95
618.04	2241.38
618.39	2226.96
618.74	2214.68
619.08	2201.96
619.43	2189.64
619.78	2177.55
620.12	2164.83
620.47	2152.68
620.82	2139.34
621.16	2126.77
621.51	2113.44
621.85	2101.21
622.20	2088.11
622.55	2075.35
622.89	2062.40
623.24	2049.53
623.59	2036.38
623.93	2023.22
624.28	2010.48
624.62	1998.31
624.97	1985.97
625.32	1974.32
625.66	1963.00
626.01	1951.31
626.35	1940.03
626.70	1928.08
627.04	1916.36
627.39	1904.98
627.73	1893.40
628.08	1882.90
628.43	1871.22
628.77	1859.78
629.12	1847.82
629.46	1837.38
629.81	1826.38
630.15	1815.56
630.50	1804.46
630.84	1792.72
631.19	1781.60
631.53	1770.43
631.88	1758.45
632.22	1747.10
632.57	1736.25
632.91	1724.68
633.26	1713.37
633.60	1702.30
633.95	1691.89
634.29	1680.81
634.64	1670.00
634.98	1658.54
635.32	1647.56
635.67	1638.01
636.01	1628.04
636.36	1617.64
636.70	1607.14
637.05	1596.78
637.39	1586.67
637.73	1576.86
638.08	1567.89
638.42	1558.36
638.77	1548.35
639.11	1538.65
639.45	1528.96
639.80	1518.25
640.14	1508.29
640.49	1498.35
640.83	1488.21
641.17	1478.12
641.52	1467.97
641.86	1457.45
642.20	1447.71
642.55	1436.96
642.89	1426.09
643.23	1415.37
643.58	1405.54
643.92	1394.82
644.26	1384.89
644.61	1374.78
644.95	1364.36
645.29	1353.92
645.64	1343.36
645.98	1333.54
646.32	1324.03
646.66	1313.90
647.01	1304.39
647.35	1294.74
647.69	1284.49
648.04	1274.91
648.38	1264.89
648.72	1255.12
649.06	1245.57
649.41	1236.01
649.75	1226.61
650.09	1217.62
650.43	1208.37
650.78	1198.38
651.12	1188.92
651.46	1179.22
651.80	1169.91
652.14	1160.78
652.49	1151.40
652.83	1142.11
653.17	1132.08
653.51	1122.12
653.85	1113.01
654.20	1103.88
654.54	1094.38
654.88	1085.48
655.22	1076.14
655.56	1066.86
655.90	1057.77
656.25	1048.71
656.59	1039.94
656.93	1031.55
657.27	1022.99
657.61	1013.91
657.95	1005.66
658.29	997.35
658.64	989.33
658.98	980.86
659.32	972.09
659.66	963.89
660.00	955.71
660.34	947.61
660.68	939.64
661.02	931.41
661.36	923.68
661.70	916.22
662.05	908.66
662.39	901.51
662.73	894.13
663.07	887.15
663.41	880.02
663.75	872.66
664.09	865.01
664.43	857.34
664.77	850.45
665.11	843.23
665.45	836.32
665.79	829.35
666.13	822.39
666.47	815.80
666.81	809.10
667.15	802.38
667.49	796.39
667.83	790.05
668.17	784.02
668.51	778.04
668.85	771.78
669.19	765.80
669.53	759.52
669.87	753.55
670.21	747.46
670.55	741.39
670.89	735.89
671.23	730.80
671.57	725.50
671.91	719.94
672.25	714.42
672.58	708.97
672.92	703.57
673.26	698.43
673.60	693.35
673.94	688.10
674.28	683.17
674.62	678.10
674.96	673.29
675.30	668.38
675.64	663.20
675.97	658.35
676.31	653.52
676.65	648.81
676.99	644.49
677.33	639.63
677.67	635.12
678.01	630.27
678.34	625.50
678.68	620.95
679.02	616.28
679.36	611.94
679.70	607.48
680.04	602.96
680.37	598.40
680.71	593.92
681.05	589.79
681.39	585.31
681.73	581.03
682.06	576.99
682.40	573.01
682.74	568.84
683.08	564.94
683.42	560.89
683.75	556.87
684.09	552.61
684.43	548.81
684.77	544.75
685.10	540.84
685.44	536.78
685.78	532.92
686.12	529.50
686.45	525.85
686.79	522.13
687.13	518.69
687.46	515.29
687.80	511.84
688.14	508.23
688.48	504.87
688.81	501.22
689.15	497.66
689.49	494.04
689.82	490.67
690.16	486.98
690.50	483.52
690.83	480.20
691.17	476.83
691.51	473.42
691.84	470.24
692.18	467.18
692.52	464.28
692.85	461.51
693.19	458.40
693.52	455.37
693.86	452.21
694.20	449.22
694.53	446.29
694.87	443.31
695.21	440.47
695.54	437.53
695.88	434.60
696.21	431.74
696.55	429.09
696.88	426.27
697.22	423.59
697.56	421.13
697.89	418.30
698.23	415.65
698.56	413.17
698.90	410.77
699.23	408.21
699.57	405.65
699.90	402.92
700.24	400.49
700.58	398.05
700.91	395.89
701.25	393.75
701.58	391.50
701.92	389.18
702.25	386.84
702.59	384.72
702.92	382.68
703.26	380.46
703.59	378.32
703.93	376.68
704.26	374.73
704.60	372.56
704.93	370.65
705.26	368.61
705.60	366.78
705.93	364.81
706.27	362.95
706.60	361.20
706.94	359.49
707.27	357.45
707.61	355.52
707.94	353.73
708.27	351.57
708.61	349.64
708.94	347.92
709.28	346.27
709.61	344.56
709.94	342.98
710.28	341.50
710.61	339.97
710.95	337.85
711.28	336.51
711.61	334.90
711.95	333.53
712.28	332.05
712.61	330.59
712.95	329.20
713.28	327.80
713.61	326.36
713.95	324.93
714.28	323.75
714.61	322.45
714.95	321.08
715.28	319.81
715.61	318.41
715.95	317.12
716.28	315.69
716.61	314.38
716.95	312.95
717.28	311.60
717.61	310.35
717.94	309.31
718.28	307.83
718.61	306.75
718.94	305.43
719.27	304.30
719.61	303.07
719.94	301.97
720.27	300.74
720.60	299.65
720.94	298.52
721.27	297.37
721.60	296.40
721.93	295.31
722.27	294.46
722.60	293.53
722.93	292.48
723.26	291.60
723.59	290.65
723.93	289.79
724.26	288.93
724.59	287.99
724.92	287.11
725.25	286.31
725.59	285.40
725.92	284.65
726.25	283.83
726.58	283.03
726.91	282.14
727.24	281.43
727.57	280.55
727.91	279.71
728.24	279.06
728.57	278.30
728.90	277.70
729.23	276.79
729.56	276.22
729.89	275.46
730.22	274.78
730.55	274.00
730.89	273.29
731.22	272.57
731.55	271.82
731.88	271.09
732.21	270.41
732.54	269.72
732.87	269.00
733.20	268.42
733.53	267.79
733.86	267.23
734.19	266.53
734.52	266.00
734.85	265.65
735.18	264.89
735.51	264.34
735.84	263.69
736.17	263.20
736.50	262.49
736.83	262.42
737.16	261.89
737.49	261.35
737.82	260.78
738.15	260.26
738.48	259.76
738.81	259.21
739.14	258.59
739.47	258.01
739.80	257.45
740.13	256.85
740.46	256.23
740.79	255.56
741.12	254.99
741.45	254.40
741.78	253.68
742.11	253.35
742.44	252.82
742.77	252.39
743.10	251.95
743.43	251.47
743.75	250.62
744.08	250.56
744.41	250.08
744.74	249.56
745.07	249.09
745.40	248.73
745.73	248.40
746.06	247.95
746.39	247.60
746.71	247.12
747.04	246.73
747.37	246.31
747.70	246.08
748.03	245.79
748.36	245.47
748.68	245.03
749.01	244.50
749.34	244.06
749.67	243.66
750.00	243.30
750.33	243.09
750.65	242.74
750.98	241.88
751.31	241.55
751.64	241.28
751.97	241.06
752.29	240.65
752.62	240.23
752.95	239.80
753.28	239.37
753.60	239.03
753.93	238.80
754.26	238.59
754.59	238.10
754.91	237.78
755.24	237.46
755.57	237.19
755.90	236.95
756.22	236.68
756.55	236.37
756.88	235.99
757.20	235.48
757.53	235.06
757.86	234.81
758.19	234.52
758.51	234.29
758.84	233.87
759.17	233.62
759.49	233.36
759.82	233.35
760.15	233.12
760.47	232.89
760.80	232.56
761.13	232.35
761.45	232.12
761.78	231.83
762.11	231.54
762.43	231.25
762.76	230.98
763.08	230.74
763.41	230.55
763.74	230.36
764.06	230.15
764.39	230.01
764.71	229.78
765.04	229.54
765.37	229.24
765.69	228.97
766.02	228.64
766.34	228.40
766.67	228.04
767.00	227.98
767.32	227.98
767.65	227.87
767.97	227.63
768.30	227.50
768.62	227.29
768.95	227.04
769.27	226.92
769.60	226.83
769.92	226.60
770.25	226.30
770.57	226.11
770.90	225.90
771.22	225.73
771.55	225.57
771.87	225.41
772.20	225.28
772.52	225.43
772.85	225.79
773.17	225.64
773.50	225.45
773.82	225.20
774.15	224.86
774.47	224.60
774.80	224.42
775.12	224.21
775.45	224.01
775.77	223.99
776.09	223.81
776.42	223.62
776.74	223.61
777.07	223.45
777.39	223.28
777.72	223.23
778.04	223.16
778.36	223.03
778.69	223.00
779.01	222.84
779.33	222.45
779.66	221.92
779.98	221.83
780.31	221.74
780.63	221.74
780.95	221.74
781.28	221.55
781.60	221.33
781.92	221.33
782.25	221.30
782.57	221.08
782.89	220.89
783.22	220.75
783.54	220.53
783.86	220.47
784.19	220.43
784.51	220.47
784.83	220.33
785.16	220.19
