SpectraSuite Data File
++++++++++++++++++++++++++++++++++++
Date: Mon Feb 25 17:19:04 EST 2013
User: group
Dark Spectrum Present: No
Reference Spectrum Present: No
Number of Sampled Component Spectra: 1
Spectrometers: USB2E7196
Integration Time (usec): 104000 (USB2E7196)
Spectra Averaged: 20 (USB2E7196)
Boxcar Smoothing: 10 (USB2E7196)
Correct for Electrical Dark: No (USB2E7196)
Strobe/Lamp Enabled: No (USB2E7196)
Correct for Detector Non-linearity: No (USB2E7196)
Correct for Stray Light: No (USB2E7196)
Number of Pixels in Processed Spectrum: 2048
>>>>>Begin Processed Spectral Data<<<<<
339.09	0.00
339.48	198.25
339.86	200.55
340.24	200.45
340.63	203.20
341.01	209.60
341.39	206.00
341.78	209.00
342.16	210.75
342.54	209.50
342.93	198.65
343.31	208.71
343.69	209.32
344.07	209.81
344.46	210.35
344.84	210.77
345.22	210.91
345.60	211.19
345.99	211.34
346.37	211.40
346.75	211.49
347.13	211.57
347.52	211.66
347.90	211.85
348.28	211.96
348.66	212.11
349.05	212.14
349.43	212.20
349.81	212.29
350.19	212.40
350.57	212.38
350.96	212.50
351.34	212.63
351.72	212.79
352.10	212.88
352.48	212.95
352.87	213.03
353.25	213.08
353.63	213.15
354.01	213.26
354.39	213.36
354.77	213.45
355.15	213.64
355.54	213.68
355.92	213.63
356.30	213.73
356.68	214.08
357.06	214.15
357.44	214.13
357.82	214.16
358.20	214.23
358.58	214.29
358.97	214.37
359.35	214.50
359.73	214.58
360.11	214.69
360.49	214.76
360.87	214.83
361.25	214.95
361.63	215.06
362.01	215.09
362.39	215.11
362.77	215.21
363.15	215.20
363.53	215.26
363.91	215.32
364.29	215.33
364.67	214.98
365.05	215.04
365.43	215.16
365.81	215.19
366.19	215.35
366.57	215.55
366.95	215.58
367.33	215.54
367.71	215.47
368.09	215.48
368.47	215.49
368.85	215.47
369.23	215.45
369.61	215.35
369.99	215.43
370.37	215.53
370.75	215.62
371.13	215.55
371.51	215.45
371.89	215.42
372.27	215.37
372.65	215.35
373.03	215.32
373.41	215.22
373.78	215.26
374.16	215.09
374.54	214.96
374.92	214.84
375.30	214.73
375.68	214.68
376.06	214.65
376.44	214.55
376.82	214.52
377.19	214.48
377.57	214.50
377.95	214.32
378.33	214.26
378.71	214.00
379.09	213.97
379.47	213.98
379.84	213.91
380.22	213.89
380.60	213.74
380.98	213.63
381.36	213.62
381.73	213.50
382.11	213.50
382.49	213.41
382.87	213.38
383.25	213.38
383.62	213.67
384.00	213.60
384.38	213.60
384.76	213.62
385.13	213.70
385.51	213.70
385.89	213.64
386.27	213.50
386.64	213.61
387.02	213.57
387.40	213.52
387.78	213.49
388.15	213.47
388.53	213.43
388.91	213.44
389.29	213.30
389.66	213.33
390.04	213.22
390.42	213.30
390.79	213.29
391.17	213.25
391.55	212.92
391.92	212.91
392.30	212.90
392.68	212.78
393.05	212.85
393.43	212.82
393.81	212.83
394.18	212.83
394.56	212.80
394.94	212.88
395.31	212.78
395.69	212.92
396.06	213.01
396.44	213.13
396.82	213.15
397.19	213.41
397.57	213.39
397.95	213.49
398.32	213.45
398.70	213.51
399.07	213.60
399.45	213.59
399.82	213.65
400.20	213.66
400.58	213.78
400.95	213.63
401.33	213.69
401.70	213.98
402.08	214.07
402.45	214.12
402.83	214.23
403.20	214.39
403.58	214.38
403.95	214.47
404.33	214.52
404.71	214.61
405.08	214.94
405.46	215.13
405.83	215.34
406.21	215.48
406.58	215.69
406.96	215.87
407.33	216.08
407.70	216.35
408.08	216.83
408.45	217.15
408.83	217.54
409.20	217.78
409.58	217.94
409.95	218.39
410.33	218.79
410.70	219.05
411.08	219.57
411.45	220.08
411.82	220.51
412.20	221.16
412.57	221.99
412.95	222.23
413.32	222.89
413.69	223.53
414.07	224.29
414.44	225.10
414.82	225.88
415.19	226.89
415.56	227.86
415.94	228.74
416.31	229.84
416.68	230.96
417.06	232.30
417.43	233.55
417.81	234.98
418.18	236.49
418.55	238.12
418.93	239.78
419.30	241.48
419.67	243.38
420.04	245.25
420.42	247.06
420.79	249.51
421.16	251.73
421.54	254.25
421.91	256.69
422.28	259.15
422.66	261.82
423.03	264.60
423.40	267.35
423.77	270.28
424.15	273.23
424.52	276.25
424.89	279.66
425.26	282.86
425.64	285.88
426.01	289.21
426.38	292.68
426.75	296.27
427.13	299.96
427.50	303.88
427.87	307.94
428.24	311.97
428.61	315.83
428.99	320.29
429.36	324.76
429.73	329.23
430.10	333.85
430.47	338.64
430.85	343.23
431.22	348.28
431.59	353.65
431.96	358.67
432.33	364.41
432.70	369.80
433.08	376.32
433.45	382.35
433.82	388.32
434.19	394.98
434.56	401.63
434.93	407.93
435.30	414.13
435.68	420.95
436.05	427.70
436.42	434.35
436.79	440.45
437.16	447.05
437.53	454.09
437.90	461.01
438.27	467.75
438.64	474.89
439.01	481.35
439.38	487.11
439.75	492.82
440.13	499.21
440.50	505.15
440.87	510.10
441.24	515.19
441.61	520.83
441.98	525.03
442.35	529.59
442.72	534.45
443.09	539.15
443.46	541.88
443.83	543.84
444.20	545.52
444.57	547.75
444.94	548.76
445.31	549.95
445.68	551.22
446.05	551.59
446.42	550.69
446.79	549.83
447.16	548.89
447.53	548.10
447.90	545.23
448.27	542.75
448.64	539.02
449.01	536.23
449.37	531.56
449.74	526.86
450.11	521.67
450.48	515.71
450.85	509.68
451.22	504.46
451.59	499.49
451.96	494.69
452.33	488.53
452.70	482.91
453.07	476.00
453.43	468.80
453.80	462.21
454.17	456.09
454.54	450.06
454.91	443.66
455.28	437.35
455.65	431.74
456.02	426.23
456.38	421.26
456.75	415.29
457.12	410.15
457.49	405.23
457.86	400.31
458.23	396.32
458.59	391.78
458.96	387.34
459.33	383.30
459.70	379.28
460.07	375.96
460.43	372.27
460.80	368.93
461.17	366.08
461.54	362.97
461.91	359.97
462.27	357.01
462.64	354.38
463.01	351.69
463.38	348.99
463.74	345.75
464.11	343.23
464.48	341.23
464.85	338.92
465.21	337.28
465.58	335.43
465.95	333.14
466.32	331.26
466.68	329.42
467.05	327.60
467.42	325.74
467.78	323.83
468.15	322.03
468.52	320.77
468.88	318.92
469.25	317.36
469.62	316.15
469.98	314.82
470.35	313.60
470.72	312.54
471.08	311.21
471.45	310.41
471.82	309.58
472.18	308.46
472.55	307.83
472.92	306.89
473.28	306.06
473.65	305.36
474.02	304.68
474.38	304.22
474.75	303.87
475.11	303.40
475.48	303.17
475.85	302.99
476.21	302.71
476.58	302.75
476.94	302.79
477.31	302.81
477.67	302.90
478.04	303.10
478.41	303.32
478.77	303.96
479.14	304.07
479.50	304.52
479.87	305.03
480.23	305.62
480.60	306.14
480.96	306.73
481.33	307.56
481.69	308.46
482.06	309.25
482.42	310.11
482.79	311.18
483.15	312.35
483.52	313.77
483.88	315.09
484.25	316.30
484.61	317.77
484.98	319.17
485.34	320.90
485.71	322.82
486.07	324.70
486.44	326.43
486.80	328.68
487.17	330.91
487.53	333.45
487.90	336.08
488.26	339.04
488.62	342.16
488.99	345.17
489.35	348.34
489.72	351.64
490.08	355.19
490.44	359.00
490.81	362.86
491.17	366.74
491.54	371.15
491.90	375.75
492.26	380.49
492.63	385.57
492.99	390.81
493.36	396.25
493.72	402.29
494.08	408.37
494.45	414.81
494.81	421.59
495.17	428.48
495.54	435.78
495.90	443.20
496.26	450.91
496.63	459.17
496.99	467.85
497.35	476.97
497.72	486.23
498.08	495.50
498.44	505.50
498.80	516.26
499.17	527.10
499.53	538.53
499.89	550.35
500.26	562.33
500.62	574.56
500.98	587.58
501.34	600.82
501.71	614.68
502.07	628.79
502.43	643.29
502.79	658.22
503.16	673.79
503.52	689.85
503.88	706.26
504.24	723.05
504.60	740.22
504.97	758.04
505.33	776.30
505.69	796.01
506.05	815.53
506.41	835.13
506.78	855.20
507.14	875.64
507.50	896.66
507.86	918.27
508.22	940.50
508.59	962.69
508.95	985.60
509.31	1008.91
509.67	1032.80
510.03	1057.09
510.39	1082.38
510.75	1107.75
511.12	1133.44
511.48	1159.47
511.84	1185.99
512.20	1212.38
512.56	1239.72
512.92	1267.55
513.28	1295.01
513.64	1323.17
514.00	1351.45
514.37	1379.75
514.73	1408.79
515.09	1437.79
515.45	1467.06
515.81	1496.33
516.17	1525.84
516.53	1555.45
516.89	1585.15
517.25	1615.13
517.61	1644.83
517.97	1674.14
518.33	1703.58
518.69	1733.44
519.05	1763.58
519.41	1794.13
519.77	1824.90
520.13	1854.37
520.49	1883.87
520.85	1913.91
521.21	1944.11
521.57	1974.85
521.93	2004.43
522.29	2034.88
522.65	2065.39
523.01	2095.54
523.37	2124.90
523.73	2154.71
524.09	2184.28
524.45	2214.21
524.81	2243.90
525.17	2274.39
525.53	2304.18
525.89	2334.04
526.25	2363.07
526.61	2391.33
526.97	2419.46
527.33	2447.53
527.68	2476.33
528.04	2503.84
528.40	2530.35
528.76	2557.16
529.12	2584.10
529.48	2612.50
529.84	2639.08
530.20	2665.28
530.56	2691.52
530.91	2719.06
531.27	2745.46
531.63	2771.02
531.99	2796.47
532.35	2820.98
532.71	2844.89
533.07	2869.56
533.42	2892.53
533.78	2916.36
534.14	2939.80
534.50	2961.56
534.86	2984.37
535.21	3005.15
535.57	3027.71
535.93	3049.03
536.29	3069.52
536.65	3089.64
537.00	3108.51
537.36	3126.98
537.72	3145.06
538.08	3162.99
538.44	3180.16
538.79	3197.95
539.15	3215.63
539.51	3232.65
539.87	3250.43
540.22	3266.74
540.58	3283.40
540.94	3299.89
541.29	3313.99
541.65	3327.95
542.01	3342.31
542.37	3355.61
542.72	3369.73
543.08	3382.12
543.44	3396.03
543.79	3407.79
544.15	3419.04
544.51	3431.07
544.87	3443.04
545.22	3454.04
545.58	3463.65
545.94	3472.28
546.29	3479.75
546.65	3487.36
547.01	3494.43
547.36	3500.50
547.72	3506.77
548.07	3511.49
548.43	3516.10
548.79	3521.04
549.14	3525.77
549.50	3530.77
549.86	3534.00
550.21	3536.95
550.57	3540.75
550.92	3542.33
551.28	3544.46
551.64	3546.43
551.99	3548.38
552.35	3549.10
552.70	3550.39
553.06	3551.85
553.41	3553.11
553.77	3554.25
554.13	3554.40
554.48	3554.82
554.84	3555.30
555.19	3554.46
555.55	3553.35
555.90	3551.73
556.26	3550.53
556.61	3548.35
556.97	3545.25
557.32	3543.60
557.68	3540.21
558.03	3536.72
558.39	3534.02
558.74	3532.41
559.10	3530.00
559.45	3526.21
559.81	3523.10
560.16	3518.58
560.52	3515.07
560.87	3510.50
561.23	3505.21
561.58	3501.28
561.94	3495.35
562.29	3489.07
562.64	3484.47
563.00	3479.77
563.35	3475.99
563.71	3472.40
564.06	3468.30
564.42	3464.32
564.77	3460.16
565.12	3456.77
565.48	3451.69
565.83	3446.82
566.19	3441.97
566.54	3435.30
566.89	3428.96
567.25	3423.34
567.60	3417.68
567.96	3411.44
568.31	3405.86
568.66	3399.17
569.02	3391.33
569.37	3383.94
569.72	3377.32
570.08	3369.66
570.43	3361.65
570.78	3352.81
571.14	3343.26
571.49	3334.14
571.84	3325.93
572.20	3315.68
572.55	3306.65
572.90	3296.83
573.26	3286.40
573.61	3275.78
573.96	3266.08
574.31	3255.32
574.67	3243.75
575.02	3232.32
575.37	3220.73
575.72	3208.65
576.08	3198.40
576.43	3187.12
576.78	3176.36
577.13	3165.79
577.49	3155.05
577.84	3144.04
578.19	3134.05
578.54	3124.08
578.90	3114.68
579.25	3103.10
579.60	3091.72
579.95	3079.43
580.30	3068.98
580.66	3059.15
581.01	3047.48
581.36	3035.44
581.71	3024.35
582.06	3013.60
582.42	3002.70
582.77	2990.70
583.12	2979.29
583.47	2968.07
583.82	2957.60
584.17	2946.90
584.53	2935.95
584.88	2924.65
585.23	2913.26
585.58	2901.51
585.93	2889.62
586.28	2877.92
586.63	2866.53
586.98	2855.98
587.34	2846.26
587.69	2834.82
588.04	2823.28
588.39	2812.30
588.74	2801.25
589.09	2790.63
589.44	2778.94
589.79	2768.35
590.14	2758.20
590.49	2747.33
590.84	2736.64
591.19	2727.18
591.54	2716.39
591.89	2703.50
592.25	2692.20
592.60	2680.69
592.95	2668.75
593.30	2656.24
593.65	2643.90
594.00	2632.24
594.35	2622.24
594.70	2610.45
595.05	2599.74
595.40	2588.51
595.75	2576.79
596.10	2566.40
596.45	2555.74
596.80	2545.75
597.15	2535.47
597.50	2524.87
597.85	2514.73
598.19	2503.65
598.54	2492.15
598.89	2481.63
599.24	2473.09
599.59	2463.17
599.94	2454.54
600.29	2445.15
600.64	2436.06
600.99	2425.94
601.34	2416.85
601.69	2405.56
602.04	2394.96
602.39	2384.77
602.74	2374.88
603.08	2366.20
603.43	2357.41
603.78	2347.61
604.13	2338.48
604.48	2328.89
604.83	2320.36
605.18	2312.24
605.53	2302.75
605.87	2292.95
606.22	2284.06
606.57	2274.14
606.92	2264.19
607.27	2253.62
607.62	2243.81
607.96	2234.58
608.31	2226.10
608.66	2215.73
609.01	2205.59
609.36	2195.63
609.70	2185.04
610.05	2174.52
610.40	2164.09
610.75	2153.04
611.10	2143.18
611.44	2131.14
611.79	2119.65
612.14	2107.50
612.49	2095.00
612.83	2084.18
613.18	2072.54
613.53	2060.74
613.88	2048.57
614.22	2037.61
614.57	2025.97
614.92	2014.46
615.27	2002.77
615.61	1991.10
615.96	1980.22
616.31	1969.90
616.65	1959.92
617.00	1949.72
617.35	1939.12
617.70	1927.81
618.04	1916.09
618.39	1903.89
618.74	1893.21
619.08	1882.05
619.43	1871.32
619.78	1860.75
620.12	1850.24
620.47	1839.95
620.82	1828.70
621.16	1817.64
621.51	1806.63
621.85	1796.45
622.20	1785.63
622.55	1774.67
622.89	1763.70
623.24	1752.80
623.59	1741.37
623.93	1730.32
624.28	1719.42
624.62	1708.99
624.97	1698.56
625.32	1688.88
625.66	1679.41
626.01	1669.55
626.35	1659.80
626.70	1649.90
627.04	1640.54
627.39	1630.74
627.73	1620.99
628.08	1611.92
628.43	1601.99
628.77	1592.11
629.12	1581.60
629.46	1572.62
629.81	1563.54
630.15	1554.13
630.50	1544.62
630.84	1534.84
631.19	1525.25
631.53	1516.11
631.88	1505.86
632.22	1496.12
632.57	1486.83
632.91	1477.13
633.26	1467.69
633.60	1458.28
633.95	1449.28
634.29	1439.53
634.64	1430.48
634.98	1420.98
635.32	1411.89
635.67	1404.21
636.01	1395.42
636.36	1386.96
636.70	1377.98
637.05	1368.84
637.39	1360.23
637.73	1351.98
638.08	1344.49
638.42	1336.49
638.77	1328.17
639.11	1320.23
639.45	1312.04
639.80	1303.10
640.14	1294.33
640.49	1285.62
640.83	1277.20
641.17	1268.71
641.52	1260.16
641.86	1251.02
642.20	1242.63
642.55	1233.56
642.89	1224.33
643.23	1215.76
643.58	1207.46
643.92	1198.58
644.26	1190.28
644.61	1181.68
644.95	1173.01
645.29	1164.40
645.64	1155.54
645.98	1147.02
646.32	1138.90
646.66	1130.51
647.01	1122.35
647.35	1114.62
647.69	1106.08
648.04	1098.23
648.38	1089.80
648.72	1081.57
649.06	1073.74
649.41	1065.66
649.75	1057.73
650.09	1049.94
650.43	1042.07
650.78	1033.86
651.12	1025.98
651.46	1017.95
651.80	1010.52
652.14	1002.86
652.49	994.98
652.83	987.30
653.17	979.03
653.51	970.95
653.85	963.44
654.20	956.08
654.54	948.38
654.88	941.02
655.22	933.07
655.56	925.46
655.90	918.20
656.25	910.64
656.59	903.25
656.93	896.13
657.27	889.12
657.61	881.65
657.95	874.70
658.29	867.81
658.64	861.17
658.98	853.91
659.32	846.58
659.66	839.75
660.00	832.70
660.34	825.98
660.68	819.12
661.02	812.14
661.36	805.42
661.70	799.03
662.05	792.96
662.39	787.12
662.73	781.16
663.07	775.24
663.41	769.37
663.75	763.28
664.09	757.22
664.43	750.75
664.77	745.19
665.11	739.34
665.45	733.51
665.79	727.89
666.13	722.30
666.47	716.87
666.81	711.28
667.15	705.92
667.49	700.94
667.83	695.90
668.17	690.94
668.51	686.03
668.85	680.95
669.19	676.02
669.53	670.91
669.87	665.90
670.21	660.84
670.55	655.67
670.89	651.40
671.23	646.86
671.57	642.40
671.91	637.50
672.25	632.86
672.58	628.40
672.92	623.66
673.26	619.31
673.60	615.00
673.94	610.69
674.28	606.40
674.62	602.00
674.96	597.84
675.30	593.65
675.64	589.25
675.97	585.20
676.31	581.25
676.65	577.32
676.99	573.67
677.33	569.81
677.67	566.27
678.01	562.12
678.34	558.27
678.68	554.57
679.02	550.78
679.36	547.08
679.70	543.41
680.04	539.80
680.37	535.93
680.71	532.41
681.05	529.06
681.39	525.73
681.73	522.50
682.06	519.14
682.40	515.82
682.74	512.68
683.08	509.31
683.42	505.82
683.75	502.55
684.09	499.14
684.43	495.82
684.77	492.31
685.10	489.08
685.44	485.68
685.78	482.37
686.12	479.59
686.45	476.50
686.79	473.43
687.13	470.65
687.46	468.01
687.80	465.23
688.14	462.03
688.48	459.17
688.81	456.08
689.15	453.14
689.49	450.15
689.82	447.21
690.16	444.09
690.50	441.11
690.83	438.31
691.17	435.46
691.51	432.65
691.84	430.08
692.18	427.40
692.52	425.06
692.85	422.80
693.19	420.23
693.52	417.74
693.86	415.13
694.20	412.60
694.53	410.08
694.87	407.39
695.21	404.98
695.54	402.38
695.88	399.84
696.21	397.41
696.55	395.22
696.88	392.95
697.22	390.79
697.56	388.68
697.89	386.27
698.23	384.07
698.56	382.00
698.90	379.92
699.23	377.80
699.57	375.63
699.90	373.46
700.24	371.36
700.58	369.36
700.91	367.43
701.25	365.63
701.58	363.65
701.92	361.87
702.25	360.05
702.59	358.18
702.92	356.52
703.26	354.76
703.59	352.96
703.93	351.46
704.26	349.74
704.60	348.05
704.93	346.46
705.26	344.79
705.60	343.18
705.93	341.47
706.27	339.98
706.60	338.54
706.94	337.20
707.27	335.56
707.61	334.01
707.94	332.46
708.27	330.65
708.61	329.12
708.94	327.57
709.28	326.10
709.61	324.71
709.94	323.40
710.28	322.01
710.61	320.75
710.95	319.14
711.28	317.98
711.61	316.65
711.95	315.46
712.28	314.10
712.61	312.79
712.95	311.72
713.28	310.63
713.61	309.31
713.95	307.90
714.28	306.75
714.61	305.59
714.95	304.44
715.28	303.31
715.61	302.19
715.95	301.15
716.28	300.01
716.61	298.83
716.95	297.58
717.28	296.62
717.61	295.58
717.94	294.58
718.28	293.41
718.61	292.44
718.94	291.41
719.27	290.45
719.61	289.55
719.94	288.57
720.27	287.48
720.60	286.54
720.94	285.65
721.27	284.87
721.60	284.09
721.93	283.30
722.27	282.66
722.60	281.93
722.93	281.10
723.26	280.41
723.59	279.70
723.93	279.04
724.26	278.21
724.59	277.36
724.92	276.61
725.25	275.98
725.59	275.33
725.92	274.71
726.25	274.10
726.58	273.47
726.91	272.74
727.24	272.10
727.57	271.44
727.91	270.71
728.24	270.03
728.57	269.31
728.90	268.82
729.23	268.05
729.56	267.50
729.89	266.90
730.22	266.22
730.55	265.50
730.89	264.85
731.22	264.27
731.55	263.70
731.88	263.15
732.21	262.47
732.54	261.79
732.87	261.11
733.20	260.49
733.53	259.88
733.86	259.46
734.19	258.81
734.52	258.35
734.85	258.15
735.18	257.65
735.51	257.28
735.84	256.76
736.17	256.32
736.50	255.67
736.83	255.54
737.16	255.10
737.49	254.70
737.82	254.15
738.15	253.68
738.48	253.22
738.81	252.69
739.14	252.19
739.47	251.71
739.80	251.21
740.13	250.73
740.46	250.20
740.79	249.55
741.12	249.22
741.45	248.70
741.78	248.07
742.11	247.72
742.44	247.28
742.77	246.84
743.10	246.44
743.43	246.02
743.75	245.21
744.08	245.20
744.41	244.85
744.74	244.52
745.07	244.03
745.40	243.70
745.73	243.47
746.06	243.13
746.39	242.80
746.71	242.52
747.04	242.23
747.37	241.84
747.70	241.60
748.03	241.17
748.36	240.91
748.68	240.54
749.01	240.11
749.34	239.70
749.67	239.37
750.00	239.00
750.33	238.93
750.65	238.68
750.98	237.95
751.31	237.64
751.64	237.40
751.97	237.33
752.29	236.90
752.62	236.47
752.95	236.11
753.28	235.81
753.60	235.48
753.93	235.28
754.26	235.08
754.59	234.72
754.91	234.48
755.24	234.15
755.57	233.81
755.90	233.50
756.22	233.21
756.55	232.93
756.88	232.59
757.20	232.09
757.53	231.74
757.86	231.47
758.19	231.26
758.51	230.95
758.84	230.60
759.17	230.46
759.49	230.29
759.82	230.20
760.15	230.04
760.47	229.79
760.80	229.34
761.13	229.15
761.45	228.95
761.78	228.71
762.11	228.54
762.43	228.32
762.76	228.12
763.08	227.92
763.41	227.69
763.74	227.60
764.06	227.49
764.39	227.30
764.71	227.10
765.04	226.89
765.37	226.70
765.69	226.50
766.02	226.30
766.34	226.03
766.67	225.80
767.00	225.68
767.32	225.65
767.65	225.79
767.97	225.60
768.30	225.47
768.62	225.37
768.95	225.23
769.27	225.10
769.60	225.09
769.92	224.95
770.25	224.79
770.57	224.60
770.90	224.33
771.22	224.15
771.55	223.99
771.87	223.79
772.20	223.66
772.52	223.77
772.85	224.05
773.17	224.02
773.50	223.89
773.82	223.67
774.15	223.39
774.47	223.08
774.80	222.91
775.12	222.76
775.45	222.57
775.77	222.38
776.09	222.34
776.42	222.12
776.74	222.08
777.07	221.91
777.39	221.84
777.72	221.79
778.04	221.77
778.36	221.65
778.69	221.65
779.01	221.59
779.33	221.23
779.66	220.79
779.98	220.58
780.31	220.49
780.63	220.53
780.95	220.55
781.28	220.41
781.60	220.32
781.92	220.22
782.25	220.17
782.57	220.13
782.89	219.97
783.22	219.95
783.54	219.85
783.86	219.79
784.19	219.67
784.51	219.64
784.83	219.45
785.16	219.45
785.48	219.32
