SpectraSuite Data File
++++++++++++++++++++++++++++++++++++
Date: Mon Feb 25 16:59:53 EST 2013
User: group
Dark Spectrum Present: No
Reference Spectrum Present: No
Number of Sampled Component Spectra: 1
Spectrometers: USB2E7196
Integration Time (usec): 104000 (USB2E7196)
Spectra Averaged: 20 (USB2E7196)
Boxcar Smoothing: 10 (USB2E7196)
Correct for Electrical Dark: No (USB2E7196)
Strobe/Lamp Enabled: No (USB2E7196)
Correct for Detector Non-linearity: No (USB2E7196)
Correct for Stray Light: No (USB2E7196)
Number of Pixels in Processed Spectrum: 2048
>>>>>Begin Processed Spectral Data<<<<<
339.09	0.00
339.48	198.25
339.86	199.55
340.24	201.90
340.63	202.70
341.01	208.95
341.39	205.30
341.78	207.45
342.16	209.75
342.54	209.05
342.93	198.15
343.31	208.13
343.69	208.70
344.07	209.20
344.46	209.65
344.84	210.04
345.22	210.08
345.60	210.32
345.99	210.45
346.37	210.50
346.75	210.56
347.13	210.68
347.52	210.73
347.90	210.91
348.28	210.90
348.66	210.94
349.05	210.79
349.43	210.81
349.81	210.88
350.19	210.88
350.57	210.95
350.96	211.01
351.34	211.10
351.72	211.15
352.10	211.17
352.48	211.15
352.87	211.16
353.25	211.26
353.63	211.29
354.01	211.34
354.39	211.35
354.77	211.44
355.15	211.60
355.54	211.66
355.92	211.60
356.30	211.73
356.68	212.08
357.06	212.20
357.44	212.22
357.82	212.28
358.20	212.39
358.58	212.43
358.97	212.49
359.35	212.63
359.73	212.72
360.11	212.80
360.49	212.90
360.87	212.95
361.25	213.03
361.63	213.19
362.01	213.25
362.39	213.27
362.77	213.28
363.15	213.30
363.53	213.25
363.91	213.31
364.29	213.28
364.67	212.94
365.05	212.96
365.43	213.02
365.81	213.06
366.19	213.24
366.57	213.43
366.95	213.47
367.33	213.39
367.71	213.36
368.09	213.50
368.47	213.53
368.85	213.55
369.23	213.64
369.61	213.58
369.99	213.75
370.37	213.77
370.75	214.00
371.13	213.94
371.51	213.88
371.89	213.86
372.27	213.88
372.65	213.87
373.03	213.86
373.41	213.82
373.78	213.76
374.16	213.54
374.54	213.37
374.92	213.33
375.30	213.29
375.68	213.29
376.06	213.25
376.44	213.07
376.82	213.02
377.19	212.89
377.57	212.75
377.95	212.58
378.33	212.53
378.71	212.25
379.09	212.26
379.47	212.35
379.84	212.29
380.22	212.16
380.60	212.04
380.98	211.95
381.36	211.89
381.73	211.76
382.11	211.76
382.49	211.69
382.87	211.62
383.25	211.60
383.62	211.87
384.00	211.73
384.38	211.78
384.76	211.83
385.13	211.91
385.51	211.90
385.89	211.79
386.27	211.84
386.64	211.85
387.02	211.73
387.40	211.61
387.78	211.60
388.15	211.62
388.53	211.61
388.91	211.56
389.29	211.50
389.66	211.55
390.04	211.47
390.42	211.58
390.79	211.58
391.17	211.50
391.55	211.21
391.92	211.10
392.30	211.09
392.68	211.02
393.05	210.94
393.43	210.94
393.81	210.99
394.18	210.89
394.56	210.93
394.94	211.05
395.31	211.02
395.69	211.06
396.06	211.11
396.44	211.15
396.82	211.09
397.19	211.31
397.57	211.30
397.95	211.36
398.32	211.31
398.70	211.30
399.07	211.50
399.45	211.52
399.82	211.62
400.20	211.69
400.58	211.70
400.95	211.64
401.33	211.78
401.70	212.00
402.08	212.10
402.45	212.05
402.83	212.17
403.20	212.29
403.58	212.43
403.95	212.65
404.33	212.81
404.71	213.04
405.08	213.38
405.46	213.62
405.83	213.80
406.21	214.01
406.58	214.25
406.96	214.40
407.33	214.54
407.70	214.90
408.08	215.46
408.45	215.85
408.83	216.36
409.20	216.70
409.58	216.97
409.95	217.45
410.33	218.08
410.70	218.50
411.08	219.19
411.45	219.78
411.82	220.27
412.20	221.06
412.57	222.00
412.95	222.47
413.32	223.34
413.69	224.24
414.07	225.17
414.44	226.20
414.82	227.31
415.19	228.67
415.56	229.92
415.94	231.17
416.31	232.77
416.68	234.27
417.06	236.05
417.43	237.76
417.81	239.78
418.18	241.63
418.55	243.73
418.93	245.89
419.30	248.17
419.67	250.69
420.04	253.13
420.42	255.75
420.79	258.96
421.16	262.08
421.54	265.29
421.91	268.63
422.28	272.17
422.66	275.87
423.03	279.62
423.40	283.46
423.77	287.44
424.15	291.52
424.52	295.77
424.89	300.53
425.26	305.15
425.64	309.53
426.01	314.34
426.38	319.38
426.75	324.50
427.13	329.85
427.50	335.45
427.87	341.27
428.24	346.99
428.61	352.55
428.99	358.66
429.36	365.28
429.73	371.80
430.10	378.42
430.47	385.11
430.85	392.04
431.22	399.38
431.59	407.38
431.96	414.95
432.33	423.30
432.70	431.35
433.08	440.71
433.45	449.69
433.82	458.73
434.19	468.78
434.56	478.71
434.93	488.16
435.30	497.64
435.68	508.18
436.05	518.67
436.42	529.10
436.79	538.86
437.16	549.49
437.53	560.52
437.90	571.33
438.27	582.27
438.64	593.45
439.01	603.95
439.38	613.32
439.75	622.43
440.13	632.93
440.50	642.81
440.87	651.14
441.24	659.71
441.61	669.19
441.98	676.30
442.35	684.49
442.72	692.80
443.09	700.87
443.46	706.03
443.83	709.96
444.20	713.42
444.57	717.82
444.94	720.25
445.31	722.86
445.68	725.64
446.05	727.07
446.42	726.96
446.79	726.57
447.16	725.84
447.53	725.66
447.90	722.40
448.27	719.21
448.64	714.35
449.01	711.05
449.37	704.44
449.74	698.22
450.11	690.77
450.48	682.54
450.85	673.85
451.22	666.53
451.59	659.54
451.96	652.75
452.33	643.56
452.70	635.29
453.07	625.40
453.43	615.04
453.80	605.37
454.17	596.02
454.54	587.26
454.91	577.66
455.28	568.28
455.65	559.56
456.02	550.99
456.38	543.65
456.75	534.34
457.12	526.66
457.49	519.06
457.86	511.44
458.23	504.92
458.59	497.94
458.96	490.87
459.33	484.51
459.70	478.09
460.07	473.10
460.43	467.46
460.80	461.97
461.17	457.26
461.54	452.25
461.91	447.36
462.27	442.33
462.64	438.28
463.01	433.80
463.38	429.47
463.74	424.76
464.11	420.80
464.48	417.34
464.85	413.66
465.21	410.88
465.58	407.84
465.95	404.15
466.32	401.22
466.68	398.17
467.05	395.08
467.42	392.08
467.78	389.00
468.15	385.88
468.52	383.65
468.88	380.77
469.25	378.11
469.62	375.97
469.98	373.75
470.35	371.58
470.72	369.48
471.08	367.21
471.45	365.33
471.82	363.46
472.18	361.32
472.55	359.73
472.92	357.75
473.28	356.15
473.65	354.64
474.02	353.04
474.38	351.83
474.75	350.84
475.11	349.70
475.48	348.77
475.85	347.84
476.21	346.96
476.58	346.10
476.94	345.60
477.31	344.88
477.67	344.19
478.04	343.68
478.41	343.33
478.77	343.30
479.14	342.92
479.50	342.63
479.87	342.63
480.23	342.64
480.60	342.52
480.96	342.33
481.33	342.66
481.69	342.77
482.06	342.90
482.42	342.90
482.79	343.07
483.15	343.42
483.52	344.00
483.88	344.46
484.25	344.93
484.61	345.28
484.98	345.89
485.34	346.73
485.71	347.55
486.07	348.30
486.44	348.97
486.80	350.00
487.17	351.04
487.53	352.27
487.90	353.48
488.26	354.98
488.62	356.55
488.99	357.76
489.35	359.20
489.72	360.72
490.08	362.42
490.44	364.15
490.81	365.91
491.17	367.73
491.54	369.55
491.90	371.57
492.26	373.63
492.63	375.76
492.99	377.81
493.36	380.14
493.72	382.67
494.08	385.04
494.45	387.64
494.81	390.33
495.17	392.82
495.54	395.55
495.90	398.22
496.26	400.91
496.63	403.81
496.99	406.84
497.35	409.83
497.72	412.86
498.08	415.89
498.44	419.09
498.80	422.42
499.17	425.73
499.53	428.98
499.89	432.47
500.26	435.85
500.62	439.22
500.98	442.57
501.34	445.84
501.71	449.23
502.07	452.52
502.43	455.70
502.79	458.96
503.16	462.36
503.52	465.58
503.88	468.76
504.24	472.05
504.60	475.23
504.97	478.56
505.33	481.66
505.69	484.97
506.05	488.09
506.41	491.10
506.78	494.03
507.14	496.86
507.50	499.62
507.86	502.26
508.22	505.04
508.59	507.62
508.95	510.28
509.31	512.98
509.67	515.56
510.03	518.13
510.39	520.77
510.75	523.06
511.12	525.36
511.48	527.59
511.84	529.75
512.20	531.94
512.56	533.88
512.92	536.05
513.28	537.98
513.64	539.61
514.00	541.27
514.37	542.87
514.73	544.64
515.09	546.38
515.45	548.01
515.81	549.47
516.17	550.85
516.53	552.10
516.89	553.14
517.25	554.31
517.61	555.44
517.97	556.32
518.33	557.33
518.69	558.27
519.05	559.10
519.41	559.87
519.77	561.01
520.13	561.63
520.49	562.24
520.85	562.89
521.21	563.62
521.57	564.44
521.93	564.92
522.29	565.58
522.65	566.01
523.01	566.64
523.37	567.08
523.73	567.80
524.09	568.18
524.45	568.79
524.81	569.22
525.17	569.75
525.53	570.40
525.89	570.84
526.25	571.60
526.61	572.30
526.97	572.96
527.33	573.31
527.68	574.39
528.04	575.06
528.40	575.53
528.76	576.29
529.12	576.91
529.48	578.06
529.84	578.77
530.20	579.71
530.56	580.69
530.91	581.98
531.27	582.96
531.63	584.26
531.99	585.35
532.35	586.69
532.71	588.00
533.07	589.37
533.42	591.17
533.78	592.34
534.14	593.90
534.50	595.21
534.86	596.91
535.21	598.09
535.57	599.68
535.93	601.40
536.29	603.23
536.65	605.02
537.00	606.70
537.36	608.47
537.72	610.12
538.08	612.00
538.44	613.69
538.79	615.57
539.15	617.44
539.51	619.57
539.87	621.49
540.22	623.49
540.58	625.72
540.94	627.55
541.29	629.88
541.65	631.61
542.01	633.92
542.37	635.90
542.72	638.13
543.08	640.22
543.44	642.62
543.79	644.58
544.15	646.83
544.51	649.36
544.87	651.87
545.22	654.44
545.58	656.61
545.94	658.99
546.29	661.37
546.65	663.52
547.01	665.68
547.36	668.18
547.72	670.63
548.07	672.77
548.43	675.07
548.79	677.22
549.14	679.93
549.50	682.35
549.86	684.78
550.21	687.29
550.57	690.03
550.92	692.20
551.28	694.80
551.64	697.16
551.99	699.58
552.35	701.95
552.70	704.25
553.06	706.82
553.41	709.17
553.77	711.77
554.13	714.54
554.48	717.32
554.84	719.97
555.19	722.39
555.55	725.38
555.90	727.43
556.26	729.82
556.61	731.96
556.97	734.03
557.32	736.21
557.68	738.19
558.03	740.20
558.39	742.36
558.74	744.44
559.10	746.52
559.45	748.48
559.81	750.71
560.16	752.82
560.52	754.95
560.87	757.16
561.23	758.83
561.58	760.95
561.94	762.64
562.29	764.11
562.64	765.99
563.00	767.47
563.35	769.61
563.71	771.77
564.06	773.86
564.42	776.08
564.77	778.17
565.12	780.50
565.48	782.61
565.83	784.74
566.19	786.75
566.54	788.65
566.89	790.56
567.25	792.42
567.60	794.24
567.96	796.10
568.31	797.96
568.66	799.87
569.02	801.15
569.37	802.43
569.72	803.98
570.08	805.26
570.43	806.50
570.78	807.81
571.14	808.65
571.49	809.43
571.84	810.46
572.20	811.15
572.55	811.79
572.90	812.07
573.26	812.50
573.61	812.81
573.96	813.21
574.31	813.32
574.67	813.32
575.02	813.27
575.37	813.06
575.72	812.52
576.08	812.35
576.43	812.16
576.78	812.20
577.13	812.09
577.49	812.00
577.84	811.69
578.19	811.57
578.54	811.66
578.90	811.85
579.25	811.33
579.60	810.74
579.95	810.08
580.30	809.84
580.66	809.56
581.01	808.95
581.36	808.22
581.71	807.39
582.06	806.75
582.42	806.14
582.77	805.11
583.12	804.41
583.47	803.74
583.82	803.10
584.17	802.05
584.53	801.31
584.88	800.35
585.23	799.40
585.58	798.21
585.93	796.89
586.28	795.72
586.63	794.76
586.98	793.81
587.34	792.98
587.69	791.65
588.04	790.38
588.39	789.50
588.74	788.34
589.09	787.60
589.44	786.28
589.79	785.30
590.14	784.31
590.49	783.12
590.84	781.55
591.19	780.51
591.54	779.57
591.89	777.83
592.25	776.82
592.60	775.26
592.95	773.65
593.30	772.09
593.65	770.31
594.00	768.50
594.35	768.03
594.70	766.39
595.05	765.10
595.40	763.60
595.75	761.70
596.10	760.25
596.45	758.60
596.80	757.33
597.15	755.74
597.50	754.09
597.85	752.54
598.19	750.99
598.54	749.22
598.89	747.44
599.24	746.22
599.59	744.19
599.94	742.94
600.29	741.45
600.64	739.95
600.99	738.47
601.34	737.15
601.69	734.51
602.04	732.68
602.39	730.82
602.74	729.19
603.08	727.56
603.43	726.00
603.78	723.91
604.13	721.85
604.48	719.96
604.83	718.41
605.18	717.00
605.53	715.13
605.87	713.23
606.22	711.43
606.57	709.38
606.92	707.50
607.27	705.33
607.62	703.36
607.96	701.50
608.31	699.58
608.66	697.52
609.01	695.24
609.36	693.34
609.70	691.23
610.05	688.94
610.40	687.07
610.75	684.71
611.10	682.90
611.44	680.68
611.79	678.32
612.14	675.88
612.49	673.13
612.83	670.98
613.18	668.51
613.53	666.17
613.88	663.71
614.22	661.56
614.57	659.06
614.92	656.71
615.27	654.26
615.61	651.78
615.96	649.47
616.31	647.42
616.65	645.30
617.00	643.00
617.35	640.66
617.70	638.10
618.04	635.66
618.39	633.12
618.74	630.95
619.08	628.53
619.43	626.40
619.78	624.31
620.12	622.03
620.47	619.78
620.82	617.20
621.16	614.81
621.51	612.30
621.85	609.99
622.20	607.56
622.55	605.09
622.89	602.80
623.24	600.37
623.59	597.90
623.93	595.38
624.28	593.03
624.62	591.02
624.97	588.87
625.32	586.66
625.66	584.46
626.01	582.01
626.35	579.91
626.70	577.35
627.04	575.02
627.39	572.76
627.73	570.77
628.08	568.83
628.43	566.62
628.77	564.33
629.12	562.00
629.46	560.03
629.81	557.89
630.15	555.57
630.50	553.25
630.84	550.96
631.19	548.67
631.53	546.60
631.88	544.05
632.22	541.61
632.57	539.60
632.91	537.35
633.26	535.29
633.60	533.05
633.95	531.00
634.29	528.80
634.64	526.71
634.98	524.44
635.32	522.44
635.67	520.60
636.01	518.55
636.36	516.69
636.70	514.66
637.05	512.61
637.39	510.65
637.73	508.90
638.08	507.34
638.42	505.70
638.77	503.86
639.11	502.12
639.45	500.32
639.80	498.19
640.14	496.23
640.49	494.26
640.83	492.38
641.17	490.54
641.52	488.73
641.86	486.67
642.20	484.82
642.55	482.48
642.89	480.29
643.23	478.34
643.58	476.66
643.92	474.50
644.26	472.62
644.61	470.72
644.95	468.64
645.29	466.40
645.64	464.30
645.98	462.24
646.32	460.25
646.66	458.22
647.01	456.28
647.35	454.44
647.69	452.44
648.04	450.56
648.38	448.60
648.72	446.63
649.06	444.64
649.41	442.49
649.75	440.69
650.09	438.94
650.43	437.04
650.78	434.89
651.12	433.12
651.46	431.26
651.80	429.55
652.14	427.68
652.49	425.99
652.83	424.15
653.17	422.33
653.51	420.55
653.85	418.89
654.20	417.20
654.54	415.33
654.88	413.65
655.22	411.89
655.56	410.07
655.90	408.30
656.25	406.60
656.59	404.86
656.93	403.24
657.27	401.61
657.61	399.80
657.95	398.22
658.29	396.46
658.64	394.80
658.98	393.00
659.32	391.17
659.66	389.44
660.00	387.74
660.34	385.99
660.68	384.27
661.02	382.53
661.36	380.97
661.70	379.48
662.05	377.94
662.39	376.55
662.73	375.16
663.07	373.95
663.41	372.52
663.75	371.12
664.09	369.77
664.43	368.11
664.77	366.81
665.11	365.21
665.45	363.85
665.79	362.45
666.13	361.08
666.47	359.85
666.81	358.56
667.15	357.16
667.49	355.92
667.83	354.73
668.17	353.48
668.51	352.12
668.85	350.89
669.19	349.72
669.53	348.31
669.87	347.00
670.21	345.51
670.55	344.29
670.89	343.32
671.23	342.12
671.57	341.09
671.91	339.83
672.25	338.73
672.58	337.63
672.92	336.46
673.26	335.38
673.60	334.35
673.94	333.12
674.28	332.02
674.62	331.01
674.96	329.88
675.30	328.84
675.64	327.70
675.97	326.55
676.31	325.37
676.65	324.23
676.99	323.31
677.33	322.29
677.67	321.16
678.01	319.95
678.34	318.93
678.68	317.91
679.02	316.95
679.36	315.97
679.70	314.91
680.04	313.96
680.37	312.93
680.71	311.86
681.05	311.05
681.39	310.14
681.73	309.11
682.06	308.26
682.40	307.36
682.74	306.55
683.08	305.81
683.42	304.98
683.75	304.22
684.09	303.24
684.43	302.35
684.77	301.58
685.10	300.64
685.44	299.72
685.78	298.82
686.12	298.03
686.45	297.17
686.79	296.33
687.13	295.58
687.46	294.77
687.80	294.01
688.14	293.12
688.48	292.31
688.81	291.55
689.15	290.65
689.49	289.78
689.82	289.04
690.16	288.09
690.50	287.23
690.83	286.40
691.17	285.45
691.51	284.60
691.84	283.81
692.18	283.04
692.52	282.28
692.85	281.60
693.19	281.07
693.52	280.42
693.86	279.67
694.20	278.90
694.53	278.21
694.87	277.50
695.21	276.75
695.54	276.10
695.88	275.37
696.21	274.63
696.55	274.03
696.88	273.34
697.22	272.72
697.56	272.22
697.89	271.55
698.23	271.02
698.56	270.42
698.90	269.85
699.23	269.25
699.57	268.65
699.90	268.02
700.24	267.21
700.58	266.59
700.91	266.13
701.25	265.78
701.58	265.35
701.92	264.87
702.25	264.36
702.59	263.87
702.92	263.39
703.26	262.83
703.59	262.26
703.93	262.01
704.26	261.45
704.60	260.94
704.93	260.44
705.26	259.92
705.60	259.51
705.93	258.97
706.27	258.61
706.60	258.27
706.94	257.97
707.27	257.41
707.61	256.91
707.94	256.37
708.27	255.64
708.61	255.05
708.94	254.49
709.28	253.97
709.61	253.43
709.94	252.98
710.28	252.59
710.61	252.23
710.95	251.47
711.28	251.30
711.61	250.71
711.95	250.38
712.28	249.95
712.61	249.56
712.95	249.28
713.28	249.02
713.61	248.54
713.95	248.03
714.28	247.70
714.61	247.33
714.95	247.02
715.28	246.58
715.61	246.17
715.95	245.82
716.28	245.50
716.61	245.24
716.95	244.84
717.28	244.49
717.61	244.14
717.94	243.85
718.28	243.24
718.61	242.98
718.94	242.59
719.27	242.26
719.61	241.85
719.94	241.53
720.27	241.02
720.60	240.61
720.94	240.32
721.27	240.03
721.60	239.73
721.93	239.42
722.27	239.32
722.60	239.05
722.93	238.82
723.26	238.56
723.59	238.22
723.93	238.05
724.26	237.82
724.59	237.44
724.92	237.14
725.25	236.99
725.59	236.80
725.92	236.60
726.25	236.35
726.58	236.15
726.91	235.85
727.24	235.63
727.57	235.53
727.91	235.15
728.24	235.00
728.57	234.81
728.90	234.61
729.23	234.20
729.56	234.19
729.89	233.95
730.22	233.69
730.55	233.46
730.89	233.17
731.22	232.94
731.55	232.74
731.88	232.64
732.21	232.32
732.54	232.03
732.87	231.74
733.20	231.56
733.53	231.38
733.86	231.16
734.19	230.93
734.52	230.64
734.85	230.81
735.18	230.59
735.51	230.51
735.84	230.32
736.17	230.31
736.50	229.93
736.83	230.12
737.16	230.03
737.49	229.88
737.82	229.64
738.15	229.52
738.48	229.36
738.81	229.10
739.14	228.88
739.47	228.72
739.80	228.57
740.13	228.53
740.46	228.31
740.79	228.11
741.12	227.89
741.45	227.72
741.78	227.25
742.11	227.12
742.44	226.82
742.77	226.78
743.10	226.51
743.43	226.32
743.75	225.79
744.08	226.04
744.41	225.85
744.74	225.82
745.07	225.61
745.40	225.51
745.73	225.51
746.06	225.43
746.39	225.35
746.71	225.18
747.04	224.98
747.37	224.88
747.70	224.78
748.03	224.78
748.36	224.78
748.68	224.69
749.01	224.48
749.34	224.31
749.67	224.06
750.00	223.98
750.33	224.10
750.65	224.05
750.98	223.42
751.31	223.32
751.64	223.15
751.97	223.20
752.29	223.09
752.62	222.82
752.95	222.64
753.28	222.44
753.60	222.35
753.93	222.26
754.26	222.11
754.59	221.90
754.91	221.72
755.24	221.52
755.57	221.38
755.90	221.29
756.22	221.19
756.55	221.12
756.88	220.99
757.20	220.74
757.53	220.50
757.86	220.43
758.19	220.30
758.51	220.16
758.84	219.92
759.17	219.76
759.49	219.68
759.82	219.72
760.15	219.65
760.47	219.45
760.80	219.25
761.13	219.30
761.45	219.21
761.78	219.15
762.11	219.04
762.43	219.03
762.76	218.93
763.08	218.88
763.41	218.77
763.74	218.71
764.06	218.56
764.39	218.60
764.71	218.55
765.04	218.45
765.37	218.38
765.69	218.24
766.02	218.17
766.34	218.12
766.67	217.93
767.00	217.93
767.32	218.16
767.65	218.33
767.97	218.15
768.30	218.12
768.62	217.90
768.95	217.81
769.27	217.65
769.60	217.68
769.92	217.58
770.25	217.51
770.57	217.40
770.90	217.35
771.22	217.15
771.55	217.07
771.87	217.01
772.20	216.90
772.52	217.15
772.85	217.53
773.17	217.43
773.50	217.46
773.82	217.36
774.15	217.07
774.47	216.75
774.80	216.69
775.12	216.68
775.45	216.68
775.77	216.67
776.09	216.67
776.42	216.58
776.74	216.65
777.07	216.52
777.39	216.41
777.72	216.30
778.04	216.33
778.36	216.25
778.69	216.21
779.01	216.26
779.33	215.89
779.66	215.50
779.98	215.43
780.31	215.33
780.63	215.43
780.95	215.48
781.28	215.49
781.60	215.41
781.92	215.37
782.25	215.44
782.57	215.43
782.89	215.36
783.22	215.22
783.54	215.10
783.86	215.15
784.19	215.14
784.51	215.17
784.83	215.08
785.16	215.07
785.48	215.06
785.80	214.98
786.12	215.00
786.45	214.81
786.77	214.82
787.09	214.77
787.42	214.63
787.74	214.64
788.06	214.65
788.38	214.58
788.71	214.41
789.03	214.38
789.35	214.32
789.67	214.25
789.99	214.35
790.32	214.25
790.64	214.24
790.96	214.56
791.28	214.47
791.61	214.42
791.93	214.39
792.25	214.42
792.57	214.61
792.89	214.50
793.21	214.56
793.54	214.49
793.86	214.52
794.18	214.46
