SpectraSuite Data File
++++++++++++++++++++++++++++++++++++
Date: Mon Feb 25 17:18:53 EST 2013
User: group
Dark Spectrum Present: No
Reference Spectrum Present: No
Number of Sampled Component Spectra: 1
Spectrometers: USB2E7196
Integration Time (usec): 104000 (USB2E7196)
Spectra Averaged: 20 (USB2E7196)
Boxcar Smoothing: 10 (USB2E7196)
Correct for Electrical Dark: No (USB2E7196)
Strobe/Lamp Enabled: No (USB2E7196)
Correct for Detector Non-linearity: No (USB2E7196)
Correct for Stray Light: No (USB2E7196)
Number of Pixels in Processed Spectrum: 2048
>>>>>Begin Processed Spectral Data<<<<<
339.09	0.00
339.48	197.05
339.86	200.40
340.24	200.60
340.63	203.55
341.01	209.95
341.39	205.85
341.78	208.35
342.16	210.35
342.54	208.60
342.93	198.50
343.31	208.52
343.69	209.15
344.07	209.65
344.46	210.21
344.84	210.54
345.22	210.58
345.60	210.92
345.99	211.10
346.37	211.17
346.75	211.40
347.13	211.46
347.52	211.61
347.90	211.81
348.28	211.96
348.66	212.10
349.05	212.10
349.43	212.19
349.81	212.35
350.19	212.39
350.57	212.52
350.96	212.67
351.34	212.78
351.72	212.86
352.10	212.96
352.48	213.03
352.87	213.17
353.25	213.24
353.63	213.21
354.01	213.24
354.39	213.36
354.77	213.33
355.15	213.53
355.54	213.45
355.92	213.39
356.30	213.41
356.68	213.68
357.06	213.77
357.44	213.79
357.82	213.75
358.20	213.84
358.58	213.88
358.97	213.88
359.35	213.97
359.73	214.10
360.11	214.17
360.49	214.22
360.87	214.22
361.25	214.30
361.63	214.43
362.01	214.55
362.39	214.51
362.77	214.58
363.15	214.54
363.53	214.65
363.91	214.65
364.29	214.72
364.67	214.46
365.05	214.43
365.43	214.48
365.81	214.56
366.19	214.72
366.57	214.87
366.95	214.89
367.33	214.86
367.71	214.86
368.09	214.89
368.47	214.85
368.85	214.89
369.23	214.97
369.61	214.90
369.99	214.95
370.37	215.05
370.75	215.22
371.13	215.15
371.51	215.03
371.89	215.12
372.27	215.04
372.65	215.00
373.03	214.96
373.41	214.86
373.78	214.76
374.16	214.52
374.54	214.35
374.92	214.30
375.30	214.28
375.68	214.13
376.06	214.14
376.44	214.03
376.82	214.04
377.19	214.00
377.57	213.95
377.95	213.80
378.33	213.67
378.71	213.40
379.09	213.39
379.47	213.45
379.84	213.34
380.22	213.33
380.60	213.18
380.98	213.10
381.36	213.09
381.73	213.09
382.11	213.17
382.49	213.13
382.87	213.10
383.25	213.05
383.62	213.46
384.00	213.34
384.38	213.34
384.76	213.34
385.13	213.40
385.51	213.36
385.89	213.32
386.27	213.33
386.64	213.41
387.02	213.37
387.40	213.25
387.78	213.30
388.15	213.27
388.53	213.29
388.91	213.32
389.29	213.28
389.66	213.29
390.04	213.18
390.42	213.21
390.79	213.13
391.17	213.08
391.55	212.67
391.92	212.65
392.30	212.74
392.68	212.61
393.05	212.59
393.43	212.58
393.81	212.63
394.18	212.60
394.56	212.53
394.94	212.60
395.31	212.65
395.69	212.75
396.06	212.83
396.44	212.90
396.82	212.91
397.19	213.09
397.57	213.04
397.95	213.15
398.32	213.08
398.70	213.15
399.07	213.28
399.45	213.35
399.82	213.41
400.20	213.37
400.58	213.39
400.95	213.28
401.33	213.46
401.70	213.69
402.08	213.82
402.45	213.89
402.83	213.96
403.20	214.06
403.58	214.04
403.95	214.13
404.33	214.30
404.71	214.41
405.08	214.73
405.46	214.94
405.83	215.12
406.21	215.35
406.58	215.59
406.96	215.77
407.33	215.92
407.70	216.16
408.08	216.71
408.45	217.12
408.83	217.57
409.20	217.79
409.58	217.90
409.95	218.29
410.33	218.69
410.70	219.02
411.08	219.53
411.45	220.06
411.82	220.59
412.20	221.16
412.57	221.92
412.95	222.22
413.32	222.91
413.69	223.48
414.07	224.13
414.44	224.91
414.82	225.72
415.19	226.75
415.56	227.74
415.94	228.59
416.31	229.73
416.68	230.79
417.06	232.17
417.43	233.52
417.81	234.81
418.18	236.37
418.55	237.98
418.93	239.54
419.30	241.11
419.67	242.88
420.04	244.66
420.42	246.52
420.79	248.86
421.16	251.14
421.54	253.60
421.91	256.07
422.28	258.58
422.66	261.19
423.03	263.81
423.40	266.40
423.77	269.24
424.15	272.06
424.52	275.07
424.89	278.30
425.26	281.35
425.64	284.43
426.01	287.66
426.38	291.05
426.75	294.63
427.13	298.30
427.50	302.12
427.87	306.08
428.24	310.05
428.61	313.67
428.99	317.80
429.36	322.24
429.73	326.62
430.10	330.97
430.47	335.53
430.85	340.15
431.22	345.07
431.59	350.41
431.96	355.38
432.33	360.89
432.70	366.29
433.08	372.63
433.45	378.51
433.82	384.22
434.19	390.75
434.56	397.05
434.93	403.19
435.30	409.21
435.68	416.00
436.05	422.51
436.42	429.23
436.79	435.24
437.16	441.61
437.53	448.36
437.90	455.13
438.27	461.76
438.64	468.59
439.01	475.09
439.38	480.58
439.75	486.10
440.13	492.36
440.50	498.16
440.87	502.95
441.24	507.92
441.61	513.51
441.98	517.57
442.35	522.42
442.72	527.18
443.09	531.79
443.46	534.50
443.83	536.37
444.20	537.85
444.57	540.07
444.94	541.15
445.31	542.38
445.68	543.64
446.05	543.94
446.42	543.22
446.79	542.34
447.16	541.41
447.53	540.58
447.90	537.92
448.27	535.19
448.64	531.50
449.01	528.71
449.37	524.20
449.74	519.66
450.11	514.41
450.48	508.66
450.85	502.68
451.22	497.62
451.59	492.82
451.96	488.22
452.33	482.10
452.70	476.56
453.07	469.82
453.43	462.93
453.80	456.64
454.17	450.56
454.54	444.74
454.91	438.50
455.28	432.61
455.65	426.96
456.02	421.77
456.38	417.05
456.75	411.27
457.12	406.33
457.49	401.45
457.86	396.54
458.23	392.51
458.59	388.20
458.96	383.64
459.33	379.70
459.70	375.72
460.07	372.63
460.43	368.99
460.80	365.69
461.17	362.72
461.54	359.56
461.91	356.60
462.27	353.63
462.64	351.08
463.01	348.23
463.38	345.64
463.74	342.56
464.11	340.10
464.48	338.06
464.85	335.74
465.21	334.20
465.58	332.45
465.95	330.17
466.32	328.32
466.68	326.59
467.05	324.79
467.42	323.03
467.78	321.15
468.15	319.49
468.52	318.30
468.88	316.65
469.25	315.17
469.62	314.04
469.98	312.74
470.35	311.64
470.72	310.61
471.08	309.35
471.45	308.44
471.82	307.67
472.18	306.64
472.55	306.00
472.92	305.09
473.28	304.35
473.65	303.69
474.02	303.00
474.38	302.51
474.75	302.12
475.11	301.73
475.48	301.59
475.85	301.42
476.21	301.23
476.58	301.14
476.94	301.28
477.31	301.23
477.67	301.26
478.04	301.37
478.41	301.52
478.77	302.11
479.14	302.35
479.50	302.64
479.87	303.13
480.23	303.64
480.60	304.11
480.96	304.58
481.33	305.41
481.69	306.26
482.06	307.08
482.42	307.89
482.79	308.87
483.15	309.93
483.52	311.23
483.88	312.36
484.25	313.65
484.61	314.98
484.98	316.43
485.34	318.19
485.71	320.02
486.07	321.98
486.44	323.64
486.80	325.67
487.17	327.91
487.53	330.36
487.90	332.92
488.26	335.66
488.62	338.72
488.99	341.65
489.35	344.74
489.72	348.11
490.08	351.69
490.44	355.28
490.81	359.12
491.17	362.97
491.54	367.32
491.90	371.75
492.26	376.34
492.63	381.21
492.99	386.33
493.36	391.72
493.72	397.50
494.08	403.43
494.45	409.79
494.81	416.33
495.17	422.98
495.54	430.13
495.90	437.49
496.26	444.97
496.63	452.87
496.99	461.26
497.35	469.90
497.72	478.93
498.08	488.20
498.44	497.83
498.80	508.21
499.17	518.76
499.53	529.74
499.89	541.20
500.26	552.95
500.62	564.80
500.98	577.40
501.34	590.24
501.71	603.67
502.07	617.23
502.43	631.34
502.79	645.87
503.16	660.92
503.52	676.57
503.88	692.60
504.24	709.22
504.60	725.79
504.97	743.18
505.33	760.88
505.69	779.86
506.05	798.85
506.41	818.04
506.78	837.39
507.14	857.28
507.50	877.79
507.86	898.84
508.22	920.55
508.59	942.05
508.95	964.30
509.31	987.01
509.67	1010.41
510.03	1034.30
510.39	1058.93
510.75	1083.60
511.12	1108.62
511.48	1133.85
511.84	1159.55
512.20	1185.60
512.56	1212.07
512.92	1239.07
513.28	1265.50
513.64	1292.89
514.00	1320.30
514.37	1348.16
514.73	1376.66
515.09	1405.02
515.45	1433.34
515.81	1461.76
516.17	1490.55
516.53	1519.61
516.89	1548.76
517.25	1577.88
517.61	1606.82
517.97	1635.44
518.33	1664.29
518.69	1693.34
519.05	1723.05
519.41	1752.65
519.77	1782.85
520.13	1811.96
520.49	1840.80
520.85	1870.62
521.21	1900.37
521.57	1930.24
521.93	1959.20
522.29	1989.03
522.65	2018.66
523.01	2047.90
523.37	2076.70
523.73	2106.03
524.09	2134.77
524.45	2163.46
524.81	2192.29
525.17	2221.48
525.53	2250.60
525.89	2279.50
526.25	2307.76
526.61	2334.95
526.97	2362.41
527.33	2389.45
527.68	2417.31
528.04	2444.51
528.40	2470.42
528.76	2496.26
529.12	2522.70
529.48	2550.41
529.84	2576.23
530.20	2602.00
530.56	2627.89
530.91	2654.57
531.27	2680.16
531.63	2705.36
531.99	2730.22
532.35	2754.11
532.71	2777.61
533.07	2801.74
533.42	2824.75
533.78	2848.09
534.14	2870.90
534.50	2892.22
534.86	2914.50
535.21	2935.14
535.57	2956.88
535.93	2977.52
536.29	2997.90
536.65	3018.08
537.00	3036.30
537.36	3054.40
537.72	3072.18
538.08	3089.86
538.44	3107.25
538.79	3125.06
539.15	3142.25
539.51	3159.34
539.87	3177.05
540.22	3193.44
540.58	3210.04
540.94	3226.09
541.29	3240.34
541.65	3253.95
542.01	3268.19
542.37	3281.23
542.72	3295.01
543.08	3307.15
543.44	3321.19
543.79	3332.71
544.15	3342.97
544.51	3354.90
544.87	3366.56
545.22	3376.87
545.58	3386.45
545.94	3394.38
546.29	3401.53
546.65	3408.44
547.01	3415.20
547.36	3421.43
547.72	3427.36
548.07	3431.65
548.43	3435.64
548.79	3439.57
549.14	3444.45
549.50	3449.00
549.86	3452.27
550.21	3455.10
550.57	3458.84
550.92	3460.20
551.28	3462.08
551.64	3464.57
551.99	3466.67
552.35	3467.84
552.70	3469.26
553.06	3470.21
553.41	3471.51
553.77	3472.12
554.13	3472.75
554.48	3473.59
554.84	3474.01
555.19	3473.31
555.55	3472.16
555.90	3470.90
556.26	3469.95
556.61	3467.97
556.97	3465.40
557.32	3463.72
557.68	3460.71
558.03	3457.35
558.39	3454.28
558.74	3452.72
559.10	3450.02
559.45	3446.32
559.81	3443.00
560.16	3438.86
560.52	3435.60
560.87	3431.35
561.23	3426.36
561.58	3422.55
561.94	3416.60
562.29	3410.02
562.64	3405.64
563.00	3401.55
563.35	3397.91
563.71	3394.53
564.06	3390.55
564.42	3386.81
564.77	3382.78
565.12	3379.08
565.48	3374.47
565.83	3370.13
566.19	3365.25
566.54	3358.97
566.89	3352.95
567.25	3347.57
567.60	3342.27
567.96	3336.03
568.31	3330.41
568.66	3324.39
569.02	3317.18
569.37	3310.26
569.72	3304.35
570.08	3296.95
570.43	3288.98
570.78	3280.45
571.14	3271.23
571.49	3262.67
571.84	3254.44
572.20	3244.19
572.55	3235.44
572.90	3225.80
573.26	3215.90
573.61	3205.40
573.96	3195.92
574.31	3185.37
574.67	3174.33
575.02	3162.61
575.37	3151.40
575.72	3139.33
576.08	3128.79
576.43	3117.39
576.78	3106.84
577.13	3096.25
577.49	3085.34
577.84	3074.44
578.19	3064.47
578.54	3055.38
578.90	3045.28
579.25	3034.09
579.60	3023.29
579.95	3011.47
580.30	3001.01
580.66	2990.64
581.01	2979.26
581.36	2967.68
581.71	2956.19
582.06	2944.91
582.42	2934.56
582.77	2922.96
583.12	2912.08
583.47	2901.73
583.82	2891.86
584.17	2880.81
584.53	2869.91
584.88	2858.72
585.23	2847.66
585.58	2836.37
585.93	2824.42
586.28	2813.75
586.63	2802.52
586.98	2792.16
587.34	2782.37
587.69	2771.07
588.04	2759.98
588.39	2749.65
588.74	2738.62
589.09	2728.47
589.44	2717.48
589.79	2707.09
590.14	2697.38
590.49	2687.05
590.84	2676.11
591.19	2666.11
591.54	2655.93
591.89	2643.55
592.25	2632.63
592.60	2620.97
592.95	2609.00
593.30	2596.74
593.65	2584.35
594.00	2573.09
594.35	2563.46
594.70	2551.85
595.05	2541.42
595.40	2530.55
595.75	2518.92
596.10	2508.79
596.45	2498.55
596.80	2489.02
597.15	2478.92
597.50	2468.06
597.85	2458.01
598.19	2447.32
598.54	2436.43
598.89	2426.36
599.24	2418.29
599.59	2409.06
599.94	2400.67
600.29	2391.96
600.64	2382.78
600.99	2372.89
601.34	2363.91
601.69	2352.57
602.04	2342.60
602.39	2332.75
602.74	2323.17
603.08	2315.32
603.43	2306.62
603.78	2297.13
604.13	2287.50
604.48	2278.00
604.83	2270.32
605.18	2262.30
605.53	2253.28
605.87	2243.61
606.22	2234.98
606.57	2225.40
606.92	2215.76
607.27	2205.90
607.62	2196.20
607.96	2187.70
608.31	2179.77
608.66	2169.64
609.01	2160.23
609.36	2150.38
609.70	2139.88
610.05	2129.66
610.40	2118.86
610.75	2108.35
611.10	2098.92
611.44	2087.43
611.79	2076.32
612.14	2064.50
612.49	2052.02
612.83	2041.33
613.18	2030.10
613.53	2018.40
613.88	2006.20
614.22	1995.51
614.57	1984.15
614.92	1973.08
615.27	1961.16
615.61	1949.60
615.96	1939.02
616.31	1928.72
616.65	1919.16
617.00	1909.44
617.35	1899.06
617.70	1887.81
618.04	1876.06
618.39	1864.22
618.74	1854.12
619.08	1843.36
619.43	1832.99
619.78	1823.20
620.12	1812.83
620.47	1802.94
620.82	1791.75
621.16	1781.05
621.51	1770.04
621.85	1759.69
622.20	1748.82
622.55	1738.67
622.89	1728.00
623.24	1717.40
623.59	1706.38
623.93	1695.32
624.28	1684.80
624.62	1674.53
624.97	1664.67
625.32	1655.32
625.66	1645.79
626.01	1635.95
626.35	1626.54
626.70	1616.65
627.04	1607.48
627.39	1597.90
627.73	1588.10
628.08	1579.40
628.43	1570.10
628.77	1560.67
629.12	1550.89
629.46	1542.22
629.81	1532.92
630.15	1523.67
630.50	1514.47
630.84	1505.01
631.19	1495.74
631.53	1486.46
631.88	1476.79
632.22	1467.40
632.57	1458.37
632.91	1448.87
633.26	1439.60
633.60	1430.47
633.95	1421.67
634.29	1412.24
634.64	1403.52
634.98	1394.32
635.32	1385.35
635.67	1377.25
636.01	1368.92
636.36	1360.18
636.70	1351.53
637.05	1342.68
637.39	1334.53
637.73	1326.69
638.08	1319.25
638.42	1311.51
638.77	1303.27
639.11	1295.15
639.45	1286.93
639.80	1278.19
640.14	1269.77
640.49	1261.58
640.83	1252.95
641.17	1244.55
641.52	1235.85
641.86	1227.03
642.20	1218.89
642.55	1210.04
642.89	1201.33
643.23	1192.51
643.58	1184.90
643.92	1176.30
644.26	1168.33
644.61	1159.89
644.95	1151.04
645.29	1142.46
645.64	1133.79
645.98	1125.76
646.32	1117.89
646.66	1109.77
647.01	1101.90
647.35	1094.24
647.69	1085.78
648.04	1078.25
648.38	1070.01
648.72	1062.34
649.06	1054.57
649.41	1046.69
649.75	1039.02
650.09	1031.26
650.43	1023.71
650.78	1015.44
651.12	1007.38
651.46	999.50
651.80	992.18
652.14	984.61
652.49	976.96
652.83	969.31
653.17	961.36
653.51	953.61
653.85	946.26
654.20	938.97
654.54	931.23
654.88	923.92
655.22	916.41
655.56	909.15
655.90	901.59
656.25	894.01
656.59	886.93
656.93	879.80
657.27	872.89
657.61	865.51
657.95	858.80
658.29	852.29
658.64	845.67
658.98	838.53
659.32	831.53
659.66	824.93
660.00	818.09
660.34	811.51
660.68	804.81
661.02	798.11
661.36	791.74
661.70	785.50
662.05	779.64
662.39	773.89
662.73	768.00
663.07	762.29
663.41	756.61
663.75	750.76
664.09	744.87
664.43	738.76
664.77	733.23
665.11	727.46
665.45	721.96
665.79	716.38
666.13	710.95
666.47	705.60
666.81	700.22
667.15	695.01
667.49	690.04
667.83	685.14
668.17	680.13
668.51	675.30
668.85	670.46
669.19	665.69
669.53	660.54
669.87	655.47
670.21	650.60
670.55	645.74
670.89	641.30
671.23	637.01
671.57	632.76
671.91	628.30
672.25	623.76
672.58	619.23
672.92	614.89
673.26	610.62
673.60	606.65
673.94	602.38
674.28	598.26
674.62	594.32
674.96	590.28
675.30	586.46
675.64	582.15
675.97	578.21
676.31	574.22
676.65	570.55
676.99	567.08
677.33	563.29
677.67	559.65
678.01	555.63
678.34	551.75
678.68	548.00
679.02	544.20
679.36	540.65
679.70	537.13
680.04	533.42
680.37	529.91
680.71	526.22
681.05	522.83
681.39	519.46
681.73	515.80
682.06	512.56
682.40	509.25
682.74	506.12
683.08	502.91
683.42	499.47
683.75	496.07
684.09	492.61
684.43	489.39
684.77	486.10
685.10	482.85
685.44	479.66
685.78	476.58
686.12	473.76
686.45	470.79
686.79	467.60
687.13	464.94
687.46	462.04
687.80	459.28
688.14	456.17
688.48	453.42
688.81	450.57
689.15	447.69
689.49	444.80
689.82	441.90
690.16	438.76
690.50	435.94
690.83	433.26
691.17	430.42
691.51	427.70
691.84	425.23
692.18	422.70
692.52	420.47
692.85	418.11
693.19	415.68
693.52	413.20
693.86	410.80
694.20	408.28
694.53	405.90
694.87	403.51
695.21	401.23
695.54	398.65
695.88	396.14
696.21	393.66
696.55	391.45
696.88	389.33
697.22	387.28
697.56	385.26
697.89	382.99
698.23	380.90
698.56	378.85
698.90	376.81
699.23	374.77
699.57	372.61
699.90	370.36
700.24	368.13
700.58	366.10
700.91	364.22
701.25	362.55
701.58	360.61
701.92	358.69
702.25	356.95
702.59	355.21
702.92	353.48
703.26	351.70
703.59	349.94
703.93	348.49
704.26	346.85
704.60	345.20
704.93	343.53
705.26	341.83
705.60	340.26
705.93	338.70
706.27	337.23
706.60	335.75
706.94	334.37
707.27	332.85
707.61	331.38
707.94	329.84
708.27	328.02
708.61	326.50
708.94	325.11
709.28	323.58
709.61	322.22
709.94	320.95
710.28	319.71
710.61	318.47
710.95	316.72
711.28	315.58
711.61	314.25
711.95	313.16
712.28	312.08
712.61	310.86
712.95	309.73
713.28	308.58
713.61	307.32
713.95	306.17
714.28	305.16
714.61	304.02
714.95	302.93
715.28	301.85
715.61	300.70
715.95	299.61
716.28	298.58
716.61	297.51
716.95	296.44
717.28	295.44
717.61	294.31
717.94	293.39
718.28	292.25
718.61	291.34
718.94	290.28
719.27	289.33
719.61	288.43
719.94	287.43
720.27	286.39
720.60	285.45
720.94	284.51
721.27	283.71
721.60	282.95
721.93	282.14
722.27	281.43
722.60	280.71
722.93	279.89
723.26	279.12
723.59	278.27
723.93	277.56
724.26	276.82
724.59	276.14
724.92	275.48
725.25	274.82
725.59	274.10
725.92	273.57
726.25	272.88
726.58	272.21
726.91	271.50
727.24	270.94
727.57	270.32
727.91	269.58
728.24	268.87
728.57	268.15
728.90	267.55
729.23	266.84
729.56	266.41
729.89	265.80
730.22	265.21
730.55	264.64
730.89	264.04
731.22	263.45
731.55	262.87
731.88	262.27
732.21	261.70
732.54	261.05
732.87	260.41
733.20	259.83
733.53	259.32
733.86	258.80
734.19	258.15
734.52	257.65
734.85	257.52
735.18	257.00
735.51	256.63
735.84	256.06
736.17	255.69
736.50	255.05
736.83	254.92
737.16	254.42
737.49	254.00
737.82	253.48
738.15	253.08
738.48	252.60
738.81	252.21
739.14	251.66
739.47	251.25
739.80	250.70
740.13	250.25
740.46	249.71
740.79	249.25
741.12	248.84
741.45	248.41
741.78	247.75
742.11	247.43
742.44	246.93
742.77	246.62
743.10	246.09
743.43	245.60
743.75	244.87
744.08	244.95
744.41	244.47
744.74	244.10
745.07	243.65
745.40	243.28
745.73	243.03
746.06	242.64
746.39	242.30
746.71	242.00
747.04	241.56
747.37	241.25
747.70	240.98
748.03	240.75
748.36	240.45
748.68	240.06
749.01	239.59
749.34	239.31
749.67	238.99
750.00	238.81
750.33	238.76
750.65	238.49
750.98	237.77
751.31	237.57
751.64	237.30
751.97	237.16
752.29	236.79
752.62	236.31
752.95	235.99
753.28	235.65
753.60	235.42
753.93	235.29
754.26	235.00
754.59	234.62
754.91	234.20
755.24	233.89
755.57	233.67
755.90	233.38
756.22	233.08
756.55	232.78
756.88	232.47
757.20	232.04
757.53	231.70
757.86	231.41
758.19	231.12
758.51	230.91
758.84	230.59
759.17	230.40
759.49	230.21
759.82	230.24
760.15	230.04
760.47	229.79
760.80	229.51
761.13	229.35
761.45	229.08
761.78	228.92
762.11	228.65
762.43	228.36
762.76	228.20
763.08	228.03
763.41	227.84
763.74	227.67
764.06	227.43
764.39	227.20
764.71	227.07
765.04	226.88
765.37	226.65
765.69	226.41
766.02	226.27
766.34	226.03
766.67	225.75
767.00	225.70
767.32	225.69
767.65	225.78
767.97	225.58
768.30	225.51
768.62	225.37
768.95	225.25
769.27	225.10
769.60	225.00
769.92	224.82
770.25	224.59
770.57	224.35
770.90	224.21
771.22	224.07
771.55	223.89
771.87	223.67
772.20	223.52
772.52	223.62
772.85	223.88
773.17	223.77
773.50	223.59
773.82	223.34
774.15	223.02
774.47	222.65
774.80	222.49
775.12	222.31
775.45	222.22
775.77	222.13
776.09	222.02
776.42	221.85
776.74	221.83
777.07	221.66
777.39	221.56
777.72	221.40
778.04	221.34
778.36	221.14
778.69	221.10
779.01	221.02
779.33	220.62
779.66	220.18
779.98	220.03
780.31	219.94
780.63	220.03
780.95	220.03
781.28	219.83
781.60	219.73
781.92	219.68
782.25	219.57
782.57	219.54
782.89	219.50
783.22	219.40
783.54	219.31
783.86	219.36
784.19	219.21
784.51	219.26
784.83	219.18
785.16	219.19
785.48	219.15
