SpectraSuite Data File
++++++++++++++++++++++++++++++++++++
Date: Mon Feb 25 17:05:39 EST 2013
User: group
Dark Spectrum Present: No
Reference Spectrum Present: No
Number of Sampled Component Spectra: 1
Spectrometers: USB2E7196
Integration Time (usec): 104000 (USB2E7196)
Spectra Averaged: 20 (USB2E7196)
Boxcar Smoothing: 10 (USB2E7196)
Correct for Electrical Dark: No (USB2E7196)
Strobe/Lamp Enabled: No (USB2E7196)
Correct for Detector Non-linearity: No (USB2E7196)
Correct for Stray Light: No (USB2E7196)
Number of Pixels in Processed Spectrum: 2048
>>>>>Begin Processed Spectral Data<<<<<
339.09	0.00
339.48	198.15
339.86	199.90
340.24	201.85
340.63	202.40
341.01	209.80
341.39	205.05
341.78	205.65
342.16	209.60
342.54	209.95
342.93	198.49
343.31	208.50
343.69	209.02
344.07	209.54
344.46	209.97
344.84	210.33
345.22	210.36
345.60	210.62
345.99	210.87
346.37	210.88
346.75	210.86
347.13	210.80
347.52	210.84
347.90	210.93
348.28	210.93
348.66	211.00
349.05	210.86
349.43	210.95
349.81	210.97
350.19	211.02
350.57	211.10
350.96	211.11
351.34	211.15
351.72	211.27
352.10	211.26
352.48	211.23
352.87	211.36
353.25	211.37
353.63	211.40
354.01	211.49
354.39	211.59
354.77	211.64
355.15	211.81
355.54	211.87
355.92	211.80
356.30	211.80
356.68	212.06
357.06	212.16
357.44	212.14
357.82	212.07
358.20	212.06
358.58	212.03
358.97	212.11
359.35	212.32
359.73	212.33
360.11	212.41
360.49	212.51
360.87	212.51
361.25	212.59
361.63	212.70
362.01	212.69
362.39	212.66
362.77	212.73
363.15	212.74
363.53	212.73
363.91	212.78
364.29	212.77
364.67	212.43
365.05	212.44
365.43	212.48
365.81	212.66
366.19	212.84
366.57	213.01
366.95	213.00
367.33	212.86
367.71	212.95
368.09	213.02
368.47	212.99
368.85	212.97
369.23	213.10
369.61	213.00
369.99	213.15
370.37	213.24
370.75	213.45
371.13	213.37
371.51	213.33
371.89	213.33
372.27	213.35
372.65	213.32
373.03	213.25
373.41	213.15
373.78	213.02
374.16	212.74
374.54	212.58
374.92	212.53
375.30	212.42
375.68	212.31
376.06	212.24
376.44	212.15
376.82	212.15
377.19	212.00
377.57	211.97
377.95	211.71
378.33	211.61
378.71	211.32
379.09	211.35
379.47	211.35
379.84	211.23
380.22	211.19
380.60	211.10
380.98	211.11
381.36	211.12
381.73	211.11
382.11	211.15
382.49	211.10
382.87	211.03
383.25	211.03
383.62	211.32
384.00	211.24
384.38	211.29
384.76	211.25
385.13	211.44
385.51	211.41
385.89	211.36
386.27	211.36
386.64	211.35
387.02	211.22
387.40	211.25
387.78	211.32
388.15	211.30
388.53	211.22
388.91	211.13
389.29	211.05
389.66	211.01
390.04	210.97
390.42	211.03
390.79	210.96
391.17	210.98
391.55	210.65
391.92	210.60
392.30	210.61
392.68	210.52
393.05	210.34
393.43	210.37
393.81	210.46
394.18	210.33
394.56	210.29
394.94	210.35
395.31	210.25
395.69	210.31
396.06	210.33
396.44	210.47
396.82	210.44
397.19	210.64
397.57	210.54
397.95	210.63
398.32	210.56
398.70	210.64
399.07	210.66
399.45	210.61
399.82	210.65
400.20	210.54
400.58	210.59
400.95	210.45
401.33	210.48
401.70	210.65
402.08	210.72
402.45	210.80
402.83	210.89
403.20	210.95
403.58	210.94
403.95	211.02
404.33	211.08
404.71	211.18
405.08	211.37
405.46	211.51
405.83	211.57
406.21	211.71
406.58	211.85
406.96	211.95
407.33	212.14
407.70	212.23
408.08	212.73
408.45	212.97
408.83	213.27
409.20	213.41
409.58	213.44
409.95	213.73
410.33	213.98
410.70	214.22
411.08	214.51
411.45	214.80
411.82	214.98
412.20	215.47
412.57	216.04
412.95	216.16
413.32	216.66
413.69	217.04
414.07	217.40
414.44	217.91
414.82	218.51
415.19	219.18
415.56	219.85
415.94	220.32
416.31	221.18
416.68	221.98
417.06	222.94
417.43	223.89
417.81	224.87
418.18	225.88
418.55	226.97
418.93	228.13
419.30	229.24
419.67	230.60
420.04	231.83
420.42	233.15
420.79	234.93
421.16	236.51
421.54	238.33
421.91	240.04
422.28	241.86
422.66	243.63
423.03	245.65
423.40	247.64
423.77	249.69
424.15	251.65
424.52	253.94
424.89	256.29
425.26	258.48
425.64	260.63
426.01	262.98
426.38	265.45
426.75	268.07
427.13	270.76
427.50	273.52
427.87	276.33
428.24	279.15
428.61	281.78
428.99	284.95
429.36	288.12
429.73	291.48
430.10	294.74
430.47	298.13
430.85	301.35
431.22	305.00
431.59	309.04
431.96	312.80
432.33	316.71
432.70	320.67
433.08	325.42
433.45	329.93
433.82	334.45
434.19	339.44
434.56	344.23
434.93	348.90
435.30	353.70
435.68	358.98
436.05	364.16
436.42	369.31
436.79	374.01
437.16	379.14
437.53	384.53
437.90	389.96
438.27	395.34
438.64	400.91
439.01	406.06
439.38	410.45
439.75	414.89
440.13	419.98
440.50	424.84
440.87	428.59
441.24	432.69
441.61	437.13
441.98	440.51
442.35	444.41
442.72	448.50
443.09	452.36
443.46	454.70
443.83	456.54
444.20	457.96
444.57	459.91
444.94	461.08
445.31	462.20
445.68	463.57
446.05	464.23
446.42	463.95
446.79	463.69
447.16	463.32
447.53	463.22
447.90	461.58
448.27	459.97
448.64	457.70
449.01	456.05
449.37	452.91
449.74	449.77
450.11	446.30
450.48	442.03
450.85	437.65
451.22	434.00
451.59	430.44
451.96	427.11
452.33	422.63
452.70	418.45
453.07	413.58
453.43	408.28
453.80	403.35
454.17	398.76
454.54	394.21
454.91	389.46
455.28	384.73
455.65	380.40
456.02	376.40
456.38	372.75
456.75	368.08
457.12	364.14
457.49	360.34
457.86	356.42
458.23	353.23
458.59	349.74
458.96	346.26
459.33	343.05
459.70	339.97
460.07	337.45
460.43	334.60
460.80	331.90
461.17	329.51
461.54	327.02
461.91	324.61
462.27	322.24
462.64	320.15
463.01	317.85
463.38	315.79
463.74	313.10
464.11	311.12
464.48	309.51
464.85	307.75
465.21	306.40
465.58	304.85
465.95	303.04
466.32	301.51
466.68	300.02
467.05	298.61
467.42	297.04
467.78	295.51
468.15	294.05
468.52	293.01
468.88	291.44
469.25	290.18
469.62	289.21
469.98	288.04
470.35	287.04
470.72	286.01
471.08	284.80
471.45	283.87
471.82	283.02
472.18	281.94
472.55	281.16
472.92	280.21
473.28	279.34
473.65	278.59
474.02	277.81
474.38	277.22
474.75	276.64
475.11	276.14
475.48	275.60
475.85	275.13
476.21	274.54
476.58	274.25
476.94	273.97
477.31	273.55
477.67	273.28
478.04	273.01
478.41	272.85
478.77	273.01
479.14	272.73
479.50	272.50
479.87	272.44
480.23	272.26
480.60	272.11
480.96	272.06
481.33	272.07
481.69	272.15
482.06	272.09
482.42	272.14
482.79	272.13
483.15	272.35
483.52	272.63
483.88	272.69
484.25	272.81
484.61	272.97
484.98	273.15
485.34	273.38
485.71	273.69
486.07	274.01
486.44	274.00
486.80	274.50
487.17	274.92
487.53	275.37
487.90	275.99
488.26	276.68
488.62	277.37
488.99	277.90
489.35	278.53
489.72	279.18
490.08	279.78
490.44	280.50
490.81	281.20
491.17	281.81
491.54	282.75
491.90	283.58
492.26	284.42
492.63	285.30
492.99	286.29
493.36	287.25
493.72	288.29
494.08	289.31
494.45	290.45
494.81	291.62
495.17	292.69
495.54	293.87
495.90	294.88
496.26	295.99
496.63	297.30
496.99	298.52
497.35	299.76
497.72	301.07
498.08	302.36
498.44	303.65
498.80	305.08
499.17	306.38
499.53	307.67
499.89	309.05
500.26	310.41
500.62	311.71
500.98	313.13
501.34	314.40
501.71	315.94
502.07	317.27
502.43	318.55
502.79	319.77
503.16	320.96
503.52	322.28
503.88	323.53
504.24	324.79
504.60	326.10
504.97	327.41
505.33	328.62
505.69	330.05
506.05	331.38
506.41	332.62
506.78	333.88
507.14	335.11
507.50	336.39
507.86	337.66
508.22	338.93
508.59	340.17
508.95	341.39
509.31	342.57
509.67	343.72
510.03	344.89
510.39	346.27
510.75	347.58
511.12	348.73
511.48	349.97
511.84	351.05
512.20	352.09
512.56	353.21
512.92	354.39
513.28	355.48
513.64	356.51
514.00	357.61
514.37	358.65
514.73	359.76
515.09	360.79
515.45	361.71
515.81	362.67
516.17	363.67
516.53	364.72
516.89	365.60
517.25	366.46
517.61	367.68
517.97	368.67
518.33	369.70
518.69	370.86
519.05	371.85
519.41	373.08
519.77	374.53
520.13	375.68
520.49	376.88
520.85	378.00
521.21	379.43
521.57	380.73
521.93	381.90
522.29	383.22
522.65	384.46
523.01	385.91
523.37	387.21
523.73	388.51
524.09	390.02
524.45	391.54
524.81	393.22
525.17	394.64
525.53	396.26
525.89	397.87
526.25	399.60
526.61	401.35
526.97	403.01
527.33	404.54
527.68	406.67
528.04	408.56
528.40	410.38
528.76	412.11
529.12	414.14
529.48	416.26
529.84	418.29
530.20	420.46
530.56	422.61
530.91	424.85
531.27	427.12
531.63	429.28
531.99	431.47
532.35	433.63
532.71	435.94
533.07	438.24
533.42	440.98
533.78	443.36
534.14	445.79
534.50	448.22
534.86	450.75
535.21	452.90
535.57	455.40
535.93	457.81
536.29	460.51
536.65	462.96
537.00	465.38
537.36	467.98
537.72	470.49
538.08	473.11
538.44	475.65
538.79	478.36
539.15	480.99
539.51	483.79
539.87	486.75
540.22	489.58
540.58	492.59
540.94	495.04
541.29	497.73
541.65	500.39
542.01	503.35
542.37	506.16
542.72	509.08
543.08	511.97
543.44	515.13
543.79	517.72
544.15	520.58
544.51	523.75
544.87	526.80
545.22	529.78
545.58	532.74
545.94	535.65
546.29	538.41
546.65	541.25
547.01	543.95
547.36	546.59
547.72	549.23
548.07	551.92
548.43	554.52
548.79	557.20
549.14	559.93
549.50	562.41
549.86	564.87
550.21	567.41
550.57	569.94
550.92	572.21
551.28	574.78
551.64	577.31
551.99	579.77
552.35	581.91
552.70	584.15
553.06	586.48
553.41	588.83
553.77	591.36
554.13	593.66
554.48	596.07
554.84	598.52
555.19	600.87
555.55	603.15
555.90	605.22
556.26	607.38
556.61	609.44
556.97	611.35
557.32	613.43
557.68	615.30
558.03	617.24
558.39	619.12
558.74	621.02
559.10	622.88
559.45	624.71
559.81	626.77
560.16	628.58
560.52	630.34
560.87	632.21
561.23	633.57
561.58	635.43
561.94	637.03
562.29	638.55
562.64	640.34
563.00	641.69
563.35	643.39
563.71	644.99
564.06	646.62
564.42	648.28
564.77	649.94
565.12	651.73
565.48	653.43
565.83	655.01
566.19	656.73
566.54	658.10
566.89	659.50
567.25	661.10
567.60	662.77
567.96	664.29
568.31	665.69
568.66	667.26
569.02	668.17
569.37	669.21
569.72	670.10
570.08	670.76
570.43	671.59
570.78	672.49
571.14	673.15
571.49	673.80
571.84	674.52
572.20	674.89
572.55	675.39
572.90	675.45
573.26	675.79
573.61	675.73
573.96	675.77
574.31	675.64
574.67	675.43
575.02	675.07
575.37	674.67
575.72	674.20
576.08	673.99
576.43	673.83
576.78	673.67
577.13	673.65
577.49	673.52
577.84	673.30
578.19	673.18
578.54	673.13
578.90	673.04
579.25	672.93
579.60	672.66
579.95	672.09
580.30	671.93
580.66	671.73
581.01	671.51
581.36	671.36
581.71	671.11
582.06	670.80
582.42	670.67
582.77	670.39
583.12	670.14
583.47	669.87
583.82	669.68
584.17	669.46
584.53	669.15
584.88	668.80
585.23	668.56
585.58	667.95
585.93	667.47
586.28	666.98
586.63	666.41
586.98	666.17
587.34	665.91
587.69	665.48
588.04	665.00
588.39	664.63
588.74	663.99
589.09	663.57
589.44	662.76
589.79	662.09
590.14	661.51
590.49	660.76
590.84	659.96
591.19	659.42
591.54	658.62
591.89	657.61
592.25	657.09
592.60	656.10
592.95	655.20
593.30	654.08
593.65	653.19
594.00	652.03
594.35	651.98
594.70	650.81
595.05	649.66
595.40	648.43
595.75	647.16
596.10	646.15
596.45	645.09
596.80	644.31
597.15	643.37
597.50	642.21
597.85	641.57
598.19	640.44
598.54	639.45
598.89	638.42
599.24	637.63
599.59	636.40
599.94	635.62
600.29	634.74
600.64	633.79
600.99	632.76
601.34	632.00
601.69	629.89
602.04	628.93
602.39	627.97
602.74	627.25
603.08	626.51
603.43	625.90
603.78	624.97
604.13	624.06
604.48	623.14
604.83	622.46
605.18	621.51
605.53	620.59
605.87	619.45
606.22	618.56
606.57	617.56
606.92	616.50
607.27	615.35
607.62	614.31
607.96	613.50
608.31	612.40
608.66	611.29
609.01	610.20
609.36	608.97
609.70	607.75
610.05	606.43
610.40	605.15
610.75	603.50
611.10	602.20
611.44	600.55
611.79	598.98
612.14	597.41
612.49	595.60
612.83	594.30
613.18	592.63
613.53	590.98
613.88	589.10
614.22	587.44
614.57	585.91
614.92	584.29
615.27	582.45
615.61	580.58
615.96	578.95
616.31	577.52
616.65	576.17
617.00	574.65
617.35	572.96
617.70	571.14
618.04	569.35
618.39	567.50
618.74	566.02
619.08	564.25
619.43	562.57
619.78	561.07
620.12	559.31
620.47	557.67
620.82	555.78
621.16	554.11
621.51	552.48
621.85	550.66
622.20	548.86
622.55	547.02
622.89	545.41
623.24	543.65
623.59	541.59
623.93	539.71
624.28	537.99
624.62	536.62
624.97	535.13
625.32	533.51
625.66	531.85
626.01	530.06
626.35	528.47
626.70	526.69
627.04	525.08
627.39	523.39
627.73	521.85
628.08	520.42
628.43	518.72
628.77	516.94
629.12	515.28
629.46	513.76
629.81	512.17
630.15	510.53
630.50	508.70
630.84	507.07
631.19	505.34
631.53	503.67
631.88	501.61
632.22	499.63
632.57	498.10
632.91	496.33
633.26	494.67
633.60	492.91
633.95	491.29
634.29	489.45
634.64	487.70
634.98	485.87
635.32	484.18
635.67	482.76
636.01	481.20
636.36	479.53
636.70	478.00
637.05	476.48
637.39	474.90
637.73	473.60
638.08	472.30
638.42	470.86
638.77	469.36
639.11	467.72
639.45	466.23
639.80	464.50
640.14	462.92
640.49	461.35
640.83	459.75
641.17	458.15
641.52	456.46
641.86	454.78
642.20	453.32
642.55	451.60
642.89	449.74
643.23	448.01
643.58	446.53
643.92	444.69
644.26	443.14
644.61	441.50
644.95	439.65
645.29	437.81
645.64	436.01
645.98	434.25
646.32	432.87
646.66	431.11
647.01	429.43
647.35	427.96
647.69	426.28
648.04	424.78
648.38	423.21
648.72	421.65
649.06	419.99
649.41	418.24
649.75	416.60
650.09	415.09
650.43	413.56
650.78	411.76
651.12	410.08
651.46	408.45
651.80	406.91
652.14	405.36
652.49	403.83
652.83	402.38
653.17	400.72
653.51	399.05
653.85	397.69
654.20	396.17
654.54	394.46
654.88	392.89
655.22	391.31
655.56	389.72
655.90	388.25
656.25	386.81
656.59	385.22
656.93	383.76
657.27	382.39
657.61	380.80
657.95	379.40
658.29	378.03
658.64	376.61
658.98	375.04
659.32	373.38
659.66	371.93
660.00	370.51
660.34	369.17
660.68	367.60
661.02	366.03
661.36	364.64
661.70	363.26
662.05	361.94
662.39	360.73
662.73	359.50
663.07	358.27
663.41	356.93
663.75	355.65
664.09	354.33
664.43	352.92
664.77	351.69
665.11	350.38
665.45	349.13
665.79	347.87
666.13	346.67
666.47	345.71
666.81	344.55
667.15	343.14
667.49	342.03
667.83	341.05
668.17	339.96
668.51	338.85
668.85	337.90
669.19	336.90
669.53	335.59
669.87	334.41
670.21	333.30
670.55	332.19
670.89	331.30
671.23	330.24
671.57	329.17
671.91	328.18
672.25	327.15
672.58	326.07
672.92	324.97
673.26	324.02
673.60	322.96
673.94	321.88
674.28	320.98
674.62	320.10
674.96	318.96
675.30	318.08
675.64	317.15
675.97	316.05
676.31	315.06
676.65	314.17
676.99	313.37
677.33	312.30
677.67	311.42
678.01	310.35
678.34	309.48
678.68	308.69
679.02	307.70
679.36	306.87
679.70	306.01
680.04	305.07
680.37	304.09
680.71	303.14
681.05	302.41
681.39	301.61
681.73	300.65
682.06	299.93
682.40	299.05
682.74	298.20
683.08	297.53
683.42	296.65
683.75	295.93
684.09	294.97
684.43	294.27
684.77	293.36
685.10	292.61
685.44	291.84
685.78	291.00
686.12	290.33
686.45	289.42
686.79	288.74
687.13	288.15
687.46	287.53
687.80	286.91
688.14	286.05
688.48	285.33
688.81	284.67
689.15	283.99
689.49	283.26
689.82	282.60
690.16	281.78
690.50	280.99
690.83	280.23
691.17	279.51
691.51	278.76
691.84	278.20
692.18	277.53
692.52	276.88
692.85	276.30
693.19	275.80
693.52	275.28
693.86	274.48
694.20	273.82
694.53	273.18
694.87	272.48
695.21	271.84
695.54	271.17
695.88	270.35
696.21	269.59
696.55	268.96
696.88	268.33
697.22	267.71
697.56	267.22
697.89	266.54
698.23	266.04
698.56	265.41
698.90	264.84
699.23	264.30
699.57	263.65
699.90	263.00
700.24	262.32
700.58	261.78
700.91	261.24
701.25	261.01
701.58	260.48
701.92	259.97
702.25	259.53
702.59	259.03
702.92	258.66
703.26	258.22
703.59	257.75
703.93	257.54
704.26	257.10
704.60	256.64
704.93	256.22
705.26	255.64
705.60	255.23
705.93	254.73
706.27	254.30
706.60	254.00
706.94	253.71
707.27	253.24
707.61	252.75
707.94	252.35
708.27	251.59
708.61	251.16
708.94	250.79
709.28	250.32
709.61	249.81
709.94	249.41
710.28	249.05
710.61	248.74
710.95	247.97
711.28	247.79
711.61	247.35
711.95	246.98
712.28	246.61
712.61	246.25
712.95	246.04
713.28	245.80
713.61	245.36
713.95	244.97
714.28	244.57
714.61	244.20
714.95	243.89
715.28	243.54
715.61	243.13
715.95	242.73
716.28	242.36
716.61	242.21
716.95	241.77
717.28	241.40
717.61	240.98
717.94	240.69
718.28	240.12
718.61	239.78
718.94	239.54
719.27	239.18
719.61	238.85
719.94	238.43
720.27	237.99
720.60	237.59
720.94	237.21
721.27	236.97
721.60	236.79
721.93	236.58
722.27	236.40
722.60	236.25
722.93	236.05
723.26	235.84
723.59	235.44
723.93	235.24
724.26	235.00
724.59	234.78
724.92	234.60
725.25	234.50
725.59	234.28
725.92	234.01
726.25	233.92
726.58	233.71
726.91	233.49
727.24	233.30
727.57	233.10
727.91	232.86
728.24	232.64
728.57	232.32
728.90	232.08
729.23	231.76
729.56	231.73
729.89	231.43
730.22	231.14
730.55	231.03
730.89	230.85
731.22	230.64
731.55	230.42
731.88	230.23
732.21	229.93
732.54	229.75
732.87	229.60
733.20	229.36
733.53	229.22
733.86	229.14
734.19	228.89
734.52	228.88
734.85	228.96
735.18	228.83
735.51	228.76
735.84	228.58
736.17	228.54
736.50	228.10
736.83	228.39
737.16	228.30
737.49	228.13
737.82	227.89
738.15	227.74
738.48	227.59
738.81	227.45
739.14	227.26
739.47	227.05
739.80	226.90
740.13	226.80
740.46	226.51
740.79	226.24
741.12	226.06
741.45	225.76
741.78	225.39
742.11	225.25
742.44	225.05
742.77	224.94
743.10	224.75
743.43	224.69
743.75	224.17
744.08	224.51
744.41	224.32
744.74	224.18
745.07	223.98
745.40	223.95
745.73	223.91
746.06	223.81
746.39	223.76
746.71	223.55
747.04	223.30
747.37	223.26
747.70	223.26
748.03	223.15
748.36	223.09
748.68	223.04
749.01	222.79
749.34	222.65
749.67	222.56
750.00	222.37
750.33	222.52
750.65	222.43
750.98	221.82
751.31	221.68
751.64	221.59
751.97	221.69
752.29	221.55
752.62	221.27
752.95	221.11
753.28	220.98
753.60	220.85
753.93	220.97
754.26	220.82
754.59	220.61
754.91	220.47
755.24	220.34
755.57	220.12
755.90	220.09
756.22	220.00
756.55	219.80
756.88	219.76
757.20	219.40
757.53	219.23
757.86	219.16
758.19	219.10
758.51	219.03
758.84	218.67
759.17	218.56
759.49	218.55
759.82	218.68
760.15	218.60
760.47	218.56
760.80	218.25
761.13	218.35
761.45	218.25
761.78	218.20
762.11	218.17
762.43	218.10
762.76	217.98
763.08	217.91
763.41	217.93
763.74	217.85
764.06	217.75
764.39	217.75
764.71	217.63
765.04	217.57
765.37	217.48
765.69	217.52
766.02	217.40
766.34	217.31
766.67	217.13
767.00	217.18
767.32	217.28
767.65	217.50
767.97	217.33
768.30	217.23
768.62	217.17
768.95	217.11
769.27	217.04
769.60	217.05
769.92	216.94
770.25	216.80
770.57	216.61
770.90	216.55
771.22	216.43
771.55	216.42
771.87	216.37
772.20	216.34
772.52	216.53
772.85	216.93
773.17	216.82
773.50	216.70
773.82	216.62
774.15	216.39
774.47	216.15
774.80	216.08
775.12	216.04
775.45	215.98
775.77	215.90
776.09	215.87
776.42	215.89
776.74	216.01
777.07	215.98
777.39	215.99
777.72	215.91
778.04	215.98
778.36	215.88
778.69	215.83
779.01	215.80
779.33	215.49
779.66	215.00
779.98	215.03
780.31	215.02
780.63	215.07
780.95	215.09
781.28	215.04
781.60	214.97
781.92	214.99
782.25	214.91
782.57	214.94
782.89	214.96
783.22	214.85
783.54	214.71
783.86	214.63
784.19	214.61
784.51	214.68
784.83	214.55
785.16	214.52
785.48	214.55
785.80	214.52
786.12	214.51
786.45	214.50
786.77	214.48
787.09	214.37
787.42	214.25
787.74	214.18
788.06	214.17
788.38	214.14
788.71	214.04
789.03	214.05
789.35	214.01
789.67	213.90
789.99	213.91
790.32	213.82
790.64	213.84
790.96	214.05
791.28	213.86
791.61	213.84
791.93	213.85
792.25	213.81
792.57	214.00
792.89	213.95
793.21	213.95
793.54	213.88
793.86	213.94
794.18	213.93
