SpectraSuite Data File
++++++++++++++++++++++++++++++++++++
Date: Mon Feb 25 17:17:58 EST 2013
User: group
Dark Spectrum Present: No
Reference Spectrum Present: No
Number of Sampled Component Spectra: 1
Spectrometers: USB2E7196
Integration Time (usec): 104000 (USB2E7196)
Spectra Averaged: 20 (USB2E7196)
Boxcar Smoothing: 10 (USB2E7196)
Correct for Electrical Dark: No (USB2E7196)
Strobe/Lamp Enabled: No (USB2E7196)
Correct for Detector Non-linearity: No (USB2E7196)
Correct for Stray Light: No (USB2E7196)
Number of Pixels in Processed Spectrum: 2048
>>>>>Begin Processed Spectral Data<<<<<
339.09	0.00
339.48	198.10
339.86	200.75
340.24	200.50
340.63	201.80
341.01	208.95
341.39	204.50
341.78	206.85
342.16	209.05
342.54	208.05
342.93	197.80
343.31	207.75
343.69	208.31
344.07	208.71
344.46	209.23
344.84	209.71
345.22	209.81
345.60	210.10
345.99	210.25
346.37	210.33
346.75	210.39
347.13	210.44
347.52	210.56
347.90	210.82
348.28	210.87
348.66	211.00
349.05	210.94
349.43	211.04
349.81	211.08
350.19	211.12
350.57	211.22
350.96	211.33
351.34	211.49
351.72	211.60
352.10	211.77
352.48	211.81
352.87	211.77
353.25	211.85
353.63	211.92
354.01	212.05
354.39	212.23
354.77	212.44
355.15	212.61
355.54	212.66
355.92	212.61
356.30	212.74
356.68	213.01
357.06	213.20
357.44	213.22
357.82	213.34
358.20	213.50
358.58	213.55
358.97	213.62
359.35	213.80
359.73	214.01
360.11	214.06
360.49	214.20
360.87	214.34
361.25	214.40
361.63	214.64
362.01	214.75
362.39	214.75
362.77	214.84
363.15	214.93
363.53	215.00
363.91	215.15
364.29	215.20
364.67	214.91
365.05	214.91
365.43	215.03
365.81	215.16
366.19	215.29
366.57	215.50
366.95	215.58
367.33	215.54
367.71	215.50
368.09	215.63
368.47	215.65
368.85	215.66
369.23	215.82
369.61	215.70
369.99	215.78
370.37	215.87
370.75	216.00
371.13	215.94
371.51	215.87
371.89	215.82
372.27	215.79
372.65	215.86
373.03	215.82
373.41	215.76
373.78	215.72
374.16	215.54
374.54	215.34
374.92	215.25
375.30	215.20
375.68	215.11
376.06	215.05
376.44	214.98
376.82	214.95
377.19	214.82
377.57	214.69
377.95	214.55
378.33	214.40
378.71	214.13
379.09	214.10
379.47	214.07
379.84	213.97
380.22	213.89
380.60	213.80
380.98	213.71
381.36	213.67
381.73	213.50
382.11	213.50
382.49	213.52
382.87	213.47
383.25	213.41
383.62	213.68
384.00	213.54
384.38	213.49
384.76	213.49
385.13	213.62
385.51	213.65
385.89	213.59
386.27	213.56
386.64	213.61
387.02	213.50
387.40	213.45
387.78	213.41
388.15	213.46
388.53	213.38
388.91	213.39
389.29	213.33
389.66	213.40
390.04	213.36
390.42	213.40
390.79	213.37
391.17	213.29
391.55	212.93
391.92	212.97
392.30	212.99
392.68	212.94
393.05	212.80
393.43	212.76
393.81	212.77
394.18	212.71
394.56	212.69
394.94	212.77
395.31	212.71
395.69	212.87
396.06	212.88
396.44	212.97
396.82	212.99
397.19	213.15
397.57	213.09
397.95	213.15
398.32	212.97
398.70	213.04
399.07	213.18
399.45	213.26
399.82	213.27
400.20	213.30
400.58	213.34
400.95	213.34
401.33	213.46
401.70	213.70
402.08	213.81
402.45	213.87
402.83	214.00
403.20	214.15
403.58	214.15
403.95	214.28
404.33	214.34
404.71	214.40
405.08	214.71
405.46	214.85
405.83	214.99
406.21	215.19
406.58	215.39
406.96	215.55
407.33	215.74
407.70	215.94
408.08	216.43
408.45	216.67
408.83	216.99
409.20	217.31
409.58	217.44
409.95	217.80
410.33	218.15
410.70	218.43
411.08	218.84
411.45	219.31
411.82	219.69
412.20	220.27
412.57	220.94
412.95	221.07
413.32	221.65
413.69	222.19
414.07	222.82
414.44	223.50
414.82	224.18
415.19	225.06
415.56	225.94
415.94	226.57
416.31	227.64
416.68	228.66
417.06	229.78
417.43	230.94
417.81	232.18
418.18	233.48
418.55	234.91
418.93	236.38
419.30	237.84
419.67	239.39
420.04	240.95
420.42	242.66
420.79	244.99
421.16	247.03
421.54	249.30
421.91	251.51
422.28	253.70
422.66	256.12
423.03	258.53
423.40	260.90
423.77	263.50
424.15	266.10
424.52	268.78
424.89	271.73
425.26	274.51
425.64	277.30
426.01	280.32
426.38	283.42
426.75	286.56
427.13	289.75
427.50	293.25
427.87	296.91
428.24	300.40
428.61	303.66
428.99	307.47
429.36	311.34
429.73	315.26
430.10	319.34
430.47	323.41
430.85	327.47
431.22	332.00
431.59	336.82
431.96	341.18
432.33	346.07
432.70	350.83
433.08	356.54
433.45	361.84
433.82	367.08
434.19	373.02
434.56	378.88
434.93	384.42
435.30	389.80
435.68	395.83
436.05	401.93
436.42	407.83
436.79	413.30
437.16	419.24
437.53	425.52
437.90	431.44
438.27	437.49
438.64	443.72
439.01	449.43
439.38	454.44
439.75	459.63
440.13	465.29
440.50	470.64
440.87	474.95
441.24	479.39
441.61	484.32
441.98	487.72
442.35	491.84
442.72	496.17
443.09	500.40
443.46	502.84
443.83	504.29
444.20	505.66
444.57	507.71
444.94	508.58
445.31	509.50
445.68	510.78
446.05	511.06
446.42	510.35
446.79	509.59
447.16	508.73
447.53	507.98
447.90	505.59
448.27	503.16
448.64	500.03
449.01	497.62
449.37	493.61
449.74	489.76
450.11	485.18
450.48	479.95
450.85	474.57
451.22	470.00
451.59	465.77
451.96	461.61
452.33	456.04
452.70	450.94
453.07	445.03
453.43	438.79
453.80	433.00
454.17	427.50
454.54	422.34
454.91	416.62
455.28	411.07
455.65	406.00
456.02	401.33
456.38	396.91
456.75	391.52
457.12	386.97
457.49	382.54
457.86	378.13
458.23	374.55
458.59	370.61
458.96	366.65
459.33	363.06
459.70	359.47
460.07	356.61
460.43	353.36
460.80	350.33
461.17	347.67
461.54	344.85
461.91	342.08
462.27	339.27
462.64	336.96
463.01	334.42
463.38	332.14
463.74	329.29
464.11	327.05
464.48	325.26
464.85	323.15
465.21	321.60
465.58	319.95
465.95	317.89
466.32	316.19
466.68	314.56
467.05	312.94
467.42	311.40
467.78	309.69
468.15	308.12
468.52	306.92
468.88	305.34
469.25	303.97
469.62	303.02
469.98	301.89
470.35	300.95
470.72	299.99
471.08	298.81
471.45	298.03
471.82	297.25
472.18	296.31
472.55	295.77
472.92	295.01
473.28	294.32
473.65	293.73
474.02	293.21
474.38	292.72
474.75	292.47
475.11	292.09
475.48	291.95
475.85	291.85
476.21	291.70
476.58	291.69
476.94	291.80
477.31	291.75
477.67	291.77
478.04	291.84
478.41	292.02
478.77	292.55
479.14	292.66
479.50	292.91
479.87	293.30
480.23	293.79
480.60	294.16
480.96	294.73
481.33	295.55
481.69	296.28
482.06	297.00
482.42	297.65
482.79	298.44
483.15	299.35
483.52	300.47
483.88	301.43
484.25	302.58
484.61	303.73
484.98	305.02
485.34	306.63
485.71	308.28
486.07	310.10
486.44	311.52
486.80	313.40
487.17	315.41
487.53	317.56
487.90	319.83
488.26	322.37
488.62	324.92
488.99	327.32
489.35	330.00
489.72	332.93
490.08	336.10
490.44	339.40
490.81	342.86
491.17	346.37
491.54	350.32
491.90	354.14
492.26	358.26
492.63	362.60
492.99	367.10
493.36	371.82
493.72	376.76
494.08	382.09
494.45	387.74
494.81	393.51
495.17	399.43
495.54	405.64
495.90	412.09
496.26	418.75
496.63	425.95
496.99	433.39
497.35	441.17
497.72	449.10
498.08	457.37
498.44	465.94
498.80	475.12
499.17	484.50
499.53	494.37
499.89	504.51
500.26	514.91
500.62	525.48
500.98	536.67
501.34	548.15
501.71	560.07
502.07	572.27
502.43	584.87
502.79	597.73
503.16	611.25
503.52	624.97
503.88	639.21
504.24	653.73
504.60	668.57
504.97	683.94
505.33	699.65
505.69	716.38
506.05	733.30
506.41	750.27
506.78	767.30
507.14	784.69
507.50	802.82
507.86	821.44
508.22	840.45
508.59	859.74
508.95	879.49
509.31	899.50
509.67	920.18
510.03	941.30
510.39	963.03
510.75	984.82
511.12	1007.09
511.48	1029.65
511.84	1052.60
512.20	1075.73
512.56	1099.42
512.92	1123.39
513.28	1147.23
513.64	1171.39
514.00	1195.59
514.37	1220.77
514.73	1246.57
515.09	1271.88
515.45	1297.28
515.81	1322.85
516.17	1348.49
516.53	1374.35
516.89	1400.21
517.25	1426.30
517.61	1452.37
517.97	1478.19
518.33	1504.14
518.69	1530.26
519.05	1556.71
519.41	1583.50
519.77	1610.59
520.13	1636.88
520.49	1662.97
520.85	1689.62
521.21	1716.60
521.57	1743.84
521.93	1769.75
522.29	1796.61
522.65	1823.44
523.01	1849.74
523.37	1875.62
523.73	1902.20
524.09	1928.41
524.45	1954.80
524.81	1980.99
525.17	2007.41
525.53	2033.66
525.89	2059.78
526.25	2085.39
526.61	2110.08
526.97	2134.69
527.33	2159.38
527.68	2184.55
528.04	2209.00
528.40	2232.27
528.76	2255.69
529.12	2279.67
529.48	2304.63
529.84	2327.68
530.20	2350.86
530.56	2374.35
530.91	2398.63
531.27	2421.99
531.63	2444.90
531.99	2467.31
532.35	2489.01
532.71	2510.02
533.07	2532.15
533.42	2552.73
533.78	2574.22
534.14	2595.06
534.50	2614.47
534.86	2634.51
535.21	2652.96
535.57	2673.03
535.93	2692.26
536.29	2710.80
536.65	2728.80
537.00	2745.38
537.36	2761.90
537.72	2778.20
538.08	2794.15
538.44	2809.88
538.79	2825.59
539.15	2841.05
539.51	2856.37
539.87	2872.36
540.22	2887.19
540.58	2902.09
540.94	2916.63
541.29	2929.13
541.65	2941.55
542.01	2954.72
542.37	2966.68
542.72	2979.43
543.08	2990.38
543.44	3002.51
543.79	3012.87
544.15	3022.73
544.51	3033.78
544.87	3045.00
545.22	3054.89
545.58	3064.10
545.94	3071.76
546.29	3078.65
546.65	3085.21
547.01	3091.74
547.36	3097.45
547.72	3103.41
548.07	3107.34
548.43	3111.98
548.79	3116.50
549.14	3120.90
549.50	3125.03
549.86	3128.16
550.21	3131.00
550.57	3134.59
550.92	3136.26
551.28	3138.18
551.64	3140.26
551.99	3142.36
552.35	3143.31
552.70	3144.05
553.06	3144.82
553.41	3146.03
553.77	3146.93
554.13	3147.69
554.48	3148.50
554.84	3148.82
555.19	3148.36
555.55	3147.60
555.90	3146.03
556.26	3145.03
556.61	3143.44
556.97	3141.19
557.32	3139.65
557.68	3136.70
558.03	3133.32
558.39	3130.89
558.74	3129.78
559.10	3127.65
559.45	3124.30
559.81	3121.54
560.16	3118.19
560.52	3115.07
560.87	3111.28
561.23	3106.64
561.58	3103.23
561.94	3097.75
562.29	3092.39
562.64	3088.02
563.00	3084.13
563.35	3080.90
563.71	3077.64
564.06	3073.99
564.42	3070.58
564.77	3066.80
565.12	3063.65
565.48	3059.76
565.83	3055.62
566.19	3051.05
566.54	3045.50
566.89	3039.85
567.25	3034.56
567.60	3029.68
567.96	3024.40
568.31	3019.57
568.66	3014.33
569.02	3007.94
569.37	3001.56
569.72	2995.46
570.08	2988.84
570.43	2981.98
570.78	2974.43
571.14	2966.01
571.49	2958.31
571.84	2951.14
572.20	2942.30
572.55	2934.23
572.90	2925.80
573.26	2916.72
573.61	2907.44
573.96	2898.57
574.31	2889.13
574.67	2878.86
575.02	2868.53
575.37	2858.56
575.72	2847.58
576.08	2838.27
576.43	2827.90
576.78	2818.79
577.13	2809.57
577.49	2800.31
577.84	2790.23
578.19	2781.02
578.54	2772.63
578.90	2764.10
579.25	2753.65
579.60	2743.72
579.95	2733.32
580.30	2723.69
580.66	2714.75
581.01	2704.33
581.36	2694.14
581.71	2684.20
582.06	2674.66
582.42	2665.20
582.77	2654.53
583.12	2644.58
583.47	2635.02
583.82	2626.08
584.17	2616.23
584.53	2606.63
584.88	2596.62
585.23	2586.93
585.58	2576.90
585.93	2566.19
586.28	2556.30
586.63	2546.53
586.98	2537.15
587.34	2528.40
587.69	2518.72
588.04	2508.81
588.39	2499.79
588.74	2489.87
589.09	2480.95
589.44	2470.78
589.79	2461.74
590.14	2453.04
590.49	2443.71
590.84	2434.03
591.19	2425.12
591.54	2415.72
591.89	2404.68
592.25	2394.46
592.60	2384.24
592.95	2374.08
593.30	2363.47
593.65	2352.54
594.00	2342.52
594.35	2334.05
594.70	2323.72
595.05	2313.88
595.40	2303.91
595.75	2293.36
596.10	2284.18
596.45	2274.94
596.80	2266.65
597.15	2257.79
597.50	2248.13
597.85	2239.13
598.19	2229.30
598.54	2219.38
598.89	2210.40
599.24	2203.10
599.59	2194.93
599.94	2187.53
600.29	2178.88
600.64	2170.64
600.99	2161.79
601.34	2153.52
601.69	2143.43
602.04	2134.17
602.39	2125.62
602.74	2117.35
603.08	2110.12
603.43	2102.53
603.78	2093.60
604.13	2084.84
604.48	2076.31
604.83	2069.17
605.18	2062.21
605.53	2053.96
605.87	2045.72
606.22	2037.75
606.57	2028.76
606.92	2020.22
607.27	2011.04
607.62	2002.70
607.96	1994.85
608.31	1987.42
608.66	1978.71
609.01	1969.76
609.36	1961.01
609.70	1951.80
610.05	1942.11
610.40	1932.76
610.75	1922.96
611.10	1914.64
611.44	1904.56
611.79	1894.10
612.14	1883.47
612.49	1872.24
612.83	1862.89
613.18	1852.60
613.53	1842.30
613.88	1831.78
614.22	1821.75
614.57	1811.53
614.92	1801.30
615.27	1790.66
615.61	1780.11
615.96	1770.19
616.31	1761.43
616.65	1752.97
617.00	1743.88
617.35	1734.91
617.70	1725.01
618.04	1714.72
618.39	1703.78
618.74	1694.57
619.08	1685.19
619.43	1675.80
619.78	1666.79
620.12	1657.30
620.47	1648.12
620.82	1638.30
621.16	1628.52
621.51	1619.06
621.85	1609.83
622.20	1600.41
622.55	1591.01
622.89	1581.40
623.24	1571.96
623.59	1561.77
623.93	1551.65
624.28	1542.16
624.62	1532.90
624.97	1523.69
625.32	1515.27
625.66	1507.06
626.01	1498.18
626.35	1489.34
626.70	1480.59
627.04	1471.92
627.39	1463.23
627.73	1454.46
628.08	1446.40
628.43	1437.83
628.77	1428.96
629.12	1420.09
629.46	1412.15
629.81	1403.95
630.15	1395.76
630.50	1387.03
630.84	1378.56
631.19	1370.13
631.53	1361.66
631.88	1352.61
632.22	1343.91
632.57	1335.58
632.91	1326.77
633.26	1318.35
633.60	1310.18
633.95	1302.14
634.29	1293.85
634.64	1285.87
634.98	1277.45
635.32	1269.39
635.67	1262.05
636.01	1254.66
636.36	1246.80
636.70	1238.89
637.05	1231.00
637.39	1223.35
637.73	1216.38
638.08	1209.69
638.42	1202.71
638.77	1195.46
639.11	1188.29
639.45	1180.86
639.80	1173.08
640.14	1165.25
640.49	1157.80
640.83	1150.24
641.17	1142.67
641.52	1135.03
641.86	1127.09
642.20	1120.00
642.55	1111.96
642.89	1103.88
643.23	1095.91
643.58	1089.02
643.92	1081.24
644.26	1073.85
644.61	1066.52
644.95	1058.91
645.29	1051.19
645.64	1043.42
645.98	1036.11
646.32	1028.99
646.66	1021.85
647.01	1014.73
647.35	1008.05
647.69	1000.58
648.04	993.51
648.38	986.34
648.72	979.36
649.06	972.39
649.41	965.25
649.75	958.55
650.09	951.89
650.43	945.24
650.78	937.73
651.12	930.62
651.46	923.81
651.80	916.93
652.14	909.94
652.49	903.14
652.83	896.37
653.17	888.93
653.51	881.93
653.85	875.19
654.20	868.62
654.54	861.64
654.88	855.08
655.22	848.34
655.56	841.60
655.90	834.66
656.25	828.01
656.59	821.46
656.93	815.05
657.27	808.89
657.61	802.22
657.95	796.13
658.29	790.21
658.64	784.24
658.98	778.03
659.32	771.83
659.66	765.64
660.00	759.50
660.34	753.74
660.68	747.66
661.02	741.75
661.36	735.92
661.70	730.44
662.05	725.04
662.39	719.86
662.73	714.60
663.07	709.67
663.41	704.48
663.75	699.15
664.09	693.80
664.43	688.27
664.77	683.05
665.11	678.00
665.45	672.96
665.79	667.84
666.13	662.86
666.47	658.01
666.81	653.29
667.15	648.57
667.49	644.10
667.83	639.86
668.17	635.33
668.51	631.03
668.85	626.62
669.19	622.20
669.53	617.68
669.87	613.28
670.21	608.95
670.55	604.61
670.89	600.77
671.23	596.80
671.57	592.84
671.91	589.04
672.25	584.92
672.58	580.90
672.92	576.92
673.26	573.20
673.60	569.67
673.94	565.76
674.28	561.87
674.62	558.29
674.96	554.40
675.30	550.84
675.64	547.07
675.97	543.50
676.31	539.97
676.65	536.60
676.99	533.38
677.33	529.93
677.67	526.57
678.01	522.90
678.34	519.53
678.68	516.25
679.02	512.74
679.36	509.55
679.70	506.29
680.04	503.08
680.37	499.73
680.71	496.45
681.05	493.55
681.39	490.57
681.73	487.42
682.06	484.72
682.40	481.78
682.74	478.74
683.08	475.76
683.42	472.78
683.75	469.80
684.09	466.61
684.43	463.68
684.77	460.71
685.10	457.88
685.44	454.89
685.78	451.98
686.12	449.50
686.45	446.89
686.79	444.25
687.13	441.74
687.46	439.21
687.80	436.64
688.14	433.88
688.48	431.34
688.81	428.65
689.15	425.92
689.49	423.35
689.82	420.92
690.16	418.30
690.50	415.70
690.83	413.10
691.17	410.65
691.51	408.19
691.84	405.91
692.18	403.63
692.52	401.48
692.85	399.57
693.19	397.34
693.52	394.96
693.86	392.62
694.20	390.38
694.53	388.18
694.87	386.02
695.21	383.84
695.54	381.68
695.88	379.43
696.21	377.38
696.55	375.30
696.88	373.30
697.22	371.33
697.56	369.49
697.89	367.61
698.23	365.70
698.56	363.89
698.90	362.12
699.23	360.26
699.57	358.39
699.90	356.39
700.24	354.46
700.58	352.65
700.91	351.02
701.25	349.41
701.58	347.87
701.92	346.17
702.25	344.53
702.59	342.92
702.92	341.40
703.26	339.76
703.59	338.18
703.93	336.84
704.26	335.33
704.60	333.76
704.93	332.22
705.26	330.83
705.60	329.41
705.93	327.88
706.27	326.50
706.60	325.23
706.94	323.91
707.27	322.43
707.61	321.02
707.94	319.56
708.27	318.05
708.61	316.63
708.94	315.31
709.28	314.04
709.61	312.79
709.94	311.67
710.28	310.44
710.61	309.36
710.95	307.87
711.28	306.88
711.61	305.82
711.95	304.85
712.28	303.70
712.61	302.55
712.95	301.58
713.28	300.59
713.61	299.39
713.95	298.33
714.28	297.44
714.61	296.43
714.95	295.46
715.28	294.46
715.61	293.43
715.95	292.46
716.28	291.45
716.61	290.54
716.95	289.48
717.28	288.55
717.61	287.59
717.94	286.67
718.28	285.56
718.61	284.67
718.94	283.66
719.27	282.76
719.61	281.87
719.94	281.02
720.27	280.04
720.60	279.25
720.94	278.33
721.27	277.44
721.60	276.74
721.93	275.95
722.27	275.33
722.60	274.65
722.93	273.91
723.26	273.28
723.59	272.53
723.93	271.93
724.26	271.29
724.59	270.55
724.92	269.97
725.25	269.36
725.59	268.71
725.92	268.20
726.25	267.56
726.58	266.99
726.91	266.30
727.24	265.80
727.57	265.20
727.91	264.56
728.24	264.09
728.57	263.46
728.90	262.91
729.23	262.13
729.56	261.74
729.89	261.10
730.22	260.51
730.55	259.87
730.89	259.27
731.22	258.67
731.55	258.12
731.88	257.64
732.21	257.10
732.54	256.60
732.87	256.00
733.20	255.46
733.53	254.93
733.86	254.46
734.19	253.85
734.52	253.52
734.85	253.38
735.18	252.83
735.51	252.48
735.84	252.04
736.17	251.76
736.50	251.08
736.83	251.05
737.16	250.63
737.49	250.30
737.82	249.89
738.15	249.47
738.48	249.11
738.81	248.55
739.14	248.07
739.47	247.50
739.80	247.08
740.13	246.75
740.46	246.33
740.79	245.87
741.12	245.54
741.45	245.01
741.78	244.43
742.11	244.18
742.44	243.73
742.77	243.53
743.10	243.09
743.43	242.76
743.75	242.11
744.08	242.20
744.41	241.81
744.74	241.48
745.07	241.11
745.40	240.77
745.73	240.63
746.06	240.29
746.39	240.12
746.71	239.76
747.04	239.38
747.37	239.00
747.70	238.75
748.03	238.40
748.36	238.10
748.68	237.75
749.01	237.34
749.34	237.08
749.67	236.75
750.00	236.47
750.33	236.40
750.65	236.10
750.98	235.29
751.31	235.02
751.64	234.74
751.97	234.66
752.29	234.35
752.62	233.97
752.95	233.75
753.28	233.40
753.60	233.16
753.93	232.99
754.26	232.83
754.59	232.60
754.91	232.28
755.24	232.05
755.57	231.79
755.90	231.55
756.22	231.24
756.55	230.86
756.88	230.60
757.20	230.06
757.53	229.76
757.86	229.54
758.19	229.36
758.51	229.06
758.84	228.70
759.17	228.50
759.49	228.33
759.82	228.36
760.15	228.24
760.47	227.98
760.80	227.68
761.13	227.44
761.45	227.15
761.78	227.04
762.11	226.90
762.43	226.64
762.76	226.52
763.08	226.41
763.41	226.30
763.74	226.25
764.06	226.12
764.39	225.92
764.71	225.73
765.04	225.52
765.37	225.41
765.69	225.23
766.02	225.13
766.34	224.82
766.67	224.51
767.00	224.40
767.32	224.49
767.65	224.63
767.97	224.48
768.30	224.40
768.62	224.28
768.95	224.15
769.27	224.10
769.60	224.01
769.92	223.81
770.25	223.61
770.57	223.33
770.90	223.24
771.22	223.13
771.55	223.12
771.87	222.97
772.20	222.84
772.52	222.96
772.85	223.20
773.17	223.17
773.50	223.02
773.82	222.86
774.15	222.58
774.47	222.21
774.80	222.09
775.12	221.95
775.45	221.78
775.77	221.60
776.09	221.47
776.42	221.25
776.74	221.27
777.07	221.15
777.39	221.04
777.72	220.86
778.04	220.81
778.36	220.68
778.69	220.70
779.01	220.63
779.33	220.32
779.66	219.86
779.98	219.73
780.31	219.58
780.63	219.60
780.95	219.57
781.28	219.47
781.60	219.32
781.92	219.26
782.25	219.17
782.57	219.08
782.89	218.97
783.22	218.86
783.54	218.76
783.86	218.75
784.19	218.67
784.51	218.75
784.83	218.57
785.16	218.42
785.48	218.27
785.80	218.14
