SpectraSuite Data File
++++++++++++++++++++++++++++++++++++
Date: Mon Feb 25 17:14:03 EST 2013
User: group
Dark Spectrum Present: No
Reference Spectrum Present: No
Number of Sampled Component Spectra: 1
Spectrometers: USB2E7196
Integration Time (usec): 104000 (USB2E7196)
Spectra Averaged: 20 (USB2E7196)
Boxcar Smoothing: 10 (USB2E7196)
Correct for Electrical Dark: No (USB2E7196)
Strobe/Lamp Enabled: No (USB2E7196)
Correct for Detector Non-linearity: No (USB2E7196)
Correct for Stray Light: No (USB2E7196)
Number of Pixels in Processed Spectrum: 2048
>>>>>Begin Processed Spectral Data<<<<<
339.09	0.00
339.48	198.80
339.86	199.85
340.24	200.10
340.63	202.10
341.01	209.80
341.39	206.20
341.78	206.85
342.16	209.50
342.54	209.75
342.93	198.26
343.31	208.20
343.69	208.71
344.07	209.17
344.46	209.70
344.84	210.12
345.22	210.13
345.60	210.34
345.99	210.51
346.37	210.60
346.75	210.61
347.13	210.64
347.52	210.72
347.90	210.87
348.28	210.99
348.66	211.01
349.05	210.89
349.43	210.92
349.81	210.94
350.19	210.98
350.57	211.03
350.96	211.10
351.34	211.23
351.72	211.27
352.10	211.38
352.48	211.36
352.87	211.34
353.25	211.40
353.63	211.48
354.01	211.55
354.39	211.66
354.77	211.76
355.15	211.93
355.54	211.92
355.92	211.90
356.30	211.92
356.68	212.23
357.06	212.36
357.44	212.41
357.82	212.45
358.20	212.59
358.58	212.65
358.97	212.66
359.35	212.86
359.73	213.04
360.11	213.07
360.49	213.22
360.87	213.39
361.25	213.52
361.63	213.72
362.01	213.81
362.39	213.79
362.77	213.86
363.15	213.75
363.53	213.84
363.91	213.85
364.29	213.89
364.67	213.61
365.05	213.62
365.43	213.62
365.81	213.69
366.19	213.83
366.57	214.05
366.95	214.11
367.33	214.00
367.71	213.98
368.09	214.06
368.47	214.02
368.85	213.96
369.23	214.03
369.61	213.90
369.99	214.01
370.37	214.00
370.75	214.14
371.13	214.22
371.51	214.15
371.89	214.17
372.27	214.13
372.65	214.13
373.03	214.12
373.41	214.09
373.78	214.09
374.16	213.91
374.54	213.75
374.92	213.64
375.30	213.65
375.68	213.52
376.06	213.52
376.44	213.46
376.82	213.45
377.19	213.30
377.57	213.19
377.95	212.99
378.33	212.96
378.71	212.69
379.09	212.69
379.47	212.72
379.84	212.67
380.22	212.63
380.60	212.50
380.98	212.51
381.36	212.47
381.73	212.29
382.11	212.21
382.49	212.15
382.87	212.17
383.25	212.09
383.62	212.49
384.00	212.37
384.38	212.34
384.76	212.36
385.13	212.54
385.51	212.50
385.89	212.40
386.27	212.38
386.64	212.36
387.02	212.25
387.40	212.20
387.78	212.20
388.15	212.12
388.53	212.15
388.91	212.05
389.29	211.95
389.66	212.05
390.04	212.07
390.42	212.16
390.79	212.04
391.17	212.00
391.55	211.66
391.92	211.60
392.30	211.56
392.68	211.49
393.05	211.41
393.43	211.44
393.81	211.44
394.18	211.37
394.56	211.44
394.94	211.45
395.31	211.41
395.69	211.47
396.06	211.56
396.44	211.51
396.82	211.53
397.19	211.77
397.57	211.70
397.95	211.75
398.32	211.58
398.70	211.66
399.07	211.74
399.45	211.66
399.82	211.68
400.20	211.68
400.58	211.71
400.95	211.56
401.33	211.65
401.70	211.96
402.08	212.06
402.45	212.07
402.83	212.23
403.20	212.28
403.58	212.30
403.95	212.39
404.33	212.56
404.71	212.62
405.08	212.84
405.46	212.98
405.83	213.09
406.21	213.23
406.58	213.34
406.96	213.44
407.33	213.61
407.70	213.82
408.08	214.24
408.45	214.38
408.83	214.68
409.20	214.88
409.58	214.92
409.95	215.16
410.33	215.40
410.70	215.50
411.08	215.73
411.45	216.00
411.82	216.23
412.20	216.60
412.57	217.14
412.95	217.22
413.32	217.60
413.69	217.92
414.07	218.31
414.44	218.87
414.82	219.35
415.19	219.93
415.56	220.45
415.94	220.95
416.31	221.65
416.68	222.41
417.06	223.14
417.43	223.91
417.81	224.77
418.18	225.68
418.55	226.68
418.93	227.79
419.30	228.84
419.67	229.96
420.04	231.08
420.42	232.16
420.79	233.76
421.16	235.12
421.54	236.71
421.91	238.24
422.28	239.73
422.66	241.46
423.03	243.25
423.40	244.91
423.77	246.64
424.15	248.40
424.52	250.10
424.89	252.24
425.26	254.13
425.64	255.98
426.01	258.05
426.38	260.15
426.75	262.37
427.13	264.64
427.50	267.01
427.87	269.42
428.24	271.94
428.61	274.10
428.99	276.85
429.36	279.50
429.73	282.24
430.10	285.00
430.47	287.75
430.85	290.50
431.22	293.61
431.59	297.08
431.96	300.23
432.33	303.78
432.70	307.02
433.08	310.97
433.45	314.63
433.82	318.15
434.19	322.19
434.56	326.12
434.93	329.81
435.30	333.61
435.68	337.70
436.05	341.80
436.42	345.86
436.79	349.53
437.16	353.56
437.53	357.82
437.90	361.99
438.27	366.08
438.64	370.31
439.01	374.30
439.38	377.60
439.75	380.95
440.13	384.71
440.50	388.42
440.87	391.35
441.24	394.36
441.61	397.80
441.98	400.30
442.35	403.17
442.72	406.09
443.09	409.02
443.46	410.79
443.83	411.92
444.20	412.91
444.57	414.23
444.94	414.78
445.31	415.45
445.68	416.47
446.05	416.68
446.42	416.20
446.79	415.69
447.16	415.02
447.53	414.65
447.90	413.08
448.27	411.29
448.64	409.02
449.01	407.52
449.37	404.73
449.74	402.09
450.11	399.07
450.48	395.54
450.85	391.71
451.22	388.53
451.59	385.47
451.96	382.65
452.33	378.96
452.70	375.66
453.07	371.51
453.43	367.00
453.80	363.17
454.17	359.47
454.54	355.84
454.91	352.07
455.28	348.31
455.65	344.79
456.02	341.88
456.38	338.93
456.75	335.24
457.12	332.16
457.49	329.00
457.86	325.79
458.23	323.36
458.59	320.67
458.96	317.94
459.33	315.50
459.70	312.94
460.07	310.92
460.43	308.64
460.80	306.62
461.17	304.90
461.54	302.87
461.91	300.92
462.27	298.99
462.64	297.30
463.01	295.54
463.38	293.93
463.74	291.71
464.11	290.18
464.48	288.90
464.85	287.54
465.21	286.64
465.58	285.52
465.95	284.10
466.32	282.96
466.68	281.79
467.05	280.69
467.42	279.56
467.78	278.36
468.15	277.27
468.52	276.41
468.88	275.10
469.25	274.15
469.62	273.46
469.98	272.74
470.35	272.06
470.72	271.34
471.08	270.44
471.45	270.01
471.82	269.50
472.18	268.82
472.55	268.35
472.92	267.62
473.28	267.09
473.65	266.62
474.02	266.18
474.38	266.00
474.75	265.75
475.11	265.45
475.48	265.29
475.85	265.07
476.21	264.92
476.58	264.95
476.94	264.91
477.31	264.79
477.67	264.59
478.04	264.55
478.41	264.64
478.77	265.05
479.14	264.94
479.50	265.03
479.87	265.17
480.23	265.32
480.60	265.55
480.96	265.80
481.33	266.25
481.69	266.57
482.06	266.82
482.42	267.15
482.79	267.63
483.15	268.13
483.52	268.83
483.88	269.31
484.25	269.82
484.61	270.42
484.98	271.15
485.34	272.10
485.71	273.03
486.07	273.94
486.44	274.63
486.80	275.65
487.17	276.70
487.53	277.93
487.90	279.21
488.26	280.60
488.62	282.06
488.99	283.37
489.35	284.94
489.72	286.55
490.08	288.28
490.44	289.99
490.81	291.90
491.17	293.75
491.54	295.91
491.90	298.19
492.26	300.52
492.63	302.88
492.99	305.38
493.36	308.06
493.72	310.91
494.08	313.82
494.45	316.95
494.81	320.25
495.17	323.51
495.54	326.95
495.90	330.56
496.26	334.29
496.63	338.25
496.99	342.32
497.35	346.56
497.72	350.93
498.08	355.53
498.44	360.25
498.80	365.44
499.17	370.65
499.53	375.97
499.89	381.55
500.26	387.20
500.62	393.02
500.98	399.26
501.34	405.57
501.71	412.11
502.07	418.94
502.43	425.89
502.79	432.89
503.16	440.17
503.52	447.73
503.88	455.40
504.24	463.31
504.60	471.45
504.97	479.86
505.33	488.52
505.69	497.70
506.05	506.94
506.41	516.20
506.78	525.63
507.14	535.23
507.50	545.04
507.86	555.20
508.22	565.57
508.59	575.83
508.95	586.62
509.31	597.60
509.67	608.62
510.03	620.01
510.39	631.85
510.75	643.83
511.12	655.81
511.48	668.15
511.84	680.80
512.20	693.39
512.56	706.38
512.92	719.50
513.28	732.70
513.64	745.95
514.00	759.32
514.37	772.92
514.73	786.99
515.09	801.17
515.45	815.20
515.81	829.55
516.17	843.96
516.53	858.26
516.89	872.76
517.25	887.42
517.61	902.02
517.97	916.44
518.33	931.11
518.69	946.09
519.05	961.03
519.41	976.27
519.77	991.75
520.13	1006.69
520.49	1021.62
520.85	1036.70
521.21	1051.99
521.57	1067.47
521.93	1082.45
522.29	1098.06
522.65	1113.53
523.01	1129.05
523.37	1144.04
523.73	1159.16
524.09	1174.41
524.45	1189.71
524.81	1205.10
525.17	1220.62
525.53	1236.20
525.89	1251.47
526.25	1266.27
526.61	1281.12
526.97	1295.63
527.33	1310.24
527.68	1325.11
528.04	1339.58
528.40	1353.68
528.76	1367.71
529.12	1382.10
529.48	1397.06
529.84	1411.15
530.20	1425.06
530.56	1439.22
530.91	1453.72
531.27	1468.00
531.63	1481.79
531.99	1495.24
532.35	1508.39
532.71	1520.89
533.07	1534.09
533.42	1547.10
533.78	1560.31
534.14	1573.00
534.50	1584.75
534.86	1597.04
535.21	1608.63
535.57	1621.15
535.93	1632.82
536.29	1644.66
536.65	1655.83
537.00	1666.63
537.36	1676.85
537.72	1686.95
538.08	1697.03
538.44	1706.88
538.79	1716.70
539.15	1726.29
539.51	1736.23
539.87	1746.05
540.22	1755.96
540.58	1765.75
540.94	1774.95
541.29	1783.42
541.65	1791.29
542.01	1800.00
542.37	1807.79
542.72	1815.81
543.08	1822.88
543.44	1830.95
543.79	1837.80
544.15	1844.50
544.51	1851.34
544.87	1858.65
545.22	1865.11
545.58	1870.74
545.94	1875.93
546.29	1880.84
546.65	1885.89
547.01	1890.23
547.36	1894.65
547.72	1898.53
548.07	1901.46
548.43	1904.91
548.79	1907.77
549.14	1911.03
549.50	1914.18
549.86	1916.59
550.21	1919.08
550.57	1921.60
550.92	1922.94
551.28	1924.75
551.64	1926.52
551.99	1928.37
552.35	1929.18
552.70	1930.31
553.06	1931.92
553.41	1933.00
553.77	1934.33
554.13	1935.06
554.48	1936.10
554.84	1936.88
555.19	1937.39
555.55	1937.62
555.90	1937.18
556.26	1937.00
556.61	1936.97
556.97	1936.06
557.32	1935.85
557.68	1934.84
558.03	1933.65
558.39	1932.83
558.74	1932.52
559.10	1931.68
559.45	1930.10
559.81	1929.39
560.16	1928.03
560.52	1926.49
560.87	1925.24
561.23	1923.11
561.58	1921.64
561.94	1919.26
562.29	1916.54
562.64	1914.63
563.00	1912.76
563.35	1911.19
563.71	1910.21
564.06	1908.58
564.42	1906.95
564.77	1905.43
565.12	1903.81
565.48	1902.15
565.83	1900.37
566.19	1898.20
566.54	1895.29
566.89	1892.56
567.25	1889.84
567.60	1887.43
567.96	1884.77
568.31	1882.26
568.66	1879.45
569.02	1876.01
569.37	1872.66
569.72	1869.81
570.08	1865.95
570.43	1862.17
570.78	1857.96
571.14	1853.24
571.49	1848.45
571.84	1844.57
572.20	1839.45
572.55	1835.11
572.90	1830.16
573.26	1824.99
573.61	1819.68
573.96	1815.09
574.31	1809.70
574.67	1803.84
575.02	1797.78
575.37	1792.00
575.72	1785.88
576.08	1780.76
576.43	1775.04
576.78	1769.65
577.13	1764.31
577.49	1759.15
577.84	1753.61
578.19	1748.50
578.54	1743.73
578.90	1739.30
579.25	1733.48
579.60	1728.05
579.95	1722.14
580.30	1716.83
580.66	1711.92
581.01	1706.45
581.36	1700.52
581.71	1695.05
582.06	1689.87
582.42	1684.96
582.77	1679.42
583.12	1673.95
583.47	1668.51
583.82	1663.50
584.17	1658.03
584.53	1652.87
584.88	1647.12
585.23	1642.06
585.58	1636.25
585.93	1630.18
586.28	1624.68
586.63	1619.26
586.98	1613.86
587.34	1609.14
587.69	1603.65
588.04	1597.92
588.39	1592.57
588.74	1586.90
589.09	1581.97
589.44	1576.40
589.79	1571.08
590.14	1566.05
590.49	1560.42
590.84	1554.69
591.19	1549.86
591.54	1544.57
591.89	1538.02
592.25	1532.76
592.60	1526.49
592.95	1520.51
593.30	1514.44
593.65	1508.10
594.00	1502.22
594.35	1497.81
594.70	1491.68
595.05	1486.35
595.40	1480.67
595.75	1474.61
596.10	1469.50
596.45	1464.13
596.80	1459.24
597.15	1454.16
597.50	1448.42
597.85	1443.60
598.19	1438.20
598.54	1432.56
598.89	1427.41
599.24	1422.95
599.59	1418.01
599.94	1413.81
600.29	1409.30
600.64	1404.92
600.99	1399.79
601.34	1395.15
601.69	1388.86
602.04	1383.62
602.39	1378.45
602.74	1373.75
603.08	1369.71
603.43	1365.30
603.78	1360.33
604.13	1355.25
604.48	1350.26
604.83	1346.24
605.18	1341.92
605.53	1337.04
605.87	1331.84
606.22	1327.34
606.57	1322.21
606.92	1317.15
607.27	1311.81
607.62	1306.86
607.96	1302.07
608.31	1297.76
608.66	1292.60
609.01	1287.64
609.36	1282.71
609.70	1277.34
610.05	1271.89
610.40	1266.18
610.75	1260.45
611.10	1255.44
611.44	1249.09
611.79	1243.12
612.14	1236.88
612.49	1230.39
612.83	1224.81
613.18	1218.88
613.53	1212.57
613.88	1206.33
614.22	1200.25
614.57	1194.23
614.92	1187.92
615.27	1181.70
615.61	1175.50
615.96	1169.69
616.31	1164.02
616.65	1158.73
617.00	1153.31
617.35	1147.46
617.70	1141.34
618.04	1135.14
618.39	1128.60
618.74	1123.26
619.08	1117.31
619.43	1111.36
619.78	1105.60
620.12	1099.80
620.47	1094.39
620.82	1088.34
621.16	1082.39
621.51	1076.66
621.85	1071.02
622.20	1065.35
622.55	1059.48
622.89	1053.49
623.24	1047.82
623.59	1041.87
623.93	1035.91
624.28	1029.99
624.62	1024.67
624.97	1019.32
625.32	1014.07
625.66	1008.85
626.01	1003.55
626.35	998.47
626.70	993.29
627.04	988.32
627.39	983.04
627.73	977.76
628.08	972.91
628.43	967.92
628.77	962.78
629.12	957.48
629.46	952.84
629.81	947.94
630.15	943.06
630.50	937.75
630.84	932.62
631.19	927.38
631.53	922.47
631.88	916.92
632.22	911.44
632.57	906.55
632.91	901.42
633.26	896.24
633.60	891.16
633.95	886.41
634.29	881.31
634.64	876.53
634.98	871.47
635.32	866.66
635.67	862.00
636.01	857.23
636.36	852.28
636.70	847.68
637.05	842.89
637.39	838.16
637.73	833.78
638.08	829.84
638.42	825.65
638.77	821.14
639.11	816.76
639.45	812.65
639.80	807.96
640.14	803.28
640.49	798.80
640.83	794.34
641.17	789.60
641.52	785.14
641.86	780.39
642.20	775.85
642.55	771.17
642.89	766.47
643.23	761.85
643.58	757.82
643.92	752.85
644.26	748.24
644.61	743.79
644.95	739.20
645.29	734.29
645.64	729.66
645.98	725.40
646.32	721.16
646.66	716.48
647.01	712.10
647.35	707.95
647.69	703.36
648.04	699.09
648.38	694.85
648.72	690.43
649.06	686.06
649.41	681.91
649.75	677.56
650.09	673.37
650.43	669.22
650.78	664.64
651.12	660.56
651.46	656.42
651.80	652.51
652.14	648.40
652.49	644.40
652.83	640.08
653.17	635.58
653.51	631.39
653.85	627.65
654.20	623.69
654.54	619.51
654.88	615.56
655.22	611.45
655.56	607.46
655.90	603.50
656.25	599.58
656.59	595.57
656.93	591.82
657.27	588.16
657.61	584.30
657.95	580.66
658.29	576.97
658.64	573.47
658.98	569.60
659.32	565.70
659.66	561.99
660.00	558.45
660.34	554.67
660.68	550.77
661.02	547.05
661.36	543.54
661.70	540.14
662.05	536.95
662.39	533.79
662.73	530.64
663.07	527.55
663.41	524.49
663.75	521.21
664.09	518.10
664.43	514.82
664.77	511.68
665.11	508.38
665.45	505.28
665.79	502.29
666.13	499.28
666.47	496.43
666.81	493.42
667.15	490.37
667.49	487.79
667.83	485.20
668.17	482.43
668.51	479.71
668.85	477.05
669.19	474.40
669.53	471.62
669.87	468.80
670.21	466.07
670.55	463.35
670.89	460.99
671.23	458.52
671.57	456.04
671.91	453.66
672.25	451.17
672.58	448.75
672.92	446.18
673.26	443.84
673.60	441.62
673.94	439.22
674.28	437.04
674.62	434.86
674.96	432.61
675.30	430.33
675.64	428.14
675.97	425.92
676.31	423.62
676.65	421.53
676.99	419.52
677.33	417.31
677.67	415.25
678.01	412.94
678.34	410.84
678.68	408.79
679.02	406.61
679.36	404.73
679.70	402.64
680.04	400.62
680.37	398.59
680.71	396.49
681.05	394.78
681.39	392.92
681.73	390.88
682.06	389.14
682.40	387.37
682.74	385.56
683.08	383.80
683.42	381.96
683.75	380.18
684.09	378.26
684.43	376.50
684.77	374.56
685.10	372.84
685.44	370.99
685.78	369.24
686.12	367.64
686.45	365.95
686.79	364.31
687.13	362.79
687.46	361.14
687.80	359.57
688.14	357.73
688.48	356.05
688.81	354.36
689.15	352.63
689.49	350.98
689.82	349.37
690.16	347.56
690.50	345.85
690.83	344.10
691.17	342.50
691.51	340.97
691.84	339.51
692.18	338.04
692.52	336.64
692.85	335.32
693.19	333.92
693.52	332.41
693.86	330.96
694.20	329.50
694.53	328.09
694.87	326.69
695.21	325.34
695.54	323.99
695.88	322.60
696.21	321.26
696.55	320.01
696.88	318.66
697.22	317.38
697.56	316.33
697.89	315.16
698.23	313.93
698.56	312.66
698.90	311.59
699.23	310.37
699.57	309.11
699.90	307.79
700.24	306.51
700.58	305.34
700.91	304.22
701.25	303.41
701.58	302.41
701.92	301.34
702.25	300.22
702.59	299.17
702.92	298.19
703.26	297.20
703.59	296.20
703.93	295.43
704.26	294.51
704.60	293.43
704.93	292.48
705.26	291.58
705.60	290.64
705.93	289.58
706.27	288.79
706.60	288.00
706.94	287.37
707.27	286.51
707.61	285.77
707.94	284.85
708.27	283.70
708.61	282.80
708.94	281.96
709.28	281.22
709.61	280.32
709.94	279.56
710.28	278.72
710.61	278.02
710.95	276.99
711.28	276.46
711.61	275.74
711.95	275.04
712.28	274.27
712.61	273.65
712.95	273.19
713.28	272.57
713.61	271.85
713.95	270.99
714.28	270.39
714.61	269.67
714.95	269.08
715.28	268.40
715.61	267.68
715.95	266.95
716.28	266.26
716.61	265.70
716.95	265.09
717.28	264.54
717.61	263.84
717.94	263.27
718.28	262.43
718.61	261.84
718.94	261.21
719.27	260.71
719.61	260.12
719.94	259.44
720.27	258.75
720.60	258.21
720.94	257.65
721.27	257.10
721.60	256.73
721.93	256.18
722.27	255.80
722.60	255.36
722.93	254.93
723.26	254.50
723.59	253.95
723.93	253.54
724.26	253.10
724.59	252.63
724.92	252.24
725.25	251.92
725.59	251.53
725.92	251.20
726.25	250.75
726.58	250.38
726.91	249.92
727.24	249.60
727.57	249.13
727.91	248.66
728.24	248.22
728.57	247.67
728.90	247.36
729.23	246.83
729.56	246.63
729.89	246.24
730.22	245.78
730.55	245.44
730.89	244.97
731.22	244.58
731.55	244.23
731.88	243.84
732.21	243.43
732.54	243.02
732.87	242.63
733.20	242.29
733.53	241.90
733.86	241.68
734.19	241.20
734.52	240.95
734.85	240.97
735.18	240.64
735.51	240.39
735.84	240.08
736.17	239.96
736.50	239.44
736.83	239.57
737.16	239.34
737.49	239.06
737.82	238.79
738.15	238.57
738.48	238.25
738.81	237.95
739.14	237.63
739.47	237.31
739.80	236.96
740.13	236.64
740.46	236.35
740.79	236.08
741.12	235.91
741.45	235.56
741.78	235.08
742.11	234.98
742.44	234.69
742.77	234.46
743.10	234.11
743.43	233.94
743.75	233.27
744.08	233.46
744.41	233.22
744.74	233.00
745.07	232.64
745.40	232.48
745.73	232.37
746.06	232.18
746.39	232.00
746.71	231.77
747.04	231.59
747.37	231.38
747.70	231.12
748.03	230.91
748.36	230.75
748.68	230.49
749.01	230.09
749.34	229.85
749.67	229.67
750.00	229.48
750.33	229.43
750.65	229.28
750.98	228.68
751.31	228.52
751.64	228.25
751.97	228.31
752.29	228.12
752.62	227.77
752.95	227.51
753.28	227.30
753.60	227.16
753.93	226.99
754.26	226.82
754.59	226.55
754.91	226.30
755.24	226.12
755.57	225.96
755.90	225.84
756.22	225.71
756.55	225.44
756.88	225.24
757.20	224.80
757.53	224.63
757.86	224.44
758.19	224.29
758.51	224.12
758.84	223.76
759.17	223.56
759.49	223.46
759.82	223.49
760.15	223.40
760.47	223.16
760.80	222.93
761.13	222.78
761.45	222.65
761.78	222.52
762.11	222.40
762.43	222.20
762.76	222.07
763.08	221.97
763.41	221.93
763.74	221.78
764.06	221.74
764.39	221.59
764.71	221.51
765.04	221.37
765.37	221.25
765.69	221.10
766.02	220.96
766.34	220.75
766.67	220.49
767.00	220.52
767.32	220.64
767.65	220.77
767.97	220.67
768.30	220.65
768.62	220.65
768.95	220.54
769.27	220.49
769.60	220.43
769.92	220.23
770.25	220.01
770.57	219.86
770.90	219.76
771.22	219.66
771.55	219.53
771.87	219.43
772.20	219.30
772.52	219.56
772.85	219.91
773.17	219.87
773.50	219.82
773.82	219.60
774.15	219.39
774.47	219.12
774.80	219.07
775.12	218.91
775.45	218.73
775.77	218.65
776.09	218.60
776.42	218.54
776.74	218.54
777.07	218.47
777.39	218.44
777.72	218.34
778.04	218.25
778.36	218.16
778.69	218.12
779.01	218.11
779.33	217.74
779.66	217.21
779.98	217.16
780.31	217.04
780.63	217.08
780.95	217.07
781.28	216.90
781.60	216.74
781.92	216.66
782.25	216.64
782.57	216.58
782.89	216.43
783.22	216.28
783.54	216.20
783.86	216.22
784.19	216.11
784.51	216.11
784.83	216.00
785.16	215.96
785.48	215.89
785.80	215.84
786.12	215.84
786.45	215.78
786.77	215.76
787.09	215.70
787.42	215.55
787.74	215.48
