SpectraSuite Data File
++++++++++++++++++++++++++++++++++++
Date: Mon Feb 25 17:13:02 EST 2013
User: group
Dark Spectrum Present: No
Reference Spectrum Present: No
Number of Sampled Component Spectra: 1
Spectrometers: USB2E7196
Integration Time (usec): 104000 (USB2E7196)
Spectra Averaged: 20 (USB2E7196)
Boxcar Smoothing: 10 (USB2E7196)
Correct for Electrical Dark: No (USB2E7196)
Strobe/Lamp Enabled: No (USB2E7196)
Correct for Detector Non-linearity: No (USB2E7196)
Correct for Stray Light: No (USB2E7196)
Number of Pixels in Processed Spectrum: 2048
>>>>>Begin Processed Spectral Data<<<<<
339.09	0.00
339.48	197.65
339.86	200.80
340.24	201.80
340.63	202.90
341.01	209.70
341.39	205.20
341.78	206.90
342.16	209.20
342.54	208.40
342.93	198.00
343.31	207.94
343.69	208.49
344.07	208.90
344.46	209.36
344.84	209.73
345.22	209.75
345.60	209.98
345.99	210.16
346.37	210.28
346.75	210.44
347.13	210.55
347.52	210.59
347.90	210.74
348.28	210.78
348.66	210.81
349.05	210.80
349.43	210.87
349.81	210.96
350.19	211.00
350.57	211.06
350.96	211.07
351.34	211.21
351.72	211.30
352.10	211.35
352.48	211.32
352.87	211.35
353.25	211.44
353.63	211.52
354.01	211.59
354.39	211.59
354.77	211.61
355.15	211.73
355.54	211.74
355.92	211.69
356.30	211.82
356.68	212.13
357.06	212.15
357.44	212.21
357.82	212.24
358.20	212.30
358.58	212.39
358.97	212.55
359.35	212.69
359.73	212.84
360.11	212.94
360.49	213.00
360.87	213.04
361.25	213.13
361.63	213.26
362.01	213.34
362.39	213.42
362.77	213.50
363.15	213.50
363.53	213.54
363.91	213.61
364.29	213.64
364.67	213.41
365.05	213.52
365.43	213.57
365.81	213.70
366.19	213.95
366.57	214.15
366.95	214.08
367.33	214.07
367.71	214.07
368.09	214.15
368.47	214.23
368.85	214.27
369.23	214.31
369.61	214.20
369.99	214.28
370.37	214.24
370.75	214.39
371.13	214.38
371.51	214.45
371.89	214.46
372.27	214.51
372.65	214.48
373.03	214.51
373.41	214.38
373.78	214.30
374.16	214.05
374.54	213.86
374.92	213.85
375.30	213.75
375.68	213.59
376.06	213.58
376.44	213.49
376.82	213.48
377.19	213.43
377.57	213.38
377.95	213.22
378.33	213.18
378.71	212.94
379.09	212.91
379.47	212.83
379.84	212.72
380.22	212.59
380.60	212.51
380.98	212.39
381.36	212.39
381.73	212.27
382.11	212.28
382.49	212.25
382.87	212.15
383.25	212.06
383.62	212.47
384.00	212.37
384.38	212.35
384.76	212.37
385.13	212.45
385.51	212.40
385.89	212.35
386.27	212.36
386.64	212.31
387.02	212.19
387.40	212.14
387.78	212.10
388.15	212.05
388.53	211.96
388.91	211.90
389.29	211.83
389.66	211.79
390.04	211.67
390.42	211.66
390.79	211.67
391.17	211.63
391.55	211.25
391.92	211.21
392.30	211.24
392.68	211.10
393.05	211.05
393.43	211.08
393.81	211.04
394.18	210.94
394.56	210.96
394.94	211.03
395.31	211.00
395.69	211.04
396.06	211.10
396.44	211.15
396.82	211.15
397.19	211.29
397.57	211.27
397.95	211.35
398.32	211.33
398.70	211.35
399.07	211.45
399.45	211.40
399.82	211.41
400.20	211.35
400.58	211.46
400.95	211.30
401.33	211.44
401.70	211.70
402.08	211.76
402.45	211.78
402.83	211.88
403.20	211.91
403.58	211.94
403.95	211.96
404.33	212.10
404.71	212.17
405.08	212.49
405.46	212.62
405.83	212.72
406.21	212.83
406.58	212.88
406.96	212.95
407.33	213.11
407.70	213.27
408.08	213.74
408.45	213.87
408.83	214.05
409.20	214.15
409.58	214.20
409.95	214.57
410.33	214.83
410.70	214.99
411.08	215.32
411.45	215.57
411.82	215.89
412.20	216.18
412.57	216.69
412.95	216.71
413.32	217.16
413.69	217.48
414.07	217.87
414.44	218.32
414.82	218.78
415.19	219.39
415.56	219.88
415.94	220.19
416.31	220.87
416.68	221.58
417.06	222.40
417.43	223.17
417.81	223.91
418.18	224.75
418.55	225.68
418.93	226.63
419.30	227.70
419.67	228.72
420.04	229.76
420.42	230.78
420.79	232.29
421.16	233.51
421.54	235.08
421.91	236.51
422.28	237.99
422.66	239.53
423.03	241.23
423.40	242.89
423.77	244.55
424.15	246.15
424.52	247.86
424.89	249.75
425.26	251.52
425.64	253.26
426.01	255.06
426.38	257.03
426.75	259.15
427.13	261.17
427.50	263.39
427.87	265.68
428.24	267.94
428.61	269.89
428.99	272.40
429.36	274.80
429.73	277.26
430.10	279.78
430.47	282.46
430.85	284.94
431.22	287.66
431.59	290.88
431.96	293.82
432.33	297.06
432.70	300.10
433.08	303.70
433.45	307.09
433.82	310.62
434.19	314.46
434.56	318.09
434.93	321.56
435.30	325.07
435.68	329.07
436.05	332.96
436.42	336.78
436.79	340.29
437.16	344.15
437.53	348.18
437.90	352.16
438.27	356.05
438.64	360.04
439.01	363.87
439.38	367.01
439.75	370.21
440.13	373.93
440.50	377.32
440.87	380.24
441.24	383.21
441.61	386.33
441.98	388.59
442.35	391.33
442.72	394.30
443.09	397.01
443.46	398.54
443.83	399.62
444.20	400.63
444.57	401.91
444.94	402.47
445.31	403.11
445.68	404.14
446.05	404.40
446.42	403.98
446.79	403.58
447.16	403.14
447.53	402.83
447.90	401.23
448.27	399.75
448.64	397.55
449.01	395.97
449.37	393.44
449.74	390.94
450.11	388.12
450.48	384.57
450.85	381.11
451.22	378.25
451.59	375.46
451.96	372.71
452.33	369.13
452.70	365.89
453.07	362.03
453.43	357.75
453.80	354.07
454.17	350.52
454.54	347.02
454.91	343.27
455.28	339.68
455.65	336.37
456.02	333.63
456.38	330.80
456.75	327.32
457.12	324.34
457.49	321.57
457.86	318.49
458.23	316.26
458.59	313.70
458.96	311.07
459.33	308.68
459.70	306.43
460.07	304.64
460.43	302.52
460.80	300.57
461.17	298.87
461.54	296.89
461.91	295.14
462.27	293.38
462.64	291.88
463.01	290.20
463.38	288.78
463.74	286.60
464.11	285.19
464.48	283.99
464.85	282.65
465.21	281.52
465.58	280.57
465.95	279.14
466.32	278.10
466.68	277.00
467.05	275.85
467.42	274.83
467.78	273.65
468.15	272.63
468.52	271.91
468.88	270.82
469.25	270.00
469.62	269.40
469.98	268.65
470.35	267.94
470.72	267.27
471.08	266.36
471.45	265.85
471.82	265.35
472.18	264.66
472.55	264.19
472.92	263.61
473.28	263.00
473.65	262.52
474.02	261.99
474.38	261.61
474.75	261.46
475.11	261.06
475.48	260.90
475.85	260.70
476.21	260.50
476.58	260.44
476.94	260.38
477.31	260.21
477.67	260.05
478.04	260.05
478.41	260.04
478.77	260.37
479.14	260.27
479.50	260.39
479.87	260.60
480.23	260.72
480.60	260.76
480.96	260.96
481.33	261.40
481.69	261.63
482.06	261.93
482.42	262.22
482.79	262.53
483.15	262.92
483.52	263.53
483.88	263.89
484.25	264.35
484.61	264.83
484.98	265.36
485.34	266.16
485.71	266.94
486.07	267.72
486.44	268.29
486.80	269.18
487.17	270.02
487.53	271.07
487.90	272.24
488.26	273.54
488.62	274.79
488.99	275.91
489.35	277.25
489.72	278.61
490.08	279.97
490.44	281.48
490.81	283.07
491.17	284.65
491.54	286.54
491.90	288.41
492.26	290.42
492.63	292.46
492.99	294.49
493.36	296.62
493.72	298.96
494.08	301.43
494.45	303.99
494.81	306.71
495.17	309.35
495.54	312.25
495.90	315.17
496.26	318.32
496.63	321.59
496.99	325.08
497.35	328.68
497.72	332.49
498.08	336.33
498.44	340.28
498.80	344.43
499.17	348.70
499.53	353.01
499.89	357.65
500.26	362.31
500.62	367.14
500.98	372.37
501.34	377.54
501.71	383.03
502.07	388.69
502.43	394.26
502.79	400.03
503.16	406.10
503.52	412.57
503.88	418.95
504.24	425.57
504.60	432.36
504.97	439.36
505.33	446.28
505.69	453.91
506.05	461.61
506.41	469.18
506.78	476.84
507.14	484.91
507.50	492.93
507.86	501.37
508.22	509.91
508.59	518.38
508.95	527.21
509.31	536.13
509.67	545.30
510.03	554.88
510.39	564.73
510.75	574.50
511.12	584.29
511.48	594.42
511.84	604.70
512.20	614.90
512.56	625.46
512.92	636.41
513.28	647.08
513.64	657.85
514.00	668.88
514.37	680.19
514.73	691.69
515.09	703.43
515.45	714.80
515.81	726.61
516.17	738.30
516.53	750.07
516.89	761.93
517.25	773.91
517.61	786.00
517.97	797.96
518.33	810.03
518.69	822.30
519.05	834.62
519.41	846.96
519.77	859.80
520.13	872.03
520.49	884.20
520.85	896.72
521.21	909.41
521.57	922.22
521.93	934.40
522.29	947.05
522.65	959.58
523.01	972.49
523.37	984.94
523.73	997.69
524.09	1010.23
524.45	1022.98
524.81	1035.59
525.17	1048.31
525.53	1060.88
525.89	1073.30
526.25	1085.79
526.61	1097.79
526.97	1110.09
527.33	1122.05
527.68	1134.71
528.04	1146.70
528.40	1158.39
528.76	1170.21
529.12	1182.37
529.48	1195.03
529.84	1206.91
530.20	1218.85
530.56	1230.73
530.91	1242.83
531.27	1254.88
531.63	1266.72
531.99	1278.14
532.35	1289.28
532.71	1300.32
533.07	1311.88
533.42	1323.30
533.78	1334.20
534.14	1345.17
534.50	1355.31
534.86	1365.94
535.21	1375.63
535.57	1386.53
535.93	1396.62
536.29	1406.64
536.65	1416.39
537.00	1425.46
537.36	1434.41
537.72	1443.31
538.08	1452.06
538.44	1460.90
538.79	1469.47
539.15	1477.88
539.51	1486.34
539.87	1495.26
540.22	1503.45
540.58	1511.61
540.94	1519.46
541.29	1526.98
541.65	1534.30
542.01	1541.81
542.37	1548.87
542.72	1556.18
543.08	1562.47
543.44	1569.85
543.79	1575.87
544.15	1581.60
544.51	1587.97
544.87	1594.27
545.22	1599.75
545.58	1604.80
545.94	1609.44
546.29	1613.86
546.65	1618.17
547.01	1622.50
547.36	1626.36
547.72	1630.47
548.07	1633.79
548.43	1636.81
548.79	1639.79
549.14	1642.65
549.50	1645.67
549.86	1648.06
550.21	1650.33
550.57	1653.00
550.92	1654.40
551.28	1656.31
551.64	1658.34
551.99	1660.03
552.35	1661.46
552.70	1662.87
553.06	1664.55
553.41	1665.90
553.77	1667.24
554.13	1668.55
554.48	1669.75
554.84	1670.99
555.19	1671.57
555.55	1671.78
555.90	1671.76
556.26	1672.01
556.61	1672.03
556.97	1671.43
557.32	1671.33
557.68	1670.50
558.03	1669.56
558.39	1669.22
558.74	1669.21
559.10	1668.75
559.45	1668.03
559.81	1667.60
560.16	1666.41
560.52	1665.63
560.87	1664.50
561.23	1663.20
561.58	1662.32
561.94	1660.28
562.29	1657.93
562.64	1656.16
563.00	1654.75
563.35	1653.94
563.71	1653.00
564.06	1651.87
564.42	1650.87
564.77	1649.81
565.12	1648.99
565.48	1647.84
565.83	1646.21
566.19	1644.64
566.54	1642.25
566.89	1640.06
567.25	1637.66
567.60	1636.06
567.96	1633.90
568.31	1631.95
568.66	1629.45
569.02	1626.49
569.37	1623.85
569.72	1621.44
570.08	1618.62
570.43	1615.56
570.78	1612.43
571.14	1608.80
571.49	1605.25
571.84	1602.00
572.20	1597.96
572.55	1594.58
572.90	1590.52
573.26	1586.43
573.61	1582.15
573.96	1578.47
574.31	1574.05
574.67	1569.74
575.02	1564.94
575.37	1560.14
575.72	1555.23
576.08	1551.17
576.43	1546.47
576.78	1541.94
577.13	1537.71
577.49	1533.51
577.84	1529.30
578.19	1525.03
578.54	1520.99
578.90	1517.40
579.25	1513.11
579.60	1508.46
579.95	1503.39
580.30	1499.12
580.66	1495.03
581.01	1490.44
581.36	1485.59
581.71	1481.35
582.06	1476.98
582.42	1472.84
582.77	1468.15
583.12	1463.72
583.47	1459.00
583.82	1454.86
584.17	1450.45
584.53	1446.11
584.88	1441.45
585.23	1436.89
585.58	1432.39
585.93	1427.75
586.28	1423.10
586.63	1418.42
586.98	1414.15
587.34	1410.29
587.69	1405.80
588.04	1401.22
588.39	1397.02
588.74	1392.38
589.09	1387.99
589.44	1383.20
589.79	1378.77
590.14	1374.81
590.49	1370.23
590.84	1365.79
591.19	1361.88
591.54	1357.74
591.89	1352.40
592.25	1347.95
592.60	1342.99
592.95	1337.87
593.30	1332.55
593.65	1327.14
594.00	1322.31
594.35	1318.86
594.70	1314.01
595.05	1309.52
595.40	1304.92
595.75	1299.83
596.10	1295.52
596.45	1291.07
596.80	1286.90
597.15	1282.54
597.50	1277.66
597.85	1273.44
598.19	1269.02
598.54	1264.26
598.89	1259.82
599.24	1256.25
599.59	1252.16
599.94	1248.74
600.29	1244.79
600.64	1240.98
600.99	1236.88
601.34	1232.85
601.69	1227.35
602.04	1222.62
602.39	1218.28
602.74	1214.03
603.08	1210.48
603.43	1206.87
603.78	1202.90
604.13	1198.82
604.48	1194.87
604.83	1191.44
605.18	1188.01
605.53	1183.86
605.87	1179.61
606.22	1176.01
606.57	1171.87
606.92	1167.49
607.27	1162.86
607.62	1158.59
607.96	1154.85
608.31	1151.41
608.66	1147.22
609.01	1143.13
609.36	1138.97
609.70	1134.44
610.05	1130.01
610.40	1125.42
610.75	1120.62
611.10	1116.16
611.44	1110.92
611.79	1105.83
612.14	1100.59
612.49	1095.12
612.83	1090.40
613.18	1085.23
613.53	1079.84
613.88	1074.52
614.22	1069.65
614.57	1064.45
614.92	1059.46
615.27	1054.08
615.61	1048.51
615.96	1043.53
616.31	1038.66
616.65	1034.14
617.00	1029.37
617.35	1024.50
617.70	1019.44
618.04	1014.04
618.39	1008.48
618.74	1003.93
619.08	998.91
619.43	994.04
619.78	989.13
620.12	984.16
620.47	979.43
620.82	974.47
621.16	969.20
621.51	964.22
621.85	959.54
622.20	954.42
622.55	949.52
622.89	944.39
623.24	939.29
623.59	934.10
623.93	929.22
624.28	924.54
624.62	919.97
624.97	915.19
625.32	910.75
625.66	906.55
626.01	901.75
626.35	897.36
626.70	892.68
627.04	888.56
627.39	884.07
627.73	879.64
628.08	875.30
628.43	870.85
628.77	866.16
629.12	861.45
629.46	857.53
629.81	852.98
630.15	848.78
630.50	844.45
630.84	840.29
631.19	835.76
631.53	831.26
631.88	826.26
632.22	821.60
632.57	817.51
632.91	812.94
633.26	808.85
633.60	804.44
633.95	800.57
634.29	795.89
634.64	791.64
634.98	787.35
635.32	783.34
635.67	779.61
636.01	775.61
636.36	771.51
636.70	767.47
637.05	763.39
637.39	759.49
637.73	755.82
638.08	752.17
638.42	748.47
638.77	744.72
639.11	741.36
639.45	737.69
639.80	733.43
640.14	729.36
640.49	725.42
640.83	721.50
641.17	717.40
641.52	713.56
641.86	709.67
642.20	705.81
642.55	701.49
642.89	697.44
643.23	693.46
643.58	690.00
643.92	685.65
644.26	681.96
644.61	678.26
644.95	674.19
645.29	670.04
645.64	666.09
645.98	662.19
646.32	658.27
646.66	654.37
647.01	650.88
647.35	647.36
647.69	643.34
648.04	639.81
648.38	636.16
648.72	632.50
649.06	628.92
649.41	625.41
649.75	621.87
650.09	618.31
650.43	614.79
650.78	610.93
651.12	607.31
651.46	603.69
651.80	600.10
652.14	596.53
652.49	593.02
652.83	589.41
653.17	585.73
653.51	581.98
653.85	578.70
654.20	575.04
654.54	571.40
654.88	568.03
655.22	564.43
655.56	560.72
655.90	557.32
656.25	553.66
656.59	550.06
656.93	546.67
657.27	543.41
657.61	539.89
657.95	536.67
658.29	533.53
658.64	530.38
658.98	526.94
659.32	523.57
659.66	520.46
660.00	517.26
660.34	513.98
660.68	510.86
661.02	507.52
661.36	504.36
661.70	501.44
662.05	498.61
662.39	495.89
662.73	493.22
663.07	490.47
663.41	487.69
663.75	484.83
664.09	481.96
664.43	478.98
664.77	476.33
665.11	473.42
665.45	470.79
665.79	468.11
666.13	465.41
666.47	462.88
666.81	460.20
667.15	457.62
667.49	455.22
667.83	452.89
668.17	450.48
668.51	448.30
668.85	445.94
669.19	443.58
669.53	441.07
669.87	438.65
670.21	436.20
670.55	433.92
670.89	431.96
671.23	429.98
671.57	427.87
671.91	425.63
672.25	423.58
672.58	421.42
672.92	419.21
673.26	417.23
673.60	415.27
673.94	413.26
674.28	411.30
674.62	409.44
674.96	407.41
675.30	405.55
675.64	403.53
675.97	401.57
676.31	399.79
676.65	397.88
676.99	396.17
677.33	394.31
677.67	392.54
678.01	390.45
678.34	388.50
678.68	386.69
679.02	384.94
679.36	383.18
679.70	381.47
680.04	379.82
680.37	378.07
680.71	376.31
681.05	374.77
681.39	373.08
681.73	371.38
682.06	369.77
682.40	368.10
682.74	366.50
683.08	365.03
683.42	363.24
683.75	361.75
684.09	359.96
684.43	358.31
684.77	356.59
685.10	355.08
685.44	353.50
685.78	351.96
686.12	350.56
686.45	349.01
686.79	347.42
687.13	345.94
687.46	344.51
687.80	343.05
688.14	341.49
688.48	339.99
688.81	338.54
689.15	337.05
689.49	335.55
689.82	334.13
690.16	332.50
690.50	331.05
690.83	329.51
691.17	328.13
691.51	326.82
691.84	325.60
692.18	324.37
692.52	323.12
692.85	321.91
693.19	320.72
693.52	319.52
693.86	318.29
694.20	317.08
694.53	315.81
694.87	314.61
695.21	313.32
695.54	312.09
695.88	310.87
696.21	309.66
696.55	308.60
696.88	307.43
697.22	306.46
697.56	305.47
697.89	304.47
698.23	303.40
698.56	302.36
698.90	301.34
699.23	300.17
699.57	299.05
699.90	297.95
700.24	296.78
700.58	295.65
700.91	294.67
701.25	293.87
701.58	292.95
701.92	292.02
702.25	291.17
702.59	290.28
702.92	289.31
703.26	288.39
703.59	287.41
703.93	286.80
704.26	285.85
704.60	284.93
704.93	284.00
705.26	283.09
705.60	282.25
705.93	281.25
706.27	280.53
706.60	279.88
706.94	279.26
707.27	278.48
707.61	277.75
707.94	277.04
708.27	275.99
708.61	275.14
708.94	274.39
709.28	273.58
709.61	272.89
709.94	272.26
710.28	271.63
710.61	271.03
710.95	270.01
711.28	269.52
711.61	268.76
711.95	268.26
712.28	267.69
712.61	267.01
712.95	266.67
713.28	266.22
713.61	265.51
713.95	264.80
714.28	264.22
714.61	263.60
714.95	262.92
715.28	262.37
715.61	261.78
715.95	261.19
716.28	260.64
716.61	260.10
716.95	259.48
717.28	258.90
717.61	258.32
717.94	257.77
718.28	257.04
718.61	256.55
718.94	255.95
719.27	255.47
719.61	255.11
719.94	254.40
720.27	253.68
720.60	253.19
720.94	252.73
721.27	252.28
721.60	251.88
721.93	251.48
722.27	251.19
722.60	250.86
722.93	250.44
723.26	250.05
723.59	249.57
723.93	249.20
724.26	248.85
724.59	248.45
724.92	248.13
725.25	247.89
725.59	247.55
725.92	247.20
726.25	246.84
726.58	246.40
726.91	246.11
727.24	245.77
727.57	245.45
727.91	245.00
728.24	244.66
728.57	244.21
728.90	243.89
729.23	243.39
729.56	243.22
729.89	242.92
730.22	242.55
730.55	242.18
730.89	241.92
731.22	241.62
731.55	241.28
731.88	240.93
732.21	240.52
732.54	240.23
732.87	239.83
733.20	239.42
733.53	239.07
733.86	238.78
734.19	238.47
734.52	238.21
734.85	238.21
735.18	237.90
735.51	237.80
735.84	237.55
736.17	237.40
736.50	236.94
736.83	237.01
737.16	236.78
737.49	236.55
737.82	236.16
738.15	235.89
738.48	235.67
738.81	235.41
739.14	235.12
739.47	234.78
739.80	234.50
740.13	234.33
740.46	234.07
740.79	233.83
741.12	233.54
741.45	233.20
741.78	232.72
742.11	232.57
742.44	232.25
742.77	232.07
743.10	231.87
743.43	231.68
743.75	231.08
744.08	231.27
744.41	231.02
744.74	230.82
745.07	230.58
745.40	230.36
745.73	230.34
746.06	230.14
746.39	230.05
746.71	229.85
747.04	229.56
747.37	229.30
747.70	229.06
748.03	228.95
748.36	228.94
748.68	228.79
749.01	228.46
749.34	228.25
749.67	227.97
750.00	227.71
750.33	227.78
750.65	227.62
750.98	227.01
751.31	226.85
751.64	226.77
751.97	226.75
752.29	226.59
752.62	226.20
752.95	226.01
753.28	225.77
753.60	225.65
753.93	225.59
754.26	225.51
754.59	225.31
754.91	225.20
755.24	224.96
755.57	224.76
755.90	224.68
756.22	224.51
756.55	224.32
756.88	224.18
757.20	223.77
757.53	223.55
757.86	223.41
758.19	223.26
758.51	223.10
758.84	222.82
759.17	222.72
759.49	222.65
759.82	222.74
760.15	222.71
760.47	222.54
760.80	222.37
761.13	222.32
761.45	222.22
761.78	222.02
762.11	221.93
762.43	221.82
762.76	221.67
763.08	221.63
763.41	221.65
763.74	221.55
764.06	221.40
764.39	221.38
764.71	221.30
765.04	221.15
765.37	221.02
765.69	220.92
766.02	220.73
766.34	220.56
766.67	220.27
767.00	220.21
767.32	220.33
767.65	220.45
767.97	220.33
768.30	220.27
768.62	220.20
768.95	220.03
769.27	219.91
769.60	219.90
769.92	219.80
770.25	219.54
770.57	219.40
770.90	219.32
771.22	219.18
771.55	219.00
771.87	218.98
772.20	218.85
772.52	219.13
772.85	219.49
773.17	219.45
773.50	219.38
773.82	219.22
774.15	218.96
774.47	218.65
774.80	218.53
775.12	218.42
775.45	218.30
775.77	218.34
776.09	218.36
776.42	218.20
776.74	218.29
777.07	218.35
777.39	218.32
777.72	218.26
778.04	218.23
778.36	218.17
778.69	218.14
779.01	218.12
779.33	217.71
779.66	217.30
779.98	217.25
780.31	217.19
780.63	217.25
780.95	217.30
781.28	217.23
781.60	217.11
781.92	217.03
782.25	216.96
782.57	216.84
782.89	216.69
783.22	216.62
783.54	216.43
783.86	216.38
784.19	216.26
784.51	216.36
784.83	216.25
785.16	216.22
785.48	216.18
785.80	216.10
786.12	216.10
786.45	215.96
786.77	215.93
787.09	215.88
787.42	215.78
787.74	215.75
788.06	215.78
788.38	215.72
