SpectraSuite Data File
++++++++++++++++++++++++++++++++++++
Date: Mon Feb 25 17:06:20 EST 2013
User: group
Dark Spectrum Present: No
Reference Spectrum Present: No
Number of Sampled Component Spectra: 1
Spectrometers: USB2E7196
Integration Time (usec): 104000 (USB2E7196)
Spectra Averaged: 20 (USB2E7196)
Boxcar Smoothing: 10 (USB2E7196)
Correct for Electrical Dark: No (USB2E7196)
Strobe/Lamp Enabled: No (USB2E7196)
Correct for Detector Non-linearity: No (USB2E7196)
Correct for Stray Light: No (USB2E7196)
Number of Pixels in Processed Spectrum: 2048
>>>>>Begin Processed Spectral Data<<<<<
339.09	0.00
339.48	198.20
339.86	201.35
340.24	202.00
340.63	203.50
341.01	208.80
341.39	207.55
341.78	208.25
342.16	208.55
342.54	210.20
342.93	198.67
343.31	208.67
343.69	209.28
344.07	209.70
344.46	210.13
344.84	210.51
345.22	210.62
345.60	210.76
345.99	210.91
346.37	211.02
346.75	211.00
347.13	211.03
347.52	211.04
347.90	211.13
348.28	211.18
348.66	211.20
349.05	211.10
349.43	211.06
349.81	211.03
350.19	211.01
350.57	210.92
350.96	210.97
351.34	211.03
351.72	211.00
352.10	211.04
352.48	211.04
352.87	211.04
353.25	211.02
353.63	211.00
354.01	210.91
354.39	210.94
354.77	211.00
355.15	211.17
355.54	211.21
355.92	211.15
356.30	211.26
356.68	211.52
357.06	211.48
357.44	211.52
357.82	211.51
358.20	211.68
358.58	211.73
358.97	211.84
359.35	211.91
359.73	212.08
360.11	212.16
360.49	212.23
360.87	212.24
361.25	212.36
361.63	212.50
362.01	212.64
362.39	212.66
362.77	212.70
363.15	212.69
363.53	212.66
363.91	212.66
364.29	212.66
364.67	212.40
365.05	212.48
365.43	212.50
365.81	212.64
366.19	212.70
366.57	212.90
366.95	212.88
367.33	212.84
367.71	212.79
368.09	212.84
368.47	212.84
368.85	212.84
369.23	212.89
369.61	212.84
369.99	212.95
370.37	213.01
370.75	213.18
371.13	213.07
371.51	212.96
371.89	213.03
372.27	213.03
372.65	213.03
373.03	213.07
373.41	213.06
373.78	212.97
374.16	212.74
374.54	212.58
374.92	212.39
375.30	212.37
375.68	212.29
376.06	212.21
376.44	212.10
376.82	212.10
377.19	212.04
377.57	212.04
377.95	211.86
378.33	211.72
378.71	211.45
379.09	211.40
379.47	211.49
379.84	211.36
380.22	211.23
380.60	211.18
380.98	210.99
381.36	210.89
381.73	210.81
382.11	210.83
382.49	210.77
382.87	210.80
383.25	210.73
383.62	211.12
384.00	211.02
384.38	211.04
384.76	211.03
385.13	211.12
385.51	211.07
385.89	210.96
386.27	211.02
386.64	211.07
387.02	211.05
387.40	210.97
387.78	210.94
388.15	210.94
388.53	210.84
388.91	210.80
389.29	210.77
389.66	210.82
390.04	210.78
390.42	210.84
390.79	210.81
391.17	210.76
391.55	210.39
391.92	210.38
392.30	210.38
392.68	210.25
393.05	210.21
393.43	210.14
393.81	210.23
394.18	210.16
394.56	210.15
394.94	210.20
395.31	210.16
395.69	210.29
396.06	210.38
396.44	210.41
396.82	210.43
397.19	210.63
397.57	210.57
397.95	210.65
398.32	210.54
398.70	210.60
399.07	210.73
399.45	210.64
399.82	210.62
400.20	210.66
400.58	210.69
400.95	210.50
401.33	210.62
401.70	210.87
402.08	210.90
402.45	210.95
402.83	211.09
403.20	211.20
403.58	211.21
403.95	211.21
404.33	211.30
404.71	211.44
405.08	211.68
405.46	211.76
405.83	211.89
406.21	212.03
406.58	212.19
406.96	212.21
407.33	212.37
407.70	212.55
408.08	212.98
408.45	213.22
408.83	213.46
409.20	213.58
409.58	213.55
409.95	213.87
410.33	214.08
410.70	214.23
411.08	214.53
411.45	214.80
411.82	215.10
412.20	215.50
412.57	216.00
412.95	215.99
413.32	216.45
413.69	216.80
414.07	217.25
414.44	217.78
414.82	218.41
415.19	219.08
415.56	219.69
415.94	220.12
416.31	220.98
416.68	221.80
417.06	222.64
417.43	223.60
417.81	224.47
418.18	225.43
418.55	226.44
418.93	227.45
419.30	228.60
419.67	229.83
420.04	231.07
420.42	232.24
420.79	234.12
421.16	235.63
421.54	237.34
421.91	239.00
422.28	240.59
422.66	242.38
423.03	244.33
423.40	246.18
423.77	248.10
424.15	249.89
424.52	251.87
424.89	254.14
425.26	256.19
425.64	258.24
426.01	260.49
426.38	262.83
426.75	265.39
427.13	267.81
427.50	270.39
427.87	273.15
428.24	275.86
428.61	278.15
428.99	281.03
429.36	284.00
429.73	287.07
430.10	290.22
430.47	293.40
430.85	296.46
431.22	299.85
431.59	303.70
431.96	307.24
432.33	311.18
432.70	315.05
433.08	319.45
433.45	323.69
433.82	327.94
434.19	332.57
434.56	337.01
434.93	341.44
435.30	345.87
435.68	350.65
436.05	355.48
436.42	360.32
436.79	364.80
437.16	369.54
437.53	374.52
437.90	379.42
438.27	384.30
438.64	389.29
439.01	394.13
439.38	398.14
439.75	402.33
440.13	406.92
440.50	411.19
440.87	414.91
441.24	418.63
441.61	422.73
441.98	425.92
442.35	429.52
442.72	433.11
443.09	436.67
443.46	438.86
443.83	440.45
444.20	441.83
444.57	443.66
444.94	444.68
445.31	445.75
445.68	447.13
446.05	447.62
446.42	447.49
446.79	447.15
447.16	446.79
447.53	446.63
447.90	445.10
448.27	443.55
448.64	441.19
449.01	439.58
449.37	436.53
449.74	433.60
450.11	430.34
450.48	426.41
450.85	422.34
451.22	418.94
451.59	415.72
451.96	412.59
452.33	408.40
452.70	404.68
453.07	400.09
453.43	395.07
453.80	390.60
454.17	386.26
454.54	382.10
454.91	377.69
455.28	373.19
455.65	369.17
456.02	365.52
456.38	362.01
456.75	357.73
457.12	354.17
457.49	350.64
457.86	346.91
458.23	344.15
458.59	341.02
458.96	337.73
459.33	334.73
459.70	331.88
460.07	329.54
460.43	326.78
460.80	324.31
461.17	322.25
461.54	320.00
461.91	317.82
462.27	315.59
462.64	313.63
463.01	311.51
463.38	309.56
463.74	307.09
464.11	305.30
464.48	303.75
464.85	302.10
465.21	300.82
465.58	299.50
465.95	297.70
466.32	296.21
466.68	294.80
467.05	293.46
467.42	292.06
467.78	290.54
468.15	289.26
468.52	288.20
468.88	286.68
469.25	285.38
469.62	284.37
469.98	283.31
470.35	282.32
470.72	281.47
471.08	280.35
471.45	279.61
471.82	278.81
472.18	277.86
472.55	277.08
472.92	276.18
473.28	275.39
473.65	274.60
474.02	273.89
474.38	273.36
474.75	272.92
475.11	272.22
475.48	271.75
475.85	271.25
476.21	270.78
476.58	270.46
476.94	270.22
477.31	269.87
477.67	269.51
478.04	269.31
478.41	269.03
478.77	269.15
479.14	268.82
479.50	268.66
479.87	268.56
480.23	268.45
480.60	268.31
480.96	268.20
481.33	268.47
481.69	268.47
482.06	268.49
482.42	268.45
482.79	268.58
483.15	268.64
483.52	268.80
483.88	268.96
484.25	268.99
484.61	269.09
484.98	269.33
485.34	269.79
485.71	270.05
486.07	270.38
486.44	270.38
486.80	270.78
487.17	271.18
487.53	271.80
487.90	272.31
488.26	272.95
488.62	273.66
488.99	274.00
489.35	274.65
489.72	275.24
490.08	275.86
490.44	276.50
490.81	277.37
491.17	278.06
491.54	278.82
491.90	279.78
492.26	280.68
492.63	281.52
492.99	282.23
493.36	283.22
493.72	284.31
494.08	285.32
494.45	286.41
494.81	287.53
495.17	288.43
495.54	289.61
495.90	290.73
496.26	291.84
496.63	293.11
496.99	294.34
497.35	295.57
497.72	296.91
498.08	298.31
498.44	299.63
498.80	301.14
499.17	302.55
499.53	303.90
499.89	305.44
500.26	306.85
500.62	308.33
500.98	309.86
501.34	311.25
501.71	312.85
502.07	314.32
502.43	315.78
502.79	317.26
503.16	318.83
503.52	320.38
503.88	321.78
504.24	323.37
504.60	324.94
504.97	326.48
505.33	327.98
505.69	329.72
506.05	331.24
506.41	332.65
506.78	334.22
507.14	335.80
507.50	337.25
507.86	338.87
508.22	340.45
508.59	341.92
508.95	343.48
509.31	345.16
509.67	346.67
510.03	348.22
510.39	349.85
510.75	351.39
511.12	352.88
511.48	354.51
511.84	356.00
512.20	357.52
512.56	359.10
512.92	360.73
513.28	362.15
513.64	363.73
514.00	365.28
514.37	366.80
514.73	368.35
515.09	369.97
515.45	371.40
515.81	372.84
516.17	374.37
516.53	375.95
516.89	377.26
517.25	378.81
517.61	380.45
517.97	381.92
518.33	383.51
518.69	385.11
519.05	386.75
519.41	388.44
519.77	390.33
520.13	392.09
520.49	393.74
520.85	395.49
521.21	397.32
521.57	399.10
521.93	400.70
522.29	402.61
522.65	404.36
523.01	406.30
523.37	408.20
523.73	410.20
524.09	412.10
524.45	414.19
524.81	416.26
525.17	418.40
525.53	420.65
525.89	422.78
526.25	424.99
526.61	427.10
526.97	429.20
527.33	431.34
527.68	433.93
528.04	436.20
528.40	438.46
528.76	440.83
529.12	443.38
529.48	446.03
529.84	448.36
530.20	451.03
530.56	453.62
530.91	456.50
531.27	459.25
531.63	462.06
531.99	464.70
532.35	467.40
532.71	470.11
533.07	472.88
533.42	476.11
533.78	479.02
534.14	481.91
534.50	484.62
534.86	487.46
535.21	490.02
535.57	493.11
535.93	496.08
536.29	499.20
536.65	502.13
537.00	505.10
537.36	508.06
537.72	510.95
538.08	514.07
538.44	516.97
538.79	519.99
539.15	522.96
539.51	525.99
539.87	529.14
540.22	532.13
540.58	535.32
540.94	538.06
541.29	541.07
541.65	544.04
542.01	547.33
542.37	550.44
542.72	553.45
543.08	556.43
543.44	559.56
543.79	562.29
544.15	565.33
544.51	568.50
544.87	571.73
545.22	574.81
545.58	577.62
545.94	580.43
546.29	583.16
546.65	586.04
547.01	588.97
547.36	591.84
547.72	594.71
548.07	597.30
548.43	599.85
548.79	602.46
549.14	605.13
549.50	607.85
549.86	610.36
550.21	612.87
550.57	615.42
550.92	617.87
551.28	620.36
551.64	622.68
551.99	625.07
552.35	627.24
552.70	629.34
553.06	631.62
553.41	633.85
553.77	636.35
554.13	638.47
554.48	640.71
554.84	642.92
555.19	645.01
555.55	647.34
555.90	649.40
556.26	651.36
556.61	653.21
556.97	654.80
557.32	656.67
557.68	658.53
558.03	660.30
558.39	661.97
558.74	663.76
559.10	665.60
559.45	667.19
559.81	669.05
560.16	670.56
560.52	672.21
560.87	674.02
561.23	675.22
561.58	677.06
561.94	678.48
562.29	679.74
562.64	681.23
563.00	682.44
563.35	683.92
563.71	685.67
564.06	687.21
564.42	688.77
564.77	690.09
565.12	691.58
565.48	693.12
565.83	694.73
566.19	696.40
566.54	697.38
566.89	698.57
567.25	699.85
567.60	701.49
567.96	702.96
568.31	704.07
568.66	705.25
569.02	705.87
569.37	706.61
569.72	707.37
570.08	708.01
570.43	708.76
570.78	709.25
571.14	709.42
571.49	709.84
571.84	710.38
572.20	710.66
572.55	710.95
572.90	710.85
573.26	710.64
573.61	710.26
573.96	710.33
574.31	710.15
574.67	709.68
575.02	709.09
575.37	708.37
575.72	707.65
576.08	707.34
576.43	706.99
576.78	706.68
577.13	706.51
577.49	706.05
577.84	705.65
578.19	705.27
578.54	704.93
578.90	704.55
579.25	704.14
579.60	703.54
579.95	702.82
580.30	702.57
580.66	702.20
581.01	701.59
581.36	701.11
581.71	700.63
582.06	700.21
582.42	699.77
582.77	699.17
583.12	698.81
583.47	698.36
583.82	697.91
584.17	697.41
584.53	696.99
584.88	696.34
585.23	695.94
585.58	695.25
585.93	694.61
586.28	694.25
586.63	693.48
586.98	693.22
587.34	692.73
587.69	691.85
588.04	691.14
588.39	690.51
588.74	689.62
589.09	688.95
589.44	688.06
589.79	687.45
590.14	686.89
590.49	686.03
590.84	684.93
591.19	684.20
591.54	683.26
591.89	681.93
592.25	681.51
592.60	680.12
592.95	679.04
593.30	677.75
593.65	676.36
594.00	675.10
594.35	674.85
594.70	673.58
595.05	672.50
595.40	671.30
595.75	670.03
596.10	669.07
596.45	667.95
596.80	666.95
597.15	665.75
597.50	664.53
597.85	663.56
598.19	662.42
598.54	661.23
598.89	660.09
599.24	659.40
599.59	657.86
599.94	657.07
600.29	656.14
600.64	655.16
600.99	654.10
601.34	653.20
601.69	651.00
602.04	649.91
602.39	648.83
602.74	647.90
603.08	647.17
603.43	646.37
603.78	645.37
604.13	644.22
604.48	643.25
604.83	642.26
605.18	641.28
605.53	640.28
605.87	639.24
606.22	638.24
606.57	636.90
606.92	635.74
607.27	634.61
607.62	633.45
607.96	632.59
608.31	631.65
608.66	630.38
609.01	629.19
609.36	627.83
609.70	626.51
610.05	625.04
610.40	623.56
610.75	621.91
611.10	620.75
611.44	619.17
611.79	617.57
612.14	615.88
612.49	614.05
612.83	612.47
613.18	610.60
613.53	608.94
613.88	607.05
614.22	605.54
614.57	603.73
614.92	601.83
615.27	599.88
615.61	597.86
615.96	596.22
616.31	594.59
616.65	593.18
617.00	591.34
617.35	589.52
617.70	587.60
618.04	585.64
618.39	583.35
618.74	581.66
619.08	579.78
619.43	578.01
619.78	576.24
620.12	574.32
620.47	572.56
620.82	570.43
621.16	568.53
621.51	566.76
621.85	564.77
622.20	563.01
622.55	561.14
622.89	559.27
623.24	557.39
623.59	555.28
623.93	553.24
624.28	551.41
624.62	550.03
624.97	548.41
625.32	546.67
625.66	544.99
626.01	543.23
626.35	541.45
626.70	539.61
627.04	538.00
627.39	536.16
627.73	534.54
628.08	532.97
628.43	531.21
628.77	529.11
629.12	527.35
629.46	525.72
629.81	523.88
630.15	522.10
630.50	520.18
630.84	518.50
631.19	516.67
631.53	514.98
631.88	512.73
632.22	510.81
632.57	509.09
632.91	507.28
633.26	505.40
633.60	503.49
633.95	501.70
634.29	499.77
634.64	498.11
634.98	496.16
635.32	494.46
635.67	492.90
636.01	491.29
636.36	489.52
636.70	487.80
637.05	486.14
637.39	484.37
637.73	482.91
638.08	481.38
638.42	479.93
638.77	478.43
639.11	476.80
639.45	475.17
639.80	473.44
640.14	471.69
640.49	470.00
640.83	468.42
641.17	466.89
641.52	465.09
641.86	463.39
642.20	461.78
642.55	459.96
642.89	458.26
643.23	456.56
643.58	454.98
643.92	453.13
644.26	451.46
644.61	449.95
644.95	448.06
645.29	446.26
645.64	444.39
645.98	442.51
646.32	440.88
646.66	438.91
647.01	437.27
647.35	435.74
647.69	434.04
648.04	432.45
648.38	430.74
648.72	429.18
649.06	427.51
649.41	425.77
649.75	424.01
650.09	422.32
650.43	420.55
650.78	418.78
651.12	417.06
651.46	415.54
651.80	413.91
652.14	412.35
652.49	410.83
652.83	409.20
653.17	407.57
653.51	405.87
653.85	404.52
654.20	402.99
654.54	401.22
654.88	399.43
655.22	397.78
655.56	396.04
655.90	394.38
656.25	392.73
656.59	391.10
656.93	389.64
657.27	388.19
657.61	386.76
657.95	385.38
658.29	383.86
658.64	382.42
658.98	380.81
659.32	379.20
659.66	377.60
660.00	376.15
660.34	374.47
660.68	372.80
661.02	371.11
661.36	369.42
661.70	368.09
662.05	366.91
662.39	365.62
662.73	364.39
663.07	363.20
663.41	361.88
663.75	360.55
664.09	359.25
664.43	357.74
664.77	356.25
665.11	354.75
665.45	353.53
665.79	352.18
666.13	350.82
666.47	349.61
666.81	348.40
667.15	347.06
667.49	346.03
667.83	345.07
668.17	344.03
668.51	342.92
668.85	341.78
669.19	340.74
669.53	339.41
669.87	338.12
670.21	336.91
670.55	335.75
670.89	334.87
671.23	333.70
671.57	332.78
671.91	331.83
672.25	330.75
672.58	329.82
672.92	328.57
673.26	327.51
673.60	326.46
673.94	325.35
674.28	324.36
674.62	323.42
674.96	322.43
675.30	321.49
675.64	320.57
675.97	319.47
676.31	318.38
676.65	317.41
676.99	316.67
677.33	315.59
677.67	314.65
678.01	313.47
678.34	312.51
678.68	311.55
679.02	310.55
679.36	309.74
679.70	308.73
680.04	307.96
680.37	307.11
680.71	306.28
681.05	305.41
681.39	304.57
681.73	303.68
682.06	302.77
682.40	301.81
682.74	300.95
683.08	300.20
683.42	299.28
683.75	298.62
684.09	297.66
684.43	296.91
684.77	296.06
685.10	295.40
685.44	294.60
685.78	293.65
686.12	292.79
686.45	291.91
686.79	291.01
687.13	290.33
687.46	289.65
687.80	288.90
688.14	288.16
688.48	287.39
688.81	286.52
689.15	285.75
689.49	285.01
689.82	284.25
690.16	283.32
690.50	282.52
690.83	281.55
691.17	280.69
691.51	279.94
691.84	279.23
692.18	278.39
692.52	277.68
692.85	277.19
693.19	276.72
693.52	276.07
693.86	275.38
694.20	274.63
694.53	273.85
694.87	273.12
695.21	272.36
695.54	271.70
695.88	270.99
696.21	270.28
696.55	269.68
696.88	269.08
697.22	268.50
697.56	268.10
697.89	267.52
698.23	267.02
698.56	266.45
698.90	265.96
699.23	265.40
699.57	264.90
699.90	264.14
700.24	263.40
700.58	262.90
700.91	262.45
701.25	262.14
701.58	261.75
701.92	261.31
702.25	260.81
702.59	260.21
702.92	259.74
703.26	259.28
703.59	258.74
703.93	258.54
704.26	258.03
704.60	257.43
704.93	256.98
705.26	256.44
705.60	256.03
705.93	255.46
706.27	255.12
706.60	254.73
706.94	254.49
707.27	254.03
707.61	253.57
707.94	253.04
708.27	252.36
708.61	251.77
708.94	251.26
709.28	250.92
709.61	250.55
709.94	250.25
710.28	249.81
710.61	249.43
710.95	248.70
711.28	248.63
711.61	248.31
711.95	247.97
712.28	247.67
712.61	247.24
712.95	247.06
713.28	246.80
713.61	246.40
713.95	245.92
714.28	245.59
714.61	245.18
714.95	244.86
715.28	244.46
715.61	244.14
715.95	243.79
716.28	243.42
716.61	243.13
716.95	242.67
717.28	242.34
717.61	242.07
717.94	241.75
718.28	241.19
718.61	240.84
718.94	240.42
719.27	240.07
719.61	239.80
719.94	239.43
720.27	238.96
720.60	238.64
720.94	238.31
721.27	238.06
721.60	237.88
721.93	237.61
722.27	237.45
722.60	237.32
722.93	237.09
723.26	236.82
723.59	236.52
723.93	236.38
724.26	236.25
724.59	235.79
724.92	235.62
725.25	235.52
725.59	235.30
725.92	235.23
726.25	234.97
726.58	234.77
726.91	234.52
727.24	234.36
727.57	234.11
727.91	233.83
728.24	233.63
728.57	233.35
728.90	233.18
729.23	232.85
729.56	232.71
729.89	232.44
730.22	232.29
730.55	232.00
730.89	231.72
731.22	231.41
731.55	231.36
731.88	231.15
732.21	230.86
732.54	230.55
732.87	230.31
733.20	230.18
733.53	229.95
733.86	229.79
734.19	229.52
734.52	229.38
734.85	229.49
735.18	229.32
735.51	229.23
735.84	229.07
736.17	229.06
736.50	228.75
736.83	229.03
737.16	228.80
737.49	228.71
737.82	228.53
738.15	228.38
738.48	228.22
738.81	228.00
739.14	227.75
739.47	227.64
739.80	227.46
740.13	227.36
740.46	227.11
740.79	226.80
741.12	226.63
741.45	226.35
741.78	226.00
742.11	225.95
742.44	225.71
742.77	225.65
743.10	225.39
743.43	225.24
743.75	224.69
744.08	225.00
744.41	224.80
744.74	224.71
745.07	224.56
745.40	224.49
745.73	224.47
746.06	224.38
746.39	224.25
746.71	224.10
747.04	223.84
747.37	223.77
747.70	223.78
748.03	223.73
748.36	223.75
748.68	223.66
749.01	223.35
749.34	223.23
749.67	223.02
750.00	222.92
750.33	222.94
750.65	222.81
750.98	222.28
751.31	222.18
751.64	222.06
751.97	222.13
752.29	222.01
752.62	221.67
752.95	221.58
753.28	221.49
753.60	221.38
753.93	221.39
754.26	221.23
754.59	221.02
754.91	220.89
755.24	220.73
755.57	220.55
755.90	220.55
756.22	220.40
756.55	220.30
756.88	220.16
757.20	219.88
757.53	219.69
757.86	219.58
758.19	219.54
758.51	219.41
758.84	219.11
759.17	218.97
759.49	219.01
759.82	219.10
760.15	219.00
760.47	218.89
760.80	218.78
761.13	218.81
761.45	218.76
761.78	218.63
762.11	218.54
762.43	218.54
762.76	218.40
763.08	218.43
763.41	218.33
763.74	218.29
764.06	218.27
764.39	218.28
764.71	218.22
765.04	218.19
765.37	218.08
765.69	218.08
766.02	217.93
766.34	217.90
766.67	217.65
767.00	217.66
767.32	217.84
767.65	217.95
767.97	217.80
768.30	217.76
768.62	217.74
768.95	217.67
769.27	217.58
769.60	217.53
769.92	217.39
770.25	217.27
770.57	217.11
770.90	217.12
771.22	216.98
771.55	216.87
771.87	216.77
772.20	216.73
772.52	216.97
772.85	217.44
773.17	217.37
773.50	217.30
773.82	217.21
774.15	216.89
774.47	216.56
774.80	216.46
775.12	216.43
775.45	216.40
775.77	216.43
776.09	216.43
776.42	216.43
776.74	216.46
777.07	216.44
777.39	216.44
777.72	216.32
778.04	216.37
778.36	216.36
778.69	216.33
779.01	216.30
779.33	215.94
779.66	215.44
779.98	215.36
780.31	215.32
780.63	215.41
780.95	215.47
781.28	215.45
781.60	215.40
781.92	215.32
782.25	215.25
782.57	215.15
782.89	215.03
783.22	214.93
783.54	214.87
783.86	214.84
784.19	214.76
784.51	214.76
784.83	214.59
785.16	214.52
785.48	214.47
785.80	214.47
786.12	214.43
786.45	214.39
786.77	214.36
787.09	214.37
787.42	214.17
787.74	214.20
788.06	214.22
788.38	214.15
788.71	214.14
789.03	214.13
789.35	214.20
789.67	214.14
789.99	214.18
790.32	214.09
790.64	214.05
790.96	214.30
791.28	214.20
791.61	214.26
791.93	214.21
792.25	214.15
792.57	214.34
792.89	214.25
793.21	214.23
793.54	214.15
793.86	214.10
794.18	214.11
