SpectraSuite Data File
++++++++++++++++++++++++++++++++++++
Date: Mon Feb 25 17:09:19 EST 2013
User: group
Dark Spectrum Present: No
Reference Spectrum Present: No
Number of Sampled Component Spectra: 1
Spectrometers: USB2E7196
Integration Time (usec): 104000 (USB2E7196)
Spectra Averaged: 20 (USB2E7196)
Boxcar Smoothing: 10 (USB2E7196)
Correct for Electrical Dark: No (USB2E7196)
Strobe/Lamp Enabled: No (USB2E7196)
Correct for Detector Non-linearity: No (USB2E7196)
Correct for Stray Light: No (USB2E7196)
Number of Pixels in Processed Spectrum: 2048
>>>>>Begin Processed Spectral Data<<<<<
339.09	0.00
339.48	198.45
339.86	199.15
340.24	203.10
340.63	203.15
341.01	209.45
341.39	205.15
341.78	207.15
342.16	209.15
342.54	209.35
342.93	198.61
343.31	208.62
343.69	209.17
344.07	209.67
344.46	210.09
344.84	210.46
345.22	210.47
345.60	210.70
345.99	210.92
346.37	210.98
346.75	210.98
347.13	210.95
347.52	210.92
347.90	210.96
348.28	210.99
348.66	211.09
349.05	210.92
349.43	210.97
349.81	211.01
350.19	211.01
350.57	210.93
350.96	210.98
351.34	211.07
351.72	211.07
352.10	211.15
352.48	211.11
352.87	211.11
353.25	211.15
353.63	211.21
354.01	211.19
354.39	211.24
354.77	211.38
355.15	211.50
355.54	211.53
355.92	211.52
356.30	211.52
356.68	211.78
357.06	211.90
357.44	211.86
357.82	211.94
358.20	211.99
358.58	212.05
358.97	212.07
359.35	212.17
359.73	212.35
360.11	212.44
360.49	212.45
360.87	212.48
361.25	212.62
361.63	212.81
362.01	212.87
362.39	212.88
362.77	212.90
363.15	212.92
363.53	212.93
363.91	212.98
364.29	213.02
364.67	212.72
365.05	212.78
365.43	212.87
365.81	212.94
366.19	213.09
366.57	213.24
366.95	213.29
367.33	213.20
367.71	213.16
368.09	213.20
368.47	213.25
368.85	213.33
369.23	213.41
369.61	213.32
369.99	213.45
370.37	213.51
370.75	213.67
371.13	213.67
371.51	213.70
371.89	213.72
372.27	213.71
372.65	213.70
373.03	213.67
373.41	213.61
373.78	213.54
374.16	213.38
374.54	213.26
374.92	213.14
375.30	213.16
375.68	213.10
376.06	213.11
376.44	213.06
376.82	213.02
377.19	212.92
377.57	212.78
377.95	212.62
378.33	212.58
378.71	212.32
379.09	212.25
379.47	212.19
379.84	212.13
380.22	212.04
380.60	211.94
380.98	211.86
381.36	211.88
381.73	211.77
382.11	211.79
382.49	211.73
382.87	211.61
383.25	211.49
383.62	211.85
384.00	211.67
384.38	211.62
384.76	211.64
385.13	211.79
385.51	211.85
385.89	211.75
386.27	211.75
386.64	211.73
387.02	211.65
387.40	211.55
387.78	211.48
388.15	211.52
388.53	211.50
388.91	211.49
389.29	211.38
389.66	211.38
390.04	211.31
390.42	211.37
390.79	211.36
391.17	211.40
391.55	210.93
391.92	210.96
392.30	210.95
392.68	210.88
393.05	210.73
393.43	210.66
393.81	210.70
394.18	210.58
394.56	210.59
394.94	210.61
395.31	210.63
395.69	210.70
396.06	210.67
396.44	210.68
396.82	210.62
397.19	210.76
397.57	210.76
397.95	210.78
398.32	210.64
398.70	210.76
399.07	210.75
399.45	210.83
399.82	210.74
400.20	210.73
400.58	210.69
400.95	210.49
401.33	210.58
401.70	210.81
402.08	210.86
402.45	210.93
402.83	211.07
403.20	211.14
403.58	211.18
403.95	211.27
404.33	211.38
404.71	211.47
405.08	211.73
405.46	211.76
405.83	211.92
406.21	212.01
406.58	212.15
406.96	212.23
407.33	212.32
407.70	212.54
408.08	212.94
408.45	213.11
408.83	213.43
409.20	213.50
409.58	213.52
409.95	213.75
410.33	213.94
410.70	213.99
411.08	214.32
411.45	214.53
411.82	214.75
412.20	215.06
412.57	215.56
412.95	215.56
413.32	216.04
413.69	216.32
414.07	216.79
414.44	217.17
414.82	217.71
415.19	218.30
415.56	218.78
415.94	219.13
416.31	219.84
416.68	220.43
417.06	221.16
417.43	221.90
417.81	222.78
418.18	223.58
418.55	224.46
418.93	225.35
419.30	226.34
419.67	227.39
420.04	228.42
420.42	229.36
420.79	230.90
421.16	232.04
421.54	233.57
421.91	234.92
422.28	236.25
422.66	237.71
423.03	239.35
423.40	240.86
423.77	242.45
424.15	243.94
424.52	245.68
424.89	247.64
425.26	249.33
425.64	250.90
426.01	252.80
426.38	254.77
426.75	256.81
427.13	258.83
427.50	260.93
427.87	263.10
428.24	265.31
428.61	267.22
428.99	269.76
429.36	272.10
429.73	274.59
430.10	277.12
430.47	279.62
430.85	282.09
431.22	284.91
431.59	288.14
431.96	291.04
432.33	294.21
432.70	297.23
433.08	300.88
433.45	304.36
433.82	307.74
434.19	311.55
434.56	315.41
434.93	319.00
435.30	322.65
435.68	326.61
436.05	330.64
436.42	334.48
436.79	337.93
437.16	341.82
437.53	345.79
437.90	349.94
438.27	354.00
438.64	357.98
439.01	361.79
439.38	365.00
439.75	368.30
440.13	372.08
440.50	375.51
440.87	378.44
441.24	381.54
441.61	384.94
441.98	387.44
442.35	390.07
442.72	392.96
443.09	395.81
443.46	397.60
443.83	398.64
444.20	399.79
444.57	401.39
444.94	402.20
445.31	403.15
445.68	404.11
446.05	404.40
446.42	404.16
446.79	404.00
447.16	403.52
447.53	403.37
447.90	402.05
448.27	400.66
448.64	398.68
449.01	397.16
449.37	394.53
449.74	392.03
450.11	389.27
450.48	385.90
450.85	382.46
451.22	379.49
451.59	376.82
451.96	374.18
452.33	370.60
452.70	367.28
453.07	363.37
453.43	359.25
453.80	355.58
454.17	352.11
454.54	348.59
454.91	344.93
455.28	341.30
455.65	337.91
456.02	335.11
456.38	332.35
456.75	328.86
457.12	325.96
457.49	323.06
457.86	320.15
458.23	317.86
458.59	315.17
458.96	312.55
459.33	310.23
459.70	307.82
460.07	306.01
460.43	303.83
460.80	301.86
461.17	300.11
461.54	298.30
461.91	296.52
462.27	294.82
462.64	293.39
463.01	291.69
463.38	290.16
463.74	287.95
464.11	286.40
464.48	285.18
464.85	283.79
465.21	282.77
465.58	281.61
465.95	280.21
466.32	279.20
466.68	278.11
467.05	276.93
467.42	275.82
467.78	274.52
468.15	273.45
468.52	272.69
468.88	271.53
469.25	270.45
469.62	269.76
469.98	268.85
470.35	268.03
470.72	267.34
471.08	266.43
471.45	265.89
471.82	265.23
472.18	264.47
472.55	263.95
472.92	263.31
473.28	262.77
473.65	262.28
474.02	261.72
474.38	261.34
474.75	261.02
475.11	260.68
475.48	260.39
475.85	260.10
476.21	259.68
476.58	259.51
476.94	259.42
477.31	259.13
477.67	258.93
478.04	258.76
478.41	258.62
478.77	258.75
479.14	258.57
479.50	258.58
479.87	258.57
480.23	258.55
480.60	258.48
480.96	258.54
481.33	258.65
481.69	258.63
482.06	258.68
482.42	258.77
482.79	258.89
483.15	259.15
483.52	259.49
483.88	259.70
484.25	259.77
484.61	260.00
484.98	260.17
485.34	260.60
485.71	261.02
486.07	261.40
486.44	261.60
486.80	262.07
487.17	262.43
487.53	263.09
487.90	263.68
488.26	264.42
488.62	265.15
488.99	265.75
489.35	266.59
489.72	267.27
490.08	268.03
490.44	268.82
490.81	269.63
491.17	270.40
491.54	271.42
491.90	272.66
492.26	273.75
492.63	274.91
492.99	275.90
493.36	277.11
493.72	278.44
494.08	279.78
494.45	281.31
494.81	282.88
495.17	284.24
495.54	285.88
495.90	287.43
496.26	288.95
496.63	290.71
496.99	292.43
497.35	294.40
497.72	296.33
498.08	298.23
498.44	300.23
498.80	302.44
499.17	304.54
499.53	306.57
499.89	308.87
500.26	311.22
500.62	313.63
500.98	316.12
501.34	318.59
501.71	321.15
502.07	323.66
502.43	326.21
502.79	328.87
503.16	331.56
503.52	334.30
503.88	337.00
504.24	339.89
504.60	342.91
504.97	345.96
505.33	349.07
505.69	352.36
506.05	355.53
506.41	358.81
506.78	362.07
507.14	365.48
507.50	368.85
507.86	372.33
508.22	375.91
508.59	379.37
508.95	383.14
509.31	386.93
509.67	390.75
510.03	394.68
510.39	398.69
510.75	402.74
511.12	406.85
511.48	411.13
511.84	415.31
512.20	419.61
512.56	423.81
512.92	428.22
513.28	432.59
513.64	437.00
514.00	441.50
514.37	446.06
514.73	450.63
515.09	455.42
515.45	460.10
515.81	464.63
516.17	469.47
516.53	474.15
516.89	478.86
517.25	483.75
517.61	488.66
517.97	493.50
518.33	498.35
518.69	503.38
519.05	508.37
519.41	513.45
519.77	518.84
520.13	523.99
520.49	528.99
520.85	534.18
521.21	539.55
521.57	544.76
521.93	549.90
522.29	555.17
522.65	560.34
523.01	565.65
523.37	571.04
523.73	576.38
524.09	581.80
524.45	587.27
524.81	592.54
525.17	598.00
525.53	603.72
525.89	609.40
526.25	614.97
526.61	620.22
526.97	625.68
527.33	630.91
527.68	636.75
528.04	642.26
528.40	647.64
528.76	653.06
529.12	658.63
529.48	664.41
529.84	669.88
530.20	675.46
530.56	681.10
530.91	687.09
531.27	692.88
531.63	698.47
531.99	704.09
532.35	709.76
532.71	715.18
533.07	720.51
533.42	726.19
533.78	731.58
534.14	737.05
534.50	742.17
534.86	747.43
535.21	752.09
535.57	757.59
535.93	762.85
536.29	768.25
536.65	773.32
537.00	778.23
537.36	783.24
537.72	787.98
538.08	792.81
538.44	797.30
538.79	801.90
539.15	806.54
539.51	811.15
539.87	815.89
540.22	820.63
540.58	825.42
540.94	829.72
541.29	834.05
541.65	838.26
542.01	842.84
542.37	847.22
542.72	851.74
543.08	855.63
543.44	859.88
543.79	863.40
544.15	867.36
544.51	871.45
544.87	875.59
545.22	879.26
545.58	882.86
545.94	886.46
546.29	889.77
546.65	893.04
547.01	896.21
547.36	899.43
547.72	902.32
548.07	905.10
548.43	907.83
548.79	910.59
549.14	913.40
549.50	915.93
549.86	918.24
550.21	920.48
550.57	923.12
550.92	925.15
551.28	927.40
551.64	929.47
551.99	931.53
552.35	933.25
552.70	935.36
553.06	937.32
553.41	939.05
553.77	940.98
554.13	942.69
554.48	944.78
554.84	946.49
555.19	948.07
555.55	949.69
555.90	950.82
556.26	951.94
556.61	953.19
556.97	954.10
557.32	955.17
557.68	956.30
558.03	956.81
558.39	957.82
558.74	959.13
559.10	960.27
559.45	961.15
559.81	962.14
560.16	962.69
560.52	963.47
560.87	964.32
561.23	964.78
561.58	965.60
561.94	965.76
562.29	965.95
562.64	966.40
563.00	966.68
563.35	967.38
563.71	968.18
564.06	968.73
564.42	969.54
564.77	970.00
565.12	970.57
565.48	971.33
565.83	971.77
566.19	971.83
566.54	971.68
566.89	971.69
567.25	971.83
567.60	972.19
567.96	972.28
568.31	972.33
568.66	972.31
569.02	971.93
569.37	971.15
569.72	970.74
570.08	970.14
570.43	969.57
570.78	968.62
571.14	967.55
571.49	966.53
571.84	965.69
572.20	964.68
572.55	963.65
572.90	962.22
573.26	960.71
573.61	959.40
573.96	958.22
574.31	956.68
574.67	955.00
575.02	953.03
575.37	950.98
575.72	948.85
576.08	947.39
576.43	945.30
576.78	943.89
577.13	942.41
577.49	940.90
577.84	939.12
578.19	937.75
578.54	936.52
578.90	935.24
579.25	933.43
579.60	931.71
579.95	929.56
580.30	928.00
580.66	926.46
581.01	924.67
581.36	922.54
581.71	920.80
582.06	919.16
582.42	917.73
582.77	915.97
583.12	914.33
583.47	912.54
583.82	911.27
584.17	909.46
584.53	907.79
584.88	906.04
585.23	904.30
585.58	902.35
585.93	900.45
586.28	898.63
586.63	896.78
586.98	895.14
587.34	893.76
587.69	891.94
588.04	890.16
588.39	888.29
588.74	886.47
589.09	884.84
589.44	882.69
589.79	880.71
590.14	879.10
590.49	877.14
590.84	875.02
591.19	873.40
591.54	871.57
591.89	869.12
592.25	867.33
592.60	865.16
592.95	862.98
593.30	860.40
593.65	858.06
594.00	855.89
594.35	854.78
594.70	852.43
595.05	850.20
595.40	847.95
595.75	845.70
596.10	843.76
596.45	841.48
596.80	839.78
597.15	837.88
597.50	835.49
597.85	833.70
598.19	831.49
598.54	829.08
598.89	827.20
599.24	825.60
599.59	823.42
599.94	821.76
600.29	819.97
600.64	818.29
600.99	816.05
601.34	814.22
601.69	811.07
602.04	808.97
602.39	807.05
602.74	805.22
603.08	803.67
603.43	802.14
603.78	800.18
604.13	797.97
604.48	796.06
604.83	794.61
605.18	792.92
605.53	791.16
605.87	789.13
606.22	787.21
606.57	785.05
606.92	782.93
607.27	780.84
607.62	778.84
607.96	777.10
608.31	775.64
608.66	773.50
609.01	771.32
609.36	769.30
609.70	767.02
610.05	764.69
610.40	762.53
610.75	759.73
611.10	757.76
611.44	755.22
611.79	752.65
612.14	749.97
612.49	746.92
612.83	744.36
613.18	741.69
613.53	738.86
613.88	736.09
614.22	733.56
614.57	730.75
614.92	727.98
615.27	725.03
615.61	722.18
615.96	719.55
616.31	717.13
616.65	714.93
617.00	712.52
617.35	710.08
617.70	707.00
618.04	704.34
618.39	701.24
618.74	698.91
619.08	696.07
619.43	693.22
619.78	690.58
620.12	688.02
620.47	685.48
620.82	682.60
621.16	679.84
621.51	677.06
621.85	674.45
622.20	671.79
622.55	668.94
622.89	666.05
623.24	663.30
623.59	660.42
623.93	657.41
624.28	654.63
624.62	652.14
624.97	649.69
625.32	647.26
625.66	644.80
626.01	642.00
626.35	639.57
626.70	637.20
627.04	635.10
627.39	632.39
627.73	630.10
628.08	627.89
628.43	625.26
628.77	622.69
629.12	620.06
629.46	617.77
629.81	615.29
630.15	612.74
630.50	610.23
630.84	607.66
631.19	605.16
631.53	602.80
631.88	599.81
632.22	597.09
632.57	594.74
632.91	592.11
633.26	589.68
633.60	587.25
633.95	584.78
634.29	582.10
634.64	579.78
634.98	576.95
635.32	574.51
635.67	572.46
636.01	570.22
636.36	567.80
636.70	565.46
637.05	563.19
637.39	561.05
637.73	558.93
638.08	557.01
638.42	554.82
638.77	552.53
639.11	550.45
639.45	548.30
639.80	545.64
640.14	543.33
640.49	540.98
640.83	538.63
641.17	536.44
641.52	533.98
641.86	531.54
642.20	529.53
642.55	527.11
642.89	524.70
643.23	522.24
643.58	520.17
643.92	517.70
644.26	515.45
644.61	513.28
644.95	510.75
645.29	508.16
645.64	505.79
645.98	503.40
646.32	501.12
646.66	498.74
647.01	496.66
647.35	494.55
647.69	492.21
648.04	490.10
648.38	487.76
648.72	485.62
649.06	483.49
649.41	481.08
649.75	478.96
650.09	476.78
650.43	474.67
650.78	472.28
651.12	470.00
651.46	467.79
651.80	465.49
652.14	463.48
652.49	461.50
652.83	459.25
653.17	457.05
653.51	454.88
653.85	452.93
654.20	450.84
654.54	448.60
654.88	446.55
655.22	444.49
655.56	442.26
655.90	440.07
656.25	437.80
656.59	435.72
656.93	433.57
657.27	431.66
657.61	429.49
657.95	427.60
658.29	425.64
658.64	423.81
658.98	421.69
659.32	419.53
659.66	417.55
660.00	415.70
660.34	413.66
660.68	411.55
661.02	409.40
661.36	407.33
661.70	405.40
662.05	403.55
662.39	401.68
662.73	400.00
663.07	398.43
663.41	396.84
663.75	395.05
664.09	393.29
664.43	391.25
664.77	389.65
665.11	387.80
665.45	386.04
665.79	384.28
666.13	382.62
666.47	380.95
666.81	379.25
667.15	377.46
667.49	376.04
667.83	374.70
668.17	373.17
668.51	371.78
668.85	370.41
669.19	369.08
669.53	367.41
669.87	365.90
670.21	364.28
670.55	362.75
670.89	361.54
671.23	360.25
671.57	359.05
671.91	357.60
672.25	356.35
672.58	355.13
672.92	353.72
673.26	352.45
673.60	351.21
673.94	349.87
674.28	348.62
674.62	347.29
674.96	345.94
675.30	344.83
675.64	343.48
675.97	342.22
676.31	340.91
676.65	339.78
676.99	338.72
677.33	337.56
677.67	336.39
678.01	335.08
678.34	333.87
678.68	332.64
679.02	331.37
679.36	330.08
679.70	328.81
680.04	327.60
680.37	326.46
680.71	325.29
681.05	324.21
681.39	323.16
681.73	322.07
682.06	320.98
682.40	319.84
682.74	318.93
683.08	318.02
683.42	316.82
683.75	315.76
684.09	314.55
684.43	313.48
684.77	312.38
685.10	311.32
685.44	310.21
685.78	309.18
686.12	308.22
686.45	307.33
686.79	306.33
687.13	305.51
687.46	304.45
687.80	303.56
688.14	302.56
688.48	301.65
688.81	300.62
689.15	299.72
689.49	298.73
689.82	297.66
690.16	296.47
690.50	295.54
690.83	294.64
691.17	293.60
691.51	292.69
691.84	291.87
692.18	290.92
692.52	290.13
692.85	289.32
693.19	288.61
693.52	287.80
693.86	286.99
694.20	286.14
694.53	285.42
694.87	284.60
695.21	283.88
695.54	282.99
695.88	282.18
696.21	281.38
696.55	280.69
696.88	279.92
697.22	279.20
697.56	278.54
697.89	277.80
698.23	277.15
698.56	276.41
698.90	275.68
699.23	274.98
699.57	274.20
699.90	273.40
700.24	272.64
700.58	271.84
700.91	271.19
701.25	270.77
701.58	270.22
701.92	269.66
702.25	268.91
702.59	268.20
702.92	267.59
703.26	266.96
703.59	266.32
703.93	266.06
704.26	265.39
704.60	264.80
704.93	264.12
705.26	263.56
705.60	263.00
705.93	262.34
706.27	261.84
706.60	261.40
706.94	261.08
707.27	260.52
707.61	260.12
707.94	259.52
708.27	258.70
708.61	258.05
708.94	257.43
709.28	256.91
709.61	256.50
709.94	256.13
710.28	255.72
710.61	255.30
710.95	254.47
711.28	254.27
711.61	253.79
711.95	253.55
712.28	253.02
712.61	252.55
712.95	252.35
713.28	252.10
713.61	251.63
713.95	251.11
714.28	250.75
714.61	250.25
714.95	249.82
715.28	249.35
715.61	248.94
715.95	248.52
716.28	248.13
716.61	247.76
716.95	247.28
717.28	246.81
717.61	246.32
717.94	246.02
718.28	245.41
718.61	245.07
718.94	244.55
719.27	244.20
719.61	243.92
719.94	243.47
720.27	242.90
720.60	242.52
720.94	242.11
721.27	241.80
721.60	241.50
721.93	241.17
722.27	241.03
722.60	240.84
722.93	240.55
723.26	240.31
723.59	239.95
723.93	239.65
724.26	239.38
724.59	239.07
724.92	238.80
725.25	238.62
725.59	238.26
725.92	238.07
726.25	237.80
726.58	237.56
726.91	237.30
727.24	237.17
727.57	236.92
727.91	236.61
728.24	236.38
728.57	236.07
728.90	235.91
729.23	235.53
729.56	235.40
729.89	235.18
730.22	234.96
730.55	234.75
730.89	234.50
731.22	234.21
731.55	234.09
731.88	233.86
732.21	233.63
732.54	233.39
732.87	233.10
733.20	232.90
733.53	232.63
733.86	232.44
734.19	232.15
734.52	231.97
734.85	232.02
735.18	231.81
735.51	231.68
735.84	231.49
736.17	231.45
736.50	231.04
736.83	231.24
737.16	230.96
737.49	230.76
737.82	230.60
738.15	230.50
738.48	230.28
738.81	230.06
739.14	229.87
739.47	229.71
739.80	229.53
740.13	229.39
740.46	229.13
740.79	228.82
741.12	228.65
741.45	228.35
741.78	228.08
742.11	227.95
742.44	227.72
742.77	227.58
743.10	227.26
743.43	227.11
743.75	226.54
744.08	226.87
744.41	226.66
744.74	226.47
745.07	226.21
745.40	226.05
745.73	226.04
746.06	225.83
746.39	225.64
746.71	225.44
747.04	225.26
747.37	225.17
747.70	225.15
748.03	224.95
748.36	224.91
748.68	224.70
749.01	224.43
749.34	224.33
749.67	224.17
750.00	224.11
750.33	224.24
750.65	224.18
750.98	223.55
751.31	223.53
751.64	223.38
751.97	223.49
752.29	223.38
752.62	223.12
752.95	222.95
753.28	222.89
753.60	222.78
753.93	222.69
754.26	222.61
754.59	222.37
754.91	222.24
755.24	222.17
755.57	222.05
755.90	221.96
756.22	221.85
756.55	221.70
756.88	221.52
757.20	221.11
757.53	220.84
757.86	220.76
758.19	220.58
758.51	220.50
758.84	220.20
759.17	220.02
759.49	219.91
759.82	219.92
760.15	219.77
760.47	219.64
760.80	219.45
761.13	219.35
761.45	219.26
761.78	219.17
762.11	219.00
762.43	218.81
762.76	218.71
763.08	218.61
763.41	218.54
763.74	218.46
764.06	218.40
764.39	218.40
764.71	218.28
765.04	218.23
765.37	218.16
765.69	218.17
766.02	218.13
766.34	218.04
766.67	217.83
767.00	217.80
767.32	217.94
767.65	218.08
767.97	217.97
768.30	217.88
768.62	217.83
768.95	217.72
769.27	217.68
769.60	217.67
769.92	217.52
770.25	217.34
770.57	217.23
770.90	217.17
771.22	217.08
771.55	217.04
771.87	216.95
772.20	216.85
772.52	217.04
772.85	217.33
773.17	217.24
773.50	217.25
773.82	217.19
774.15	217.03
774.47	216.80
774.80	216.72
775.12	216.71
775.45	216.66
775.77	216.68
776.09	216.64
776.42	216.58
776.74	216.65
777.07	216.64
777.39	216.64
777.72	216.54
778.04	216.54
778.36	216.44
778.69	216.47
779.01	216.46
779.33	216.05
779.66	215.65
779.98	215.63
780.31	215.60
780.63	215.68
780.95	215.65
781.28	215.60
781.60	215.44
781.92	215.38
782.25	215.32
782.57	215.29
782.89	215.27
783.22	215.18
783.54	215.07
783.86	215.05
784.19	214.97
784.51	215.05
784.83	214.91
785.16	214.88
785.48	214.78
785.80	214.66
786.12	214.70
786.45	214.68
786.77	214.73
787.09	214.70
787.42	214.62
787.74	214.64
788.06	214.62
788.38	214.68
788.71	214.65
789.03	214.63
789.35	214.66
789.67	214.59
789.99	214.59
790.32	214.54
790.64	214.57
790.96	214.87
791.28	214.78
791.61	214.73
791.93	214.75
792.25	214.71
792.57	215.00
792.89	214.96
793.21	214.96
793.54	214.84
793.86	214.80
794.18	214.71
