SpectraSuite Data File
++++++++++++++++++++++++++++++++++++
Date: Mon Feb 25 17:08:49 EST 2013
User: group
Dark Spectrum Present: No
Reference Spectrum Present: No
Number of Sampled Component Spectra: 1
Spectrometers: USB2E7196
Integration Time (usec): 104000 (USB2E7196)
Spectra Averaged: 20 (USB2E7196)
Boxcar Smoothing: 10 (USB2E7196)
Correct for Electrical Dark: No (USB2E7196)
Strobe/Lamp Enabled: No (USB2E7196)
Correct for Detector Non-linearity: No (USB2E7196)
Correct for Stray Light: No (USB2E7196)
Number of Pixels in Processed Spectrum: 2048
>>>>>Begin Processed Spectral Data<<<<<
339.09	0.00
339.48	197.40
339.86	200.10
340.24	201.30
340.63	202.05
341.01	209.70
341.39	205.30
341.78	207.45
342.16	208.65
342.54	208.75
342.93	197.92
343.31	207.92
343.69	208.47
344.07	208.93
344.46	209.42
344.84	209.80
345.22	209.84
345.60	210.11
345.99	210.20
346.37	210.31
346.75	210.34
347.13	210.35
347.52	210.39
347.90	210.51
348.28	210.54
348.66	210.57
349.05	210.45
349.43	210.55
349.81	210.57
350.19	210.61
350.57	210.68
350.96	210.75
351.34	210.83
351.72	210.89
352.10	210.90
352.48	210.90
352.87	211.03
353.25	211.02
353.63	211.05
354.01	211.12
354.39	211.21
354.77	211.28
355.15	211.48
355.54	211.48
355.92	211.41
356.30	211.54
356.68	211.92
357.06	212.07
357.44	212.08
357.82	212.14
358.20	212.34
358.58	212.39
358.97	212.55
359.35	212.71
359.73	212.93
360.11	213.02
360.49	213.08
360.87	213.11
361.25	213.27
361.63	213.46
362.01	213.57
362.39	213.58
362.77	213.68
363.15	213.63
363.53	213.71
363.91	213.82
364.29	213.84
364.67	213.50
365.05	213.57
365.43	213.64
365.81	213.70
366.19	213.81
366.57	214.00
366.95	213.93
367.33	213.84
367.71	213.82
368.09	213.90
368.47	213.91
368.85	213.86
369.23	213.98
369.61	213.79
369.99	213.91
370.37	213.87
370.75	214.03
371.13	213.94
371.51	213.86
371.89	213.89
372.27	213.85
372.65	213.83
373.03	213.79
373.41	213.70
373.78	213.63
374.16	213.44
374.54	213.24
374.92	213.15
375.30	213.08
375.68	212.99
376.06	212.97
376.44	212.86
376.82	212.86
377.19	212.74
377.57	212.75
377.95	212.60
378.33	212.58
378.71	212.32
379.09	212.36
379.47	212.39
379.84	212.32
380.22	212.19
380.60	212.06
380.98	211.93
381.36	211.83
381.73	211.75
382.11	211.65
382.49	211.69
382.87	211.67
383.25	211.65
383.62	211.95
384.00	211.81
384.38	211.75
384.76	211.69
385.13	211.79
385.51	211.69
385.89	211.60
386.27	211.52
386.64	211.57
387.02	211.49
387.40	211.37
387.78	211.32
388.15	211.35
388.53	211.33
388.91	211.30
389.29	211.24
389.66	211.21
390.04	211.14
390.42	211.13
390.79	211.05
391.17	210.98
391.55	210.52
391.92	210.48
392.30	210.44
392.68	210.35
393.05	210.24
393.43	210.25
393.81	210.26
394.18	210.27
394.56	210.24
394.94	210.26
395.31	210.21
395.69	210.28
396.06	210.35
396.44	210.40
396.82	210.40
397.19	210.57
397.57	210.59
397.95	210.73
398.32	210.55
398.70	210.60
399.07	210.70
399.45	210.81
399.82	210.82
400.20	210.88
400.58	210.90
400.95	210.77
401.33	210.85
401.70	211.10
402.08	211.11
402.45	211.13
402.83	211.24
403.20	211.36
403.58	211.35
403.95	211.40
404.33	211.48
404.71	211.48
405.08	211.78
405.46	211.84
405.83	211.90
406.21	212.09
406.58	212.20
406.96	212.26
407.33	212.32
407.70	212.52
408.08	212.94
408.45	213.15
408.83	213.40
409.20	213.52
409.58	213.45
409.95	213.72
410.33	213.92
410.70	213.99
411.08	214.27
411.45	214.60
411.82	214.81
412.20	215.16
412.57	215.72
412.95	215.72
413.32	216.08
413.69	216.40
414.07	216.81
414.44	217.25
414.82	217.80
415.19	218.33
415.56	218.83
415.94	219.16
416.31	219.85
416.68	220.47
417.06	221.18
417.43	222.00
417.81	222.75
418.18	223.57
418.55	224.57
418.93	225.37
419.30	226.27
419.67	227.27
420.04	228.33
420.42	229.34
420.79	230.86
421.16	232.12
421.54	233.61
421.91	234.97
422.28	236.33
422.66	237.73
423.03	239.49
423.40	241.04
423.77	242.66
424.15	244.27
424.52	246.04
424.89	247.99
425.26	249.79
425.64	251.50
426.01	253.37
426.38	255.28
426.75	257.39
427.13	259.48
427.50	261.66
427.87	263.85
428.24	266.15
428.61	268.05
428.99	270.61
429.36	273.02
429.73	275.54
430.10	278.15
430.47	280.89
430.85	283.41
431.22	286.33
431.59	289.63
431.96	292.55
432.33	295.72
432.70	298.86
433.08	302.48
433.45	305.98
433.82	309.53
434.19	313.47
434.56	317.36
434.93	320.96
435.30	324.63
435.68	328.72
436.05	332.63
436.42	336.60
436.79	340.26
437.16	344.31
437.53	348.47
437.90	352.57
438.27	356.59
438.64	360.74
439.01	364.68
439.38	367.94
439.75	371.42
440.13	375.32
440.50	378.98
440.87	381.95
441.24	385.01
441.61	388.35
441.98	390.92
442.35	393.76
442.72	396.85
443.09	399.89
443.46	401.62
443.83	402.98
444.20	404.17
444.57	405.67
444.94	406.47
445.31	407.31
445.68	408.42
446.05	408.73
446.42	408.49
446.79	408.24
447.16	407.89
447.53	407.62
447.90	406.15
448.27	404.58
448.64	402.70
449.01	401.41
449.37	398.89
449.74	396.33
450.11	393.70
450.48	390.31
450.85	386.76
451.22	383.85
451.59	380.96
451.96	378.30
452.33	374.61
452.70	371.29
453.07	367.40
453.43	363.16
453.80	359.42
454.17	355.75
454.54	352.26
454.91	348.48
455.28	344.80
455.65	341.45
456.02	338.67
456.38	335.69
456.75	332.05
457.12	328.97
457.49	326.00
457.86	322.73
458.23	320.35
458.59	317.69
458.96	315.00
459.33	312.62
459.70	310.19
460.07	308.36
460.43	306.15
460.80	304.10
461.17	302.45
461.54	300.58
461.91	298.81
462.27	296.83
462.64	295.29
463.01	293.50
463.38	291.88
463.74	289.65
464.11	288.20
464.48	286.90
464.85	285.60
465.21	284.59
465.58	283.53
465.95	282.02
466.32	280.89
466.68	279.74
467.05	278.56
467.42	277.43
467.78	276.07
468.15	275.00
468.52	274.14
468.88	272.92
469.25	271.94
469.62	271.09
469.98	270.23
470.35	269.46
470.72	268.75
471.08	267.87
471.45	267.31
471.82	266.69
472.18	265.93
472.55	265.33
472.92	264.62
473.28	264.05
473.65	263.53
474.02	262.92
474.38	262.50
474.75	262.15
475.11	261.63
475.48	261.35
475.85	260.97
476.21	260.67
476.58	260.42
476.94	260.15
477.31	259.87
477.67	259.64
478.04	259.37
478.41	259.20
478.77	259.43
479.14	259.17
479.50	259.06
479.87	259.08
480.23	259.07
480.60	258.97
480.96	258.92
481.33	259.09
481.69	259.18
482.06	259.24
482.42	259.29
482.79	259.42
483.15	259.59
483.52	259.85
483.88	260.04
484.25	260.08
484.61	260.28
484.98	260.56
485.34	261.00
485.71	261.45
486.07	261.80
486.44	261.83
486.80	262.28
487.17	262.64
487.53	263.19
487.90	263.79
488.26	264.56
488.62	265.18
488.99	265.64
489.35	266.30
489.72	267.03
490.08	267.89
490.44	268.69
490.81	269.57
491.17	270.43
491.54	271.40
491.90	272.55
492.26	273.58
492.63	274.63
492.99	275.60
493.36	276.73
493.72	278.02
494.08	279.23
494.45	280.54
494.81	282.01
495.17	283.27
495.54	284.64
495.90	285.97
496.26	287.55
496.63	289.19
496.99	290.75
497.35	292.50
497.72	294.20
498.08	295.99
498.44	297.76
498.80	299.71
499.17	301.51
499.53	303.43
499.89	305.66
500.26	307.75
500.62	309.93
500.98	312.10
501.34	314.38
501.71	316.77
502.07	319.17
502.43	321.52
502.79	323.89
503.16	326.30
503.52	328.78
503.88	331.23
504.24	333.91
504.60	336.76
504.97	339.52
505.33	342.20
505.69	345.24
506.05	348.19
506.41	351.14
506.78	354.18
507.14	357.24
507.50	360.14
507.86	363.41
508.22	366.65
508.59	369.82
508.95	373.01
509.31	376.56
509.67	379.87
510.03	383.25
510.39	386.84
510.75	390.48
511.12	394.15
511.48	397.87
511.84	401.45
512.20	405.06
512.56	408.69
512.92	412.55
513.28	416.24
513.64	420.00
514.00	423.99
514.37	427.94
514.73	431.99
515.09	435.99
515.45	439.89
515.81	443.95
516.17	448.13
516.53	452.27
516.89	456.26
517.25	460.62
517.61	465.00
517.97	469.26
518.33	473.42
518.69	477.71
519.05	482.18
519.41	486.75
519.77	491.44
520.13	495.89
520.49	500.24
520.85	504.68
521.21	509.45
521.57	513.89
521.93	518.29
522.29	522.96
522.65	527.65
523.01	532.34
523.37	536.88
523.73	541.62
524.09	546.43
524.45	551.19
524.81	555.96
525.17	560.72
525.53	565.52
525.89	570.56
526.25	575.49
526.61	580.15
526.97	584.93
527.33	589.61
527.68	594.72
528.04	599.70
528.40	604.54
528.76	609.27
529.12	614.27
529.48	619.39
529.84	624.43
530.20	629.65
530.56	634.65
530.91	639.84
531.27	644.90
531.63	649.92
531.99	654.92
532.35	659.70
532.71	664.56
533.07	669.75
533.42	674.90
533.78	679.94
534.14	684.88
534.50	689.66
534.86	694.69
535.21	699.30
535.57	704.46
535.93	709.22
536.29	714.05
536.65	718.88
537.00	723.45
537.36	727.68
537.72	732.09
538.08	736.79
538.44	741.24
538.79	745.69
539.15	750.20
539.51	754.50
539.87	759.13
540.22	763.52
540.58	767.97
540.94	772.07
541.29	776.10
541.65	780.14
542.01	784.33
542.37	788.24
542.72	792.41
543.08	795.97
543.44	800.08
543.79	803.72
544.15	807.15
544.51	811.10
544.87	815.11
545.22	818.66
545.58	822.13
545.94	825.46
546.29	828.48
546.65	831.50
547.01	834.77
547.36	837.88
547.72	840.83
548.07	843.38
548.43	846.03
548.79	848.71
549.14	851.36
549.50	854.05
549.86	856.57
550.21	858.87
550.57	861.45
550.92	863.45
551.28	865.66
551.64	867.85
551.99	870.04
552.35	871.95
552.70	873.72
553.06	875.68
553.41	877.61
553.77	879.84
554.13	881.61
554.48	883.35
554.84	885.13
555.19	886.86
555.55	888.43
555.90	889.89
556.26	891.20
556.61	892.61
556.97	893.57
557.32	894.50
557.68	895.58
558.03	896.51
558.39	897.69
558.74	899.02
559.10	900.29
559.45	901.27
559.81	902.49
560.16	903.33
560.52	904.09
560.87	905.05
561.23	905.45
561.58	906.54
561.94	907.15
562.29	907.46
562.64	907.99
563.00	908.70
563.35	909.31
563.71	910.39
564.06	910.96
564.42	911.64
564.77	912.50
565.12	913.15
565.48	913.95
565.83	914.53
566.19	915.00
566.54	915.05
566.89	915.14
567.25	915.44
567.60	916.03
567.96	916.31
568.31	916.51
568.66	916.72
569.02	916.13
569.37	915.78
569.72	915.72
570.08	915.49
570.43	915.04
570.78	914.50
571.14	913.45
571.49	912.88
571.84	912.46
572.20	911.63
572.55	911.03
572.90	909.86
573.26	908.74
573.61	907.30
573.96	906.30
574.31	904.98
574.67	903.58
575.02	901.93
575.37	900.39
575.72	898.52
576.08	897.21
576.43	895.98
576.78	894.65
577.13	893.37
577.49	892.06
577.84	890.62
578.19	889.30
578.54	888.20
578.90	886.95
579.25	885.23
579.60	883.48
579.95	881.63
580.30	880.19
580.66	879.06
581.01	877.76
581.36	876.16
581.71	874.63
582.06	873.06
582.42	871.81
582.77	870.17
583.12	868.92
583.47	867.64
583.82	866.20
584.17	864.70
584.53	863.15
584.88	861.43
585.23	859.93
585.58	858.51
585.93	856.89
586.28	855.38
586.63	853.93
586.98	852.65
587.34	851.50
587.69	849.86
588.04	848.12
588.39	846.62
588.74	844.91
589.09	843.53
589.44	841.68
589.79	839.92
590.14	838.42
590.49	836.60
590.84	834.49
591.19	833.02
591.54	831.54
591.89	829.35
592.25	827.87
592.60	825.82
592.95	823.93
593.30	821.77
593.65	819.52
594.00	817.48
594.35	816.46
594.70	814.28
595.05	812.47
595.40	810.49
595.75	808.29
596.10	806.44
596.45	804.59
596.80	802.98
597.15	801.34
597.50	799.31
597.85	797.61
598.19	795.89
598.54	793.76
598.89	791.87
599.24	790.49
599.59	788.63
599.94	787.28
600.29	785.50
600.64	783.70
600.99	781.89
601.34	780.35
601.69	777.51
602.04	775.71
602.39	773.90
602.74	772.33
603.08	770.90
603.43	769.64
603.78	767.89
604.13	766.07
604.48	764.12
604.83	762.78
605.18	761.37
605.53	759.64
605.87	757.86
606.22	756.12
606.57	754.25
606.92	752.26
607.27	750.29
607.62	748.39
607.96	746.85
608.31	745.32
608.66	743.46
609.01	741.68
609.36	739.61
609.70	737.49
610.05	735.35
610.40	733.24
610.75	730.75
611.10	728.71
611.44	726.28
611.79	723.97
612.14	721.38
612.49	718.68
612.83	716.27
613.18	713.81
613.53	711.32
613.88	708.58
614.22	706.26
614.57	703.66
614.92	701.18
615.27	698.68
615.61	695.95
615.96	693.53
616.31	691.25
616.65	689.25
617.00	687.03
617.35	684.66
617.70	682.20
618.04	679.68
618.39	676.92
618.74	674.57
619.08	672.11
619.43	669.64
619.78	667.13
620.12	664.68
620.47	662.34
620.82	659.65
621.16	657.20
621.51	654.49
621.85	652.05
622.20	649.51
622.55	646.90
622.89	644.48
623.24	641.73
623.59	638.94
623.93	636.09
624.28	633.47
624.62	631.07
624.97	628.61
625.32	626.29
625.66	624.01
626.01	621.59
626.35	619.23
626.70	616.80
627.04	614.76
627.39	612.29
627.73	610.02
628.08	607.99
628.43	605.46
628.77	603.09
629.12	600.65
629.46	598.44
629.81	596.22
630.15	593.78
630.50	591.52
630.84	589.15
631.19	586.84
631.53	584.47
631.88	581.68
632.22	579.13
632.57	576.99
632.91	574.67
633.26	572.33
633.60	569.97
633.95	567.73
634.29	565.16
634.64	562.94
634.98	560.53
635.32	558.29
635.67	556.35
636.01	554.30
636.36	552.12
636.70	549.94
637.05	547.71
637.39	545.66
637.73	543.57
638.08	541.72
638.42	539.74
638.77	537.72
639.11	535.75
639.45	533.75
639.80	531.36
640.14	529.04
640.49	526.77
640.83	524.52
641.17	522.54
641.52	520.29
641.86	518.15
642.20	516.06
642.55	513.67
642.89	511.40
643.23	509.06
643.58	506.91
643.92	504.63
644.26	502.36
644.61	500.22
644.95	497.89
645.29	495.55
645.64	493.33
645.98	491.01
646.32	488.93
646.66	486.60
647.01	484.45
647.35	482.43
647.69	480.30
648.04	478.34
648.38	476.09
648.72	474.10
649.06	471.89
649.41	469.67
649.75	467.63
650.09	465.58
650.43	463.58
650.78	461.36
651.12	459.13
651.46	457.00
651.80	454.98
652.14	453.07
652.49	451.10
652.83	448.97
653.17	446.91
653.51	444.76
653.85	442.85
654.20	440.85
654.54	438.68
654.88	436.57
655.22	434.43
655.56	432.33
655.90	430.23
656.25	428.16
656.59	426.13
656.93	424.06
657.27	422.16
657.61	420.06
657.95	418.18
658.29	416.26
658.64	414.63
658.98	412.57
659.32	410.48
659.66	408.46
660.00	406.49
660.34	404.53
660.68	402.59
661.02	400.55
661.36	398.65
661.70	396.95
662.05	395.29
662.39	393.76
662.73	392.22
663.07	390.77
663.41	389.17
663.75	387.50
664.09	385.81
664.43	383.94
664.77	382.35
665.11	380.68
665.45	379.17
665.79	377.47
666.13	375.85
666.47	374.31
666.81	372.75
667.15	371.22
667.49	369.91
667.83	368.56
668.17	367.20
668.51	365.79
668.85	364.35
669.19	363.11
669.53	361.55
669.87	359.99
670.21	358.48
670.55	357.19
670.89	356.03
671.23	354.84
671.57	353.68
671.91	352.39
672.25	351.16
672.58	349.93
672.92	348.47
673.26	347.31
673.60	346.16
673.94	345.02
674.28	343.87
674.62	342.64
674.96	341.42
675.30	340.34
675.64	339.12
675.97	337.91
676.31	336.61
676.65	335.45
676.99	334.51
677.33	333.16
677.67	331.85
678.01	330.60
678.34	329.43
678.68	328.32
679.02	327.10
679.36	325.92
679.70	324.72
680.04	323.70
680.37	322.52
680.71	321.40
681.05	320.32
681.39	319.22
681.73	318.07
682.06	317.03
682.40	315.97
682.74	315.05
683.08	314.14
683.42	313.04
683.75	312.06
684.09	310.88
684.43	309.97
684.77	309.08
685.10	308.12
685.44	307.10
685.78	305.99
686.12	305.11
686.45	304.15
686.79	303.23
687.13	302.39
687.46	301.52
687.80	300.68
688.14	299.69
688.48	298.79
688.81	297.97
689.15	297.05
689.49	296.05
689.82	295.09
690.16	294.05
690.50	293.24
690.83	292.22
691.17	291.25
691.51	290.28
691.84	289.38
692.18	288.53
692.52	287.68
692.85	286.95
693.19	286.24
693.52	285.45
693.86	284.58
694.20	283.80
694.53	283.00
694.87	282.15
695.21	281.36
695.54	280.59
695.88	279.72
696.21	278.94
696.55	278.33
696.88	277.64
697.22	276.91
697.56	276.21
697.89	275.54
698.23	274.99
698.56	274.37
698.90	273.77
699.23	273.06
699.57	272.39
699.90	271.74
700.24	270.94
700.58	270.31
700.91	269.78
701.25	269.37
701.58	268.81
701.92	268.20
702.25	267.65
702.59	266.97
702.92	266.40
703.26	265.82
703.59	265.19
703.93	264.89
704.26	264.40
704.60	263.88
704.93	263.35
705.26	262.70
705.60	262.20
705.93	261.52
706.27	261.12
706.60	260.70
706.94	260.34
707.27	259.81
707.61	259.25
707.94	258.66
708.27	257.75
708.61	257.14
708.94	256.70
709.28	256.14
709.61	255.63
709.94	255.17
710.28	254.77
710.61	254.24
710.95	253.40
711.28	253.14
711.61	252.53
711.95	252.12
712.28	251.69
712.61	251.19
712.95	251.00
713.28	250.65
713.61	250.16
713.95	249.57
714.28	249.21
714.61	248.86
714.95	248.48
715.28	248.18
715.61	247.75
715.95	247.27
716.28	246.82
716.61	246.49
716.95	246.05
717.28	245.54
717.61	245.20
717.94	244.87
718.28	244.28
718.61	243.90
718.94	243.46
719.27	243.05
719.61	242.69
719.94	242.30
720.27	241.70
720.60	241.33
720.94	240.95
721.27	240.61
721.60	240.29
721.93	239.95
722.27	239.66
722.60	239.50
722.93	239.20
723.26	239.05
723.59	238.76
723.93	238.55
724.26	238.29
724.59	237.97
724.92	237.73
725.25	237.62
725.59	237.45
725.92	237.27
726.25	237.05
726.58	236.83
726.91	236.47
727.24	236.32
727.57	236.05
727.91	235.81
728.24	235.58
728.57	235.32
728.90	235.16
729.23	234.85
729.56	234.68
729.89	234.42
730.22	234.17
730.55	233.93
730.89	233.74
731.22	233.51
731.55	233.32
731.88	233.09
732.21	232.78
732.54	232.52
732.87	232.30
733.20	232.07
733.53	231.90
733.86	231.80
734.19	231.55
734.52	231.41
734.85	231.42
735.18	231.20
735.51	231.07
735.84	230.87
736.17	230.81
736.50	230.50
736.83	230.74
737.16	230.50
737.49	230.29
737.82	230.05
738.15	230.00
738.48	229.79
738.81	229.60
739.14	229.35
739.47	229.17
739.80	228.94
740.13	228.81
740.46	228.60
740.79	228.28
741.12	228.10
741.45	227.87
741.78	227.48
742.11	227.44
742.44	227.18
742.77	227.00
743.10	226.76
743.43	226.56
743.75	226.02
744.08	226.35
744.41	226.14
744.74	225.98
745.07	225.70
745.40	225.61
745.73	225.56
746.06	225.37
746.39	225.23
746.71	225.07
747.04	224.85
747.37	224.67
747.70	224.61
748.03	224.44
748.36	224.42
748.68	224.25
749.01	224.02
749.34	223.95
749.67	223.83
750.00	223.80
750.33	223.88
750.65	223.75
750.98	223.16
751.31	223.17
751.64	223.03
751.97	223.10
752.29	222.87
752.62	222.61
752.95	222.53
753.28	222.38
753.60	222.27
753.93	222.23
754.26	222.13
754.59	221.93
754.91	221.78
755.24	221.59
755.57	221.55
755.90	221.40
756.22	221.27
756.55	221.17
756.88	221.02
757.20	220.70
757.53	220.56
757.86	220.52
758.19	220.39
758.51	220.33
758.84	220.06
759.17	220.03
759.49	220.00
759.82	220.05
760.15	220.04
760.47	219.97
760.80	219.80
761.13	219.75
761.45	219.70
761.78	219.67
762.11	219.60
762.43	219.47
762.76	219.38
763.08	219.33
763.41	219.24
763.74	219.14
764.06	219.03
764.39	218.97
764.71	218.79
765.04	218.66
765.37	218.55
765.69	218.49
766.02	218.35
766.34	218.21
766.67	217.98
767.00	217.95
767.32	217.99
767.65	218.19
767.97	218.10
768.30	218.05
768.62	217.98
768.95	217.82
769.27	217.72
769.60	217.75
769.92	217.55
770.25	217.41
770.57	217.33
770.90	217.32
771.22	217.17
771.55	217.15
771.87	217.18
772.20	217.15
772.52	217.37
772.85	217.74
773.17	217.72
773.50	217.65
773.82	217.50
774.15	217.35
774.47	217.09
774.80	217.04
775.12	217.01
775.45	216.95
775.77	216.99
776.09	217.02
776.42	216.91
776.74	217.02
777.07	216.93
777.39	216.84
777.72	216.78
778.04	216.81
778.36	216.72
778.69	216.61
779.01	216.58
779.33	216.22
779.66	215.83
779.98	215.75
780.31	215.71
780.63	215.85
780.95	215.87
781.28	215.76
781.60	215.66
781.92	215.60
782.25	215.51
782.57	215.49
782.89	215.40
783.22	215.33
783.54	215.19
783.86	215.21
784.19	215.20
784.51	215.25
784.83	215.25
785.16	215.21
785.48	215.19
785.80	215.19
786.12	215.22
786.45	215.12
786.77	215.15
787.09	215.08
787.42	214.88
787.74	214.85
788.06	214.92
788.38	214.88
788.71	214.83
789.03	214.87
789.35	214.85
789.67	214.74
789.99	214.79
790.32	214.82
790.64	214.84
790.96	215.05
791.28	214.86
791.61	214.70
791.93	214.70
792.25	214.68
792.57	214.78
792.89	214.60
793.21	214.63
793.54	214.60
793.86	214.56
794.18	214.59
