SpectraSuite Data File
++++++++++++++++++++++++++++++++++++
Date: Mon Feb 25 17:20:43 EST 2013
User: group
Dark Spectrum Present: No
Reference Spectrum Present: No
Number of Sampled Component Spectra: 1
Spectrometers: USB2E7196
Integration Time (usec): 104000 (USB2E7196)
Spectra Averaged: 20 (USB2E7196)
Boxcar Smoothing: 10 (USB2E7196)
Correct for Electrical Dark: No (USB2E7196)
Strobe/Lamp Enabled: No (USB2E7196)
Correct for Detector Non-linearity: No (USB2E7196)
Correct for Stray Light: No (USB2E7196)
Number of Pixels in Processed Spectrum: 2048
>>>>>Begin Processed Spectral Data<<<<<
339.09	0.00
339.48	196.85
339.86	199.05
340.24	202.15
340.63	202.25
341.01	209.00
341.39	206.00
341.78	206.50
342.16	208.60
342.54	208.75
342.93	197.97
343.31	207.95
343.69	208.60
344.07	209.06
344.46	209.52
344.84	209.97
345.22	210.12
345.60	210.41
345.99	210.63
346.37	210.79
346.75	210.89
347.13	210.98
347.52	211.07
347.90	211.30
348.28	211.32
348.66	211.51
349.05	211.40
349.43	211.48
349.81	211.55
350.19	211.64
350.57	211.84
350.96	211.97
351.34	212.17
351.72	212.25
352.10	212.47
352.48	212.47
352.87	212.57
353.25	212.63
353.63	212.66
354.01	212.74
354.39	212.85
354.77	212.95
355.15	213.17
355.54	213.19
355.92	213.16
356.30	213.31
356.68	213.59
357.06	213.71
357.44	213.75
357.82	213.80
358.20	213.94
358.58	214.00
358.97	214.12
359.35	214.28
359.73	214.47
360.11	214.55
360.49	214.67
360.87	214.73
361.25	214.89
361.63	215.09
362.01	215.25
362.39	215.30
362.77	215.41
363.15	215.41
363.53	215.45
363.91	215.53
364.29	215.56
364.67	215.21
365.05	215.29
365.43	215.44
365.81	215.53
366.19	215.75
366.57	215.87
366.95	215.84
367.33	215.75
367.71	215.76
368.09	215.84
368.47	215.87
368.85	215.86
369.23	215.88
369.61	215.77
369.99	215.83
370.37	215.85
370.75	215.98
371.13	215.94
371.51	215.88
371.89	215.85
372.27	215.84
372.65	215.90
373.03	215.96
373.41	215.88
373.78	215.84
374.16	215.56
374.54	215.40
374.92	215.40
375.30	215.34
375.68	215.23
376.06	215.11
376.44	215.08
376.82	215.04
377.19	214.99
377.57	214.88
377.95	214.70
378.33	214.65
378.71	214.41
379.09	214.35
379.47	214.40
379.84	214.33
380.22	214.26
380.60	214.20
380.98	213.99
381.36	213.98
381.73	213.91
382.11	213.97
382.49	214.00
382.87	213.91
383.25	213.87
383.62	214.20
384.00	214.15
384.38	214.15
384.76	214.23
385.13	214.30
385.51	214.36
385.89	214.32
386.27	214.27
386.64	214.26
387.02	214.22
387.40	214.10
387.78	214.18
388.15	214.17
388.53	214.08
388.91	214.07
389.29	213.96
389.66	213.95
390.04	213.83
390.42	213.79
390.79	213.83
391.17	213.78
391.55	213.41
391.92	213.37
392.30	213.35
392.68	213.27
393.05	213.21
393.43	213.08
393.81	213.10
394.18	213.11
394.56	213.13
394.94	213.22
395.31	213.26
395.69	213.32
396.06	213.36
396.44	213.38
396.82	213.42
397.19	213.65
397.57	213.62
397.95	213.72
398.32	213.69
398.70	213.74
399.07	213.88
399.45	213.90
399.82	213.98
400.20	213.95
400.58	213.98
400.95	213.94
401.33	214.14
401.70	214.40
402.08	214.50
402.45	214.60
402.83	214.75
403.20	214.84
403.58	214.86
403.95	215.06
404.33	215.27
404.71	215.45
405.08	215.72
405.46	216.01
405.83	216.22
406.21	216.37
406.58	216.56
406.96	216.71
407.33	216.99
407.70	217.26
408.08	217.89
408.45	218.24
408.83	218.66
409.20	219.01
409.58	219.22
409.95	219.68
410.33	220.17
410.70	220.56
411.08	221.14
411.45	221.75
411.82	222.28
412.20	223.00
412.57	223.85
412.95	224.40
413.32	225.19
413.69	226.03
414.07	226.96
414.44	227.91
414.82	228.97
415.19	230.14
415.56	231.30
415.94	232.38
416.31	233.78
416.68	235.08
417.06	236.69
417.43	238.32
417.81	240.01
418.18	241.72
418.55	243.66
418.93	245.65
419.30	247.65
419.67	249.76
420.04	251.96
420.42	254.27
420.79	257.05
421.16	259.80
421.54	262.68
421.91	265.52
422.28	268.58
422.66	271.80
423.03	275.08
423.40	278.31
423.77	281.75
424.15	285.23
424.52	288.95
424.89	292.93
425.26	296.76
425.64	300.49
426.01	304.50
426.38	308.63
426.75	313.00
427.13	317.45
427.50	322.19
427.87	327.05
428.24	331.87
428.61	336.50
428.99	341.60
429.36	347.07
429.73	352.60
430.10	358.02
430.47	363.48
430.85	369.07
431.22	375.18
431.59	381.81
431.96	387.95
432.33	394.72
432.70	401.32
433.08	408.97
433.45	416.25
433.82	423.48
434.19	431.45
434.56	439.25
434.93	446.75
435.30	454.13
435.68	462.44
436.05	470.61
436.42	478.72
436.79	486.16
437.16	494.16
437.53	502.66
437.90	511.01
438.27	519.35
438.64	527.84
439.01	535.77
439.38	542.57
439.75	549.31
440.13	556.96
440.50	564.18
440.87	570.14
441.24	576.23
441.61	583.06
441.98	588.15
442.35	593.85
442.72	599.78
443.09	605.62
443.46	608.96
443.83	611.28
444.20	613.22
444.57	616.05
444.94	617.46
445.31	618.83
445.68	620.30
446.05	620.80
446.42	620.03
446.79	618.94
447.16	617.56
447.53	616.74
447.90	613.54
448.27	610.36
448.64	605.91
449.01	602.58
449.37	597.01
449.74	591.48
450.11	585.20
450.48	578.09
450.85	570.83
451.22	564.64
451.59	558.67
451.96	552.99
452.33	545.46
452.70	538.47
453.07	530.32
453.43	521.93
453.80	514.11
454.17	506.50
454.54	499.38
454.91	491.91
455.28	484.52
455.65	477.71
456.02	471.07
456.38	465.15
456.75	457.91
457.12	451.68
457.49	445.71
457.86	439.82
458.23	434.89
458.59	429.34
458.96	423.82
459.33	418.85
459.70	413.92
460.07	409.90
460.43	405.43
460.80	401.28
461.17	397.65
461.54	393.74
461.91	390.09
462.27	386.33
462.64	383.23
463.01	379.84
463.38	376.54
463.74	372.98
464.11	370.14
464.48	367.70
464.85	365.09
465.21	363.09
465.58	360.85
465.95	358.23
466.32	356.10
466.68	354.03
467.05	352.01
467.42	349.88
467.78	347.75
468.15	345.70
468.52	344.19
468.88	342.12
469.25	340.36
469.62	339.01
469.98	337.62
470.35	336.18
470.72	334.84
471.08	333.31
471.45	332.08
471.82	330.90
472.18	329.51
472.55	328.65
472.92	327.54
473.28	326.56
473.65	325.62
474.02	324.85
474.38	324.29
474.75	323.73
475.11	323.24
475.48	323.02
475.85	322.82
476.21	322.57
476.58	322.50
476.94	322.53
477.31	322.55
477.67	322.55
478.04	322.81
478.41	323.16
478.77	323.84
479.14	324.20
479.50	324.79
479.87	325.52
480.23	326.27
480.60	327.00
480.96	327.84
481.33	329.01
481.69	330.09
482.06	331.00
482.42	332.17
482.79	333.39
483.15	334.66
483.52	336.37
483.88	337.93
484.25	339.61
484.61	341.34
484.98	343.21
485.34	345.35
485.71	347.60
486.07	349.92
486.44	352.17
486.80	354.83
487.17	357.55
487.53	360.76
487.90	363.88
488.26	367.29
488.62	371.00
488.99	374.50
489.35	378.36
489.72	382.47
490.08	386.86
490.44	391.46
490.81	396.43
491.17	401.23
491.54	406.55
491.90	412.08
492.26	418.04
492.63	424.19
492.99	430.61
493.36	437.20
493.72	444.29
494.08	451.70
494.45	459.51
494.81	467.72
495.17	476.08
495.54	485.07
495.90	494.17
496.26	503.51
496.63	513.72
496.99	524.24
497.35	535.17
497.72	546.47
498.08	558.21
498.44	570.22
498.80	583.26
499.17	596.76
499.53	610.46
499.89	624.65
500.26	639.28
500.62	654.20
500.98	670.20
501.34	686.39
501.71	703.35
502.07	720.76
502.43	738.40
502.79	756.54
503.16	775.40
503.52	794.81
503.88	814.91
504.24	835.41
504.60	856.35
504.97	878.06
505.33	900.04
505.69	923.48
506.05	947.43
506.41	971.19
506.78	995.39
507.14	1020.44
507.50	1045.90
507.86	1071.90
508.22	1098.92
508.59	1126.00
508.95	1153.95
509.31	1181.89
509.67	1210.51
510.03	1240.19
510.39	1270.69
510.75	1301.36
511.12	1332.47
511.48	1363.98
511.84	1396.13
512.20	1428.15
512.56	1461.03
512.92	1494.57
513.28	1527.85
513.64	1561.12
514.00	1595.00
514.37	1629.03
514.73	1663.79
515.09	1698.80
515.45	1733.76
515.81	1768.82
516.17	1804.08
516.53	1839.42
516.89	1875.38
517.25	1910.95
517.61	1946.25
517.97	1981.43
518.33	2016.59
518.69	2052.21
519.05	2088.26
519.41	2123.86
519.77	2160.53
520.13	2196.23
520.49	2231.30
520.85	2267.01
521.21	2303.15
521.57	2339.25
521.93	2374.36
522.29	2410.51
522.65	2446.78
523.01	2482.53
523.37	2517.18
523.73	2552.07
524.09	2587.03
524.45	2622.02
524.81	2657.13
525.17	2692.48
525.53	2727.36
525.89	2762.31
526.25	2796.51
526.61	2829.25
526.97	2862.72
527.33	2895.68
527.68	2928.85
528.04	2961.17
528.40	2992.17
528.76	3023.31
529.12	3055.17
529.48	3088.22
529.84	3119.12
530.20	3149.58
530.56	3180.30
530.91	3212.47
531.27	3243.64
531.63	3273.69
531.99	3303.11
532.35	3331.55
532.71	3359.57
533.07	3388.19
533.42	3415.02
533.78	3442.83
534.14	3470.20
534.50	3495.05
534.86	3521.13
535.21	3545.45
535.57	3571.84
535.93	3596.48
536.29	3620.39
536.65	3643.63
537.00	3664.95
537.36	3686.38
537.72	3707.35
538.08	3728.10
538.44	3748.06
538.79	3768.21
539.15	3788.40
539.51	3808.05
539.87	3828.44
540.22	3847.41
540.58	3866.50
540.94	3885.56
541.29	3901.93
541.65	3917.94
542.01	3935.05
542.37	3950.07
542.72	3965.70
543.08	3979.01
543.44	3993.01
543.79	4005.93
544.15	4017.20
544.51	4028.72
544.87	4038.99
545.22	4048.42
545.58	4056.99
545.94	4064.09
546.29	4070.09
546.65	4075.27
547.01	4079.72
547.36	4082.95
547.72	4086.18
548.07	4087.37
548.43	4088.70
548.79	4090.64
549.14	4092.70
549.50	4093.93
549.86	4094.50
550.21	4094.74
550.57	4094.98
550.92	4094.98
551.28	4094.99
551.64	4095.00
551.99	4095.00
552.35	4095.00
552.70	4095.00
553.06	4095.00
553.41	4095.00
553.77	4095.00
554.13	4095.00
554.48	4095.00
554.84	4095.00
555.19	4095.00
555.55	4095.00
555.90	4095.00
556.26	4095.00
556.61	4095.00
556.97	4094.97
557.32	4094.95
557.68	4094.55
558.03	4094.40
558.39	4094.29
558.74	4094.27
559.10	4094.21
559.45	4094.17
559.81	4094.15
560.16	4093.23
560.52	4092.59
560.87	4091.19
561.23	4088.91
561.58	4087.60
561.94	4085.19
562.29	4082.04
562.64	4079.48
563.00	4077.04
563.35	4074.30
563.71	4071.28
564.06	4067.07
564.42	4062.90
564.77	4058.82
565.12	4054.37
565.48	4048.92
565.83	4043.67
566.19	4039.00
566.54	4032.45
566.89	4025.41
567.25	4019.16
567.60	4012.35
567.96	4004.87
568.31	3998.12
568.66	3990.61
569.02	3981.35
569.37	3972.14
569.72	3964.53
570.08	3955.31
570.43	3945.47
570.78	3935.38
571.14	3924.80
571.49	3914.09
571.84	3904.45
572.20	3893.05
572.55	3882.79
572.90	3871.71
573.26	3859.46
573.61	3846.86
573.96	3835.03
574.31	3822.70
574.67	3809.04
575.02	3795.46
575.37	3782.19
575.72	3767.72
576.08	3755.38
576.43	3741.96
576.78	3729.51
577.13	3717.46
577.49	3704.88
577.84	3692.08
578.19	3679.92
578.54	3668.60
578.90	3657.41
579.25	3643.78
579.60	3630.00
579.95	3615.36
580.30	3602.55
580.66	3590.45
581.01	3576.55
581.36	3562.55
581.71	3548.84
582.06	3535.87
582.42	3522.72
582.77	3508.36
583.12	3495.06
583.47	3482.05
583.82	3470.15
584.17	3456.87
584.53	3443.10
584.88	3429.97
585.23	3416.40
585.58	3402.50
585.93	3387.71
586.28	3373.77
586.63	3360.41
586.98	3347.75
587.34	3335.80
587.69	3322.58
588.04	3309.16
588.39	3296.53
588.74	3283.14
589.09	3270.99
589.44	3257.69
589.79	3245.63
590.14	3234.34
590.49	3222.32
590.84	3209.19
591.19	3196.95
591.54	3184.15
591.89	3169.30
592.25	3155.28
592.60	3141.77
592.95	3127.62
593.30	3112.79
593.65	3098.15
594.00	3084.31
594.35	3072.21
594.70	3058.55
595.05	3045.41
595.40	3032.06
595.75	3017.99
596.10	3005.61
596.45	2992.99
596.80	2980.96
597.15	2968.86
597.50	2955.41
597.85	2942.66
598.19	2929.57
598.54	2916.81
598.89	2905.06
599.24	2895.15
599.59	2883.84
599.94	2873.26
600.29	2862.33
600.64	2851.82
600.99	2839.64
601.34	2828.44
601.69	2815.17
602.04	2802.77
602.39	2790.79
602.74	2779.06
603.08	2768.80
603.43	2758.39
603.78	2746.57
604.13	2735.14
604.48	2723.32
604.83	2713.74
605.18	2703.88
605.53	2692.80
605.87	2680.99
606.22	2669.87
606.57	2657.63
606.92	2645.84
607.27	2633.68
607.62	2621.53
607.96	2610.66
608.31	2601.30
608.66	2589.12
609.01	2577.65
609.36	2565.76
609.70	2553.16
610.05	2540.76
610.40	2528.18
610.75	2515.16
611.10	2503.79
611.44	2489.57
611.79	2476.04
612.14	2461.63
612.49	2446.62
612.83	2433.71
613.18	2419.82
613.53	2406.08
613.88	2391.84
614.22	2379.07
614.57	2365.55
614.92	2352.16
615.27	2337.96
615.61	2323.75
615.96	2311.14
616.31	2298.80
616.65	2287.20
617.00	2275.18
617.35	2262.53
617.70	2249.42
618.04	2235.74
618.39	2221.00
618.74	2208.71
619.08	2195.60
619.43	2182.74
619.78	2170.75
620.12	2157.79
620.47	2145.77
620.82	2132.70
621.16	2119.86
621.51	2106.71
621.85	2094.30
622.20	2081.52
622.55	2068.88
622.89	2055.70
623.24	2042.75
623.59	2029.38
623.93	2015.95
624.28	2003.53
624.62	1991.35
624.97	1978.94
625.32	1967.19
625.66	1956.08
626.01	1944.61
626.35	1933.54
626.70	1922.01
627.04	1910.59
627.39	1899.42
627.73	1887.93
628.08	1876.99
628.43	1865.76
628.77	1854.07
629.12	1842.06
629.46	1832.05
629.81	1821.11
630.15	1810.09
630.50	1798.92
630.84	1787.35
631.19	1776.23
631.53	1764.90
631.88	1753.05
632.22	1741.78
632.57	1731.03
632.91	1719.78
633.26	1708.40
633.60	1697.14
633.95	1686.65
634.29	1675.50
634.64	1664.69
634.98	1653.28
635.32	1642.45
635.67	1632.49
636.01	1622.48
636.36	1612.08
636.70	1601.40
637.05	1591.00
637.39	1581.17
637.73	1571.47
638.08	1562.56
638.42	1553.39
638.77	1543.65
639.11	1533.93
639.45	1523.88
639.80	1513.51
640.14	1503.23
640.49	1493.36
640.83	1483.35
641.17	1472.96
641.52	1462.76
641.86	1452.29
642.20	1442.52
642.55	1431.77
642.89	1421.03
643.23	1410.49
643.58	1400.93
643.92	1389.94
644.26	1379.87
644.61	1369.69
644.95	1359.27
645.29	1349.11
645.64	1338.46
645.98	1328.27
646.32	1318.79
646.66	1309.04
647.01	1299.50
647.35	1290.10
647.69	1280.05
648.04	1270.28
648.38	1260.56
648.72	1250.93
649.06	1241.35
649.41	1231.64
649.75	1222.59
650.09	1213.39
650.43	1204.00
650.78	1194.17
651.12	1184.90
651.46	1175.35
651.80	1166.24
652.14	1157.20
652.49	1147.54
652.83	1137.92
653.17	1128.23
653.51	1118.85
653.85	1109.81
654.20	1100.48
654.54	1091.18
654.88	1082.40
655.22	1073.30
655.56	1064.16
655.90	1055.19
656.25	1046.20
656.59	1037.35
656.93	1028.65
657.27	1020.29
657.61	1011.50
657.95	1002.95
658.29	994.68
658.64	986.75
658.98	978.27
659.32	969.55
659.66	961.42
660.00	953.36
660.34	945.36
660.68	936.93
661.02	928.58
661.36	921.07
661.70	913.27
662.05	905.66
662.39	898.35
662.73	891.21
663.07	884.05
663.41	876.93
663.75	869.79
664.09	862.43
664.43	854.85
664.77	847.91
665.11	840.90
665.45	834.01
665.79	827.06
666.13	820.18
666.47	813.44
666.81	806.74
667.15	800.09
667.49	793.99
667.83	787.87
668.17	781.67
668.51	775.39
668.85	769.47
669.19	763.67
669.53	757.64
669.87	751.60
670.21	745.66
670.55	739.63
670.89	734.39
671.23	729.26
671.57	723.80
671.91	718.22
672.25	712.68
672.58	707.07
672.92	701.63
673.26	696.70
673.60	691.64
673.94	686.50
674.28	681.53
674.62	676.51
674.96	671.44
675.30	666.72
675.64	661.76
675.97	656.69
676.31	651.95
676.65	647.22
676.99	642.83
677.33	637.96
677.67	633.41
678.01	628.43
678.34	623.69
678.68	619.17
679.02	614.64
679.36	610.44
679.70	606.16
680.04	601.67
680.37	596.99
680.71	592.59
681.05	588.65
681.39	584.52
681.73	580.25
682.06	576.41
682.40	572.43
682.74	568.35
683.08	564.39
683.42	560.07
683.75	556.02
684.09	551.71
684.43	547.80
684.77	543.80
685.10	539.91
685.44	535.84
685.78	531.96
686.12	528.51
686.45	524.78
686.79	521.15
687.13	517.75
687.46	514.38
687.80	511.08
688.14	507.28
688.48	503.88
688.81	500.40
689.15	496.90
689.49	493.30
689.82	489.87
690.16	486.16
690.50	482.74
690.83	479.44
691.17	476.01
691.51	472.68
691.84	469.64
692.18	466.49
692.52	463.45
692.85	460.71
693.19	457.67
693.52	454.68
693.86	451.65
694.20	448.68
694.53	445.78
694.87	442.66
695.21	439.72
695.54	436.72
695.88	433.69
696.21	430.69
696.55	428.10
696.88	425.38
697.22	422.85
697.56	420.36
697.89	417.62
698.23	415.12
698.56	412.67
698.90	410.23
699.23	407.67
699.57	405.27
699.90	402.58
700.24	400.06
700.58	397.56
700.91	395.23
701.25	392.95
701.58	390.54
701.92	388.37
702.25	386.15
702.59	383.85
702.92	381.77
703.26	379.73
703.59	377.52
703.93	375.76
704.26	373.88
704.60	371.86
704.93	369.94
705.26	367.87
705.60	366.04
705.93	363.94
706.27	362.24
706.60	360.46
706.94	358.79
707.27	356.82
707.61	354.90
707.94	353.09
708.27	351.15
708.61	349.30
708.94	347.60
709.28	345.84
709.61	344.29
709.94	342.71
710.28	341.12
710.61	339.54
710.95	337.58
711.28	336.16
711.61	334.57
711.95	333.22
712.28	331.79
712.61	330.23
712.95	328.96
713.28	327.52
713.61	326.04
713.95	324.59
714.28	323.42
714.61	322.20
714.95	320.85
715.28	319.50
715.61	318.22
715.95	316.89
716.28	315.70
716.61	314.33
716.95	312.97
717.28	311.64
717.61	310.45
717.94	309.35
718.28	307.88
718.61	306.66
718.94	305.38
719.27	304.29
719.61	303.23
719.94	302.05
720.27	300.83
720.60	299.62
720.94	298.50
721.27	297.35
721.60	296.34
721.93	295.40
722.27	294.50
722.60	293.55
722.93	292.57
723.26	291.68
723.59	290.80
723.93	289.89
724.26	288.98
724.59	288.10
724.92	287.31
725.25	286.55
725.59	285.74
725.92	284.97
726.25	284.07
726.58	283.22
726.91	282.39
727.24	281.61
727.57	280.88
727.91	280.02
728.24	279.35
728.57	278.51
728.90	277.81
729.23	276.97
729.56	276.42
729.89	275.67
730.22	274.84
730.55	274.02
730.89	273.32
731.22	272.62
731.55	271.85
731.88	271.12
732.21	270.36
732.54	269.60
732.87	268.88
733.20	268.20
733.53	267.55
733.86	266.91
734.19	266.29
734.52	265.72
734.85	265.47
735.18	264.70
735.51	264.20
735.84	263.62
736.17	263.25
736.50	262.45
736.83	262.34
737.16	261.82
737.49	261.37
737.82	260.80
738.15	260.42
738.48	259.93
738.81	259.32
739.14	258.74
739.47	258.23
739.80	257.68
740.13	257.23
740.46	256.69
740.79	256.12
741.12	255.52
741.45	254.96
741.78	254.23
742.11	253.82
742.44	253.25
742.77	252.74
743.10	252.07
743.43	251.57
743.75	250.69
744.08	250.67
744.41	250.15
744.74	249.76
745.07	249.20
745.40	248.76
745.73	248.49
746.06	248.19
746.39	247.77
746.71	247.27
747.04	246.78
747.37	246.31
747.70	245.93
748.03	245.64
748.36	245.28
748.68	244.89
749.01	244.51
749.34	244.12
749.67	243.73
750.00	243.46
750.33	243.40
750.65	243.07
750.98	242.21
751.31	241.84
751.64	241.45
751.97	241.30
752.29	240.91
752.62	240.38
752.95	239.96
753.28	239.60
753.60	239.32
753.93	239.13
754.26	238.87
754.59	238.47
754.91	238.03
755.24	237.72
755.57	237.31
755.90	236.96
756.22	236.73
756.55	236.36
756.88	235.96
757.20	235.39
757.53	234.96
757.86	234.66
758.19	234.39
758.51	234.07
758.84	233.55
759.17	233.20
759.49	232.98
759.82	232.86
760.15	232.63
760.47	232.41
760.80	232.02
761.13	231.74
761.45	231.50
761.78	231.33
762.11	231.05
762.43	230.81
762.76	230.55
763.08	230.27
763.41	230.10
763.74	229.84
764.06	229.62
764.39	229.47
764.71	229.24
765.04	229.02
765.37	228.86
765.69	228.65
766.02	228.49
766.34	228.23
766.67	227.91
767.00	227.81
767.32	227.80
767.65	227.84
767.97	227.70
768.30	227.56
768.62	227.30
768.95	227.14
769.27	226.94
769.60	226.90
769.92	226.66
770.25	226.40
770.57	226.19
770.90	226.04
771.22	225.79
771.55	225.64
771.87	225.48
772.20	225.26
772.52	225.42
772.85	225.72
773.17	225.55
773.50	225.38
773.82	225.16
774.15	224.84
774.47	224.47
774.80	224.25
775.12	224.09
775.45	223.94
775.77	223.73
776.09	223.69
776.42	223.41
776.74	223.42
777.07	223.31
777.39	223.24
777.72	223.05
778.04	223.00
778.36	222.88
778.69	222.85
779.01	222.77
779.33	222.39
779.66	221.80
779.98	221.75
780.31	221.57
780.63	221.58
780.95	221.49
781.28	221.38
781.60	221.27
781.92	221.20
782.25	221.15
782.57	221.12
782.89	220.99
783.22	220.90
783.54	220.70
783.86	220.65
784.19	220.53
784.51	220.57
784.83	220.45
785.16	220.32
