SpectraSuite Data File
++++++++++++++++++++++++++++++++++++
Date: Mon Feb 25 17:01:19 EST 2013
User: group
Dark Spectrum Present: No
Reference Spectrum Present: No
Number of Sampled Component Spectra: 1
Spectrometers: USB2E7196
Integration Time (usec): 104000 (USB2E7196)
Spectra Averaged: 20 (USB2E7196)
Boxcar Smoothing: 10 (USB2E7196)
Correct for Electrical Dark: No (USB2E7196)
Strobe/Lamp Enabled: No (USB2E7196)
Correct for Detector Non-linearity: No (USB2E7196)
Correct for Stray Light: No (USB2E7196)
Number of Pixels in Processed Spectrum: 2048
>>>>>Begin Processed Spectral Data<<<<<
339.09	0.00
339.48	197.50
339.86	200.20
340.24	201.20
340.63	202.00
341.01	209.10
341.39	204.80
341.78	205.70
342.16	209.30
342.54	207.75
342.93	197.78
343.31	207.78
343.69	208.29
344.07	208.75
344.46	209.27
344.84	209.68
345.22	209.70
345.60	210.06
345.99	210.32
346.37	210.37
346.75	210.53
347.13	210.57
347.52	210.65
347.90	210.81
348.28	210.77
348.66	210.89
349.05	210.84
349.43	210.97
349.81	211.05
350.19	211.14
350.57	211.23
350.96	211.35
351.34	211.45
351.72	211.67
352.10	211.73
352.48	211.71
352.87	211.72
353.25	211.87
353.63	211.76
354.01	211.82
354.39	211.92
354.77	211.97
355.15	212.20
355.54	212.16
355.92	212.15
356.30	212.31
356.68	212.62
357.06	212.63
357.44	212.61
357.82	212.70
358.20	212.81
358.58	212.86
358.97	212.87
359.35	213.04
359.73	213.15
360.11	213.24
360.49	213.27
360.87	213.33
361.25	213.33
361.63	213.57
362.01	213.67
362.39	213.75
362.77	213.80
363.15	213.77
363.53	213.86
363.91	213.87
364.29	213.80
364.67	213.47
365.05	213.51
365.43	213.51
365.81	213.55
366.19	213.67
366.57	213.80
366.95	213.80
367.33	213.61
367.71	213.56
368.09	213.58
368.47	213.65
368.85	213.67
369.23	213.72
369.61	213.61
369.99	213.66
370.37	213.55
370.75	213.75
371.13	213.53
371.51	213.37
371.89	213.38
372.27	213.37
372.65	213.35
373.03	213.33
373.41	213.27
373.78	213.17
374.16	212.95
374.54	212.77
374.92	212.64
375.30	212.63
375.68	212.45
376.06	212.41
376.44	212.25
376.82	212.11
377.19	212.07
377.57	211.93
377.95	211.70
378.33	211.64
378.71	211.34
379.09	211.41
379.47	211.46
379.84	211.35
380.22	211.28
380.60	211.20
380.98	211.09
381.36	211.02
381.73	210.90
382.11	210.97
382.49	210.98
382.87	210.95
383.25	210.84
383.62	211.25
384.00	211.09
384.38	211.10
384.76	211.23
385.13	211.26
385.51	211.25
385.89	211.24
386.27	211.29
386.64	211.25
387.02	211.27
387.40	211.19
387.78	211.17
388.15	211.18
388.53	211.12
388.91	211.09
389.29	211.07
389.66	211.12
390.04	211.05
390.42	211.01
390.79	211.06
391.17	211.08
391.55	210.73
391.92	210.72
392.30	210.73
392.68	210.66
393.05	210.60
393.43	210.56
393.81	210.56
394.18	210.43
394.56	210.46
394.94	210.48
395.31	210.41
395.69	210.48
396.06	210.49
396.44	210.55
396.82	210.55
397.19	210.76
397.57	210.82
397.95	210.91
398.32	210.94
398.70	210.97
399.07	211.08
399.45	211.05
399.82	211.11
400.20	211.13
400.58	211.15
400.95	211.10
401.33	211.31
401.70	211.60
402.08	211.66
402.45	211.68
402.83	211.83
403.20	211.91
403.58	211.98
403.95	212.14
404.33	212.26
404.71	212.40
405.08	212.60
405.46	212.73
405.83	212.81
406.21	212.93
406.58	213.13
406.96	213.30
407.33	213.50
407.70	213.75
408.08	214.22
408.45	214.57
408.83	214.97
409.20	215.22
409.58	215.37
409.95	215.87
410.33	216.32
410.70	216.58
411.08	217.16
411.45	217.71
411.82	218.12
412.20	218.73
412.57	219.54
412.95	219.95
413.32	220.68
413.69	221.41
414.07	222.22
414.44	223.10
414.82	224.02
415.19	225.13
415.56	226.19
415.94	227.18
416.31	228.40
416.68	229.69
417.06	231.14
417.43	232.66
417.81	234.30
418.18	236.02
418.55	237.90
418.93	239.80
419.30	241.68
419.67	243.80
420.04	245.93
420.42	248.18
420.79	250.95
421.16	253.50
421.54	256.28
421.91	259.05
422.28	261.91
422.66	265.01
423.03	268.13
423.40	271.31
423.77	274.68
424.15	278.20
424.52	281.88
424.89	285.84
425.26	289.59
425.64	293.27
426.01	297.21
426.38	301.35
426.75	305.55
427.13	309.89
427.50	314.57
427.87	319.41
428.24	324.15
428.61	328.74
428.99	333.93
429.36	339.32
429.73	344.80
430.10	350.30
430.47	355.95
430.85	361.63
431.22	367.80
431.59	374.51
431.96	380.68
432.33	387.48
432.70	394.28
433.08	402.20
433.45	409.74
433.82	417.20
434.19	425.68
434.56	433.99
434.93	442.00
435.30	450.06
435.68	458.89
436.05	467.75
436.42	476.50
436.79	484.60
437.16	493.52
437.53	502.69
437.90	511.80
438.27	520.73
438.64	530.22
439.01	539.08
439.38	546.74
439.75	554.42
440.13	563.09
440.50	571.20
440.87	577.97
441.24	585.11
441.61	592.85
441.98	598.60
442.35	605.44
442.72	612.28
443.09	618.78
443.46	623.12
443.83	626.14
444.20	628.89
444.57	632.65
444.94	634.62
445.31	636.87
445.68	639.12
446.05	640.43
446.42	639.96
446.79	639.61
447.16	639.06
447.53	638.92
447.90	636.22
448.27	633.60
448.64	629.69
449.01	626.75
449.37	621.53
449.74	616.52
450.11	610.25
450.48	603.29
450.85	596.16
451.22	589.98
451.59	584.28
451.96	578.66
452.33	570.91
452.70	564.11
453.07	555.74
453.43	547.20
453.80	539.20
454.17	531.70
454.54	524.25
454.91	516.38
455.28	508.50
455.65	501.32
456.02	494.23
456.38	488.05
456.75	480.36
457.12	473.89
457.49	467.28
457.86	460.94
458.23	455.75
458.59	449.99
458.96	444.11
459.33	438.77
459.70	433.50
460.07	429.41
460.43	424.56
460.80	420.02
461.17	416.07
461.54	411.69
461.91	407.59
462.27	403.49
462.64	400.01
463.01	396.18
463.38	392.48
463.74	388.49
464.11	385.09
464.48	382.23
464.85	379.10
465.21	376.76
465.58	374.21
465.95	371.04
466.32	368.38
466.68	365.80
467.05	363.18
467.42	360.55
467.78	357.80
468.15	355.25
468.52	353.45
468.88	350.83
469.25	348.72
469.62	346.97
469.98	345.00
470.35	343.23
470.72	341.51
471.08	339.58
471.45	338.14
471.82	336.68
472.18	334.85
472.55	333.54
472.92	332.04
473.28	330.70
473.65	329.36
474.02	328.15
474.38	327.17
474.75	326.26
475.11	325.24
475.48	324.42
475.85	323.67
476.21	322.79
476.58	322.14
476.94	321.62
477.31	320.88
477.67	320.35
478.04	319.78
478.41	319.52
478.77	319.51
479.14	319.09
479.50	318.75
479.87	318.72
480.23	318.53
480.60	318.32
480.96	318.19
481.33	318.41
481.69	318.46
482.06	318.44
482.42	318.52
482.79	318.71
483.15	318.91
483.52	319.37
483.88	319.67
484.25	320.01
484.61	320.32
484.98	320.74
485.34	321.35
485.71	322.06
486.07	322.62
486.44	323.01
486.80	323.68
487.17	324.51
487.53	325.31
487.90	326.33
488.26	327.50
488.62	328.65
488.99	329.62
489.35	330.70
489.72	331.86
490.08	333.17
490.44	334.40
490.81	335.76
491.17	337.01
491.54	338.59
491.90	340.12
492.26	341.74
492.63	343.41
492.99	344.97
493.36	346.70
493.72	348.50
494.08	350.40
494.45	352.40
494.81	354.42
495.17	356.37
495.54	358.45
495.90	360.43
496.26	362.44
496.63	364.52
496.99	366.62
497.35	368.80
497.72	370.99
498.08	373.18
498.44	375.43
498.80	377.87
499.17	380.18
499.53	382.55
499.89	384.98
500.26	387.24
500.62	389.50
500.98	391.86
501.34	394.20
501.71	396.55
502.07	398.79
502.43	400.88
502.79	403.06
503.16	405.23
503.52	407.41
503.88	409.44
504.24	411.61
504.60	413.77
504.97	415.93
505.33	417.82
505.69	420.07
506.05	422.19
506.41	423.82
506.78	425.41
507.14	426.91
507.50	428.48
507.86	430.19
508.22	431.82
508.59	433.13
508.95	434.66
509.31	436.16
509.67	437.41
510.03	438.91
510.39	440.23
510.75	441.37
511.12	442.47
511.48	443.60
511.84	444.58
512.20	445.47
512.56	446.27
512.92	447.31
513.28	447.91
513.64	448.50
514.00	449.34
514.37	450.20
514.73	451.03
515.09	451.62
515.45	452.09
515.81	452.55
516.17	453.07
516.53	453.23
516.89	453.37
517.25	453.58
517.61	453.67
517.97	453.80
518.33	453.97
518.69	453.99
519.05	454.23
519.41	454.28
519.77	454.56
520.13	454.50
520.49	454.34
520.85	454.41
521.21	454.52
521.57	454.52
521.93	454.14
522.29	454.11
522.65	453.94
523.01	454.06
523.37	453.90
523.73	453.90
524.09	453.97
524.45	453.85
524.81	454.03
525.17	454.12
525.53	454.35
525.89	454.45
526.25	454.73
526.61	454.67
526.97	454.87
527.33	454.86
527.68	455.52
528.04	455.92
528.40	456.06
528.76	456.28
529.12	456.69
529.48	457.60
529.84	458.11
530.20	458.85
530.56	459.53
530.91	460.35
531.27	461.16
531.63	462.03
531.99	463.08
532.35	463.97
532.71	464.95
533.07	466.05
533.42	467.52
533.78	468.69
534.14	470.07
534.50	471.29
534.86	472.78
535.21	473.75
535.57	475.22
535.93	476.67
536.29	478.43
536.65	480.07
537.00	481.46
537.36	483.03
537.72	484.65
538.08	486.35
538.44	488.08
538.79	489.87
539.15	491.72
539.51	493.63
539.87	495.55
540.22	497.50
540.58	499.55
540.94	501.40
541.29	503.37
541.65	505.23
542.01	507.42
542.37	509.56
542.72	511.90
543.08	514.03
543.44	516.67
543.79	518.79
544.15	521.17
544.51	523.88
544.87	526.48
545.22	529.06
545.58	531.61
545.94	534.32
546.29	536.88
546.65	539.33
547.01	541.84
547.36	544.50
547.72	547.19
548.07	549.91
548.43	552.25
548.79	554.80
549.14	557.54
549.50	560.35
549.86	562.92
550.21	565.65
550.57	568.47
550.92	570.80
551.28	573.59
551.64	576.13
551.99	578.65
552.35	581.15
552.70	583.65
553.06	586.24
553.41	588.80
553.77	591.65
554.13	594.48
554.48	597.33
554.84	600.04
555.19	602.72
555.55	605.32
555.90	607.97
556.26	610.63
556.61	613.12
556.97	615.40
557.32	618.02
557.68	620.29
558.03	622.58
558.39	625.15
558.74	627.55
559.10	630.06
559.45	632.39
559.81	635.04
560.16	637.38
560.52	639.71
560.87	641.93
561.23	643.83
561.58	646.23
561.94	648.30
562.29	650.37
562.64	652.47
563.00	654.42
563.35	656.70
563.71	658.92
564.06	661.30
564.42	663.65
564.77	665.94
565.12	668.37
565.48	670.91
565.83	673.21
566.19	675.35
566.54	677.22
566.89	679.24
567.25	681.23
567.60	683.46
567.96	685.67
568.31	687.98
568.66	690.11
569.02	691.60
569.37	693.09
569.72	694.72
570.08	696.34
570.43	697.90
570.78	699.19
571.14	700.43
571.49	701.39
571.84	702.45
572.20	703.34
572.55	704.32
572.90	704.79
573.26	705.33
573.61	705.88
573.96	706.74
574.31	707.13
574.67	707.46
575.02	707.59
575.37	707.52
575.72	707.25
576.08	707.33
576.43	707.43
576.78	707.65
577.13	707.88
577.49	707.88
577.84	707.85
578.19	708.11
578.54	708.44
578.90	708.84
579.25	709.00
579.60	708.83
579.95	708.39
580.30	708.35
580.66	708.34
581.01	708.25
581.36	707.94
581.71	707.79
582.06	707.81
582.42	707.79
582.77	707.54
583.12	707.45
583.47	707.27
583.82	707.12
584.17	706.99
584.53	706.73
584.88	706.41
585.23	706.13
585.58	705.74
585.93	705.11
586.28	704.53
586.63	703.98
586.98	703.74
587.34	703.66
587.69	703.09
588.04	702.79
588.39	702.24
588.74	701.57
589.09	701.29
589.44	700.25
589.79	699.41
590.14	698.86
590.49	698.05
590.84	697.12
591.19	696.62
591.54	695.87
591.89	694.70
592.25	694.01
592.60	692.99
592.95	691.71
593.30	690.70
593.65	689.45
594.00	688.23
594.35	687.89
594.70	686.41
595.05	685.35
595.40	683.94
595.75	682.55
596.10	681.54
596.45	680.07
596.80	679.30
597.15	678.14
597.50	676.73
597.85	675.76
598.19	674.55
598.54	673.14
598.89	671.85
599.24	670.93
599.59	669.54
599.94	668.44
600.29	667.32
600.64	666.03
600.99	664.82
601.34	663.69
601.69	661.56
602.04	660.29
602.39	658.98
602.74	657.84
603.08	656.91
603.43	655.86
603.78	654.63
604.13	653.18
604.48	652.08
604.83	651.13
605.18	649.89
605.53	648.65
605.87	647.25
606.22	646.10
606.57	644.77
606.92	643.28
607.27	641.85
607.62	640.55
607.96	639.25
608.31	638.15
608.66	636.81
609.01	635.29
609.36	633.96
609.70	632.51
610.05	630.71
610.40	629.14
610.75	627.30
611.10	625.92
611.44	623.96
611.79	622.00
612.14	620.14
612.49	618.05
612.83	616.31
613.18	614.46
613.53	612.53
613.88	610.54
614.22	608.76
614.57	606.75
614.92	605.09
615.27	603.17
615.61	601.22
615.96	599.33
616.31	597.77
616.65	596.12
617.00	594.26
617.35	592.55
617.70	590.54
618.04	588.47
618.39	586.28
618.74	584.58
619.08	582.77
619.43	580.87
619.78	579.20
620.12	577.43
620.47	575.67
620.82	573.44
621.16	571.36
621.51	569.66
621.85	567.90
622.20	565.68
622.55	563.66
622.89	561.59
623.24	559.64
623.59	557.46
623.93	555.46
624.28	553.70
624.62	552.06
624.97	550.19
625.32	548.40
625.66	546.64
626.01	544.78
626.35	543.00
626.70	541.05
627.04	539.29
627.39	537.25
627.73	535.40
628.08	533.87
628.43	532.16
628.77	530.24
629.12	528.24
629.46	526.60
629.81	524.84
630.15	523.11
630.50	521.06
630.84	519.14
631.19	517.15
631.53	515.16
631.88	513.02
632.22	511.10
632.57	509.51
632.91	507.63
633.26	505.97
633.60	504.06
633.95	502.25
634.29	500.31
634.64	498.58
634.98	496.59
635.32	494.81
635.67	493.23
636.01	491.39
636.36	489.66
636.70	488.08
637.05	486.35
637.39	484.58
637.73	483.08
638.08	481.59
638.42	480.02
638.77	478.46
639.11	476.82
639.45	475.11
639.80	473.19
640.14	471.49
640.49	469.67
640.83	467.96
641.17	466.33
641.52	464.59
641.86	462.81
642.20	461.27
642.55	459.30
642.89	457.30
643.23	455.55
643.58	454.13
643.92	452.08
644.26	450.35
644.61	448.65
644.95	446.81
645.29	445.02
645.64	443.22
645.98	441.42
646.32	439.67
646.66	437.86
647.01	436.09
647.35	434.41
647.69	432.59
648.04	430.89
648.38	429.23
648.72	427.57
649.06	425.86
649.41	424.15
649.75	422.52
650.09	421.10
650.43	419.45
650.78	417.46
651.12	415.77
651.46	414.09
651.80	412.51
652.14	410.89
652.49	409.26
652.83	407.72
653.17	406.05
653.51	404.37
653.85	402.99
654.20	401.57
654.54	399.89
654.88	398.31
655.22	396.83
655.56	395.15
655.90	393.44
656.25	391.83
656.59	390.31
656.93	388.84
657.27	387.32
657.61	385.64
657.95	384.27
658.29	382.70
658.64	381.26
658.98	379.65
659.32	378.04
659.66	376.47
660.00	374.88
660.34	373.33
660.68	371.79
661.02	370.15
661.36	368.49
661.70	367.12
662.05	365.73
662.39	364.43
662.73	363.23
663.07	362.10
663.41	360.86
663.75	359.36
664.09	357.95
664.43	356.42
664.77	355.26
665.11	353.81
665.45	352.63
665.79	351.50
666.13	350.19
666.47	349.03
666.81	347.83
667.15	346.53
667.49	345.30
667.83	344.32
668.17	343.14
668.51	342.07
668.85	341.01
669.19	340.00
669.53	338.60
669.87	337.19
670.21	335.95
670.55	334.80
670.89	333.97
671.23	332.89
671.57	331.85
671.91	330.82
672.25	329.83
672.58	328.91
672.92	327.60
673.26	326.59
673.60	325.59
673.94	324.52
674.28	323.58
674.62	322.64
674.96	321.64
675.30	320.69
675.64	319.66
675.97	318.62
676.31	317.63
676.65	316.77
676.99	316.09
677.33	315.01
677.67	314.08
678.01	312.98
678.34	312.19
678.68	311.31
679.02	310.23
679.36	309.37
679.70	308.31
680.04	307.47
680.37	306.60
680.71	305.70
681.05	304.92
681.39	303.99
681.73	303.17
682.06	302.34
682.40	301.61
682.74	300.79
683.08	300.07
683.42	299.08
683.75	298.39
684.09	297.39
684.43	296.68
684.77	295.82
685.10	294.98
685.44	293.98
685.78	293.13
686.12	292.45
686.45	291.59
686.79	290.89
687.13	290.26
687.46	289.52
687.80	288.86
688.14	288.18
688.48	287.55
688.81	286.80
689.15	286.11
689.49	285.31
689.82	284.55
690.16	283.57
690.50	282.95
690.83	282.10
691.17	281.36
691.51	280.55
691.84	279.83
692.18	279.19
692.52	278.57
692.85	277.99
693.19	277.34
693.52	276.80
693.86	275.99
694.20	275.25
694.53	274.53
694.87	273.74
695.21	272.96
695.54	272.32
695.88	271.61
696.21	270.87
696.55	270.30
696.88	269.73
697.22	269.22
697.56	268.61
697.89	267.97
698.23	267.40
698.56	266.88
698.90	266.33
699.23	265.62
699.57	265.15
699.90	264.47
700.24	263.86
700.58	263.21
700.91	262.77
701.25	262.53
701.58	262.09
701.92	261.73
702.25	261.20
702.59	260.54
702.92	260.07
703.26	259.53
703.59	259.06
703.93	258.79
704.26	258.32
704.60	257.83
704.93	257.30
705.26	256.82
705.60	256.43
705.93	255.93
706.27	255.58
706.60	255.18
706.94	254.97
707.27	254.44
707.61	254.07
707.94	253.61
708.27	252.92
708.61	252.50
708.94	252.01
709.28	251.65
709.61	251.26
709.94	250.82
710.28	250.43
710.61	250.01
710.95	249.29
711.28	249.12
711.61	248.78
711.95	248.53
712.28	248.11
712.61	247.61
712.95	247.44
713.28	247.28
713.61	246.79
713.95	246.28
714.28	246.05
714.61	245.65
714.95	245.20
715.28	244.81
715.61	244.38
715.95	243.97
716.28	243.52
716.61	243.19
716.95	242.81
717.28	242.44
717.61	242.02
717.94	241.82
718.28	241.23
718.61	240.84
718.94	240.54
719.27	240.32
719.61	240.07
719.94	239.64
720.27	239.11
720.60	238.81
720.94	238.53
721.27	238.15
721.60	237.91
721.93	237.67
722.27	237.48
722.60	237.31
722.93	237.02
723.26	236.87
723.59	236.63
723.93	236.49
724.26	236.30
724.59	236.07
724.92	235.80
725.25	235.74
725.59	235.48
725.92	235.24
726.25	234.96
726.58	234.71
726.91	234.50
727.24	234.33
727.57	234.10
727.91	233.76
728.24	233.65
728.57	233.37
728.90	233.25
729.23	232.95
729.56	232.77
729.89	232.64
730.22	232.42
730.55	232.13
730.89	231.91
731.22	231.75
731.55	231.56
731.88	231.43
732.21	231.08
732.54	230.88
732.87	230.62
733.20	230.43
733.53	230.27
733.86	230.12
734.19	229.92
734.52	229.78
734.85	229.91
735.18	229.62
735.51	229.50
735.84	229.27
736.17	229.18
736.50	228.88
736.83	229.05
737.16	228.88
737.49	228.79
737.82	228.53
738.15	228.37
738.48	228.19
738.81	227.90
739.14	227.67
739.47	227.49
739.80	227.34
740.13	227.13
740.46	226.91
740.79	226.69
741.12	226.50
741.45	226.33
741.78	225.89
742.11	225.86
742.44	225.69
742.77	225.63
743.10	225.45
743.43	225.28
743.75	224.80
744.08	225.10
744.41	224.90
744.74	224.80
745.07	224.62
745.40	224.55
745.73	224.59
746.06	224.51
746.39	224.44
746.71	224.29
747.04	224.19
747.37	224.10
747.70	224.13
748.03	224.00
748.36	223.93
748.68	223.84
749.01	223.58
749.34	223.48
749.67	223.31
750.00	223.23
750.33	223.43
750.65	223.34
750.98	222.75
751.31	222.65
751.64	222.57
751.97	222.70
752.29	222.56
752.62	222.32
752.95	222.14
753.28	222.00
753.60	221.88
753.93	221.87
754.26	221.83
754.59	221.56
754.91	221.43
755.24	221.32
755.57	221.22
755.90	221.14
756.22	221.08
756.55	220.98
756.88	220.79
757.20	220.42
757.53	220.21
757.86	220.10
758.19	220.05
758.51	219.92
758.84	219.56
759.17	219.39
759.49	219.30
759.82	219.41
760.15	219.35
760.47	219.19
760.80	218.99
761.13	218.90
761.45	218.82
761.78	218.72
762.11	218.57
762.43	218.46
762.76	218.37
763.08	218.25
763.41	218.14
763.74	218.13
764.06	218.07
764.39	217.97
764.71	217.84
765.04	217.71
765.37	217.65
765.69	217.57
766.02	217.51
766.34	217.42
766.67	217.18
767.00	217.20
767.32	217.33
767.65	217.45
767.97	217.33
768.30	217.21
768.62	217.21
768.95	217.13
769.27	217.10
769.60	217.12
769.92	217.00
770.25	216.96
770.57	216.85
770.90	216.76
771.22	216.73
771.55	216.78
771.87	216.80
772.20	216.72
772.52	217.03
772.85	217.42
773.17	217.42
773.50	217.40
773.82	217.29
774.15	217.10
774.47	216.86
774.80	216.77
775.12	216.71
775.45	216.66
775.77	216.67
776.09	216.64
776.42	216.55
776.74	216.61
777.07	216.47
777.39	216.35
777.72	216.27
778.04	216.20
778.36	216.07
778.69	215.99
779.01	215.95
779.33	215.57
779.66	215.09
779.98	215.00
780.31	214.92
780.63	214.98
780.95	215.02
781.28	214.94
781.60	214.86
781.92	214.80
782.25	214.70
782.57	214.59
782.89	214.53
783.22	214.46
783.54	214.34
783.86	214.39
784.19	214.40
784.51	214.48
784.83	214.44
785.16	214.38
785.48	214.37
785.80	214.38
786.12	214.36
786.45	214.30
786.77	214.29
787.09	214.25
787.42	214.09
787.74	214.11
788.06	214.12
788.38	214.14
788.71	214.15
789.03	214.17
789.35	214.25
789.67	214.08
789.99	214.10
790.32	214.02
790.64	214.06
790.96	214.40
791.28	214.22
791.61	214.17
791.93	214.21
792.25	214.15
792.57	214.30
792.89	214.23
793.21	214.23
793.54	214.20
793.86	214.15
794.18	214.10
