SpectraSuite Data File
++++++++++++++++++++++++++++++++++++
Date: Mon Feb 25 17:02:46 EST 2013
User: group
Dark Spectrum Present: No
Reference Spectrum Present: No
Number of Sampled Component Spectra: 1
Spectrometers: USB2E7196
Integration Time (usec): 104000 (USB2E7196)
Spectra Averaged: 20 (USB2E7196)
Boxcar Smoothing: 10 (USB2E7196)
Correct for Electrical Dark: No (USB2E7196)
Strobe/Lamp Enabled: No (USB2E7196)
Correct for Detector Non-linearity: No (USB2E7196)
Correct for Stray Light: No (USB2E7196)
Number of Pixels in Processed Spectrum: 2048
>>>>>Begin Processed Spectral Data<<<<<
339.09	0.00
339.48	199.00
339.86	199.75
340.24	201.30
340.63	203.25
341.01	208.00
341.39	204.75
341.78	205.80
342.16	208.95
342.54	208.05
342.93	197.93
343.31	207.89
343.69	208.37
344.07	208.84
344.46	209.28
344.84	209.65
345.22	209.76
345.60	210.01
345.99	210.27
346.37	210.35
346.75	210.47
347.13	210.49
347.52	210.53
347.90	210.70
348.28	210.75
348.66	210.86
349.05	210.87
349.43	210.94
349.81	211.02
350.19	211.02
350.57	211.02
350.96	211.13
351.34	211.29
351.72	211.43
352.10	211.55
352.48	211.62
352.87	211.65
353.25	211.75
353.63	211.82
354.01	211.87
354.39	211.97
354.77	212.10
355.15	212.30
355.54	212.40
355.92	212.36
356.30	212.45
356.68	212.74
357.06	212.82
357.44	212.80
357.82	212.80
358.20	212.97
358.58	213.12
358.97	213.18
359.35	213.25
359.73	213.35
360.11	213.37
360.49	213.41
360.87	213.42
361.25	213.50
361.63	213.69
362.01	213.74
362.39	213.72
362.77	213.75
363.15	213.78
363.53	213.79
363.91	213.80
364.29	213.82
364.67	213.50
365.05	213.43
365.43	213.52
365.81	213.60
366.19	213.76
366.57	213.79
366.95	213.77
367.33	213.72
367.71	213.68
368.09	213.75
368.47	213.71
368.85	213.73
369.23	213.74
369.61	213.54
369.99	213.60
370.37	213.65
370.75	213.78
371.13	213.66
371.51	213.60
371.89	213.56
372.27	213.52
372.65	213.46
373.03	213.46
373.41	213.32
373.78	213.19
374.16	212.96
374.54	212.83
374.92	212.73
375.30	212.75
375.68	212.65
376.06	212.61
376.44	212.50
376.82	212.40
377.19	212.36
377.57	212.31
377.95	212.14
378.33	211.95
378.71	211.64
379.09	211.62
379.47	211.57
379.84	211.47
380.22	211.39
380.60	211.31
380.98	211.27
381.36	211.26
381.73	211.06
382.11	210.98
382.49	210.92
382.87	210.81
383.25	210.69
383.62	211.13
384.00	210.96
384.38	210.95
384.76	211.02
385.13	211.03
385.51	210.98
385.89	210.89
386.27	211.01
386.64	211.02
387.02	210.98
387.40	210.86
387.78	210.90
388.15	210.83
388.53	210.78
388.91	210.70
389.29	210.62
389.66	210.78
390.04	210.76
390.42	210.78
390.79	210.76
391.17	210.71
391.55	210.20
391.92	210.25
392.30	210.33
392.68	210.27
393.05	210.30
393.43	210.34
393.81	210.38
394.18	210.25
394.56	210.24
394.94	210.25
395.31	210.30
395.69	210.42
396.06	210.44
396.44	210.47
396.82	210.54
397.19	210.79
397.57	210.67
397.95	210.78
398.32	210.66
398.70	210.77
399.07	210.86
399.45	210.90
399.82	210.88
400.20	210.82
400.58	210.84
400.95	210.64
401.33	210.75
401.70	211.04
402.08	211.10
402.45	211.20
402.83	211.32
403.20	211.40
403.58	211.33
403.95	211.54
404.33	211.67
404.71	211.74
405.08	211.98
405.46	212.20
405.83	212.30
406.21	212.51
406.58	212.67
406.96	212.76
407.33	212.89
407.70	213.13
408.08	213.69
408.45	213.99
408.83	214.37
409.20	214.56
409.58	214.67
409.95	215.05
410.33	215.36
410.70	215.62
411.08	215.99
411.45	216.51
411.82	216.87
412.20	217.44
412.57	218.18
412.95	218.47
413.32	219.09
413.69	219.72
414.07	220.39
414.44	221.09
414.82	221.91
415.19	222.86
415.56	223.75
415.94	224.50
416.31	225.64
416.68	226.73
417.06	227.99
417.43	229.28
417.81	230.59
418.18	231.99
418.55	233.54
418.93	235.15
419.30	236.68
419.67	238.43
420.04	240.15
420.42	241.89
420.79	244.17
421.16	246.37
421.54	248.76
421.91	251.21
422.28	253.61
422.66	256.20
423.03	258.87
423.40	261.47
423.77	264.24
424.15	266.99
424.52	269.95
424.89	273.18
425.26	276.29
425.64	279.33
426.01	282.63
426.38	286.15
426.75	289.71
427.13	293.45
427.50	297.31
427.87	301.37
428.24	305.44
428.61	309.15
428.99	313.53
429.36	318.01
429.73	322.58
430.10	327.34
430.47	332.06
430.85	336.86
431.22	342.14
431.59	347.76
431.96	353.10
432.33	358.84
432.70	364.62
433.08	371.20
433.45	377.57
433.82	383.95
434.19	390.86
434.56	397.73
434.93	404.31
435.30	410.85
435.68	418.03
436.05	425.31
436.42	432.55
436.79	439.17
437.16	446.43
437.53	453.90
437.90	461.37
438.27	468.95
438.64	476.65
439.01	483.90
439.38	490.30
439.75	496.66
440.13	504.04
440.50	510.72
440.87	516.38
441.24	522.35
441.61	528.76
441.98	533.77
442.35	539.48
442.72	545.25
443.09	551.00
443.46	554.70
443.83	557.29
444.20	559.71
444.57	562.60
444.94	564.27
445.31	566.14
445.68	567.94
446.05	568.81
446.42	568.66
446.79	568.25
447.16	567.71
447.53	567.62
447.90	565.26
448.27	563.05
448.64	559.65
449.01	557.30
449.37	552.86
449.74	548.45
450.11	543.32
450.48	537.40
450.85	531.17
451.22	526.04
451.59	521.20
451.96	516.42
452.33	510.27
452.70	504.56
453.07	497.65
453.43	490.47
453.80	483.78
454.17	477.22
454.54	471.10
454.91	464.50
455.28	457.84
455.65	451.70
456.02	445.81
456.38	440.63
456.75	434.02
457.12	428.60
457.49	423.18
457.86	417.82
458.23	413.43
458.59	408.62
458.96	403.65
459.33	399.19
459.70	394.86
460.07	391.38
460.43	387.37
460.80	383.49
461.17	380.21
461.54	376.70
461.91	373.36
462.27	369.92
462.64	367.01
463.01	363.82
463.38	360.98
463.74	357.55
464.11	354.82
464.48	352.49
464.85	349.89
465.21	347.96
465.58	345.78
465.95	343.16
466.32	341.07
466.68	338.96
467.05	336.84
467.42	334.73
467.78	332.47
468.15	330.45
468.52	328.88
468.88	326.82
469.25	324.98
469.62	323.53
469.98	321.92
470.35	320.36
470.72	318.92
471.08	317.07
471.45	315.85
471.82	314.55
472.18	313.03
472.55	311.91
472.92	310.58
473.28	309.39
473.65	308.31
474.02	307.23
474.38	306.38
474.75	305.64
475.11	304.71
475.48	304.01
475.85	303.25
476.21	302.60
476.58	302.04
476.94	301.53
477.31	301.07
477.67	300.61
478.04	300.30
478.41	300.02
478.77	300.16
479.14	299.76
479.50	299.53
479.87	299.50
480.23	299.44
480.60	299.27
480.96	299.18
481.33	299.38
481.69	299.37
482.06	299.34
482.42	299.28
482.79	299.37
483.15	299.47
483.52	299.79
483.88	300.02
484.25	300.19
484.61	300.48
484.98	300.69
485.34	301.09
485.71	301.52
486.07	301.94
486.44	302.07
486.80	302.78
487.17	303.45
487.53	304.15
487.90	304.84
488.26	305.73
488.62	306.62
488.99	307.36
489.35	308.16
489.72	309.07
490.08	310.06
490.44	311.04
490.81	312.15
491.17	313.15
491.54	314.33
491.90	315.52
492.26	316.73
492.63	317.94
492.99	319.20
493.36	320.47
493.72	321.95
494.08	323.35
494.45	324.68
494.81	326.12
495.17	327.63
495.54	329.10
495.90	330.57
496.26	332.08
496.63	333.68
496.99	335.32
497.35	336.95
497.72	338.60
498.08	340.32
498.44	342.00
498.80	343.83
499.17	345.40
499.53	347.14
499.89	349.03
500.26	350.70
500.62	352.37
500.98	354.16
501.34	355.72
501.71	357.54
502.07	359.22
502.43	360.77
502.79	362.22
503.16	363.79
503.52	365.22
503.88	366.62
504.24	367.99
504.60	369.44
504.97	370.93
505.33	372.27
505.69	373.69
506.05	375.03
506.41	376.16
506.78	377.38
507.14	378.47
507.50	379.36
507.86	380.46
508.22	381.44
508.59	382.28
508.95	383.18
509.31	384.09
509.67	384.95
510.03	385.78
510.39	386.54
510.75	387.15
511.12	387.81
511.48	388.45
511.84	388.94
512.20	389.34
512.56	389.78
512.92	390.17
513.28	390.50
513.64	390.68
514.00	390.96
514.37	391.25
514.73	391.40
515.09	391.54
515.45	391.58
515.81	391.61
516.17	391.55
516.53	391.39
516.89	391.18
517.25	390.98
517.61	390.85
517.97	390.65
518.33	390.47
518.69	390.33
519.05	390.10
519.41	390.00
519.77	390.10
520.13	389.87
520.49	389.70
520.85	389.31
521.21	389.27
521.57	389.00
521.93	388.65
522.29	388.65
522.65	388.48
523.01	388.28
523.37	388.10
523.73	388.23
524.09	388.29
524.45	388.19
524.81	388.19
525.17	388.34
525.53	388.49
525.89	388.76
526.25	389.13
526.61	389.29
526.97	389.55
527.33	389.76
527.68	390.33
528.04	390.80
528.40	391.25
528.76	391.67
529.12	392.30
529.48	393.17
529.84	393.76
530.20	394.61
530.56	395.54
530.91	396.46
531.27	397.33
531.63	398.33
531.99	399.45
532.35	400.55
532.71	401.59
533.07	402.87
533.42	404.51
533.78	405.53
534.14	406.94
534.50	408.28
534.86	409.81
535.21	410.99
535.57	412.61
535.93	414.16
536.29	415.87
536.65	417.61
537.00	419.17
537.36	420.83
537.72	422.59
538.08	424.47
538.44	426.28
538.79	428.11
539.15	430.15
539.51	432.06
539.87	434.18
540.22	436.25
540.58	438.34
540.94	440.16
541.29	442.45
541.65	444.64
542.01	447.09
542.37	449.36
542.72	451.84
543.08	454.02
543.44	456.66
543.79	458.92
544.15	461.34
544.51	464.09
544.87	466.72
545.22	469.26
545.58	471.81
545.94	474.51
546.29	477.22
546.65	479.74
547.01	482.47
547.36	485.20
547.72	487.90
548.07	490.54
548.43	493.19
548.79	495.87
549.14	498.48
549.50	501.06
549.86	503.61
550.21	506.34
550.57	509.30
550.92	511.99
551.28	514.71
551.64	517.36
551.99	519.94
552.35	522.54
552.70	525.16
553.06	527.88
553.41	530.59
553.77	533.22
554.13	535.98
554.48	538.78
554.84	541.45
555.19	544.19
555.55	547.21
555.90	549.75
556.26	552.22
556.61	554.88
556.97	557.28
557.32	559.83
557.68	562.17
558.03	564.51
558.39	566.73
558.74	569.33
559.10	571.77
559.45	574.11
559.81	576.68
560.16	578.99
560.52	581.34
560.87	583.60
561.23	585.73
561.58	588.06
561.94	590.21
562.29	592.33
562.64	594.39
563.00	596.24
563.35	598.37
563.71	600.68
564.06	602.83
564.42	605.15
564.77	607.41
565.12	609.55
565.48	611.82
565.83	613.95
566.19	616.07
566.54	617.88
566.89	619.83
567.25	621.79
567.60	624.01
567.96	626.01
568.31	628.08
568.66	630.00
569.02	631.40
569.37	632.84
569.72	634.29
570.08	635.80
570.43	637.13
570.78	638.59
571.14	639.74
571.49	640.80
571.84	641.91
572.20	642.72
572.55	643.71
572.90	644.26
573.26	645.07
573.61	645.41
573.96	646.32
574.31	646.78
574.67	647.19
575.02	647.17
575.37	647.23
575.72	647.29
576.08	647.73
576.43	647.92
576.78	648.11
577.13	648.49
577.49	648.73
577.84	649.08
578.19	649.37
578.54	649.85
578.90	650.26
579.25	650.28
579.60	650.38
579.95	650.30
580.30	650.52
580.66	650.72
581.01	650.90
581.36	650.60
581.71	650.52
582.06	650.53
582.42	650.77
582.77	650.70
583.12	650.70
583.47	650.64
583.82	650.78
584.17	650.85
584.53	650.96
584.88	650.83
585.23	650.60
585.58	650.15
585.93	649.56
586.28	649.33
586.63	649.32
586.98	649.35
587.34	649.42
587.69	649.14
588.04	648.84
588.39	648.54
588.74	648.21
589.09	648.14
589.44	647.72
589.79	647.33
590.14	647.16
590.49	646.61
590.84	645.94
591.19	645.63
591.54	645.15
591.89	644.04
592.25	643.59
592.60	642.79
592.95	641.95
593.30	641.27
593.65	640.17
594.00	639.06
594.35	639.03
594.70	637.90
595.05	637.02
595.40	635.95
595.75	634.97
596.10	634.15
596.45	633.22
596.80	632.39
597.15	631.63
597.50	630.53
597.85	629.76
598.19	628.86
598.54	627.75
598.89	626.85
599.24	626.38
599.59	625.33
599.94	624.54
600.29	623.83
600.64	622.85
600.99	622.10
601.34	621.50
601.69	619.57
602.04	618.60
602.39	617.54
602.74	616.91
603.08	616.27
603.43	615.63
603.78	614.54
604.13	613.65
604.48	612.63
604.83	612.01
605.18	611.17
605.53	610.26
605.87	609.32
606.22	608.41
606.57	607.34
606.92	606.12
607.27	605.10
607.62	603.97
607.96	603.24
608.31	602.40
608.66	601.17
609.01	600.02
609.36	598.93
609.70	597.72
610.05	596.25
610.40	594.90
610.75	593.38
611.10	592.52
611.44	590.89
611.79	589.38
612.14	587.79
612.49	586.05
612.83	584.61
613.18	583.13
613.53	581.47
613.88	579.76
614.22	578.37
614.57	576.66
614.92	575.19
615.27	573.51
615.61	571.70
615.96	570.12
616.31	568.70
616.65	567.41
617.00	566.00
617.35	564.43
617.70	562.72
618.04	561.02
618.39	558.89
618.74	557.41
619.08	555.66
619.43	553.97
619.78	552.53
620.12	550.87
620.47	549.17
620.82	547.30
621.16	545.40
621.51	543.84
621.85	542.35
622.20	540.56
622.55	538.61
622.89	536.86
623.24	535.13
623.59	533.19
623.93	531.25
624.28	529.53
624.62	528.13
624.97	526.56
625.32	524.96
625.66	523.58
626.01	521.79
626.35	520.24
626.70	518.48
627.04	517.01
627.39	515.35
627.73	513.89
628.08	512.47
628.43	510.84
628.77	509.13
629.12	507.31
629.46	505.90
629.81	504.47
630.15	502.80
630.50	501.08
630.84	499.42
631.19	497.84
631.53	496.25
631.88	494.23
632.22	492.33
632.57	490.80
632.91	488.97
633.26	487.47
633.60	485.81
633.95	484.34
634.29	482.49
634.64	480.98
634.98	479.03
635.32	477.50
635.67	476.17
636.01	474.63
636.36	472.93
636.70	471.37
637.05	469.78
637.39	468.36
637.73	466.91
638.08	465.71
638.42	464.25
638.77	462.69
639.11	461.18
639.45	459.84
639.80	458.22
640.14	456.68
640.49	455.04
640.83	453.47
641.17	451.94
641.52	450.25
641.86	448.56
642.20	447.23
642.55	445.41
642.89	443.71
643.23	442.08
643.58	440.78
643.92	439.09
644.26	437.50
644.61	435.96
644.95	434.28
645.29	432.42
645.64	430.82
645.98	429.24
646.32	427.78
646.66	425.97
647.01	424.38
647.35	422.85
647.69	421.30
648.04	419.93
648.38	418.33
648.72	416.84
649.06	415.18
649.41	413.50
649.75	412.01
650.09	410.61
650.43	409.06
650.78	407.43
651.12	405.80
651.46	404.20
651.80	402.82
652.14	401.35
652.49	400.00
652.83	398.40
653.17	396.76
653.51	395.18
653.85	393.91
654.20	392.45
654.54	390.85
654.88	389.31
655.22	387.77
655.56	386.17
655.90	384.48
656.25	383.08
656.59	381.63
656.93	380.18
657.27	378.72
657.61	377.14
657.95	375.74
658.29	374.34
658.64	372.96
658.98	371.43
659.32	369.90
659.66	368.42
660.00	367.02
660.34	365.54
660.68	364.13
661.02	362.62
661.36	361.29
661.70	360.10
662.05	358.84
662.39	357.54
662.73	356.47
663.07	355.48
663.41	354.22
663.75	352.93
664.09	351.73
664.43	350.31
664.77	349.13
665.11	347.84
665.45	346.66
665.79	345.60
666.13	344.28
666.47	343.12
666.81	341.87
667.15	340.57
667.49	339.55
667.83	338.48
668.17	337.31
668.51	336.16
668.85	335.05
669.19	333.99
669.53	332.75
669.87	331.52
670.21	330.36
670.55	329.23
670.89	328.41
671.23	327.39
671.57	326.52
671.91	325.55
672.25	324.47
672.58	323.54
672.92	322.42
673.26	321.56
673.60	320.69
673.94	319.66
674.28	318.82
674.62	317.95
674.96	316.96
675.30	316.16
675.64	315.17
675.97	314.13
676.31	313.21
676.65	312.38
676.99	311.52
677.33	310.62
677.67	309.81
678.01	308.72
678.34	307.84
678.68	306.90
679.02	305.89
679.36	305.03
679.70	304.13
680.04	303.27
680.37	302.29
680.71	301.46
681.05	300.78
681.39	299.99
681.73	299.10
682.06	298.42
682.40	297.58
682.74	296.84
683.08	296.17
683.42	295.29
683.75	294.65
684.09	293.78
684.43	292.93
684.77	292.01
685.10	291.22
685.44	290.40
685.78	289.58
686.12	288.91
686.45	288.15
686.79	287.32
687.13	286.65
687.46	286.00
687.80	285.26
688.14	284.51
688.48	283.90
688.81	283.10
689.15	282.42
689.49	281.66
689.82	281.02
690.16	280.21
690.50	279.56
690.83	278.74
691.17	278.00
691.51	277.31
691.84	276.76
692.18	276.11
692.52	275.45
692.85	274.88
693.19	274.33
693.52	273.68
693.86	273.07
694.20	272.36
694.53	271.77
694.87	271.17
695.21	270.48
695.54	269.81
695.88	269.21
696.21	268.43
696.55	267.93
696.88	267.25
697.22	266.64
697.56	266.13
697.89	265.43
698.23	264.94
698.56	264.41
698.90	263.90
699.23	263.29
699.57	262.73
699.90	262.16
700.24	261.55
700.58	261.08
700.91	260.66
701.25	260.37
701.58	259.82
701.92	259.37
702.25	258.88
702.59	258.37
702.92	257.96
703.26	257.51
703.59	257.04
703.93	256.83
704.26	256.39
704.60	255.92
704.93	255.52
705.26	255.05
705.60	254.63
705.93	254.03
706.27	253.70
706.60	253.39
706.94	253.08
707.27	252.65
707.61	252.13
707.94	251.57
708.27	250.97
708.61	250.48
708.94	250.00
709.28	249.54
709.61	249.00
709.94	248.56
710.28	248.10
710.61	247.70
710.95	247.08
711.28	246.89
711.61	246.47
711.95	246.22
712.28	245.90
712.61	245.50
712.95	245.43
713.28	245.27
713.61	244.79
713.95	244.37
714.28	244.04
714.61	243.79
714.95	243.52
715.28	243.09
715.61	242.76
715.95	242.36
716.28	242.12
716.61	241.95
716.95	241.57
717.28	241.34
717.61	241.01
717.94	240.65
718.28	240.13
718.61	239.75
718.94	239.38
719.27	239.04
719.61	238.81
719.94	238.33
720.27	237.80
720.60	237.55
720.94	237.27
721.27	236.98
721.60	236.79
721.93	236.43
722.27	236.35
722.60	236.18
722.93	236.01
723.26	235.73
723.59	235.37
723.93	235.22
724.26	235.02
724.59	234.77
724.92	234.59
725.25	234.53
725.59	234.33
725.92	234.15
726.25	233.95
726.58	233.68
726.91	233.46
727.24	233.26
727.57	233.02
727.91	232.75
728.24	232.57
728.57	232.26
728.90	232.16
729.23	231.81
729.56	231.82
729.89	231.63
730.22	231.46
730.55	231.24
730.89	231.10
731.22	230.88
731.55	230.66
731.88	230.50
732.21	230.25
732.54	230.05
732.87	229.81
733.20	229.65
733.53	229.52
733.86	229.38
734.19	229.15
734.52	229.02
734.85	229.15
735.18	228.91
735.51	228.89
735.84	228.70
736.17	228.66
736.50	228.21
736.83	228.43
737.16	228.27
737.49	228.12
737.82	227.81
738.15	227.70
738.48	227.55
738.81	227.33
739.14	227.12
739.47	226.97
739.80	226.80
740.13	226.59
740.46	226.31
740.79	226.16
741.12	226.07
741.45	225.87
741.78	225.50
742.11	225.49
742.44	225.24
742.77	225.09
743.10	224.82
743.43	224.73
743.75	224.20
744.08	224.52
744.41	224.37
744.74	224.16
745.07	223.92
745.40	223.80
745.73	223.87
746.06	223.68
746.39	223.55
746.71	223.41
747.04	223.20
747.37	223.17
747.70	223.01
748.03	222.95
748.36	222.92
748.68	222.79
749.01	222.52
749.34	222.45
749.67	222.43
750.00	222.39
750.33	222.51
750.65	222.48
750.98	221.90
751.31	221.74
751.64	221.74
751.97	221.88
752.29	221.73
752.62	221.42
752.95	221.28
753.28	221.15
753.60	221.09
753.93	221.11
754.26	220.99
754.59	220.85
754.91	220.65
755.24	220.51
755.57	220.40
755.90	220.33
756.22	220.22
756.55	219.99
756.88	219.82
757.20	219.48
757.53	219.12
757.86	218.99
758.19	219.00
758.51	218.95
758.84	218.75
759.17	218.67
759.49	218.60
759.82	218.80
760.15	218.76
760.47	218.66
760.80	218.44
761.13	218.39
761.45	218.30
761.78	218.31
762.11	218.22
762.43	218.10
762.76	218.01
763.08	217.93
763.41	217.91
763.74	217.92
764.06	217.88
764.39	217.93
764.71	217.92
765.04	217.77
765.37	217.66
765.69	217.50
766.02	217.41
766.34	217.39
766.67	217.18
767.00	217.16
767.32	217.30
767.65	217.52
767.97	217.49
768.30	217.50
768.62	217.42
768.95	217.32
769.27	217.29
769.60	217.35
769.92	217.19
770.25	217.04
770.57	216.94
770.90	216.85
771.22	216.79
771.55	216.78
771.87	216.81
772.20	216.76
772.52	217.02
772.85	217.34
773.17	217.31
773.50	217.24
773.82	217.19
774.15	216.95
774.47	216.67
774.80	216.56
775.12	216.48
775.45	216.39
775.77	216.31
776.09	216.36
776.42	216.22
776.74	216.31
777.07	216.32
777.39	216.28
777.72	216.16
778.04	216.11
778.36	215.96
778.69	215.93
779.01	215.92
779.33	215.60
779.66	215.15
779.98	215.10
780.31	215.00
780.63	214.99
780.95	215.04
781.28	215.00
781.60	215.00
781.92	214.99
782.25	214.91
782.57	214.87
782.89	214.71
783.22	214.70
783.54	214.60
783.86	214.57
784.19	214.46
784.51	214.56
784.83	214.59
785.16	214.62
785.48	214.49
785.80	214.47
786.12	214.44
786.45	214.51
786.77	214.42
787.09	214.42
787.42	214.30
787.74	214.30
788.06	214.29
788.38	214.20
788.71	214.11
789.03	214.10
789.35	214.17
789.67	214.14
789.99	214.12
790.32	214.04
790.64	214.03
790.96	214.30
791.28	214.18
791.61	214.05
791.93	214.06
792.25	214.09
792.57	214.30
792.89	214.16
793.21	214.15
793.54	214.14
793.86	214.11
794.18	214.05
