SpectraSuite Data File
++++++++++++++++++++++++++++++++++++
Date: Mon Feb 25 17:06:18 EST 2013
User: group
Dark Spectrum Present: No
Reference Spectrum Present: No
Number of Sampled Component Spectra: 1
Spectrometers: USB2E7196
Integration Time (usec): 104000 (USB2E7196)
Spectra Averaged: 20 (USB2E7196)
Boxcar Smoothing: 10 (USB2E7196)
Correct for Electrical Dark: No (USB2E7196)
Strobe/Lamp Enabled: No (USB2E7196)
Correct for Detector Non-linearity: No (USB2E7196)
Correct for Stray Light: No (USB2E7196)
Number of Pixels in Processed Spectrum: 2048
>>>>>Begin Processed Spectral Data<<<<<
339.09	0.00
339.48	198.05
339.86	201.00
340.24	200.70
340.63	201.25
341.01	210.40
341.39	204.70
341.78	206.70
342.16	208.60
342.54	210.55
342.93	198.58
343.31	208.65
343.69	209.22
344.07	209.65
344.46	210.15
344.84	210.58
345.22	210.57
345.60	210.83
345.99	211.04
346.37	211.14
346.75	211.13
347.13	211.16
347.52	211.15
347.90	211.26
348.28	211.28
348.66	211.34
349.05	211.20
349.43	211.09
349.81	211.11
350.19	211.10
350.57	211.14
350.96	211.19
351.34	211.23
351.72	211.28
352.10	211.37
352.48	211.39
352.87	211.50
353.25	211.59
353.63	211.69
354.01	211.75
354.39	211.86
354.77	212.01
355.15	212.14
355.54	212.15
355.92	212.10
356.30	212.16
356.68	212.36
357.06	212.47
357.44	212.49
357.82	212.52
358.20	212.66
358.58	212.77
358.97	212.85
359.35	212.90
359.73	213.00
360.11	212.99
360.49	213.05
360.87	213.07
361.25	213.14
361.63	213.28
362.01	213.31
362.39	213.23
362.77	213.22
363.15	213.25
363.53	213.33
363.91	213.38
364.29	213.37
364.67	213.11
365.05	213.09
365.43	213.18
365.81	213.19
366.19	213.30
366.57	213.35
366.95	213.26
367.33	213.25
367.71	213.20
368.09	213.33
368.47	213.30
368.85	213.25
369.23	213.35
369.61	213.15
369.99	213.26
370.37	213.32
370.75	213.42
371.13	213.33
371.51	213.15
371.89	213.12
372.27	213.12
372.65	213.07
373.03	213.05
373.41	212.96
373.78	212.90
374.16	212.64
374.54	212.53
374.92	212.50
375.30	212.37
375.68	212.30
376.06	212.18
376.44	212.08
376.82	212.01
377.19	211.83
377.57	211.78
377.95	211.60
378.33	211.51
378.71	211.24
379.09	211.24
379.47	211.30
379.84	211.26
380.22	211.16
380.60	211.12
380.98	211.02
381.36	210.92
381.73	210.82
382.11	210.86
382.49	210.83
382.87	210.70
383.25	210.64
383.62	211.03
384.00	210.92
384.38	210.93
384.76	210.96
385.13	211.10
385.51	211.07
385.89	211.03
386.27	210.99
386.64	211.02
387.02	210.93
387.40	210.85
387.78	210.73
388.15	210.76
388.53	210.61
388.91	210.55
389.29	210.62
389.66	210.68
390.04	210.65
390.42	210.65
390.79	210.73
391.17	210.74
391.55	210.34
391.92	210.37
392.30	210.40
392.68	210.33
393.05	210.24
393.43	210.28
393.81	210.26
394.18	210.15
394.56	210.19
394.94	210.21
395.31	210.20
395.69	210.34
396.06	210.36
396.44	210.48
396.82	210.51
397.19	210.62
397.57	210.63
397.95	210.62
398.32	210.58
398.70	210.65
399.07	210.74
399.45	210.71
399.82	210.73
400.20	210.73
400.58	210.75
400.95	210.60
401.33	210.69
401.70	210.96
402.08	211.10
402.45	211.09
402.83	211.24
403.20	211.33
403.58	211.27
403.95	211.37
404.33	211.46
404.71	211.58
405.08	211.91
405.46	212.02
405.83	212.15
406.21	212.19
406.58	212.30
406.96	212.39
407.33	212.59
407.70	212.79
408.08	213.19
408.45	213.45
408.83	213.81
409.20	213.93
409.58	213.94
409.95	214.23
410.33	214.51
410.70	214.63
411.08	214.91
411.45	215.27
411.82	215.51
412.20	215.92
412.57	216.38
412.95	216.31
413.32	216.81
413.69	217.20
414.07	217.70
414.44	218.15
414.82	218.69
415.19	219.32
415.56	219.88
415.94	220.34
416.31	221.04
416.68	221.74
417.06	222.59
417.43	223.47
417.81	224.44
418.18	225.40
418.55	226.42
418.93	227.43
419.30	228.57
419.67	229.76
420.04	230.90
420.42	232.20
420.79	233.88
421.16	235.27
421.54	236.94
421.91	238.56
422.28	240.19
422.66	241.86
423.03	243.76
423.40	245.55
423.77	247.41
424.15	249.28
424.52	251.29
424.89	253.51
425.26	255.68
425.64	257.58
426.01	259.80
426.38	262.15
426.75	264.65
427.13	267.16
427.50	269.80
427.87	272.56
428.24	275.16
428.61	277.71
428.99	280.73
429.36	283.72
429.73	286.74
430.10	289.94
430.47	293.28
430.85	296.33
431.22	299.83
431.59	303.80
431.96	307.34
432.33	311.22
432.70	315.02
433.08	319.36
433.45	323.60
433.82	327.85
434.19	332.59
434.56	337.19
434.93	341.53
435.30	345.97
435.68	350.87
436.05	355.76
436.42	360.61
436.79	365.02
437.16	369.73
437.53	374.80
437.90	379.69
438.27	384.65
438.64	389.74
439.01	394.50
439.38	398.51
439.75	402.75
440.13	407.55
440.50	412.02
440.87	415.72
441.24	419.60
441.61	423.79
441.98	426.85
442.35	430.47
442.72	434.21
443.09	437.85
443.46	440.13
443.83	441.78
444.20	443.03
444.57	444.68
444.94	445.91
445.31	447.06
445.68	448.58
446.05	449.07
446.42	448.89
446.79	448.75
447.16	448.37
447.53	448.16
447.90	446.45
448.27	444.90
448.64	442.58
449.01	440.89
449.37	437.82
449.74	434.98
450.11	431.70
450.48	427.66
450.85	423.52
451.22	420.00
451.59	416.73
451.96	413.66
452.33	409.65
452.70	405.75
453.07	401.06
453.43	395.90
453.80	391.35
454.17	386.97
454.54	382.72
454.91	378.34
455.28	373.91
455.65	369.99
456.02	366.32
456.38	362.86
456.75	358.65
457.12	355.02
457.49	351.41
457.86	347.66
458.23	344.85
458.59	341.54
458.96	338.28
459.33	335.26
459.70	332.36
460.07	330.02
460.43	327.29
460.80	324.79
461.17	322.55
461.54	320.25
461.91	318.01
462.27	315.67
462.64	313.61
463.01	311.61
463.38	309.60
463.74	307.09
464.11	305.22
464.48	303.62
464.85	301.90
465.21	300.62
465.58	299.18
465.95	297.38
466.32	296.04
466.68	294.60
467.05	293.25
467.42	291.89
467.78	290.44
468.15	288.99
468.52	287.96
468.88	286.53
469.25	285.26
469.62	284.40
469.98	283.40
470.35	282.50
470.72	281.44
471.08	280.25
471.45	279.41
471.82	278.59
472.18	277.56
472.55	276.89
472.92	276.00
473.28	275.32
473.65	274.55
474.02	273.82
474.38	273.32
474.75	272.80
475.11	272.12
475.48	271.71
475.85	271.29
476.21	270.88
476.58	270.57
476.94	270.21
477.31	269.80
477.67	269.47
478.04	269.15
478.41	268.98
478.77	269.14
479.14	268.78
479.50	268.59
479.87	268.60
480.23	268.51
480.60	268.29
480.96	268.17
481.33	268.34
481.69	268.27
482.06	268.24
482.42	268.23
482.79	268.28
483.15	268.29
483.52	268.59
483.88	268.67
484.25	268.81
484.61	269.10
484.98	269.29
485.34	269.61
485.71	269.98
486.07	270.36
486.44	270.37
486.80	270.87
487.17	271.28
487.53	271.75
487.90	272.26
488.26	272.97
488.62	273.55
488.99	273.98
489.35	274.66
489.72	275.22
490.08	275.87
490.44	276.59
490.81	277.42
491.17	278.03
491.54	278.90
491.90	279.69
492.26	280.50
492.63	281.34
492.99	282.22
493.36	283.11
493.72	284.04
494.08	285.02
494.45	286.14
494.81	287.30
495.17	288.31
495.54	289.50
495.90	290.61
496.26	291.82
496.63	293.11
496.99	294.39
497.35	295.65
497.72	297.00
498.08	298.31
498.44	299.58
498.80	301.07
499.17	302.38
499.53	303.82
499.89	305.28
500.26	306.66
500.62	308.04
500.98	309.60
501.34	311.09
501.71	312.75
502.07	314.21
502.43	315.65
502.79	317.17
503.16	318.60
503.52	320.07
503.88	321.47
504.24	322.96
504.60	324.50
504.97	326.09
505.33	327.69
505.69	329.37
506.05	330.88
506.41	332.40
506.78	333.94
507.14	335.40
507.50	336.92
507.86	338.53
508.22	340.13
508.59	341.51
508.95	343.00
509.31	344.57
509.67	346.13
510.03	347.57
510.39	349.11
510.75	350.60
511.12	352.21
511.48	353.75
511.84	355.22
512.20	356.69
512.56	358.20
512.92	359.75
513.28	361.18
513.64	362.70
514.00	364.27
514.37	365.83
514.73	367.51
515.09	369.16
515.45	370.59
515.81	372.10
516.17	373.66
516.53	375.10
516.89	376.43
517.25	377.78
517.61	379.41
517.97	380.86
518.33	382.49
518.69	383.94
519.05	385.60
519.41	387.28
519.77	389.16
520.13	390.83
520.49	392.32
520.85	394.10
521.21	395.97
521.57	397.68
521.93	399.29
522.29	401.13
522.65	402.72
523.01	404.74
523.37	406.53
523.73	408.58
524.09	410.66
524.45	412.72
524.81	414.81
525.17	416.94
525.53	419.11
525.89	421.15
526.25	423.29
526.61	425.35
526.97	427.48
527.33	429.65
527.68	432.14
528.04	434.48
528.40	436.72
528.76	439.06
529.12	441.47
529.48	444.23
529.84	446.58
530.20	449.32
530.56	451.93
530.91	454.74
531.27	457.37
531.63	460.03
531.99	462.81
532.35	465.67
532.71	468.34
533.07	471.17
533.42	474.45
533.78	477.30
534.14	480.24
534.50	482.97
534.86	485.90
535.21	488.51
535.57	491.57
535.93	494.42
536.29	497.51
536.65	500.51
537.00	503.28
537.36	506.19
537.72	509.06
538.08	512.02
538.44	514.76
538.79	517.77
539.15	520.79
539.51	523.65
539.87	526.56
540.22	529.61
540.58	532.78
540.94	535.52
541.29	538.54
541.65	541.40
542.01	544.76
542.37	547.67
542.72	550.85
543.08	553.77
543.44	556.74
543.79	559.44
544.15	562.41
544.51	565.42
544.87	568.52
545.22	571.46
545.58	574.30
545.94	577.16
546.29	579.89
546.65	582.57
547.01	585.39
547.36	588.29
547.72	591.08
548.07	593.71
548.43	596.22
548.79	598.94
549.14	601.66
549.50	604.13
549.86	606.61
550.21	609.07
550.57	611.60
550.92	614.10
551.28	616.48
551.64	618.78
551.99	621.30
552.35	623.53
552.70	625.77
553.06	628.18
553.41	630.45
553.77	632.90
554.13	635.05
554.48	637.33
554.84	639.57
555.19	641.79
555.55	643.84
555.90	645.81
556.26	647.62
556.61	649.43
556.97	651.21
557.32	653.07
557.68	654.76
558.03	656.58
558.39	658.40
558.74	660.49
559.10	662.42
559.45	664.26
559.81	666.17
560.16	667.63
560.52	669.28
560.87	671.07
561.23	672.36
561.58	674.29
561.94	675.64
562.29	676.89
562.64	678.29
563.00	679.79
563.35	681.28
563.71	682.98
564.06	684.58
564.42	686.05
564.77	687.55
565.12	689.21
565.48	690.93
565.83	692.36
566.19	693.55
566.54	694.55
566.89	695.40
567.25	696.70
567.60	698.21
567.96	699.56
568.31	700.70
568.66	701.84
569.02	702.46
569.37	703.21
569.72	704.07
570.08	704.88
570.43	705.48
570.78	706.00
571.14	706.31
571.49	706.67
571.84	707.23
572.20	707.34
572.55	707.53
572.90	707.37
573.26	707.24
573.61	707.19
573.96	707.21
574.31	707.21
574.67	706.71
575.02	706.12
575.37	705.46
575.72	704.95
576.08	704.70
576.43	704.30
576.78	704.18
577.13	703.83
577.49	703.32
577.84	702.91
578.19	702.71
578.54	702.45
578.90	702.32
579.25	701.65
579.60	701.29
579.95	700.54
580.30	700.08
580.66	699.70
581.01	699.07
581.36	698.55
581.71	697.97
582.06	697.66
582.42	697.36
582.77	696.69
583.12	696.24
583.47	695.72
583.82	695.41
584.17	694.81
584.53	694.40
584.88	693.84
585.23	693.29
585.58	692.61
585.93	691.91
586.28	691.14
586.63	690.70
586.98	690.22
587.34	689.89
587.69	689.19
588.04	688.66
588.39	688.14
588.74	687.31
589.09	686.62
589.44	685.69
589.79	685.03
590.14	684.44
590.49	683.69
590.84	682.58
591.19	681.80
591.54	680.89
591.89	679.70
592.25	678.85
592.60	677.82
592.95	676.70
593.30	675.52
593.65	674.35
594.00	673.16
594.35	672.99
594.70	671.65
595.05	670.67
595.40	669.54
595.75	668.21
596.10	667.23
596.45	666.24
596.80	665.46
597.15	664.58
597.50	663.52
597.85	662.45
598.19	661.55
598.54	660.28
598.89	659.20
599.24	658.32
599.59	657.11
599.94	656.17
600.29	655.33
600.64	654.38
600.99	653.32
601.34	652.40
601.69	650.30
602.04	649.24
602.39	648.00
602.74	647.04
603.08	646.32
603.43	645.63
603.78	644.38
604.13	642.98
604.48	641.64
604.83	640.59
605.18	639.72
605.53	638.60
605.87	637.48
606.22	636.53
606.57	635.40
606.92	634.27
607.27	633.02
607.62	631.73
607.96	630.79
608.31	629.90
608.66	628.61
609.01	627.22
609.36	626.01
609.70	624.59
610.05	623.02
610.40	621.50
610.75	619.78
611.10	618.88
611.44	617.38
611.79	615.76
612.14	614.20
612.49	612.17
612.83	610.64
613.18	609.03
613.53	607.35
613.88	605.58
614.22	604.00
614.57	602.24
614.92	600.57
615.27	598.65
615.61	596.64
615.96	594.99
616.31	593.56
616.65	592.10
617.00	590.55
617.35	588.80
617.70	586.94
618.04	585.01
618.39	582.70
618.74	580.97
619.08	579.23
619.43	577.29
619.78	575.60
620.12	573.69
620.47	571.88
620.82	569.76
621.16	567.70
621.51	565.85
621.85	563.98
622.20	562.10
622.55	560.26
622.89	558.38
623.24	556.35
623.59	554.17
623.93	552.11
624.28	550.24
624.62	548.77
624.97	546.99
625.32	545.22
625.66	543.54
626.01	541.75
626.35	539.90
626.70	537.99
627.04	536.38
627.39	534.70
627.73	533.04
628.08	531.50
628.43	529.80
628.77	527.95
629.12	526.17
629.46	524.55
629.81	522.76
630.15	521.02
630.50	519.20
630.84	517.34
631.19	515.51
631.53	513.65
631.88	511.38
632.22	509.58
632.57	508.02
632.91	506.24
633.26	504.56
633.60	502.78
633.95	501.28
634.29	499.43
634.64	497.74
634.98	495.85
635.32	494.18
635.67	492.58
636.01	490.94
636.36	489.30
636.70	487.64
637.05	485.96
637.39	484.27
637.73	482.68
638.08	481.57
638.42	480.05
638.77	478.55
639.11	477.06
639.45	475.45
639.80	473.63
640.14	471.89
640.49	470.15
640.83	468.52
641.17	466.77
641.52	465.05
641.86	463.23
642.20	461.67
642.55	459.76
642.89	458.05
643.23	456.26
643.58	454.70
643.92	452.74
644.26	451.05
644.61	449.44
644.95	447.70
645.29	445.77
645.64	444.07
645.98	442.27
646.32	440.66
646.66	438.87
647.01	437.10
647.35	435.54
647.69	433.73
648.04	432.15
648.38	430.46
648.72	428.79
649.06	427.11
649.41	425.25
649.75	423.57
650.09	421.94
650.43	420.22
650.78	418.37
651.12	416.65
651.46	415.00
651.80	413.42
652.14	411.90
652.49	410.29
652.83	408.63
653.17	406.80
653.51	405.05
653.85	403.53
654.20	402.01
654.54	400.23
654.88	398.68
655.22	397.08
655.56	395.41
655.90	393.78
656.25	392.17
656.59	390.76
656.93	389.25
657.27	387.71
657.61	386.02
657.95	384.58
658.29	383.10
658.64	381.71
658.98	380.10
659.32	378.43
659.66	376.94
660.00	375.32
660.34	373.99
660.68	372.38
661.02	370.84
661.36	369.34
661.70	367.97
662.05	366.55
662.39	365.21
662.73	364.00
663.07	362.75
663.41	361.46
663.75	359.98
664.09	358.67
664.43	357.35
664.77	356.13
665.11	354.82
665.45	353.66
665.79	352.25
666.13	350.94
666.47	349.65
666.81	348.25
667.15	347.06
667.49	345.94
667.83	344.88
668.17	343.67
668.51	342.58
668.85	341.52
669.19	340.61
669.53	339.23
669.87	337.88
670.21	336.63
670.55	335.39
670.89	334.53
671.23	333.50
671.57	332.43
671.91	331.38
672.25	330.27
672.58	329.21
672.92	328.14
673.26	327.08
673.60	326.09
673.94	325.10
674.28	324.09
674.62	323.06
674.96	322.08
675.30	321.07
675.64	320.05
675.97	319.02
676.31	317.92
676.65	317.10
676.99	316.39
677.33	315.42
677.67	314.57
678.01	313.42
678.34	312.44
678.68	311.52
679.02	310.56
679.36	309.60
679.70	308.65
680.04	307.78
680.37	306.93
680.71	306.04
681.05	305.27
681.39	304.30
681.73	303.50
682.06	302.66
682.40	301.95
682.74	301.05
683.08	300.38
683.42	299.39
683.75	298.55
684.09	297.59
684.43	296.75
684.77	295.90
685.10	295.08
685.44	294.25
685.78	293.39
686.12	292.59
686.45	291.88
686.79	291.04
687.13	290.38
687.46	289.61
687.80	289.00
688.14	288.14
688.48	287.52
688.81	286.69
689.15	285.97
689.49	285.06
689.82	284.33
690.16	283.27
690.50	282.60
690.83	281.79
691.17	280.95
691.51	280.33
691.84	279.65
692.18	279.00
692.52	278.33
692.85	277.74
693.19	277.25
693.52	276.50
693.86	275.80
694.20	275.05
694.53	274.40
694.87	273.57
695.21	272.87
695.54	272.19
695.88	271.40
696.21	270.66
696.55	270.05
696.88	269.39
697.22	268.90
697.56	268.37
697.89	267.78
698.23	267.28
698.56	266.55
698.90	266.02
699.23	265.39
699.57	264.80
699.90	264.11
700.24	263.46
700.58	262.89
700.91	262.38
701.25	262.10
701.58	261.63
701.92	261.21
702.25	260.73
702.59	260.14
702.92	259.68
703.26	259.20
703.59	258.72
703.93	258.54
704.26	258.05
704.60	257.51
704.93	257.01
705.26	256.49
705.60	256.15
705.93	255.62
706.27	255.22
706.60	254.82
706.94	254.53
707.27	254.03
707.61	253.61
707.94	253.19
708.27	252.47
708.61	251.90
708.94	251.45
709.28	251.07
709.61	250.60
709.94	250.27
710.28	249.83
710.61	249.43
710.95	248.75
711.28	248.55
711.61	248.14
711.95	247.81
712.28	247.44
712.61	246.97
712.95	246.74
713.28	246.47
713.61	246.05
713.95	245.52
714.28	245.27
714.61	244.88
714.95	244.44
715.28	243.99
715.61	243.70
715.95	243.36
716.28	242.93
716.61	242.66
716.95	242.25
717.28	241.92
717.61	241.60
717.94	241.24
718.28	240.65
718.61	240.34
718.94	239.99
719.27	239.67
719.61	239.41
719.94	238.98
720.27	238.56
720.60	238.23
720.94	238.02
721.27	237.65
721.60	237.47
721.93	237.22
722.27	237.10
722.60	236.95
722.93	236.73
723.26	236.54
723.59	236.29
723.93	236.11
724.26	235.90
724.59	235.70
724.92	235.50
725.25	235.41
725.59	235.17
725.92	235.01
726.25	234.87
726.58	234.74
726.91	234.52
727.24	234.35
727.57	234.09
727.91	233.77
728.24	233.60
728.57	233.32
728.90	233.10
729.23	232.84
729.56	232.83
729.89	232.50
730.22	232.28
730.55	232.09
730.89	231.86
731.22	231.57
731.55	231.30
731.88	231.11
732.21	230.86
732.54	230.62
732.87	230.44
733.20	230.15
733.53	229.96
733.86	229.81
734.19	229.50
734.52	229.42
734.85	229.49
735.18	229.21
735.51	229.17
735.84	229.10
736.17	229.11
736.50	228.65
736.83	228.88
737.16	228.76
737.49	228.55
737.82	228.33
738.15	228.28
738.48	228.13
738.81	227.92
739.14	227.73
739.47	227.59
739.80	227.42
740.13	227.44
740.46	227.16
740.79	226.88
741.12	226.79
741.45	226.59
741.78	226.32
742.11	226.38
742.44	226.10
742.77	226.02
743.10	225.77
743.43	225.62
743.75	225.15
744.08	225.41
744.41	225.26
744.74	225.16
745.07	224.94
745.40	224.93
745.73	224.97
746.06	224.85
746.39	224.75
746.71	224.60
747.04	224.35
747.37	224.23
747.70	224.25
748.03	224.10
748.36	223.97
748.68	223.76
749.01	223.47
749.34	223.43
749.67	223.28
750.00	223.16
750.33	223.26
750.65	223.12
750.98	222.59
751.31	222.48
751.64	222.36
751.97	222.41
752.29	222.13
752.62	221.87
752.95	221.68
753.28	221.55
753.60	221.32
753.93	221.31
754.26	221.18
754.59	220.90
754.91	220.82
755.24	220.71
755.57	220.61
755.90	220.45
756.22	220.29
756.55	220.10
756.88	219.90
757.20	219.62
757.53	219.52
757.86	219.37
758.19	219.33
758.51	219.26
758.84	219.00
759.17	219.01
759.49	219.03
759.82	219.16
760.15	219.10
760.47	219.14
760.80	218.88
761.13	218.96
761.45	218.94
761.78	218.82
762.11	218.80
762.43	218.72
762.76	218.68
763.08	218.61
763.41	218.52
763.74	218.44
764.06	218.37
764.39	218.27
764.71	218.21
765.04	218.04
765.37	217.88
765.69	217.81
766.02	217.71
766.34	217.55
766.67	217.32
767.00	217.27
767.32	217.36
767.65	217.58
767.97	217.49
768.30	217.43
768.62	217.37
768.95	217.20
769.27	217.19
769.60	217.14
769.92	217.07
770.25	217.01
770.57	216.86
770.90	216.74
771.22	216.64
771.55	216.61
771.87	216.65
772.20	216.63
772.52	216.89
772.85	217.26
773.17	217.22
773.50	217.15
773.82	217.06
774.15	216.85
774.47	216.53
774.80	216.40
775.12	216.35
775.45	216.31
775.77	216.30
776.09	216.25
776.42	216.24
776.74	216.33
777.07	216.28
777.39	216.31
777.72	216.30
778.04	216.32
778.36	216.24
778.69	216.23
779.01	216.24
779.33	215.88
779.66	215.43
779.98	215.31
780.31	215.31
780.63	215.47
780.95	215.49
781.28	215.48
781.60	215.40
781.92	215.36
782.25	215.34
782.57	215.31
782.89	215.21
783.22	215.15
783.54	215.00
783.86	214.97
784.19	214.94
784.51	215.02
784.83	214.91
785.16	214.92
785.48	214.84
785.80	214.76
786.12	214.82
786.45	214.76
786.77	214.72
787.09	214.66
787.42	214.38
787.74	214.30
788.06	214.31
788.38	214.24
788.71	214.17
789.03	214.11
789.35	214.18
789.67	214.14
789.99	214.08
790.32	213.97
790.64	214.01
790.96	214.24
791.28	214.17
791.61	214.15
791.93	214.09
792.25	214.05
792.57	214.27
792.89	214.22
793.21	214.24
793.54	214.28
793.86	214.18
794.18	214.23
