SpectraSuite Data File
++++++++++++++++++++++++++++++++++++
Date: Mon Feb 25 16:56:51 EST 2013
User: group
Dark Spectrum Present: No
Reference Spectrum Present: No
Number of Sampled Component Spectra: 1
Spectrometers: USB2E7196
Integration Time (usec): 104000 (USB2E7196)
Spectra Averaged: 20 (USB2E7196)
Boxcar Smoothing: 10 (USB2E7196)
Correct for Electrical Dark: No (USB2E7196)
Strobe/Lamp Enabled: No (USB2E7196)
Correct for Detector Non-linearity: No (USB2E7196)
Correct for Stray Light: No (USB2E7196)
Number of Pixels in Processed Spectrum: 2048
>>>>>Begin Processed Spectral Data<<<<<
339.09	0.00
339.48	199.80
339.86	201.00
340.24	201.25
340.63	203.25
341.01	210.15
341.39	205.55
341.78	207.60
342.16	208.45
342.54	209.35
342.93	198.71
343.31	208.73
343.69	209.22
344.07	209.64
344.46	210.07
344.84	210.49
345.22	210.52
345.60	210.75
345.99	210.89
346.37	211.04
346.75	211.08
347.13	211.22
347.52	211.31
347.90	211.42
348.28	211.39
348.66	211.53
349.05	211.38
349.43	211.45
349.81	211.54
350.19	211.50
350.57	211.57
350.96	211.60
351.34	211.72
351.72	211.81
352.10	211.91
352.48	211.95
352.87	212.02
353.25	212.05
353.63	212.17
354.01	212.26
354.39	212.26
354.77	212.38
355.15	212.42
355.54	212.40
355.92	212.30
356.30	212.39
356.68	212.55
357.06	212.65
357.44	212.65
357.82	212.66
358.20	212.72
358.58	212.77
358.97	212.90
359.35	212.95
359.73	213.09
360.11	213.10
360.49	213.14
360.87	213.09
361.25	213.20
361.63	213.29
362.01	213.34
362.39	213.38
362.77	213.41
363.15	213.46
363.53	213.51
363.91	213.60
364.29	213.57
364.67	213.34
365.05	213.32
365.43	213.33
365.81	213.37
366.19	213.50
366.57	213.62
366.95	213.59
367.33	213.55
367.71	213.55
368.09	213.62
368.47	213.65
368.85	213.67
369.23	213.71
369.61	213.62
369.99	213.66
370.37	213.70
370.75	213.82
371.13	213.74
371.51	213.69
371.89	213.64
372.27	213.67
372.65	213.65
373.03	213.68
373.41	213.60
373.78	213.54
374.16	213.41
374.54	213.24
374.92	213.25
375.30	213.22
375.68	213.08
376.06	213.08
376.44	213.07
376.82	213.07
377.19	212.94
377.57	212.86
377.95	212.71
378.33	212.64
378.71	212.48
379.09	212.48
379.47	212.45
379.84	212.38
380.22	212.31
380.60	212.24
380.98	212.17
381.36	212.17
381.73	212.14
382.11	212.16
382.49	212.15
382.87	212.01
383.25	212.01
383.62	212.33
384.00	212.21
384.38	212.13
384.76	212.16
385.13	212.37
385.51	212.33
385.89	212.37
386.27	212.35
386.64	212.35
387.02	212.35
387.40	212.39
387.78	212.37
388.15	212.37
388.53	212.31
388.91	212.26
389.29	212.24
389.66	212.26
390.04	212.20
390.42	212.27
390.79	212.29
391.17	212.23
391.55	211.89
391.92	211.83
392.30	211.94
392.68	211.87
393.05	211.79
393.43	211.85
393.81	211.84
394.18	211.82
394.56	211.82
394.94	211.81
395.31	211.71
395.69	211.89
396.06	211.98
396.44	212.04
396.82	212.12
397.19	212.36
397.57	212.31
397.95	212.39
398.32	212.25
398.70	212.35
399.07	212.44
399.45	212.46
399.82	212.49
400.20	212.54
400.58	212.61
400.95	212.57
401.33	212.69
401.70	213.00
402.08	213.15
402.45	213.27
402.83	213.47
403.20	213.60
403.58	213.63
403.95	213.85
404.33	214.13
404.71	214.31
405.08	214.64
405.46	214.99
405.83	215.36
406.21	215.74
406.58	216.12
406.96	216.50
407.33	216.97
407.70	217.53
408.08	218.22
408.45	218.76
408.83	219.37
409.20	219.99
409.58	220.40
409.95	221.15
410.33	221.93
410.70	222.63
411.08	223.55
411.45	224.51
411.82	225.40
412.20	226.43
412.57	227.82
412.95	228.65
413.32	230.01
413.69	231.24
414.07	232.70
414.44	234.26
414.82	235.95
415.19	237.75
415.56	239.68
415.94	241.58
416.31	243.84
416.68	246.09
417.06	248.68
417.43	251.25
417.81	254.00
418.18	256.93
418.55	260.13
418.93	263.48
419.30	266.90
419.67	270.62
420.04	274.42
420.42	278.29
420.79	283.07
421.16	287.67
421.54	292.62
421.91	297.64
422.28	302.84
422.66	308.35
423.03	313.97
423.40	319.64
423.77	325.71
424.15	331.89
424.52	338.38
424.89	345.47
425.26	352.39
425.64	359.10
426.01	366.30
426.38	373.93
426.75	381.74
427.13	389.78
427.50	398.08
427.87	406.91
428.24	415.64
428.61	424.01
428.99	433.26
429.36	443.28
429.73	453.24
430.10	463.18
430.47	473.29
430.85	483.86
431.22	495.03
431.59	506.79
431.96	518.37
432.33	531.14
432.70	543.36
433.08	557.74
433.45	571.33
433.82	584.98
434.19	599.95
434.56	614.80
434.93	629.27
435.30	643.68
435.68	659.82
436.05	675.94
436.42	691.96
436.79	706.74
437.16	722.44
437.53	739.07
437.90	755.64
438.27	772.14
438.64	789.25
439.01	805.18
439.38	819.90
439.75	833.66
440.13	849.39
440.50	864.43
440.87	876.98
441.24	890.18
441.61	904.60
441.98	915.68
442.35	928.25
442.72	940.97
443.09	953.29
443.46	961.22
443.83	966.78
444.20	971.97
444.57	978.88
444.94	982.84
445.31	987.07
445.68	991.00
446.05	993.48
446.42	993.40
446.79	992.79
447.16	991.66
447.53	991.38
447.90	986.66
448.27	981.90
448.64	974.70
449.01	969.55
449.37	959.64
449.74	950.13
450.11	938.61
450.48	925.91
450.85	912.98
451.22	901.90
451.59	891.63
451.96	881.61
452.33	867.68
452.70	855.40
453.07	840.20
453.43	824.91
453.80	810.08
454.17	795.63
454.54	782.43
454.91	767.95
455.28	753.93
455.65	740.73
456.02	727.55
456.38	716.37
456.75	702.15
457.12	690.55
457.49	679.02
457.86	667.57
458.23	657.85
458.59	647.29
458.96	636.41
459.33	626.63
459.70	616.90
460.07	609.23
460.43	600.45
460.80	592.20
461.17	584.96
461.54	577.45
461.91	570.22
462.27	562.86
462.64	556.67
463.01	549.71
463.38	543.06
463.74	536.16
464.11	530.21
464.48	525.40
464.85	519.73
465.21	515.58
465.58	511.10
465.95	505.62
466.32	500.99
466.68	496.43
467.05	491.89
467.42	487.27
467.78	482.72
468.15	478.13
468.52	474.63
468.88	470.14
469.25	466.07
469.62	462.96
469.98	459.38
470.35	456.23
470.72	453.25
471.08	449.86
471.45	447.15
471.82	444.15
472.18	440.85
472.55	438.60
472.92	435.70
473.28	433.54
473.65	431.16
474.02	428.93
474.38	427.08
474.75	425.53
475.11	423.96
475.48	422.53
475.85	421.38
476.21	420.31
476.58	419.42
476.94	418.79
477.31	417.89
477.67	417.12
478.04	416.50
478.41	415.94
478.77	415.86
479.14	415.49
479.50	415.51
479.87	415.69
480.23	415.77
480.60	415.79
480.96	415.74
481.33	416.39
481.69	416.92
482.06	417.35
482.42	417.65
482.79	418.02
483.15	418.82
483.52	419.92
483.88	420.96
484.25	421.99
484.61	423.03
484.98	424.09
485.34	425.58
485.71	427.30
486.07	429.02
486.44	430.65
486.80	432.60
487.17	434.52
487.53	436.85
487.90	439.37
488.26	442.07
488.62	444.91
488.99	447.64
489.35	450.40
489.72	453.54
490.08	456.85
490.44	460.14
490.81	463.60
491.17	466.98
491.54	470.69
491.90	474.66
492.26	478.75
492.63	483.06
492.99	487.40
493.36	491.87
493.72	496.63
494.08	501.40
494.45	506.45
494.81	511.66
495.17	516.79
495.54	522.23
495.90	527.78
496.26	533.41
496.63	539.42
496.99	545.53
497.35	551.83
497.72	558.45
498.08	565.00
498.44	571.81
498.80	578.87
499.17	585.96
499.53	593.00
499.89	600.46
500.26	607.75
500.62	614.96
500.98	622.55
501.34	630.13
501.71	638.08
502.07	645.89
502.43	653.79
502.79	661.55
503.16	669.46
503.52	677.44
503.88	685.44
504.24	693.37
504.60	701.35
504.97	709.58
505.33	717.41
505.69	726.30
506.05	734.73
506.41	742.98
506.78	751.13
507.14	759.23
507.50	767.36
507.86	775.60
508.22	783.93
508.59	791.84
508.95	800.29
509.31	808.25
509.67	816.40
510.03	824.52
510.39	832.90
510.75	841.17
511.12	849.22
511.48	857.33
511.84	865.39
512.20	873.30
512.56	881.07
512.92	889.22
513.28	896.78
513.64	904.13
514.00	911.60
514.37	918.80
514.73	926.51
515.09	933.73
515.45	940.81
515.81	947.76
516.17	954.81
516.53	961.48
516.89	968.10
517.25	974.39
517.61	980.70
517.97	986.73
518.33	992.42
518.69	998.20
519.05	1004.05
519.41	1009.81
519.77	1015.96
520.13	1021.49
520.49	1026.65
520.85	1031.83
521.21	1037.20
521.57	1042.63
521.93	1047.22
522.29	1052.20
522.65	1056.98
523.01	1062.07
523.37	1066.67
523.73	1071.31
524.09	1075.74
524.45	1080.31
524.81	1085.11
525.17	1089.72
525.53	1094.25
525.89	1098.67
526.25	1103.20
526.61	1107.00
526.97	1110.91
527.33	1114.71
527.68	1118.75
528.04	1122.68
528.40	1125.95
528.76	1129.31
529.12	1132.54
529.48	1137.04
529.84	1140.39
530.20	1143.90
530.56	1147.03
530.91	1150.86
531.27	1154.20
531.63	1157.48
531.99	1160.74
532.35	1163.47
532.71	1166.25
533.07	1169.61
533.42	1172.66
533.78	1175.77
534.14	1179.00
534.50	1181.45
534.86	1184.33
535.21	1186.79
535.57	1189.77
535.93	1192.54
536.29	1195.18
536.65	1197.81
537.00	1199.74
537.36	1201.90
537.72	1203.95
538.08	1206.38
538.44	1208.28
538.79	1210.56
539.15	1212.88
539.51	1215.14
539.87	1217.56
540.22	1219.84
540.58	1222.40
540.94	1224.55
541.29	1226.20
541.65	1227.56
542.01	1229.37
542.37	1231.01
542.72	1232.96
543.08	1234.42
543.44	1236.51
543.79	1237.95
544.15	1239.55
544.51	1241.63
544.87	1243.53
545.22	1245.24
545.58	1246.48
545.94	1247.64
546.29	1248.55
546.65	1249.12
547.01	1249.85
547.36	1250.71
547.72	1251.65
548.07	1251.55
548.43	1251.78
548.79	1252.01
549.14	1252.88
549.50	1253.55
549.86	1253.64
550.21	1253.68
550.57	1254.34
550.92	1254.25
551.28	1254.58
551.64	1254.75
551.99	1254.89
552.35	1254.68
552.70	1254.82
553.06	1254.95
553.41	1255.44
553.77	1256.04
554.13	1256.74
554.48	1257.32
554.84	1258.08
555.19	1258.21
555.55	1258.77
555.90	1259.11
556.26	1259.43
556.61	1259.35
556.97	1259.42
557.32	1259.77
557.68	1259.99
558.03	1259.45
558.39	1259.17
558.74	1259.14
559.10	1258.92
559.45	1258.80
559.81	1259.24
560.16	1259.00
560.52	1258.90
560.87	1258.73
561.23	1258.06
561.58	1257.63
561.94	1256.88
562.29	1255.79
562.64	1255.44
563.00	1254.84
563.35	1254.56
563.71	1254.97
564.06	1254.86
564.42	1254.99
564.77	1254.95
565.12	1254.95
565.48	1255.21
565.83	1255.25
566.19	1255.52
566.54	1255.43
566.89	1254.67
567.25	1254.50
567.60	1254.34
567.96	1254.20
568.31	1254.05
568.66	1253.58
569.02	1252.63
569.37	1251.79
569.72	1251.05
570.08	1250.21
570.43	1249.04
570.78	1248.13
571.14	1246.38
571.49	1244.96
571.84	1243.48
572.20	1241.85
572.55	1240.28
572.90	1238.09
573.26	1236.09
573.61	1233.80
573.96	1231.92
574.31	1229.91
574.67	1227.27
575.02	1224.58
575.37	1221.68
575.72	1218.49
576.08	1216.20
576.43	1213.68
576.78	1211.13
577.13	1208.72
577.49	1206.24
577.84	1203.77
578.19	1201.20
578.54	1199.09
578.90	1197.33
579.25	1194.80
579.60	1191.80
579.95	1188.62
580.30	1185.99
580.66	1183.62
581.01	1180.71
581.36	1177.52
581.71	1174.53
582.06	1171.45
582.42	1168.56
582.77	1165.53
583.12	1162.41
583.47	1159.50
583.82	1156.57
584.17	1153.70
584.53	1150.67
584.88	1147.26
585.23	1143.99
585.58	1140.49
585.93	1136.93
586.28	1133.02
586.63	1129.63
586.98	1126.50
587.34	1123.53
587.69	1120.07
588.04	1116.70
588.39	1113.55
588.74	1109.86
589.09	1106.58
589.44	1102.92
589.79	1099.69
590.14	1096.61
590.49	1093.33
590.84	1089.54
591.19	1086.55
591.54	1083.03
591.89	1079.11
592.25	1075.88
592.60	1072.34
592.95	1068.57
593.30	1064.34
593.65	1060.29
594.00	1056.29
594.35	1053.80
594.70	1049.66
595.05	1046.22
595.40	1042.39
595.75	1038.15
596.10	1034.90
596.45	1031.28
596.80	1028.11
597.15	1024.63
597.50	1020.58
597.85	1016.99
598.19	1013.25
598.54	1009.33
598.89	1005.83
599.24	1002.74
599.59	998.91
599.94	995.26
600.29	991.81
600.64	988.57
600.99	984.99
601.34	981.48
601.69	976.38
602.04	972.77
602.39	968.86
602.74	965.03
603.08	961.84
603.43	958.63
603.78	954.81
604.13	950.90
604.48	947.17
604.83	944.08
605.18	940.91
605.53	937.26
605.87	933.53
606.22	929.90
606.57	925.79
606.92	921.85
607.27	917.84
607.62	914.10
607.96	910.43
608.31	907.30
608.66	903.47
609.01	899.87
609.36	896.03
609.70	892.02
610.05	888.02
610.40	884.01
610.75	879.52
611.10	875.95
611.44	871.64
611.79	867.37
612.14	863.00
612.49	858.34
612.83	854.30
613.18	849.95
613.53	845.61
613.88	841.32
614.22	837.23
614.57	833.15
614.92	829.14
615.27	824.87
615.61	820.17
615.96	816.30
616.31	812.53
616.65	808.72
617.00	805.02
617.35	801.10
617.70	797.15
618.04	792.97
618.39	788.50
618.74	784.70
619.08	780.67
619.43	776.91
619.78	773.33
620.12	769.54
620.47	765.97
620.82	761.89
621.16	757.83
621.51	753.97
621.85	750.29
622.20	746.12
622.55	742.10
622.89	738.16
623.24	734.06
623.59	729.66
623.93	725.78
624.28	721.95
624.62	718.68
624.97	714.83
625.32	711.08
625.66	707.66
626.01	703.92
626.35	700.31
626.70	696.32
627.04	692.47
627.39	688.88
627.73	685.30
628.08	682.33
628.43	678.84
628.77	675.53
629.12	671.87
629.46	668.73
629.81	665.61
630.15	662.53
630.50	659.20
630.84	655.98
631.19	652.72
631.53	649.25
631.88	645.35
632.22	642.04
632.57	639.06
632.91	635.82
633.26	632.58
633.60	629.31
633.95	626.36
634.29	623.21
634.64	620.17
634.98	616.80
635.32	613.51
635.67	610.84
636.01	607.70
636.36	604.65
636.70	601.62
637.05	598.49
637.39	595.52
637.73	592.72
638.08	590.19
638.42	587.52
638.77	584.82
639.11	582.27
639.45	579.51
639.80	576.72
640.14	573.60
640.49	570.80
640.83	568.14
641.17	565.26
641.52	562.46
641.86	559.49
642.20	556.91
642.55	553.75
642.89	550.86
643.23	548.00
643.58	545.76
643.92	542.97
644.26	540.27
644.61	537.68
644.95	534.96
645.29	532.17
645.64	529.33
645.98	526.64
646.32	523.86
646.66	521.12
647.01	518.30
647.35	516.03
647.69	513.40
648.04	510.83
648.38	508.24
648.72	505.72
649.06	503.23
649.41	500.62
649.75	498.22
650.09	495.64
650.43	493.10
650.78	490.24
651.12	487.66
651.46	485.08
651.80	482.59
652.14	480.26
652.49	477.89
652.83	475.48
653.17	472.91
653.51	470.45
653.85	468.28
654.20	466.02
654.54	463.53
654.88	461.16
655.22	458.80
655.56	456.55
655.90	454.25
656.25	451.79
656.59	449.52
656.93	447.26
657.27	445.23
657.61	442.94
657.95	440.80
658.29	438.69
658.64	436.77
658.98	434.40
659.32	431.98
659.66	429.66
660.00	427.32
660.34	425.10
660.68	422.94
661.02	420.63
661.36	418.44
661.70	416.41
662.05	414.46
662.39	412.61
662.73	410.80
663.07	409.02
663.41	407.24
663.75	405.27
664.09	403.54
664.43	401.42
664.77	399.68
665.11	397.69
665.45	395.88
665.79	394.05
666.13	392.35
666.47	390.68
666.81	388.92
667.15	387.28
667.49	385.81
667.83	384.39
668.17	382.73
668.51	381.24
668.85	379.61
669.19	378.30
669.53	376.55
669.87	374.83
670.21	373.14
670.55	371.54
670.89	370.27
671.23	368.77
671.57	367.42
671.91	365.83
672.25	364.36
672.58	362.87
672.92	361.30
673.26	359.93
673.60	358.49
673.94	357.10
674.28	355.81
674.62	354.48
674.96	353.07
675.30	351.81
675.64	350.51
675.97	349.17
676.31	347.73
676.65	346.45
676.99	345.35
677.33	344.15
677.67	342.94
678.01	341.48
678.34	340.24
678.68	339.05
679.02	337.93
679.36	336.80
679.70	335.65
680.04	334.56
680.37	333.45
680.71	332.39
681.05	331.35
681.39	330.19
681.73	329.03
682.06	327.85
682.40	326.76
682.74	325.67
683.08	324.67
683.42	323.37
683.75	322.36
684.09	321.01
684.43	319.91
684.77	318.83
685.10	317.82
685.44	316.67
685.78	315.52
686.12	314.53
686.45	313.59
686.79	312.57
687.13	311.58
687.46	310.55
687.80	309.66
688.14	308.53
688.48	307.59
688.81	306.57
689.15	305.63
689.49	304.51
689.82	303.55
690.16	302.54
690.50	301.70
690.83	300.73
691.17	299.77
691.51	298.80
691.84	297.92
692.18	296.93
692.52	296.00
692.85	295.21
693.19	294.45
693.52	293.57
693.86	292.66
694.20	291.73
694.53	290.92
694.87	289.95
695.21	289.11
695.54	288.18
695.88	287.21
696.21	286.33
696.55	285.59
696.88	284.68
697.22	283.85
697.56	283.13
697.89	282.25
698.23	281.60
698.56	280.87
698.90	280.14
699.23	279.35
699.57	278.69
699.90	277.92
700.24	277.06
700.58	276.23
700.91	275.56
701.25	275.19
701.58	274.58
701.92	274.00
702.25	273.32
702.59	272.68
702.92	272.15
703.26	271.44
703.59	270.82
703.93	270.52
704.26	269.97
704.60	269.32
704.93	268.77
705.26	268.08
705.60	267.48
705.93	266.69
706.27	266.22
706.60	265.75
706.94	265.39
707.27	264.71
707.61	264.25
707.94	263.67
708.27	262.75
708.61	262.04
708.94	261.44
709.28	260.93
709.61	260.39
709.94	259.84
710.28	259.49
710.61	259.12
710.95	258.27
711.28	257.98
711.61	257.46
711.95	257.04
712.28	256.56
712.61	256.12
712.95	255.90
713.28	255.59
713.61	254.98
713.95	254.29
714.28	253.91
714.61	253.42
714.95	252.94
715.28	252.54
715.61	252.09
715.95	251.64
716.28	251.22
716.61	250.80
716.95	250.39
717.28	249.87
717.61	249.31
717.94	248.92
718.28	248.27
718.61	247.94
718.94	247.47
719.27	247.10
719.61	246.73
719.94	246.29
720.27	245.75
720.60	245.42
720.94	245.12
721.27	244.85
721.60	244.55
721.93	244.20
722.27	244.01
722.60	243.82
722.93	243.42
723.26	243.10
723.59	242.80
723.93	242.59
724.26	242.35
724.59	242.07
724.92	241.79
725.25	241.60
725.59	241.25
725.92	241.03
726.25	240.71
726.58	240.35
726.91	240.09
727.24	239.83
727.57	239.47
727.91	239.07
728.24	238.81
728.57	238.51
728.90	238.24
729.23	237.91
729.56	237.70
729.89	237.47
730.22	237.19
730.55	236.85
730.89	236.55
731.22	236.22
731.55	235.95
731.88	235.66
732.21	235.37
732.54	235.10
732.87	234.80
733.20	234.58
733.53	234.36
733.86	234.14
734.19	233.88
734.52	233.74
734.85	233.85
735.18	233.48
735.51	233.26
735.84	233.09
736.17	232.95
736.50	232.67
736.83	232.85
737.16	232.67
737.49	232.51
737.82	232.20
738.15	232.06
738.48	231.83
738.81	231.66
739.14	231.36
739.47	231.13
739.80	230.90
740.13	230.74
740.46	230.48
740.79	230.14
741.12	229.92
741.45	229.66
741.78	229.23
742.11	229.18
742.44	229.00
742.77	228.90
743.10	228.61
743.43	228.29
743.75	227.75
744.08	227.98
744.41	227.83
744.74	227.67
745.07	227.38
745.40	227.26
745.73	227.26
746.06	227.07
746.39	226.97
746.71	226.78
747.04	226.54
747.37	226.36
747.70	226.33
748.03	226.19
748.36	226.09
748.68	225.96
749.01	225.69
749.34	225.51
749.67	225.35
750.00	225.30
750.33	225.39
750.65	225.24
750.98	224.67
751.31	224.50
751.64	224.41
751.97	224.49
752.29	224.35
752.62	224.03
752.95	223.89
753.28	223.70
753.60	223.63
753.93	223.68
754.26	223.61
754.59	223.38
754.91	223.26
755.24	223.18
755.57	223.03
755.90	222.93
756.22	222.80
756.55	222.58
756.88	222.43
757.20	222.08
757.53	221.89
757.86	221.80
758.19	221.76
758.51	221.60
758.84	221.30
759.17	221.12
759.49	221.06
759.82	221.20
760.15	221.14
760.47	220.99
760.80	220.79
761.13	220.74
761.45	220.58
761.78	220.48
762.11	220.29
762.43	220.16
762.76	220.08
763.08	220.00
763.41	220.01
763.74	219.90
764.06	219.90
764.39	219.81
764.71	219.70
765.04	219.50
765.37	219.41
765.69	219.33
766.02	219.29
766.34	219.11
766.67	218.84
767.00	218.84
767.32	218.96
767.65	219.10
767.97	218.93
768.30	218.92
768.62	218.86
768.95	218.78
769.27	218.74
769.60	218.67
769.92	218.58
770.25	218.36
770.57	218.17
770.90	217.98
771.22	217.79
771.55	217.79
771.87	217.76
772.20	217.64
772.52	217.78
772.85	218.17
773.17	218.19
773.50	218.10
773.82	217.92
774.15	217.68
774.47	217.32
774.80	217.29
775.12	217.26
775.45	217.15
775.77	217.08
776.09	217.04
776.42	216.94
776.74	216.98
777.07	216.90
777.39	216.89
777.72	216.86
778.04	216.97
778.36	216.85
778.69	216.77
779.01	216.77
779.33	216.55
779.66	216.07
779.98	215.98
780.31	215.98
780.63	216.10
780.95	216.12
781.28	216.09
781.60	215.96
781.92	215.84
782.25	215.78
782.57	215.76
782.89	215.69
783.22	215.64
783.54	215.49
783.86	215.48
784.19	215.44
784.51	215.49
784.83	215.36
785.16	215.32
785.48	215.35
785.80	215.26
786.12	215.23
786.45	215.13
786.77	215.13
787.09	215.01
787.42	214.81
787.74	214.77
788.06	214.78
788.38	214.78
788.71	214.67
789.03	214.64
789.35	214.69
