SpectraSuite Data File
++++++++++++++++++++++++++++++++++++
Date: Mon Feb 25 16:57:20 EST 2013
User: group
Dark Spectrum Present: No
Reference Spectrum Present: No
Number of Sampled Component Spectra: 1
Spectrometers: USB2E7196
Integration Time (usec): 104000 (USB2E7196)
Spectra Averaged: 20 (USB2E7196)
Boxcar Smoothing: 10 (USB2E7196)
Correct for Electrical Dark: No (USB2E7196)
Strobe/Lamp Enabled: No (USB2E7196)
Correct for Detector Non-linearity: No (USB2E7196)
Correct for Stray Light: No (USB2E7196)
Number of Pixels in Processed Spectrum: 2048
>>>>>Begin Processed Spectral Data<<<<<
339.09	0.00
339.48	198.15
339.86	199.85
340.24	201.90
340.63	202.30
341.01	209.00
341.39	205.15
341.78	207.50
342.16	209.70
342.54	209.20
342.93	198.30
343.31	208.33
343.69	208.88
344.07	209.37
344.46	209.82
344.84	210.35
345.22	210.43
345.60	210.78
345.99	210.98
346.37	211.07
346.75	211.15
347.13	211.19
347.52	211.25
347.90	211.43
348.28	211.50
348.66	211.57
349.05	211.44
349.43	211.50
349.81	211.60
350.19	211.65
350.57	211.68
350.96	211.70
351.34	211.81
351.72	211.93
352.10	211.98
352.48	212.04
352.87	212.01
353.25	212.09
353.63	212.07
354.01	212.10
354.39	212.20
354.77	212.26
355.15	212.45
355.54	212.45
355.92	212.44
356.30	212.51
356.68	212.80
357.06	212.92
357.44	212.95
357.82	212.98
358.20	213.10
358.58	213.16
358.97	213.23
359.35	213.32
359.73	213.41
360.11	213.50
360.49	213.47
360.87	213.44
361.25	213.52
361.63	213.61
362.01	213.64
362.39	213.60
362.77	213.65
363.15	213.64
363.53	213.70
363.91	213.74
364.29	213.80
364.67	213.52
365.05	213.54
365.43	213.64
365.81	213.67
366.19	213.76
366.57	213.95
366.95	214.05
367.33	213.96
367.71	214.02
368.09	214.08
368.47	214.14
368.85	214.17
369.23	214.22
369.61	214.14
369.99	214.28
370.37	214.32
370.75	214.50
371.13	214.44
371.51	214.33
371.89	214.31
372.27	214.26
372.65	214.29
373.03	214.28
373.41	214.26
373.78	214.23
374.16	214.02
374.54	213.86
374.92	213.72
375.30	213.71
375.68	213.55
376.06	213.57
376.44	213.50
376.82	213.49
377.19	213.43
377.57	213.39
377.95	213.19
378.33	213.16
378.71	212.93
379.09	212.93
379.47	213.05
379.84	212.97
380.22	212.92
380.60	212.81
380.98	212.75
381.36	212.65
381.73	212.55
382.11	212.54
382.49	212.52
382.87	212.41
383.25	212.37
383.62	212.74
384.00	212.60
384.38	212.55
384.76	212.64
385.13	212.78
385.51	212.75
385.89	212.69
386.27	212.68
386.64	212.73
387.02	212.68
387.40	212.49
387.78	212.42
388.15	212.40
388.53	212.36
388.91	212.33
389.29	212.26
389.66	212.24
390.04	212.24
390.42	212.28
390.79	212.31
391.17	212.29
391.55	211.95
391.92	211.88
392.30	211.94
392.68	211.76
393.05	211.67
393.43	211.67
393.81	211.70
394.18	211.63
394.56	211.58
394.94	211.64
395.31	211.69
395.69	211.86
396.06	211.90
396.44	211.90
396.82	211.90
397.19	212.14
397.57	212.20
397.95	212.24
398.32	212.14
398.70	212.23
399.07	212.32
399.45	212.30
399.82	212.41
400.20	212.48
400.58	212.55
400.95	212.39
401.33	212.60
401.70	212.97
402.08	213.12
402.45	213.21
402.83	213.41
403.20	213.61
403.58	213.71
403.95	213.92
404.33	214.25
404.71	214.48
405.08	214.80
405.46	215.12
405.83	215.44
406.21	215.70
406.58	216.00
406.96	216.33
407.33	216.72
407.70	217.16
408.08	217.85
408.45	218.41
408.83	219.12
409.20	219.60
409.58	219.95
409.95	220.56
410.33	221.29
410.70	221.97
411.08	222.77
411.45	223.65
411.82	224.50
412.20	225.43
412.57	226.67
412.95	227.43
413.32	228.58
413.69	229.84
414.07	231.24
414.44	232.69
414.82	234.17
415.19	235.87
415.56	237.57
415.94	239.28
416.31	241.39
416.68	243.43
417.06	245.86
417.43	248.25
417.81	250.92
418.18	253.67
418.55	256.60
418.93	259.73
419.30	262.98
419.67	266.48
420.04	269.98
420.42	273.74
420.79	278.19
421.16	282.56
421.54	287.10
421.91	291.80
422.28	296.67
422.66	301.97
423.03	307.12
423.40	312.50
423.77	318.14
424.15	324.02
424.52	330.07
424.89	336.61
425.26	342.87
425.64	348.93
426.01	355.71
426.38	362.67
426.75	369.81
427.13	377.24
427.50	385.02
427.87	393.27
428.24	401.35
428.61	409.16
428.99	417.67
429.36	426.95
429.73	436.19
430.10	445.37
430.47	454.80
430.85	464.74
431.22	475.00
431.59	486.06
431.96	496.61
432.33	508.42
432.70	519.80
433.08	533.33
433.45	546.05
433.82	558.69
434.19	572.77
434.56	586.65
434.93	600.05
435.30	613.52
435.68	628.47
436.05	643.27
436.42	658.25
436.79	671.99
437.16	686.76
437.53	702.29
437.90	717.83
438.27	733.21
438.64	749.13
439.01	764.08
439.38	777.53
439.75	790.57
440.13	805.50
440.50	819.46
440.87	831.15
441.24	843.28
441.61	856.79
441.98	866.87
442.35	878.61
442.72	890.29
443.09	901.65
443.46	908.82
443.83	914.10
444.20	918.66
444.57	925.18
444.94	928.79
445.31	932.60
445.68	936.12
446.05	938.26
446.42	937.91
446.79	937.35
447.16	936.35
447.53	936.13
447.90	931.73
448.27	927.27
448.64	920.41
449.01	915.74
449.37	906.46
449.74	897.78
450.11	887.08
450.48	875.52
450.85	863.51
451.22	853.33
451.59	843.67
451.96	834.30
452.33	821.43
452.70	809.87
453.07	795.81
453.43	781.51
453.80	767.74
454.17	754.43
454.54	742.00
454.91	728.74
455.28	715.41
455.65	702.98
456.02	690.84
456.38	680.45
456.75	667.33
457.12	656.46
457.49	645.69
457.86	635.12
458.23	625.93
458.59	615.99
458.96	606.05
459.33	597.10
459.70	588.37
460.07	581.18
460.43	573.00
460.80	565.37
461.17	558.76
461.54	551.68
461.91	545.00
462.27	538.08
462.64	532.31
463.01	525.95
463.38	519.69
463.74	513.29
464.11	507.82
464.48	503.16
464.85	497.96
465.21	494.12
465.58	489.88
465.95	484.80
466.32	480.36
466.68	476.11
467.05	471.87
467.42	467.46
467.78	463.02
468.15	458.80
468.52	455.64
468.88	451.58
469.25	447.98
469.62	445.02
469.98	441.87
470.35	438.80
470.72	435.94
471.08	432.77
471.45	430.22
471.82	427.58
472.18	424.53
472.55	422.43
472.92	419.80
473.28	417.64
473.65	415.44
474.02	413.42
474.38	411.70
474.75	410.19
475.11	408.48
475.48	407.24
475.85	406.15
476.21	404.99
476.58	404.06
476.94	403.44
477.31	402.66
477.67	401.96
478.04	401.32
478.41	400.97
478.77	401.01
479.14	400.60
479.50	400.46
479.87	400.67
480.23	400.80
480.60	400.76
480.96	400.76
481.33	401.37
481.69	401.99
482.06	402.20
482.42	402.48
482.79	403.06
483.15	403.78
483.52	404.75
483.88	405.55
484.25	406.43
484.61	407.32
484.98	408.33
485.34	409.61
485.71	411.13
486.07	412.52
486.44	413.74
486.80	415.45
487.17	417.23
487.53	419.27
487.90	421.44
488.26	423.75
488.62	426.26
488.99	428.66
489.35	431.03
489.72	433.84
490.08	436.79
490.44	439.83
490.81	442.99
491.17	446.01
491.54	449.50
491.90	452.85
492.26	456.47
492.63	460.21
492.99	464.00
493.36	468.04
493.72	472.34
494.08	476.70
494.45	481.38
494.81	486.07
495.17	490.63
495.54	495.48
495.90	500.52
496.26	505.38
496.63	510.53
496.99	515.91
497.35	521.42
497.72	527.00
498.08	532.70
498.44	538.61
498.80	544.91
499.17	550.94
499.53	557.27
499.89	563.78
500.26	570.15
500.62	576.53
500.98	583.19
501.34	589.72
501.71	596.52
502.07	603.01
502.43	609.69
502.79	616.56
503.16	623.35
503.52	630.30
503.88	637.35
504.24	644.31
504.60	651.25
504.97	658.51
505.33	665.57
505.69	673.10
506.05	680.16
506.41	687.03
506.78	693.96
507.14	700.80
507.50	707.72
507.86	714.72
508.22	721.78
508.59	728.42
508.95	735.41
509.31	742.31
509.67	749.04
510.03	756.00
510.39	762.88
510.75	769.58
511.12	776.15
511.48	782.68
511.84	789.32
512.20	795.71
512.56	802.30
512.92	808.89
513.28	814.81
513.64	820.75
514.00	826.71
514.37	832.71
514.73	838.98
515.09	844.86
515.45	850.74
515.81	856.11
516.17	861.75
516.53	866.98
516.89	872.20
517.25	877.60
517.61	882.71
517.97	887.29
518.33	892.00
518.69	896.79
519.05	901.64
519.41	906.13
519.77	911.07
520.13	915.11
520.49	919.22
520.85	923.30
521.21	927.70
521.57	931.83
521.93	935.63
522.29	939.57
522.65	943.28
523.01	946.90
523.37	950.50
523.73	954.01
524.09	957.70
524.45	961.15
524.81	964.64
525.17	968.03
525.53	971.68
525.89	975.07
526.25	978.36
526.61	981.02
526.97	984.02
527.33	986.80
527.68	989.96
528.04	992.65
528.40	995.29
528.76	998.25
529.12	1001.10
529.48	1004.39
529.84	1006.83
530.20	1009.65
530.56	1012.35
530.91	1015.45
531.27	1018.35
531.63	1020.88
531.99	1023.44
532.35	1025.86
532.71	1028.54
533.07	1031.31
533.42	1034.12
533.78	1036.75
534.14	1039.69
534.50	1041.93
534.86	1044.57
535.21	1046.36
535.57	1049.08
535.93	1051.72
536.29	1053.92
536.65	1056.37
537.00	1058.25
537.36	1060.31
537.72	1062.19
538.08	1064.35
538.44	1066.40
538.79	1068.56
539.15	1070.87
539.51	1072.99
539.87	1075.42
540.22	1077.37
540.58	1079.71
540.94	1081.68
541.29	1083.53
541.65	1085.02
542.01	1087.36
542.37	1089.17
542.72	1091.38
543.08	1093.09
543.44	1095.02
543.79	1096.50
544.15	1098.12
544.51	1100.25
544.87	1102.52
545.22	1104.35
545.58	1105.97
545.94	1107.26
546.29	1108.47
546.65	1109.47
547.01	1110.87
547.36	1112.02
547.72	1113.09
548.07	1114.01
548.43	1114.91
548.79	1115.72
549.14	1116.89
549.50	1117.76
549.86	1118.45
550.21	1119.47
550.57	1120.74
550.92	1121.39
551.28	1122.62
551.64	1123.54
551.99	1124.26
552.35	1124.82
552.70	1125.58
553.06	1126.51
553.41	1127.52
553.77	1128.77
554.13	1130.07
554.48	1131.18
554.84	1132.11
555.19	1133.29
555.55	1134.29
555.90	1135.09
556.26	1135.85
556.61	1136.62
556.97	1137.14
557.32	1137.99
557.68	1138.50
558.03	1138.82
558.39	1139.24
558.74	1139.63
559.10	1140.19
559.45	1140.54
559.81	1141.12
560.16	1141.37
560.52	1141.73
560.87	1142.25
561.23	1142.06
561.58	1142.51
561.94	1142.37
562.29	1142.33
562.64	1142.33
563.00	1142.41
563.35	1142.86
563.71	1143.44
564.06	1143.78
564.42	1144.41
564.77	1145.10
565.12	1145.67
565.48	1146.47
565.83	1147.14
566.19	1147.83
566.54	1148.25
566.89	1148.47
567.25	1148.84
567.60	1149.74
567.96	1150.43
568.31	1150.97
568.66	1151.42
569.02	1151.05
569.37	1150.82
569.72	1150.94
570.08	1150.68
570.43	1150.16
570.78	1149.67
571.14	1148.95
571.49	1148.13
571.84	1147.56
572.20	1146.44
572.55	1145.68
572.90	1144.01
573.26	1142.64
573.61	1140.99
573.96	1139.60
574.31	1138.14
574.67	1136.45
575.02	1134.27
575.37	1131.81
575.72	1129.57
576.08	1127.80
576.43	1125.75
576.78	1123.93
577.13	1122.04
577.49	1120.20
577.84	1118.27
578.19	1116.27
578.54	1114.81
578.90	1113.63
579.25	1111.34
579.60	1108.95
579.95	1106.45
580.30	1104.51
580.66	1102.66
581.01	1100.48
581.36	1097.89
581.71	1095.57
582.06	1093.12
582.42	1090.73
582.77	1088.23
583.12	1085.53
583.47	1082.70
583.82	1080.05
584.17	1077.38
584.53	1074.64
584.88	1071.81
585.23	1069.12
585.58	1066.22
585.93	1063.05
586.28	1059.91
586.63	1057.28
586.98	1054.77
587.34	1052.37
587.69	1049.45
588.04	1046.41
588.39	1043.67
588.74	1040.77
589.09	1038.28
589.44	1035.20
589.79	1032.46
590.14	1030.11
590.49	1027.22
590.84	1024.20
591.19	1021.83
591.54	1019.10
591.89	1015.71
592.25	1013.12
592.60	1010.02
592.95	1006.92
593.30	1003.52
593.65	1000.01
594.00	996.46
594.35	994.47
594.70	990.72
595.05	987.54
595.40	984.32
595.75	980.77
596.10	977.79
596.45	974.24
596.80	971.37
597.15	968.25
597.50	964.49
597.85	961.24
598.19	958.09
598.54	954.75
598.89	951.58
599.24	948.96
599.59	945.33
599.94	942.15
600.29	939.04
600.64	935.96
600.99	932.71
601.34	929.89
601.69	925.30
602.04	922.00
602.39	918.77
602.74	915.68
603.08	912.81
603.43	909.82
603.78	906.59
604.13	903.32
604.48	900.09
604.83	897.38
605.18	894.77
605.53	891.65
605.87	888.19
606.22	885.01
606.57	881.43
606.92	877.96
607.27	874.45
607.62	870.99
607.96	867.74
608.31	864.74
608.66	861.08
609.01	857.59
609.36	854.29
609.70	850.49
610.05	846.66
610.40	842.94
610.75	839.00
611.10	835.61
611.44	831.61
611.79	827.72
612.14	823.71
612.49	819.41
612.83	815.51
613.18	811.62
613.53	807.60
613.88	803.55
614.22	800.03
614.57	796.28
614.92	792.70
615.27	788.97
615.61	785.22
615.96	781.71
616.31	778.26
616.65	774.80
617.00	771.38
617.35	768.03
617.70	764.30
618.04	760.42
618.39	756.34
618.74	752.83
619.08	749.14
619.43	745.62
619.78	742.32
620.12	739.00
620.47	735.66
620.82	732.07
621.16	728.39
621.51	724.68
621.85	721.21
622.20	717.40
622.55	713.62
622.89	709.77
623.24	706.10
623.59	702.33
623.93	698.65
624.28	695.35
624.62	692.08
624.97	688.64
625.32	685.18
625.66	682.04
626.01	678.55
626.35	675.26
626.70	671.80
627.04	668.37
627.39	665.03
627.73	661.99
628.08	659.12
628.43	656.05
628.77	652.83
629.12	649.42
629.46	646.45
629.81	643.49
630.15	640.35
630.50	637.14
630.84	634.05
631.19	631.00
631.53	627.82
631.88	624.25
632.22	621.14
632.57	618.56
632.91	615.40
633.26	612.47
633.60	609.42
633.95	606.65
634.29	603.64
634.64	600.71
634.98	597.44
635.32	594.34
635.67	591.90
636.01	589.20
636.36	586.55
636.70	583.83
637.05	581.13
637.39	578.63
637.73	576.12
638.08	573.80
638.42	571.32
638.77	568.57
639.11	566.09
639.45	563.58
639.80	560.79
640.14	558.12
640.49	555.42
640.83	552.92
641.17	550.26
641.52	547.67
641.86	544.89
642.20	542.45
642.55	539.63
642.89	536.69
643.23	533.98
643.58	531.60
643.92	528.93
644.26	526.41
644.61	523.92
644.95	521.25
645.29	518.39
645.64	515.76
645.98	513.38
646.32	510.96
646.66	508.25
647.01	505.70
647.35	503.33
647.69	500.80
648.04	498.31
648.38	495.80
648.72	493.42
649.06	491.02
649.41	488.54
649.75	486.30
650.09	484.05
650.43	481.73
650.78	478.98
651.12	476.58
651.46	474.09
651.80	471.80
652.14	469.56
652.49	467.40
652.83	465.11
653.17	462.63
653.51	460.18
653.85	458.19
654.20	455.97
654.54	453.70
654.88	451.52
655.22	449.40
655.56	447.14
655.90	444.92
656.25	442.61
656.59	440.40
656.93	438.39
657.27	436.34
657.61	434.14
657.95	432.30
658.29	430.20
658.64	428.21
658.98	425.95
659.32	423.77
659.66	421.61
660.00	419.44
660.34	417.33
660.68	415.39
661.02	413.15
661.36	411.15
661.70	409.24
662.05	407.39
662.39	405.63
662.73	404.13
663.07	402.48
663.41	400.83
663.75	399.10
664.09	397.21
664.43	395.34
664.77	393.55
665.11	391.72
665.45	389.99
665.79	388.30
666.13	386.60
666.47	384.99
666.81	383.43
667.15	381.74
667.49	380.28
667.83	378.76
668.17	377.28
668.51	375.84
668.85	374.27
669.19	372.93
669.53	371.16
669.87	369.39
670.21	367.72
670.55	366.27
670.89	365.04
671.23	363.65
671.57	362.23
671.91	360.85
672.25	359.47
672.58	358.06
672.92	356.60
673.26	355.35
673.60	353.97
673.94	352.65
674.28	351.41
674.62	350.22
674.96	348.85
675.30	347.66
675.64	346.35
675.97	345.15
676.31	343.76
676.65	342.60
676.99	341.55
677.33	340.30
677.67	339.04
678.01	337.57
678.34	336.33
678.68	335.22
679.02	334.07
679.36	332.87
679.70	331.74
680.04	330.60
680.37	329.38
680.71	328.20
681.05	327.07
681.39	325.92
681.73	324.74
682.06	323.78
682.40	322.80
682.74	321.75
683.08	320.76
683.42	319.65
683.75	318.68
684.09	317.44
684.43	316.46
684.77	315.35
685.10	314.35
685.44	313.27
685.78	312.16
686.12	311.17
686.45	310.19
686.79	309.21
687.13	308.35
687.46	307.42
687.80	306.60
688.14	305.62
688.48	304.80
688.81	303.90
689.15	302.91
689.49	301.81
689.82	300.86
690.16	299.79
690.50	298.89
690.83	297.91
691.17	296.94
691.51	296.02
691.84	295.21
692.18	294.33
692.52	293.50
692.85	292.73
693.19	292.00
693.52	291.21
693.86	290.34
694.20	289.45
694.53	288.64
694.87	287.77
695.21	286.99
695.54	286.08
695.88	285.17
696.21	284.27
696.55	283.50
696.88	282.73
697.22	281.92
697.56	281.22
697.89	280.37
698.23	279.68
698.56	278.81
698.90	278.04
699.23	277.17
699.57	276.48
699.90	275.75
700.24	274.91
700.58	274.19
700.91	273.58
701.25	273.15
701.58	272.53
701.92	271.86
702.25	271.11
702.59	270.46
702.92	269.95
703.26	269.38
703.59	268.77
703.93	268.42
704.26	267.91
704.60	267.29
704.93	266.72
705.26	266.03
705.60	265.50
705.93	264.92
706.27	264.66
706.60	264.21
706.94	263.76
707.27	263.07
707.61	262.47
707.94	261.89
708.27	261.06
708.61	260.46
708.94	259.85
709.28	259.37
709.61	258.85
709.94	258.23
710.28	257.72
710.61	257.17
710.95	256.42
711.28	256.11
711.61	255.65
711.95	255.30
712.28	254.92
712.61	254.48
712.95	254.20
713.28	253.80
713.61	253.24
713.95	252.69
714.28	252.40
714.61	251.94
714.95	251.49
715.28	250.99
715.61	250.54
715.95	250.24
716.28	249.68
716.61	249.31
716.95	248.85
717.28	248.45
717.61	248.12
717.94	247.68
718.28	246.99
718.61	246.63
718.94	246.21
719.27	245.87
719.61	245.53
719.94	245.13
720.27	244.61
720.60	244.28
720.94	243.90
721.27	243.51
721.60	243.25
721.93	242.92
722.27	242.75
722.60	242.53
722.93	242.14
723.26	242.01
723.59	241.58
723.93	241.41
724.26	241.14
724.59	240.76
724.92	240.51
725.25	240.43
725.59	240.11
725.92	239.93
726.25	239.58
726.58	239.31
726.91	238.90
727.24	238.68
727.57	238.33
727.91	238.05
728.24	237.88
728.57	237.56
728.90	237.36
729.23	237.02
729.56	236.89
729.89	236.61
730.22	236.35
730.55	236.14
730.89	235.89
731.22	235.52
731.55	235.40
731.88	235.16
732.21	234.79
732.54	234.51
732.87	234.18
733.20	234.01
733.53	233.73
733.86	233.58
734.19	233.25
734.52	233.18
734.85	233.21
735.18	232.96
735.51	232.88
735.84	232.70
736.17	232.60
736.50	232.18
736.83	232.42
737.16	232.24
737.49	232.10
737.82	231.85
738.15	231.77
738.48	231.45
738.81	231.22
739.14	231.01
739.47	230.89
739.80	230.72
740.13	230.58
740.46	230.45
740.79	230.23
741.12	230.10
741.45	229.80
741.78	229.37
742.11	229.27
742.44	229.01
742.77	228.86
743.10	228.60
743.43	228.45
743.75	227.91
744.08	228.17
744.41	227.91
744.74	227.79
745.07	227.56
745.40	227.48
745.73	227.54
746.06	227.41
746.39	227.26
746.71	227.09
747.04	226.86
747.37	226.61
747.70	226.55
748.03	226.31
748.36	226.19
748.68	226.10
749.01	225.89
749.34	225.82
749.67	225.58
750.00	225.49
750.33	225.59
750.65	225.54
750.98	224.97
751.31	224.92
751.64	224.74
751.97	224.77
752.29	224.56
752.62	224.25
752.95	224.10
753.28	223.87
753.60	223.69
753.93	223.60
754.26	223.48
754.59	223.23
754.91	223.16
755.24	222.98
755.57	222.80
755.90	222.61
756.22	222.42
756.55	222.31
756.88	222.16
757.20	221.82
757.53	221.51
757.86	221.42
758.19	221.25
758.51	221.05
758.84	220.73
759.17	220.68
759.49	220.58
759.82	220.61
760.15	220.55
760.47	220.44
760.80	220.20
761.13	220.18
761.45	220.11
761.78	219.99
762.11	219.93
762.43	219.85
762.76	219.73
763.08	219.71
763.41	219.63
763.74	219.56
764.06	219.39
764.39	219.32
764.71	219.16
765.04	219.09
765.37	219.09
765.69	219.01
766.02	218.87
766.34	218.75
766.67	218.53
767.00	218.50
767.32	218.63
767.65	218.85
767.97	218.78
768.30	218.66
768.62	218.57
768.95	218.47
769.27	218.36
769.60	218.40
769.92	218.18
770.25	218.09
770.57	217.93
770.90	217.88
771.22	217.81
771.55	217.76
771.87	217.76
772.20	217.61
772.52	217.81
772.85	218.22
773.17	218.20
773.50	218.18
773.82	218.11
774.15	217.88
774.47	217.60
774.80	217.46
775.12	217.35
775.45	217.26
775.77	217.21
776.09	217.14
776.42	217.07
776.74	217.17
777.07	217.04
777.39	217.02
777.72	216.94
778.04	216.87
778.36	216.74
778.69	216.57
779.01	216.64
779.33	216.32
779.66	215.82
779.98	215.69
780.31	215.60
780.63	215.63
780.95	215.61
781.28	215.45
781.60	215.36
781.92	215.42
782.25	215.37
782.57	215.31
782.89	215.26
783.22	215.22
783.54	215.07
783.86	215.09
784.19	214.97
784.51	215.00
784.83	215.05
785.16	215.03
785.48	215.02
785.80	214.90
786.12	214.92
786.45	214.87
786.77	214.92
787.09	214.88
787.42	214.73
787.74	214.72
788.06	214.75
788.38	214.75
788.71	214.63
789.03	214.64
789.35	214.63
789.67	214.57
789.99	214.51
790.32	214.46
