SpectraSuite Data File
++++++++++++++++++++++++++++++++++++
Date: Mon Feb 25 16:59:42 EST 2013
User: group
Dark Spectrum Present: No
Reference Spectrum Present: No
Number of Sampled Component Spectra: 1
Spectrometers: USB2E7196
Integration Time (usec): 104000 (USB2E7196)
Spectra Averaged: 20 (USB2E7196)
Boxcar Smoothing: 10 (USB2E7196)
Correct for Electrical Dark: No (USB2E7196)
Strobe/Lamp Enabled: No (USB2E7196)
Correct for Detector Non-linearity: No (USB2E7196)
Correct for Stray Light: No (USB2E7196)
Number of Pixels in Processed Spectrum: 2048
>>>>>Begin Processed Spectral Data<<<<<
339.09	0.00
339.48	197.80
339.86	199.10
340.24	201.65
340.63	202.85
341.01	208.80
341.39	205.75
341.78	207.10
342.16	207.80
342.54	207.50
342.93	197.83
343.31	207.89
343.69	208.43
344.07	208.94
344.46	209.40
344.84	209.76
345.22	209.78
345.60	210.00
345.99	210.15
346.37	210.31
346.75	210.39
347.13	210.52
347.52	210.54
347.90	210.70
348.28	210.71
348.66	210.72
349.05	210.64
349.43	210.70
349.81	210.67
350.19	210.66
350.57	210.70
350.96	210.78
351.34	210.81
351.72	210.87
352.10	210.97
352.48	210.91
352.87	210.99
353.25	211.04
353.63	211.11
354.01	211.21
354.39	211.30
354.77	211.46
355.15	211.59
355.54	211.66
355.92	211.60
356.30	211.65
356.68	212.04
357.06	212.14
357.44	212.22
357.82	212.39
358.20	212.60
358.58	212.67
358.97	212.78
359.35	212.94
359.73	213.12
360.11	213.15
360.49	213.31
360.87	213.41
361.25	213.60
361.63	213.80
362.01	213.83
362.39	213.90
362.77	213.97
363.15	213.92
363.53	214.00
363.91	214.01
364.29	214.07
364.67	213.72
365.05	213.76
365.43	213.80
365.81	213.80
366.19	213.90
366.57	214.15
366.95	214.13
367.33	214.00
367.71	213.98
368.09	214.13
368.47	214.15
368.85	214.14
369.23	214.20
369.61	213.99
369.99	214.19
370.37	214.12
370.75	214.22
371.13	214.15
371.51	214.08
371.89	214.12
372.27	214.14
372.65	214.18
373.03	214.18
373.41	214.14
373.78	214.11
374.16	213.99
374.54	213.75
374.92	213.68
375.30	213.73
375.68	213.67
376.06	213.55
376.44	213.45
376.82	213.38
377.19	213.29
377.57	213.31
377.95	212.96
378.33	212.92
378.71	212.76
379.09	212.79
379.47	212.83
379.84	212.74
380.22	212.69
380.60	212.57
380.98	212.51
381.36	212.47
381.73	212.36
382.11	212.31
382.49	212.29
382.87	212.21
383.25	212.08
383.62	212.39
384.00	212.31
384.38	212.31
384.76	212.36
385.13	212.48
385.51	212.41
385.89	212.48
386.27	212.44
386.64	212.39
387.02	212.36
387.40	212.29
387.78	212.29
388.15	212.23
388.53	212.15
388.91	212.13
389.29	212.05
389.66	212.03
390.04	211.96
390.42	211.96
390.79	212.04
391.17	212.09
391.55	211.73
391.92	211.66
392.30	211.61
392.68	211.45
393.05	211.34
393.43	211.34
393.81	211.33
394.18	211.27
394.56	211.21
394.94	211.23
395.31	211.18
395.69	211.25
396.06	211.29
396.44	211.34
396.82	211.24
397.19	211.44
397.57	211.48
397.95	211.55
398.32	211.42
398.70	211.35
399.07	211.37
399.45	211.32
399.82	211.35
400.20	211.40
400.58	211.45
400.95	211.39
401.33	211.54
401.70	211.83
402.08	211.91
402.45	212.07
402.83	212.24
403.20	212.30
403.58	212.37
403.95	212.54
404.33	212.69
404.71	212.89
405.08	213.17
405.46	213.29
405.83	213.42
406.21	213.67
406.58	213.89
406.96	214.06
407.33	214.38
407.70	214.73
408.08	215.23
408.45	215.62
408.83	216.06
409.20	216.39
409.58	216.61
409.95	217.11
410.33	217.62
410.70	218.11
411.08	218.80
411.45	219.44
411.82	220.07
412.20	220.86
412.57	221.80
412.95	222.30
413.32	223.24
413.69	224.13
414.07	225.13
414.44	226.22
414.82	227.41
415.19	228.70
415.56	229.98
415.94	231.33
416.31	232.85
416.68	234.34
417.06	236.11
417.43	237.84
417.81	239.82
418.18	241.76
418.55	243.89
418.93	246.10
419.30	248.49
419.67	250.99
420.04	253.59
420.42	256.27
420.79	259.59
421.16	262.76
421.54	266.21
421.91	269.50
422.28	273.09
422.66	276.89
423.03	280.67
423.40	284.63
423.77	288.63
424.15	292.82
424.52	297.41
424.89	302.22
425.26	306.77
425.64	311.16
426.01	316.06
426.38	321.15
426.75	326.38
427.13	331.66
427.50	337.31
427.87	343.14
428.24	348.96
428.61	354.61
428.99	360.91
429.36	367.63
429.73	374.48
430.10	381.14
430.47	388.00
430.85	395.10
431.22	402.73
431.59	410.87
431.96	418.56
432.33	426.98
432.70	435.18
433.08	445.01
433.45	454.22
433.82	463.39
434.19	473.56
434.56	483.69
434.93	493.62
435.30	503.42
435.68	514.17
436.05	525.05
436.42	535.72
436.79	545.58
437.16	556.13
437.53	567.19
437.90	578.35
438.27	589.42
438.64	600.83
439.01	611.36
439.38	620.96
439.75	630.37
440.13	640.92
440.50	651.14
440.87	659.63
441.24	668.38
441.61	678.08
441.98	685.34
442.35	693.75
442.72	702.05
443.09	710.01
443.46	715.34
443.83	719.06
444.20	722.37
444.57	726.87
444.94	729.46
445.31	732.25
445.68	734.91
446.05	736.35
446.42	736.10
446.79	735.66
447.16	735.10
447.53	735.09
447.90	731.92
448.27	728.51
448.64	723.48
449.01	720.11
449.37	713.51
449.74	707.26
450.11	699.64
450.48	691.15
450.85	682.57
451.22	675.15
451.59	668.18
451.96	661.58
452.33	652.36
452.70	643.91
453.07	633.79
453.43	623.34
453.80	613.58
454.17	604.24
454.54	595.20
454.91	585.31
455.28	575.72
455.65	566.83
456.02	558.15
456.38	550.52
456.75	541.08
457.12	533.14
457.49	525.32
457.86	517.47
458.23	511.02
458.59	503.81
458.96	496.51
459.33	489.89
459.70	483.30
460.07	478.09
460.43	472.36
460.80	466.81
461.17	461.90
461.54	456.56
461.91	451.53
462.27	446.53
462.64	442.43
463.01	437.64
463.38	433.13
463.74	428.31
464.11	424.39
464.48	420.88
464.85	417.10
465.21	414.16
465.58	411.09
465.95	407.20
466.32	404.10
466.68	401.10
467.05	398.01
467.42	394.92
467.78	391.68
468.15	388.70
468.52	386.42
468.88	383.52
469.25	380.98
469.62	378.85
469.98	376.55
470.35	374.32
470.72	372.27
471.08	369.95
471.45	368.09
471.82	366.07
472.18	363.90
472.55	362.28
472.92	360.44
473.28	358.75
473.65	357.24
474.02	355.65
474.38	354.35
474.75	353.27
475.11	351.97
475.48	351.13
475.85	350.16
476.21	349.27
476.58	348.55
476.94	347.90
477.31	347.15
477.67	346.53
478.04	345.93
478.41	345.50
478.77	345.55
479.14	345.23
479.50	345.10
479.87	345.16
480.23	345.21
480.60	345.05
480.96	345.02
481.33	345.42
481.69	345.70
482.06	345.70
482.42	345.84
482.79	346.09
483.15	346.41
483.52	347.01
483.88	347.41
484.25	347.88
484.61	348.40
484.98	348.98
485.34	349.80
485.71	350.68
486.07	351.58
486.44	352.10
486.80	353.03
487.17	354.05
487.53	355.22
487.90	356.50
488.26	358.01
488.62	359.61
488.99	360.76
489.35	362.19
489.72	363.90
490.08	365.64
490.44	367.43
490.81	369.28
491.17	370.98
491.54	372.96
491.90	375.02
492.26	377.29
492.63	379.42
492.99	381.65
493.36	384.11
493.72	386.62
494.08	389.19
494.45	391.88
494.81	394.65
495.17	397.31
495.54	400.09
495.90	402.79
496.26	405.56
496.63	408.54
496.99	411.71
497.35	414.86
497.72	418.03
498.08	421.19
498.44	424.38
498.80	427.89
499.17	431.41
499.53	434.85
499.89	438.34
500.26	441.83
500.62	445.26
500.98	448.74
501.34	452.19
501.71	455.74
502.07	459.30
502.43	462.82
502.79	466.28
503.16	469.68
503.52	473.17
503.88	476.50
504.24	479.98
504.60	483.20
504.97	486.55
505.33	489.79
505.69	493.44
506.05	496.84
506.41	499.94
506.78	502.94
507.14	505.89
507.50	508.89
507.86	511.91
508.22	514.89
508.59	517.61
508.95	520.34
509.31	523.19
509.67	525.76
510.03	528.21
510.39	530.88
510.75	533.41
511.12	535.86
511.48	538.34
511.84	540.71
512.20	543.04
512.56	545.30
512.92	547.69
513.28	549.55
513.64	551.42
514.00	553.39
514.37	555.21
514.73	557.17
515.09	558.89
515.45	560.57
515.81	562.09
516.17	563.81
516.53	565.37
516.89	566.55
517.25	567.89
517.61	569.35
517.97	570.45
518.33	571.51
518.69	572.76
519.05	573.91
519.41	574.94
519.77	576.16
520.13	576.86
520.49	577.44
520.85	578.28
521.21	579.21
521.57	580.04
521.93	580.75
522.29	581.58
522.65	582.38
523.01	583.15
523.37	583.60
523.73	584.18
524.09	584.65
524.45	585.42
524.81	586.13
525.17	586.84
525.53	587.55
525.89	588.25
526.25	588.90
526.61	589.29
526.97	590.00
527.33	590.55
527.68	591.73
528.04	592.52
528.40	593.10
528.76	593.86
529.12	594.71
529.48	595.88
529.84	596.54
530.20	597.35
530.56	598.24
530.91	599.62
531.27	600.73
531.63	602.01
531.99	603.25
532.35	604.50
532.71	605.62
533.07	606.94
533.42	608.66
533.78	610.03
534.14	611.67
534.50	613.08
534.86	614.73
535.21	616.01
535.57	617.70
535.93	619.46
536.29	621.29
536.65	622.98
537.00	624.47
537.36	626.09
537.72	627.74
538.08	629.73
538.44	631.47
538.79	633.53
539.15	635.51
539.51	637.46
539.87	639.59
540.22	641.71
540.58	643.99
540.94	645.95
541.29	648.11
541.65	650.17
542.01	652.46
542.37	654.56
542.72	656.71
543.08	658.85
543.44	661.28
543.79	663.12
544.15	665.44
544.51	668.07
544.87	670.85
545.22	673.54
545.58	675.75
545.94	678.03
546.29	680.12
546.65	682.35
547.01	684.45
547.36	686.78
547.72	689.20
548.07	691.48
548.43	693.67
548.79	695.85
549.14	698.22
549.50	700.55
549.86	702.76
550.21	705.21
550.57	707.82
550.92	710.02
551.28	712.64
551.64	714.93
551.99	717.25
552.35	719.42
552.70	721.53
553.06	724.05
553.41	726.72
553.77	729.56
554.13	732.05
554.48	734.88
554.84	737.55
555.19	739.87
555.55	742.57
555.90	744.83
556.26	747.13
556.61	749.40
556.97	751.51
557.32	754.03
557.68	755.99
558.03	757.92
558.39	759.99
558.74	762.29
559.10	764.55
559.45	766.70
559.81	769.00
560.16	771.01
560.52	773.00
560.87	774.87
561.23	776.47
561.58	778.55
561.94	780.25
562.29	781.60
562.64	783.44
563.00	784.86
563.35	786.97
563.71	789.20
564.06	791.14
564.42	793.04
564.77	794.79
565.12	796.90
565.48	799.18
565.83	801.17
566.19	803.00
566.54	804.45
566.89	805.86
567.25	807.59
567.60	809.55
567.96	811.51
568.31	813.30
568.66	814.94
569.02	816.32
569.37	817.47
569.72	818.93
570.08	820.18
570.43	821.46
570.78	822.35
571.14	823.16
571.49	823.92
571.84	824.93
572.20	825.59
572.55	826.45
572.90	826.71
573.26	827.11
573.61	827.42
573.96	827.97
574.31	828.15
574.67	828.07
575.02	828.00
575.37	827.62
575.72	827.19
576.08	827.06
576.43	826.62
576.78	826.62
577.13	826.55
577.49	826.33
577.84	826.06
578.19	825.96
578.54	825.80
578.90	825.90
579.25	825.37
579.60	824.64
579.95	823.80
580.30	823.42
580.66	822.99
581.01	822.30
581.36	821.48
581.71	820.81
582.06	820.17
582.42	819.47
582.77	818.44
583.12	817.72
583.47	816.79
583.82	816.05
584.17	815.05
584.53	814.30
584.88	813.20
585.23	812.11
585.58	810.79
585.93	809.65
586.28	808.39
586.63	807.46
586.98	806.81
587.34	806.01
587.69	804.69
588.04	803.49
588.39	802.44
588.74	801.13
589.09	800.32
589.44	798.97
589.79	797.85
590.14	796.80
590.49	795.54
590.84	794.36
591.19	793.25
591.54	792.09
591.89	790.33
592.25	789.27
592.60	787.80
592.95	786.35
593.30	784.37
593.65	782.49
594.00	780.63
594.35	779.74
594.70	777.88
595.05	776.49
595.40	774.82
595.75	772.89
596.10	771.55
596.45	769.72
596.80	768.30
597.15	766.62
597.50	764.94
597.85	763.24
598.19	761.34
598.54	759.67
598.89	757.87
599.24	756.46
599.59	754.51
599.94	752.82
600.29	751.06
600.64	749.53
600.99	747.84
601.34	746.17
601.69	743.57
602.04	741.60
602.39	739.48
602.74	737.66
603.08	736.15
603.43	734.40
603.78	732.57
604.13	730.53
604.48	728.72
604.83	727.12
605.18	725.65
605.53	723.82
605.87	721.72
606.22	719.98
606.57	717.87
606.92	715.84
607.27	713.86
607.62	711.78
607.96	709.99
608.31	708.31
608.66	706.30
609.01	704.14
609.36	702.12
609.70	699.95
610.05	697.70
610.40	695.46
610.75	693.02
611.10	690.87
611.44	688.39
611.79	685.86
612.14	683.28
612.49	680.54
612.83	678.17
613.18	675.69
613.53	673.05
613.88	670.55
614.22	668.17
614.57	665.75
614.92	663.38
615.27	660.87
615.61	658.36
615.96	656.03
616.31	653.76
616.65	651.80
617.00	649.61
617.35	647.36
617.70	644.89
618.04	642.31
618.39	639.63
618.74	637.44
619.08	635.02
619.43	632.68
619.78	630.43
620.12	628.19
620.47	625.95
620.82	623.59
621.16	620.79
621.51	618.47
621.85	615.99
622.20	613.77
622.55	611.25
622.89	608.58
623.24	606.00
623.59	603.32
623.93	600.61
624.28	598.32
624.62	596.08
624.97	593.79
625.32	591.54
625.66	589.34
626.01	586.93
626.35	584.58
626.70	582.09
627.04	579.80
627.39	577.36
627.73	575.18
628.08	572.95
628.43	570.93
628.77	568.53
629.12	566.18
629.46	564.00
629.81	561.91
630.15	559.64
630.50	557.36
630.84	555.05
631.19	552.76
631.53	550.33
631.88	547.84
632.22	545.49
632.57	543.58
632.91	541.38
633.26	539.22
633.60	537.13
633.95	535.13
634.29	532.78
634.64	530.61
634.98	528.17
635.32	525.98
635.67	524.11
636.01	522.10
636.36	519.99
636.70	517.93
637.05	515.77
637.39	513.90
637.73	512.00
638.08	510.56
638.42	508.67
638.77	506.93
639.11	504.95
639.45	502.97
639.80	500.71
640.14	498.63
640.49	496.69
640.83	494.46
641.17	492.32
641.52	490.42
641.86	488.41
642.20	486.57
642.55	484.40
642.89	482.28
643.23	480.24
643.58	478.62
643.92	476.43
644.26	474.49
644.61	472.53
644.95	470.55
645.29	468.21
645.64	466.22
645.98	464.20
646.32	462.29
646.66	460.19
647.01	458.23
647.35	456.28
647.69	454.27
648.04	452.63
648.38	450.70
648.72	448.91
649.06	446.99
649.41	445.07
649.75	443.30
650.09	441.45
650.43	439.53
650.78	437.37
651.12	435.47
651.46	433.53
651.80	431.72
652.14	429.94
652.49	428.23
652.83	426.39
653.17	424.44
653.51	422.55
653.85	420.87
654.20	419.10
654.54	417.23
654.88	415.38
655.22	413.52
655.56	411.61
655.90	409.51
656.25	407.70
656.59	405.88
656.93	404.16
657.27	402.62
657.61	400.77
657.95	399.18
658.29	397.53
658.64	396.08
658.98	394.34
659.32	392.52
659.66	390.89
660.00	389.21
660.34	387.47
660.68	385.82
661.02	384.25
661.36	382.65
661.70	381.19
662.05	379.69
662.39	378.35
662.73	377.16
663.07	375.97
663.41	374.54
663.75	373.16
664.09	371.58
664.43	369.85
664.77	368.55
665.11	366.94
665.45	365.49
665.79	363.96
666.13	362.57
666.47	361.12
666.81	359.65
667.15	358.24
667.49	357.07
667.83	355.73
668.17	354.24
668.51	352.90
668.85	351.61
669.19	350.54
669.53	349.02
669.87	347.53
670.21	346.14
670.55	345.01
670.89	343.92
671.23	342.79
671.57	341.62
671.91	340.34
672.25	339.23
672.58	338.16
672.92	336.96
673.26	335.75
673.60	334.60
673.94	333.47
674.28	332.24
674.62	331.13
674.96	330.13
675.30	329.19
675.64	328.14
675.97	327.05
676.31	325.95
676.65	325.02
676.99	324.30
677.33	323.17
677.67	322.07
678.01	320.92
678.34	320.03
678.68	319.11
679.02	318.16
679.36	317.13
679.70	316.10
680.04	315.13
680.37	314.11
680.71	313.25
681.05	312.37
681.39	311.53
681.73	310.52
682.06	309.61
682.40	308.73
682.74	307.83
683.08	307.11
683.42	306.10
683.75	305.22
684.09	304.13
684.43	303.37
684.77	302.42
685.10	301.46
685.44	300.56
685.78	299.61
686.12	298.82
686.45	298.02
686.79	297.15
687.13	296.46
687.46	295.77
687.80	295.08
688.14	294.19
688.48	293.43
688.81	292.64
689.15	291.87
689.49	291.06
689.82	290.35
690.16	289.33
690.50	288.49
690.83	287.62
691.17	286.76
691.51	285.94
691.84	285.24
692.18	284.54
692.52	283.78
692.85	283.20
693.19	282.60
693.52	281.79
693.86	281.07
694.20	280.31
694.53	279.53
694.87	278.69
695.21	278.00
695.54	277.33
695.88	276.48
696.21	275.66
696.55	274.95
696.88	274.16
697.22	273.58
697.56	273.02
697.89	272.38
698.23	271.90
698.56	271.24
698.90	270.67
699.23	269.97
699.57	269.30
699.90	268.48
700.24	267.72
700.58	267.27
700.91	266.69
701.25	266.28
701.58	265.86
701.92	265.41
702.25	264.87
702.59	264.18
702.92	263.75
703.26	263.26
703.59	262.70
703.93	262.59
704.26	261.98
704.60	261.51
704.93	260.95
705.26	260.30
705.60	259.81
705.93	259.23
706.27	258.79
706.60	258.55
706.94	258.26
707.27	257.69
707.61	257.14
707.94	256.64
708.27	255.84
708.61	255.19
708.94	254.69
709.28	254.17
709.61	253.81
709.94	253.35
710.28	252.90
710.61	252.54
710.95	251.76
711.28	251.62
711.61	251.06
711.95	250.74
712.28	250.36
712.61	250.00
712.95	249.78
713.28	249.62
713.61	249.00
713.95	248.56
714.28	248.28
714.61	247.90
714.95	247.46
715.28	247.14
715.61	246.80
715.95	246.43
716.28	245.97
716.61	245.59
716.95	245.21
717.28	244.85
717.61	244.49
717.94	244.07
718.28	243.44
718.61	243.12
718.94	242.73
719.27	242.38
719.61	242.10
719.94	241.70
720.27	241.22
720.60	240.88
720.94	240.47
721.27	240.13
721.60	239.85
721.93	239.63
722.27	239.47
722.60	239.23
722.93	238.89
723.26	238.76
723.59	238.46
723.93	238.20
724.26	237.98
724.59	237.71
724.92	237.50
725.25	237.40
725.59	237.23
725.92	236.98
726.25	236.70
726.58	236.42
726.91	236.07
727.24	235.78
727.57	235.56
727.91	235.34
728.24	235.21
728.57	234.96
728.90	234.73
729.23	234.34
729.56	234.32
729.89	234.04
730.22	233.75
730.55	233.58
730.89	233.50
731.22	233.22
731.55	232.93
731.88	232.73
732.21	232.43
732.54	232.20
732.87	231.97
733.20	231.80
733.53	231.61
733.86	231.45
734.19	231.29
734.52	231.07
734.85	231.21
735.18	230.90
735.51	230.80
735.84	230.63
736.17	230.60
736.50	230.21
736.83	230.51
737.16	230.42
737.49	230.24
737.82	229.93
738.15	229.83
738.48	229.64
738.81	229.45
739.14	229.29
739.47	229.06
739.80	228.91
740.13	228.74
740.46	228.54
740.79	228.30
741.12	228.10
741.45	227.96
741.78	227.58
742.11	227.51
742.44	227.25
742.77	227.19
743.10	226.89
743.43	226.74
743.75	226.14
744.08	226.37
744.41	226.10
744.74	225.88
745.07	225.61
745.40	225.52
745.73	225.46
746.06	225.23
746.39	225.12
746.71	224.95
747.04	224.75
747.37	224.59
747.70	224.63
748.03	224.47
748.36	224.33
748.68	224.09
749.01	223.85
749.34	223.72
749.67	223.51
750.00	223.47
750.33	223.59
750.65	223.54
750.98	222.90
751.31	222.90
751.64	222.86
751.97	222.94
752.29	222.80
752.62	222.57
752.95	222.52
753.28	222.29
753.60	222.25
753.93	222.26
754.26	222.19
754.59	221.83
754.91	221.71
755.24	221.63
755.57	221.58
755.90	221.47
756.22	221.35
756.55	221.21
756.88	220.99
757.20	220.64
757.53	220.45
757.86	220.37
758.19	220.24
758.51	220.13
758.84	219.83
759.17	219.77
759.49	219.66
759.82	219.72
760.15	219.71
760.47	219.48
760.80	219.30
761.13	219.27
761.45	219.22
761.78	219.15
762.11	219.07
762.43	218.91
762.76	218.79
763.08	218.79
763.41	218.71
763.74	218.70
764.06	218.60
764.39	218.47
764.71	218.37
765.04	218.27
765.37	218.14
765.69	218.09
766.02	217.94
766.34	217.86
766.67	217.64
767.00	217.53
767.32	217.65
767.65	217.73
767.97	217.54
768.30	217.54
768.62	217.43
768.95	217.27
769.27	217.25
769.60	217.29
769.92	217.10
770.25	217.00
770.57	216.90
770.90	216.80
771.22	216.71
771.55	216.73
771.87	216.62
772.20	216.57
772.52	216.76
772.85	217.15
773.17	217.11
773.50	217.02
773.82	217.03
774.15	216.81
774.47	216.56
774.80	216.50
775.12	216.41
775.45	216.32
775.77	216.36
776.09	216.30
776.42	216.19
776.74	216.22
777.07	216.19
777.39	216.10
777.72	216.07
778.04	216.08
778.36	215.97
778.69	215.95
779.01	215.90
779.33	215.59
779.66	215.12
779.98	215.03
780.31	214.94
780.63	215.04
780.95	215.05
781.28	214.98
781.60	214.90
781.92	214.87
782.25	214.90
782.57	214.78
782.89	214.70
783.22	214.66
783.54	214.57
783.86	214.48
784.19	214.42
784.51	214.52
784.83	214.44
785.16	214.41
785.48	214.37
785.80	214.36
786.12	214.35
786.45	214.34
786.77	214.35
787.09	214.38
787.42	214.19
787.74	214.19
788.06	214.24
788.38	214.27
788.71	214.22
789.03	214.18
789.35	214.26
789.67	214.17
789.99	214.24
790.32	214.19
790.64	214.23
790.96	214.60
791.28	214.45
791.61	214.48
791.93	214.50
792.25	214.50
792.57	214.79
792.89	214.72
793.21	214.73
793.54	214.73
793.86	214.69
794.18	214.70
