SpectraSuite Data File
++++++++++++++++++++++++++++++++++++
Date: Mon Feb 25 17:10:18 EST 2013
User: group
Dark Spectrum Present: No
Reference Spectrum Present: No
Number of Sampled Component Spectra: 1
Spectrometers: USB2E7196
Integration Time (usec): 104000 (USB2E7196)
Spectra Averaged: 20 (USB2E7196)
Boxcar Smoothing: 10 (USB2E7196)
Correct for Electrical Dark: No (USB2E7196)
Strobe/Lamp Enabled: No (USB2E7196)
Correct for Detector Non-linearity: No (USB2E7196)
Correct for Stray Light: No (USB2E7196)
Number of Pixels in Processed Spectrum: 2048
>>>>>Begin Processed Spectral Data<<<<<
339.09	0.00
339.48	199.60
339.86	200.20
340.24	200.65
340.63	202.05
341.01	209.80
341.39	205.60
341.78	206.75
342.16	208.50
342.54	207.25
342.93	197.90
343.31	207.86
343.69	208.32
344.07	208.80
344.46	209.26
344.84	209.62
345.22	209.64
345.60	209.83
345.99	210.01
346.37	210.09
346.75	210.22
347.13	210.20
347.52	210.34
347.90	210.45
348.28	210.54
348.66	210.66
349.05	210.56
349.43	210.60
349.81	210.66
350.19	210.71
350.57	210.84
350.96	210.81
351.34	210.94
351.72	210.99
352.10	211.04
352.48	211.05
352.87	211.13
353.25	211.18
353.63	211.28
354.01	211.31
354.39	211.40
354.77	211.50
355.15	211.65
355.54	211.67
355.92	211.63
356.30	211.67
356.68	211.89
357.06	212.03
357.44	212.05
357.82	212.12
358.20	212.17
358.58	212.14
358.97	212.35
359.35	212.49
359.73	212.61
360.11	212.66
360.49	212.79
360.87	212.84
361.25	212.93
361.63	213.12
362.01	213.19
362.39	213.25
362.77	213.33
363.15	213.33
363.53	213.37
363.91	213.39
364.29	213.39
364.67	213.06
365.05	213.02
365.43	213.13
365.81	213.15
366.19	213.39
366.57	213.46
366.95	213.43
367.33	213.29
367.71	213.32
368.09	213.39
368.47	213.34
368.85	213.27
369.23	213.37
369.61	213.20
369.99	213.36
370.37	213.30
370.75	213.38
371.13	213.30
371.51	213.20
371.89	213.22
372.27	213.22
372.65	213.28
373.03	213.27
373.41	213.23
373.78	213.20
374.16	212.92
374.54	212.87
374.92	212.76
375.30	212.77
375.68	212.69
376.06	212.71
376.44	212.69
376.82	212.73
377.19	212.65
377.57	212.58
377.95	212.37
378.33	212.36
378.71	212.12
379.09	212.18
379.47	212.17
379.84	212.11
380.22	212.06
380.60	211.93
380.98	211.79
381.36	211.67
381.73	211.52
382.11	211.53
382.49	211.40
382.87	211.28
383.25	211.23
383.62	211.50
384.00	211.35
384.38	211.21
384.76	211.17
385.13	211.25
385.51	211.23
385.89	211.14
386.27	211.15
386.64	211.27
387.02	211.20
387.40	211.17
387.78	211.11
388.15	211.07
388.53	211.03
388.91	211.05
389.29	210.97
389.66	211.03
390.04	210.98
390.42	211.08
390.79	211.15
391.17	211.10
391.55	210.69
391.92	210.64
392.30	210.67
392.68	210.57
393.05	210.56
393.43	210.56
393.81	210.56
394.18	210.46
394.56	210.38
394.94	210.48
395.31	210.42
395.69	210.62
396.06	210.71
396.44	210.76
396.82	210.68
397.19	210.91
397.57	210.90
397.95	210.99
398.32	210.93
398.70	210.93
399.07	210.96
399.45	211.01
399.82	211.04
400.20	211.15
400.58	211.21
400.95	211.00
401.33	211.05
401.70	211.33
402.08	211.35
402.45	211.30
402.83	211.31
403.20	211.42
403.58	211.36
403.95	211.41
404.33	211.52
404.71	211.65
405.08	211.88
405.46	211.94
405.83	212.00
406.21	212.12
406.58	212.20
406.96	212.34
407.33	212.45
407.70	212.61
408.08	212.97
408.45	213.10
408.83	213.35
409.20	213.50
409.58	213.48
409.95	213.79
410.33	214.08
410.70	214.21
411.08	214.46
411.45	214.77
411.82	214.94
412.20	215.23
412.57	215.70
412.95	215.63
413.32	216.09
413.69	216.45
414.07	216.84
414.44	217.30
414.82	217.73
415.19	218.31
415.56	218.77
415.94	219.11
416.31	219.85
416.68	220.52
417.06	221.26
417.43	221.99
417.81	222.67
418.18	223.45
418.55	224.26
418.93	225.09
419.30	226.00
419.67	227.07
420.04	228.03
420.42	229.07
420.79	230.62
421.16	231.80
421.54	233.23
421.91	234.56
422.28	235.99
422.66	237.46
423.03	239.12
423.40	240.60
423.77	242.20
424.15	243.69
424.52	245.39
424.89	247.24
425.26	248.91
425.64	250.64
426.01	252.43
426.38	254.43
426.75	256.45
427.13	258.39
427.50	260.38
427.87	262.61
428.24	264.72
428.61	266.62
428.99	268.96
429.36	271.25
429.73	273.61
430.10	276.00
430.47	278.56
430.85	280.98
431.22	283.78
431.59	286.83
431.96	289.56
432.33	292.58
432.70	295.60
433.08	299.16
433.45	302.43
433.82	305.77
434.19	309.39
434.56	312.96
434.93	316.35
435.30	319.82
435.68	323.60
436.05	327.45
436.42	331.13
436.79	334.61
437.16	338.29
437.53	342.29
437.90	346.10
438.27	349.89
438.64	353.70
439.01	357.40
439.38	360.49
439.75	363.71
440.13	367.27
440.50	370.54
440.87	373.27
441.24	376.16
441.61	379.36
441.98	381.75
442.35	384.43
442.72	387.39
443.09	390.20
443.46	391.83
443.83	392.88
444.20	393.85
444.57	395.14
444.94	395.87
445.31	396.47
445.68	397.54
446.05	397.75
446.42	397.44
446.79	397.05
447.16	396.61
447.53	396.37
447.90	395.01
448.27	393.57
448.64	391.69
449.01	390.25
449.37	387.77
449.74	385.29
450.11	382.67
450.48	379.35
450.85	376.03
451.22	373.31
451.59	370.71
451.96	368.26
452.33	364.89
452.70	361.84
453.07	358.13
453.43	354.06
453.80	350.54
454.17	347.07
454.54	343.80
454.91	340.30
455.28	336.89
455.65	333.65
456.02	331.02
456.38	328.29
456.75	324.96
457.12	322.09
457.49	319.37
457.86	316.44
458.23	314.21
458.59	311.60
458.96	308.96
459.33	306.57
459.70	304.20
460.07	302.40
460.43	300.32
460.80	298.47
461.17	296.80
461.54	295.00
461.91	293.27
462.27	291.48
462.64	290.03
463.01	288.38
463.38	286.98
463.74	284.85
464.11	283.38
464.48	282.12
464.85	280.81
465.21	279.84
465.58	278.72
465.95	277.40
466.32	276.39
466.68	275.35
467.05	274.33
467.42	273.34
467.78	272.12
468.15	271.02
468.52	270.25
468.88	269.18
469.25	268.25
469.62	267.56
469.98	266.67
470.35	265.92
470.72	265.17
471.08	264.29
471.45	263.83
471.82	263.35
472.18	262.76
472.55	262.26
472.92	261.54
473.28	261.03
473.65	260.51
474.02	260.03
474.38	259.61
474.75	259.28
475.11	258.87
475.48	258.65
475.85	258.40
476.21	258.14
476.58	257.99
476.94	257.82
477.31	257.61
477.67	257.55
478.04	257.30
478.41	257.22
478.77	257.43
479.14	257.27
479.50	257.06
479.87	257.10
480.23	257.07
480.60	257.09
480.96	257.19
481.33	257.49
481.69	257.49
482.06	257.60
482.42	257.75
482.79	258.01
483.15	258.26
483.52	258.53
483.88	258.73
484.25	258.85
484.61	259.18
484.98	259.60
485.34	260.06
485.71	260.61
486.07	261.13
486.44	261.33
486.80	261.77
487.17	262.41
487.53	262.95
487.90	263.63
488.26	264.58
488.62	265.41
488.99	266.05
489.35	267.02
489.72	267.95
490.08	268.83
490.44	269.71
490.81	270.72
491.17	271.74
491.54	272.89
491.90	274.14
492.26	275.36
492.63	276.64
492.99	277.96
493.36	279.36
493.72	280.85
494.08	282.35
494.45	284.01
494.81	285.81
495.17	287.50
495.54	289.44
495.90	291.21
496.26	293.03
496.63	295.05
496.99	297.03
497.35	299.15
497.72	301.37
498.08	303.67
498.44	305.99
498.80	308.53
499.17	311.03
499.53	313.68
499.89	316.50
500.26	319.21
500.62	321.87
500.98	324.90
501.34	327.94
501.71	331.16
502.07	334.32
502.43	337.48
502.79	340.79
503.16	344.18
503.52	347.70
503.88	351.39
504.24	355.07
504.60	358.92
504.97	362.91
505.33	367.00
505.69	371.29
506.05	375.53
506.41	379.78
506.78	384.14
507.14	388.50
507.50	392.96
507.86	397.63
508.22	402.54
508.59	407.29
508.95	412.10
509.31	417.19
509.67	422.37
510.03	427.54
510.39	432.95
510.75	438.21
511.12	443.46
511.48	448.89
511.84	454.36
512.20	459.88
512.56	465.61
512.92	471.39
513.28	477.16
513.64	482.97
514.00	488.95
514.37	495.01
514.73	501.08
515.09	507.18
515.45	513.32
515.81	519.57
516.17	525.83
516.53	532.11
516.89	538.25
517.25	544.68
517.61	551.08
517.97	557.42
518.33	563.93
518.69	570.60
519.05	577.07
519.41	583.92
519.77	590.90
520.13	597.57
520.49	604.19
520.85	610.98
521.21	617.98
521.57	624.88
521.93	631.53
522.29	638.67
522.65	645.74
523.01	652.64
523.37	659.30
523.73	666.35
524.09	673.44
524.45	680.44
524.81	687.50
525.17	694.61
525.53	701.76
525.89	708.81
526.25	715.92
526.61	722.78
526.97	729.79
527.33	736.80
527.68	744.15
528.04	751.01
528.40	757.77
528.76	764.59
529.12	771.58
529.48	778.81
529.84	785.61
530.20	792.46
530.56	799.76
530.91	807.01
531.27	814.01
531.63	820.86
531.99	827.98
532.35	834.68
532.71	841.52
533.07	848.48
533.42	855.68
533.78	862.25
534.14	869.18
534.50	875.40
534.86	881.79
535.21	887.63
535.57	894.43
535.93	900.66
536.29	907.10
536.65	913.24
537.00	919.32
537.36	925.40
537.72	931.16
538.08	936.76
538.44	942.52
538.79	948.25
539.15	954.01
539.51	959.65
539.87	965.44
540.22	970.90
540.58	976.61
540.94	981.60
541.29	986.76
541.65	991.61
542.01	996.68
542.37	1001.50
542.72	1006.47
543.08	1010.85
543.44	1016.00
543.79	1020.44
544.15	1024.86
544.51	1029.49
544.87	1033.92
545.22	1038.13
545.58	1042.16
545.94	1045.76
546.29	1049.44
546.65	1052.48
547.01	1055.50
547.36	1058.71
547.72	1061.95
548.07	1064.55
548.43	1067.30
548.79	1070.05
549.14	1072.77
549.50	1075.60
549.86	1077.99
550.21	1080.40
550.57	1083.15
550.92	1084.90
551.28	1086.68
551.64	1088.75
551.99	1090.71
552.35	1092.27
552.70	1094.14
553.06	1095.82
553.41	1097.58
553.77	1098.98
554.13	1100.97
554.48	1102.86
554.84	1104.33
555.19	1105.62
555.55	1106.86
555.90	1107.84
556.26	1108.82
556.61	1109.81
556.97	1110.35
557.32	1111.18
557.68	1111.68
558.03	1112.04
558.39	1112.77
558.74	1113.74
559.10	1114.46
559.45	1114.74
559.81	1115.45
560.16	1115.80
560.52	1116.22
560.87	1116.69
561.23	1116.71
561.58	1117.05
561.94	1116.81
562.29	1116.40
562.64	1116.12
563.00	1116.02
563.35	1116.27
563.71	1116.54
564.06	1116.57
564.42	1116.65
564.77	1116.72
565.12	1116.90
565.48	1116.81
565.83	1116.61
566.19	1116.48
566.54	1115.69
566.89	1114.94
567.25	1114.48
567.60	1114.04
567.96	1113.38
568.31	1112.62
568.66	1111.96
569.02	1110.67
569.37	1109.80
569.72	1109.01
570.08	1108.13
570.43	1106.85
570.78	1105.45
571.14	1103.76
571.49	1102.14
571.84	1101.09
572.20	1099.36
572.55	1097.70
572.90	1095.74
573.26	1093.76
573.61	1091.63
573.96	1089.83
574.31	1087.84
574.67	1085.40
575.02	1082.79
575.37	1080.37
575.72	1077.79
576.08	1075.75
576.43	1073.46
576.78	1071.09
577.13	1069.07
577.49	1066.68
577.84	1064.59
578.19	1062.48
578.54	1060.52
578.90	1058.48
579.25	1056.00
579.60	1053.77
579.95	1051.21
580.30	1049.14
580.66	1047.14
581.01	1044.69
581.36	1042.16
581.71	1039.78
582.06	1037.60
582.42	1035.72
582.77	1033.38
583.12	1031.23
583.47	1029.03
583.82	1026.87
584.17	1024.72
584.53	1022.37
584.88	1019.95
585.23	1017.39
585.58	1014.95
585.93	1012.35
586.28	1010.30
586.63	1007.74
586.98	1005.30
587.34	1003.34
587.69	1000.76
588.04	998.20
588.39	995.94
588.74	993.49
589.09	991.19
589.44	988.40
589.79	985.71
590.14	983.58
590.49	981.10
590.84	978.22
591.19	976.06
591.54	973.38
591.89	970.45
592.25	968.15
592.60	965.40
592.95	962.62
593.30	959.81
593.65	956.64
594.00	953.77
594.35	951.88
594.70	948.84
595.05	946.34
595.40	943.57
595.75	940.45
596.10	937.92
596.45	935.43
596.80	933.35
597.15	930.93
597.50	928.01
597.85	925.60
598.19	923.08
598.54	920.37
598.89	918.06
599.24	916.02
599.59	913.48
599.94	911.51
600.29	909.10
600.64	906.90
600.99	904.38
601.34	902.10
601.69	898.81
602.04	896.37
602.39	893.89
602.74	891.71
603.08	889.84
603.43	887.85
603.78	885.44
604.13	882.93
604.48	880.72
604.83	878.74
605.18	876.68
605.53	874.44
605.87	872.01
606.22	869.74
606.57	867.02
606.92	864.47
607.27	861.76
607.62	859.20
607.96	856.88
608.31	854.91
608.66	852.46
609.01	850.08
609.36	847.54
609.70	844.74
610.05	841.78
610.40	839.05
610.75	835.94
611.10	833.38
611.44	830.12
611.79	826.89
612.14	823.49
612.49	820.00
612.83	816.93
613.18	813.74
613.53	810.33
613.88	807.08
614.22	804.15
614.57	800.90
614.92	797.87
615.27	794.58
615.61	791.15
615.96	788.04
616.31	784.93
616.65	782.09
617.00	779.21
617.35	776.12
617.70	772.76
618.04	769.42
618.39	765.68
618.74	762.85
619.08	759.70
619.43	756.84
619.78	753.67
620.12	750.58
620.47	747.53
620.82	744.03
621.16	740.67
621.51	737.45
621.85	734.36
622.20	730.94
622.55	727.55
622.89	724.13
623.24	720.83
623.59	717.40
623.93	714.07
624.28	710.76
624.62	708.08
624.97	705.16
625.32	702.17
625.66	699.31
626.01	696.24
626.35	693.28
626.70	690.11
627.04	687.53
627.39	684.64
627.73	681.84
628.08	679.37
628.43	676.49
628.77	673.42
629.12	670.40
629.46	667.88
629.81	665.09
630.15	662.37
630.50	659.36
630.84	656.35
631.19	653.34
631.53	650.32
631.88	646.97
632.22	643.80
632.57	641.07
632.91	638.13
633.26	635.30
633.60	632.43
633.95	629.69
634.29	626.71
634.64	624.00
634.98	620.81
635.32	618.03
635.67	615.50
636.01	612.80
636.36	610.02
636.70	607.30
637.05	604.52
637.39	601.93
637.73	599.56
638.08	597.50
638.42	595.26
638.77	593.00
639.11	590.34
639.45	587.85
639.80	585.08
640.14	582.46
640.49	579.72
640.83	576.97
641.17	574.41
641.52	571.51
641.86	568.59
642.20	566.15
642.55	563.19
642.89	560.44
643.23	557.79
643.58	555.47
643.92	552.60
644.26	550.08
644.61	547.42
644.95	544.69
645.29	541.75
645.64	539.04
645.98	536.26
646.32	533.93
646.66	531.10
647.01	528.44
647.35	526.06
647.69	523.38
648.04	520.99
648.38	518.34
648.72	515.85
649.06	513.42
649.41	510.89
649.75	508.49
650.09	506.02
650.43	503.48
650.78	500.66
651.12	498.23
651.46	495.85
651.80	493.50
652.14	491.08
652.49	488.75
652.83	486.11
653.17	483.56
653.51	480.93
653.85	478.87
654.20	476.57
654.54	474.09
654.88	471.63
655.22	469.18
655.56	466.77
655.90	464.45
656.25	461.90
656.59	459.43
656.93	457.15
657.27	454.78
657.61	452.38
657.95	450.21
658.29	447.88
658.64	445.64
658.98	443.12
659.32	440.73
659.66	438.40
660.00	436.06
660.34	433.80
660.68	431.61
661.02	429.27
661.36	427.10
661.70	424.90
662.05	422.98
662.39	421.01
662.73	419.05
663.07	417.32
663.41	415.45
663.75	413.51
664.09	411.47
664.43	409.46
664.77	407.57
665.11	405.55
665.45	403.81
665.79	401.87
666.13	400.05
666.47	398.19
666.81	396.36
667.15	394.65
667.49	392.99
667.83	391.39
668.17	389.72
668.51	388.11
668.85	386.48
669.19	384.99
669.53	383.29
669.87	381.60
670.21	379.75
670.55	378.09
670.89	376.68
671.23	375.21
671.57	373.69
671.91	372.16
672.25	370.61
672.58	369.11
672.92	367.55
673.26	366.16
673.60	364.80
673.94	363.37
674.28	361.93
674.62	360.58
674.96	359.12
675.30	357.64
675.64	356.22
675.97	354.87
676.31	353.37
676.65	351.93
676.99	350.71
677.33	349.37
677.67	348.05
678.01	346.51
678.34	345.13
678.68	343.90
679.02	342.56
679.36	341.43
679.70	340.08
680.04	338.81
680.37	337.49
680.71	336.23
681.05	335.02
681.39	333.85
681.73	332.58
682.06	331.37
682.40	330.25
682.74	329.15
683.08	328.06
683.42	326.73
683.75	325.60
684.09	324.32
684.43	323.14
684.77	321.96
685.10	320.79
685.44	319.65
685.78	318.47
686.12	317.36
686.45	316.20
686.79	315.10
687.13	314.13
687.46	313.16
687.80	312.21
688.14	311.12
688.48	309.98
688.81	308.85
689.15	307.80
689.49	306.65
689.82	305.40
690.16	304.14
690.50	303.20
690.83	302.08
691.17	300.99
691.51	299.92
691.84	299.00
692.18	298.07
692.52	297.25
692.85	296.50
693.19	295.80
693.52	294.86
693.86	293.91
694.20	292.97
694.53	291.98
694.87	290.87
695.21	289.92
695.54	289.04
695.88	288.08
696.21	287.17
696.55	286.37
696.88	285.64
697.22	284.81
697.56	284.05
697.89	283.34
698.23	282.60
698.56	281.85
698.90	281.10
699.23	280.24
699.57	279.36
699.90	278.39
700.24	277.48
700.58	276.66
700.91	275.93
701.25	275.39
701.58	274.75
701.92	274.24
702.25	273.58
702.59	272.87
702.92	272.30
703.26	271.61
703.59	270.99
703.93	270.57
704.26	270.00
704.60	269.37
704.93	268.72
705.26	268.06
705.60	267.44
705.93	266.79
706.27	266.34
706.60	265.86
706.94	265.50
707.27	264.79
707.61	264.33
707.94	263.71
708.27	262.92
708.61	262.31
708.94	261.72
709.28	261.17
709.61	260.57
709.94	259.99
710.28	259.44
710.61	258.90
710.95	258.14
711.28	257.80
711.61	257.25
711.95	256.78
712.28	256.21
712.61	255.70
712.95	255.33
713.28	255.06
713.61	254.44
713.95	253.75
714.28	253.36
714.61	252.80
714.95	252.31
715.28	251.79
715.61	251.33
715.95	250.86
716.28	250.39
716.61	250.05
716.95	249.61
717.28	249.20
717.61	248.81
717.94	248.42
718.28	247.86
718.61	247.42
718.94	246.90
719.27	246.56
719.61	246.18
719.94	245.74
720.27	245.09
720.60	244.81
720.94	244.55
721.27	244.17
721.60	243.96
721.93	243.68
722.27	243.53
722.60	243.19
722.93	242.82
723.26	242.54
723.59	242.15
723.93	241.90
724.26	241.68
724.59	241.29
724.92	241.03
725.25	240.76
725.59	240.54
725.92	240.35
726.25	240.00
726.58	239.85
726.91	239.51
727.24	239.28
727.57	238.91
727.91	238.55
728.24	238.31
728.57	237.91
728.90	237.69
729.23	237.30
729.56	237.21
729.89	236.95
730.22	236.68
730.55	236.41
730.89	236.18
731.22	235.83
731.55	235.57
731.88	235.34
732.21	235.03
732.54	234.68
732.87	234.42
733.20	234.26
733.53	233.95
733.86	233.76
734.19	233.45
734.52	233.33
734.85	233.36
735.18	233.05
735.51	232.92
735.84	232.71
736.17	232.55
736.50	232.18
736.83	232.40
737.16	232.15
737.49	231.95
737.82	231.69
738.15	231.61
738.48	231.44
738.81	231.12
739.14	230.94
739.47	230.72
739.80	230.52
740.13	230.31
740.46	230.03
740.79	229.78
741.12	229.61
741.45	229.36
741.78	228.97
742.11	228.94
742.44	228.68
742.77	228.57
743.10	228.38
743.43	228.10
743.75	227.54
744.08	227.81
744.41	227.64
744.74	227.42
745.07	227.16
745.40	227.11
745.73	227.08
746.06	226.86
746.39	226.70
746.71	226.50
747.04	226.33
747.37	226.18
747.70	226.07
748.03	225.93
748.36	225.79
748.68	225.60
749.01	225.37
749.34	225.22
749.67	225.00
750.00	224.82
750.33	224.97
750.65	224.82
750.98	224.26
751.31	224.07
751.64	223.92
751.97	223.97
752.29	223.72
752.62	223.49
752.95	223.30
753.28	223.18
753.60	223.05
753.93	222.96
754.26	222.83
754.59	222.55
754.91	222.34
755.24	222.21
755.57	222.14
755.90	221.99
756.22	221.84
756.55	221.64
756.88	221.51
757.20	221.17
757.53	221.00
757.86	220.87
758.19	220.83
758.51	220.73
758.84	220.40
759.17	220.22
759.49	220.10
759.82	220.22
760.15	220.09
760.47	220.02
760.80	219.86
761.13	219.85
761.45	219.80
761.78	219.75
762.11	219.68
762.43	219.52
762.76	219.45
763.08	219.48
763.41	219.43
763.74	219.30
764.06	219.19
764.39	219.04
764.71	218.92
765.04	218.77
765.37	218.71
765.69	218.64
766.02	218.63
766.34	218.56
766.67	218.31
767.00	218.37
767.32	218.41
767.65	218.53
767.97	218.34
768.30	218.28
768.62	218.16
768.95	218.09
769.27	218.04
769.60	218.02
769.92	217.88
770.25	217.77
770.57	217.63
770.90	217.57
771.22	217.51
771.55	217.46
771.87	217.45
772.20	217.31
772.52	217.54
772.85	217.88
773.17	217.84
773.50	217.79
773.82	217.65
774.15	217.42
774.47	217.20
774.80	217.12
775.12	217.09
775.45	217.02
775.77	216.94
776.09	216.94
776.42	216.85
776.74	216.89
777.07	216.84
777.39	216.85
777.72	216.74
778.04	216.75
778.36	216.67
778.69	216.66
779.01	216.66
779.33	216.31
779.66	215.90
779.98	215.73
780.31	215.69
780.63	215.83
780.95	215.84
781.28	215.70
781.60	215.73
781.92	215.63
782.25	215.62
782.57	215.56
782.89	215.46
783.22	215.35
783.54	215.17
783.86	215.10
784.19	215.00
784.51	215.03
784.83	214.92
785.16	214.83
785.48	214.77
785.80	214.72
786.12	214.69
786.45	214.58
786.77	214.59
787.09	214.55
787.42	214.38
787.74	214.40
788.06	214.41
788.38	214.38
788.71	214.34
789.03	214.33
789.35	214.40
789.67	214.33
789.99	214.29
790.32	214.30
790.64	214.37
790.96	214.63
791.28	214.51
791.61	214.49
