SpectraSuite Data File
++++++++++++++++++++++++++++++++++++
Date: Mon Feb 25 17:00:48 EST 2013
User: group
Dark Spectrum Present: No
Reference Spectrum Present: No
Number of Sampled Component Spectra: 1
Spectrometers: USB2E7196
Integration Time (usec): 104000 (USB2E7196)
Spectra Averaged: 20 (USB2E7196)
Boxcar Smoothing: 10 (USB2E7196)
Correct for Electrical Dark: No (USB2E7196)
Strobe/Lamp Enabled: No (USB2E7196)
Correct for Detector Non-linearity: No (USB2E7196)
Correct for Stray Light: No (USB2E7196)
Number of Pixels in Processed Spectrum: 2048
>>>>>Begin Processed Spectral Data<<<<<
339.09	0.00
339.48	198.05
339.86	200.75
340.24	201.85
340.63	202.10
341.01	208.70
341.39	205.85
341.78	207.65
342.16	209.85
342.54	208.95
342.93	198.52
343.31	208.54
343.69	209.16
344.07	209.72
344.46	210.17
344.84	210.63
345.22	210.75
345.60	211.07
345.99	211.27
346.37	211.31
346.75	211.41
347.13	211.48
347.52	211.50
347.90	211.64
348.28	211.65
348.66	211.75
349.05	211.61
349.43	211.65
349.81	211.73
350.19	211.83
350.57	211.89
350.96	212.04
351.34	212.15
351.72	212.16
352.10	212.13
352.48	212.19
352.87	212.14
353.25	212.16
353.63	212.13
354.01	212.16
354.39	212.26
354.77	212.33
355.15	212.49
355.54	212.43
355.92	212.32
356.30	212.38
356.68	212.63
357.06	212.70
357.44	212.65
357.82	212.66
358.20	212.71
358.58	212.74
358.97	212.67
359.35	212.76
359.73	212.86
360.11	212.86
360.49	212.87
360.87	212.90
361.25	212.94
361.63	213.08
362.01	213.07
362.39	213.04
362.77	213.06
363.15	213.07
363.53	213.18
363.91	213.20
364.29	213.23
364.67	212.90
365.05	212.85
365.43	212.97
365.81	212.97
366.19	213.07
366.57	213.14
366.95	213.14
367.33	213.00
367.71	212.97
368.09	212.98
368.47	212.98
368.85	213.04
369.23	213.14
369.61	212.95
369.99	213.06
370.37	213.09
370.75	213.26
371.13	213.10
371.51	213.00
371.89	213.00
372.27	212.94
372.65	212.90
373.03	212.86
373.41	212.71
373.78	212.67
374.16	212.38
374.54	212.27
374.92	212.24
375.30	212.26
375.68	212.19
376.06	212.18
376.44	212.05
376.82	212.02
377.19	211.85
377.57	211.83
377.95	211.65
378.33	211.59
378.71	211.30
379.09	211.34
379.47	211.37
379.84	211.25
380.22	211.18
380.60	211.16
380.98	211.19
381.36	211.19
381.73	211.05
382.11	211.15
382.49	211.11
382.87	211.00
383.25	210.94
383.62	211.32
384.00	211.21
384.38	211.26
384.76	211.30
385.13	211.36
385.51	211.28
385.89	211.20
386.27	211.15
386.64	211.19
387.02	211.18
387.40	211.11
387.78	211.20
388.15	211.19
388.53	211.15
388.91	211.00
389.29	210.94
389.66	211.00
390.04	210.94
390.42	211.02
390.79	210.97
391.17	210.91
391.55	210.51
391.92	210.52
392.30	210.56
392.68	210.46
393.05	210.51
393.43	210.62
393.81	210.69
394.18	210.69
394.56	210.66
394.94	210.67
395.31	210.62
395.69	210.69
396.06	210.73
396.44	210.75
396.82	210.90
397.19	211.20
397.57	211.20
397.95	211.24
398.32	211.09
398.70	211.20
399.07	211.36
399.45	211.39
399.82	211.40
400.20	211.35
400.58	211.39
400.95	211.27
401.33	211.37
401.70	211.65
402.08	211.66
402.45	211.79
402.83	211.98
403.20	212.06
403.58	212.08
403.95	212.23
404.33	212.44
404.71	212.55
405.08	212.78
405.46	212.94
405.83	213.16
406.21	213.40
406.58	213.65
406.96	213.77
407.33	213.96
407.70	214.26
408.08	214.87
408.45	215.18
408.83	215.61
409.20	215.90
409.58	216.04
409.95	216.58
410.33	217.01
410.70	217.29
411.08	217.89
411.45	218.41
411.82	218.86
412.20	219.47
412.57	220.27
412.95	220.67
413.32	221.50
413.69	222.24
414.07	223.05
414.44	223.91
414.82	224.84
415.19	226.05
415.56	227.19
415.94	228.20
416.31	229.61
416.68	230.98
417.06	232.50
417.43	234.06
417.81	235.64
418.18	237.44
418.55	239.38
418.93	241.31
419.30	243.44
419.67	245.69
420.04	247.92
420.42	250.27
420.79	253.21
421.16	255.94
421.54	258.89
421.91	261.98
422.28	265.04
422.66	268.44
423.03	271.73
423.40	275.11
423.77	278.66
424.15	282.26
424.52	286.03
424.89	290.29
425.26	294.34
425.64	298.28
426.01	302.37
426.38	306.84
426.75	311.44
427.13	316.12
427.50	320.95
427.87	326.13
428.24	331.18
428.61	336.01
428.99	341.51
429.36	347.42
429.73	353.23
430.10	359.15
430.47	365.09
430.85	371.25
431.22	377.89
431.59	384.93
431.96	391.83
432.33	399.27
432.70	406.58
433.08	415.06
433.45	423.13
433.82	431.35
434.19	440.33
434.56	449.17
434.93	457.61
435.30	466.19
435.68	475.79
436.05	485.18
436.42	494.50
436.79	503.17
437.16	512.53
437.53	522.37
437.90	532.13
438.27	541.80
438.64	551.78
439.01	561.21
439.38	569.56
439.75	577.59
440.13	586.78
440.50	595.43
440.87	602.77
441.24	610.30
441.61	618.52
441.98	624.79
442.35	632.09
442.72	639.41
443.09	646.74
443.46	651.12
443.83	654.51
444.20	657.50
444.57	661.32
444.94	663.28
445.31	665.51
445.68	667.82
446.05	669.19
446.42	669.00
446.79	668.47
447.16	667.94
447.53	667.88
447.90	665.38
448.27	662.51
448.64	658.07
449.01	655.15
449.37	649.39
449.74	644.04
450.11	637.33
450.48	629.97
450.85	622.23
451.22	615.57
451.59	609.26
451.96	603.27
452.33	595.22
452.70	588.11
453.07	579.31
453.43	570.23
453.80	561.55
454.17	553.19
454.54	545.26
454.91	536.83
455.28	528.33
455.65	520.26
456.02	512.75
456.38	506.29
456.75	498.09
457.12	491.34
457.49	484.39
457.86	477.65
458.23	471.98
458.59	465.66
458.96	459.47
459.33	453.84
459.70	448.32
460.07	443.86
460.43	438.53
460.80	433.67
461.17	429.47
461.54	425.01
461.91	420.75
462.27	416.53
462.64	412.87
463.01	408.95
463.38	405.25
463.74	401.04
464.11	397.46
464.48	394.42
464.85	391.06
465.21	388.52
465.58	385.82
465.95	382.51
466.32	379.83
466.68	377.22
467.05	374.55
467.42	371.75
467.78	368.90
468.15	366.47
468.52	364.51
468.88	361.80
469.25	359.52
469.62	357.65
469.98	355.61
470.35	353.68
470.72	351.72
471.08	349.59
471.45	347.96
471.82	346.31
472.18	344.41
472.55	343.05
472.92	341.33
473.28	339.89
473.65	338.51
474.02	337.06
474.38	335.91
474.75	335.00
475.11	334.00
475.48	333.22
475.85	332.30
476.21	331.41
476.58	330.75
476.94	330.19
477.31	329.45
477.67	328.78
478.04	328.27
478.41	327.91
478.77	327.85
479.14	327.45
479.50	327.24
479.87	327.14
480.23	327.00
480.60	326.87
480.96	326.67
481.33	326.91
481.69	327.11
482.06	327.18
482.42	327.13
482.79	327.21
483.15	327.48
483.52	327.96
483.88	328.41
484.25	328.80
484.61	329.12
484.98	329.56
485.34	330.31
485.71	331.03
486.07	331.80
486.44	332.23
486.80	332.93
487.17	333.76
487.53	334.80
487.90	335.80
488.26	337.01
488.62	338.42
488.99	339.47
489.35	340.63
489.72	341.88
490.08	343.35
490.44	344.78
490.81	346.21
491.17	347.56
491.54	349.15
491.90	350.80
492.26	352.58
492.63	354.43
492.99	356.21
493.36	357.99
493.72	359.86
494.08	361.85
494.45	364.05
494.81	366.27
495.17	368.34
495.54	370.66
495.90	372.90
496.26	375.07
496.63	377.47
496.99	379.84
497.35	382.35
497.72	384.89
498.08	387.30
498.44	389.86
498.80	392.55
499.17	395.11
499.53	397.80
499.89	400.50
500.26	403.10
500.62	405.58
500.98	408.38
501.34	411.07
501.71	413.77
502.07	416.33
502.43	418.84
502.79	421.26
503.16	423.65
503.52	426.02
503.88	428.42
504.24	430.85
504.60	433.20
504.97	435.63
505.33	437.82
505.69	440.38
506.05	442.71
506.41	444.84
506.78	446.86
507.14	448.74
507.50	450.66
507.86	452.76
508.22	454.70
508.59	456.27
508.95	458.01
509.31	459.82
509.67	461.50
510.03	463.12
510.39	464.73
510.75	466.33
511.12	467.84
511.48	469.20
511.84	470.50
512.20	471.92
512.56	473.10
512.92	474.37
513.28	475.36
513.64	476.32
514.00	477.50
514.37	478.45
514.73	479.48
515.09	480.50
515.45	481.17
515.81	481.92
516.17	482.63
516.53	483.14
516.89	483.56
517.25	484.07
517.61	484.55
517.97	484.95
518.33	485.23
518.69	485.46
519.05	485.76
519.41	485.89
519.77	486.25
520.13	486.40
520.49	486.40
520.85	486.50
521.21	486.85
521.57	486.85
521.93	486.82
522.29	486.94
522.65	486.86
523.01	486.99
523.37	486.95
523.73	487.14
524.09	487.50
524.45	487.64
524.81	487.82
525.17	488.08
525.53	488.40
525.89	488.77
526.25	489.21
526.61	489.39
526.97	489.83
527.33	490.07
527.68	490.85
528.04	491.33
528.40	491.67
528.76	492.01
529.12	492.58
529.48	493.31
529.84	493.96
530.20	494.71
530.56	495.59
530.91	496.69
531.27	497.53
531.63	498.41
531.99	499.42
532.35	500.29
532.71	501.25
533.07	502.40
533.42	503.89
533.78	505.04
534.14	506.55
534.50	507.80
534.86	509.34
535.21	510.31
535.57	511.94
535.93	513.46
536.29	515.12
536.65	516.83
537.00	518.45
537.36	519.90
537.72	521.47
538.08	523.11
538.44	524.64
538.79	526.64
539.15	528.44
539.51	530.40
539.87	532.55
540.22	534.58
540.58	536.71
540.94	538.45
541.29	540.66
541.65	542.50
542.01	544.59
542.37	546.58
542.72	548.90
543.08	550.91
543.44	553.49
543.79	555.43
544.15	557.61
544.51	560.21
544.87	562.90
545.22	565.53
545.58	567.92
545.94	570.55
546.29	572.82
546.65	575.24
547.01	577.76
547.36	580.38
547.72	583.07
548.07	585.52
548.43	588.08
548.79	590.47
549.14	593.12
549.50	595.88
549.86	598.44
550.21	601.08
550.57	603.88
550.92	606.30
551.28	609.17
551.64	611.87
551.99	614.47
552.35	616.78
552.70	619.23
553.06	622.02
553.41	624.55
553.77	627.31
554.13	630.00
554.48	632.75
554.84	635.25
555.19	637.88
555.55	640.73
555.90	643.13
556.26	645.65
556.61	648.10
556.97	650.39
557.32	652.96
557.68	655.27
558.03	657.64
558.39	660.00
558.74	662.12
559.10	664.35
559.45	666.39
559.81	669.00
560.16	671.14
560.52	673.33
560.87	675.68
561.23	677.73
561.58	680.14
561.94	682.07
562.29	684.01
562.64	685.90
563.00	687.69
563.35	690.05
563.71	692.33
564.06	694.62
564.42	696.93
564.77	699.11
565.12	701.33
565.48	703.83
565.83	705.98
566.19	708.40
566.54	710.52
566.89	712.58
567.25	714.69
567.60	716.95
567.96	718.96
568.31	720.96
568.66	723.01
569.02	724.44
569.37	725.98
569.72	727.71
570.08	729.21
570.43	730.58
570.78	731.67
571.14	732.57
571.49	733.64
571.84	734.71
572.20	735.64
572.55	736.54
572.90	736.82
573.26	737.31
573.61	737.71
573.96	738.19
574.31	738.67
574.67	738.70
575.02	738.80
575.37	738.80
575.72	738.58
576.08	738.61
576.43	738.65
576.78	738.71
577.13	738.70
577.49	738.71
577.84	738.78
578.19	738.98
578.54	739.39
578.90	739.56
579.25	739.52
579.60	739.31
579.95	738.87
580.30	738.81
580.66	738.72
581.01	738.56
581.36	738.31
581.71	738.10
582.06	737.93
582.42	737.56
582.77	737.27
583.12	736.98
583.47	736.63
583.82	736.20
584.17	735.90
584.53	735.73
584.88	735.19
585.23	734.83
585.58	734.26
585.93	733.40
586.28	732.91
586.63	732.35
586.98	731.82
587.34	731.49
587.69	730.70
588.04	730.10
588.39	729.46
588.74	728.70
589.09	728.04
589.44	727.01
589.79	726.46
590.14	725.71
590.49	724.95
590.84	723.90
591.19	723.29
591.54	722.27
591.89	720.93
592.25	720.33
592.60	718.98
592.95	717.69
593.30	716.44
593.65	714.85
594.00	713.46
594.35	713.12
594.70	711.69
595.05	710.54
595.40	709.05
595.75	707.50
596.10	706.23
596.45	704.77
596.80	703.81
597.15	702.46
597.50	700.95
597.85	699.72
598.19	698.29
598.54	696.89
598.89	695.69
599.24	694.60
599.59	692.98
599.94	691.77
600.29	690.45
600.64	689.14
600.99	687.83
601.34	686.51
601.69	684.10
602.04	682.44
602.39	680.92
602.74	679.72
603.08	678.62
603.43	677.63
603.78	676.40
604.13	674.87
604.48	673.40
604.83	672.34
605.18	671.04
605.53	669.61
605.87	668.05
606.22	666.65
606.57	665.03
606.92	663.46
607.27	661.91
607.62	660.54
607.96	659.24
608.31	657.77
608.66	656.36
609.01	654.59
609.36	653.18
609.70	651.57
610.05	649.83
610.40	648.08
610.75	645.97
611.10	644.39
611.44	642.41
611.79	640.51
612.14	638.55
612.49	636.44
612.83	634.58
613.18	632.51
613.53	630.38
613.88	628.31
614.22	626.29
614.57	624.30
614.92	622.15
615.27	619.98
615.61	617.90
615.96	615.71
616.31	614.04
616.65	612.32
617.00	610.42
617.35	608.45
617.70	606.27
618.04	603.98
618.39	601.53
618.74	599.49
619.08	597.44
619.43	595.28
619.78	593.16
620.12	591.32
620.47	589.32
620.82	587.13
621.16	584.87
621.51	583.04
621.85	580.94
622.20	578.82
622.55	576.78
622.89	574.60
623.24	572.54
623.59	570.24
623.93	568.13
624.28	566.04
624.62	564.30
624.97	562.37
625.32	560.42
625.66	558.59
626.01	556.60
626.35	554.65
626.70	552.45
627.04	550.59
627.39	548.51
627.73	546.75
628.08	545.05
628.43	543.22
628.77	540.96
629.12	539.08
629.46	537.27
629.81	535.32
630.15	533.50
630.50	531.54
630.84	529.57
631.19	527.53
631.53	525.54
631.88	523.21
632.22	521.07
632.57	519.35
632.91	517.46
633.26	515.61
633.60	513.55
633.95	511.88
634.29	509.86
634.64	508.00
634.98	505.97
635.32	504.14
635.67	502.42
636.01	500.79
636.36	498.88
636.70	497.08
637.05	495.28
637.39	493.41
637.73	491.69
638.08	490.12
638.42	488.50
638.77	486.89
639.11	485.25
639.45	483.60
639.80	481.65
640.14	479.73
640.49	477.92
640.83	476.09
641.17	474.20
641.52	472.46
641.86	470.55
642.20	468.87
642.55	466.83
642.89	464.92
643.23	463.04
643.58	461.38
643.92	459.49
644.26	457.65
644.61	455.98
644.95	454.10
645.29	452.17
645.64	450.24
645.98	448.37
646.32	446.53
646.66	444.62
647.01	442.84
647.35	441.09
647.69	439.27
648.04	437.63
648.38	435.73
648.72	434.00
649.06	432.36
649.41	430.41
649.75	428.76
650.09	427.14
650.43	425.37
650.78	423.43
651.12	421.59
651.46	419.90
651.80	418.32
652.14	416.68
652.49	415.08
652.83	413.28
653.17	411.52
653.51	409.84
653.85	408.33
654.20	406.86
654.54	405.15
654.88	403.42
655.22	401.81
655.56	400.30
655.90	398.56
656.25	396.75
656.59	395.25
656.93	393.61
657.27	392.00
657.61	390.26
657.95	388.89
658.29	387.38
658.64	385.96
658.98	384.13
659.32	382.52
659.66	380.81
660.00	379.35
660.34	377.72
660.68	376.05
661.02	374.44
661.36	372.81
661.70	371.31
662.05	369.88
662.39	368.53
662.73	367.26
663.07	366.11
663.41	364.85
663.75	363.35
664.09	361.91
664.43	360.48
664.77	359.20
665.11	357.64
665.45	356.38
665.79	355.00
666.13	353.77
666.47	352.50
666.81	351.26
667.15	349.94
667.49	348.83
667.83	347.71
668.17	346.45
668.51	345.21
668.85	344.14
669.19	343.18
669.53	341.70
669.87	340.40
670.21	339.11
670.55	337.99
670.89	337.14
671.23	336.14
671.57	335.08
671.91	333.95
672.25	332.92
672.58	331.92
672.92	330.76
673.26	329.70
673.60	328.60
673.94	327.53
674.28	326.50
674.62	325.46
674.96	324.43
675.30	323.46
675.64	322.53
675.97	321.52
676.31	320.42
676.65	319.66
676.99	318.88
677.33	317.71
677.67	316.68
678.01	315.46
678.34	314.47
678.68	313.49
679.02	312.59
679.36	311.67
679.70	310.68
680.04	309.76
680.37	308.90
680.71	307.98
681.05	307.23
681.39	306.39
681.73	305.48
682.06	304.70
682.40	303.90
682.74	303.01
683.08	302.19
683.42	301.24
683.75	300.32
684.09	299.35
684.43	298.57
684.77	297.68
685.10	296.87
685.44	296.00
685.78	295.16
686.12	294.47
686.45	293.72
686.79	292.80
687.13	292.04
687.46	291.18
687.80	290.61
688.14	289.71
688.48	289.04
688.81	288.27
689.15	287.52
689.49	286.76
689.82	285.95
690.16	285.08
690.50	284.44
690.83	283.71
691.17	282.72
691.51	281.98
691.84	281.22
692.18	280.46
692.52	279.79
692.85	279.21
693.19	278.57
693.52	277.78
693.86	277.04
694.20	276.35
694.53	275.70
694.87	274.89
695.21	274.19
695.54	273.46
695.88	272.80
696.21	272.04
696.55	271.37
696.88	270.79
697.22	270.17
697.56	269.60
697.89	268.97
698.23	268.57
698.56	267.97
698.90	267.51
699.23	266.91
699.57	266.32
699.90	265.65
700.24	264.91
700.58	264.37
700.91	263.88
701.25	263.58
701.58	263.15
701.92	262.72
702.25	262.15
702.59	261.60
702.92	261.16
703.26	260.63
703.59	260.14
703.93	259.96
704.26	259.55
704.60	259.04
704.93	258.47
705.26	257.94
705.60	257.50
705.93	256.85
706.27	256.55
706.60	256.22
706.94	255.93
707.27	255.46
707.61	255.03
707.94	254.59
708.27	253.90
708.61	253.35
708.94	252.77
709.28	252.43
709.61	251.97
709.94	251.53
710.28	251.15
710.61	250.78
710.95	250.00
711.28	249.75
711.61	249.29
711.95	249.10
712.28	248.70
712.61	248.37
712.95	248.26
713.28	247.97
713.61	247.47
713.95	247.00
714.28	246.73
714.61	246.35
714.95	245.98
715.28	245.54
715.61	245.13
715.95	244.87
716.28	244.47
716.61	244.19
716.95	243.79
717.28	243.48
717.61	243.11
717.94	242.88
718.28	242.32
718.61	242.02
718.94	241.54
719.27	241.21
719.61	240.91
719.94	240.44
720.27	240.04
720.60	239.73
720.94	239.35
721.27	239.04
721.60	238.85
721.93	238.55
722.27	238.42
722.60	238.28
722.93	237.96
723.26	237.70
723.59	237.31
723.93	237.06
724.26	236.90
724.59	236.59
724.92	236.30
725.25	236.13
725.59	235.80
725.92	235.66
726.25	235.45
726.58	235.19
726.91	234.98
727.24	234.75
727.57	234.46
727.91	234.20
728.24	234.00
728.57	233.77
728.90	233.59
729.23	233.24
729.56	233.20
729.89	233.01
730.22	232.82
730.55	232.58
730.89	232.41
731.22	232.04
731.55	231.80
731.88	231.60
732.21	231.30
732.54	231.13
732.87	230.89
733.20	230.60
733.53	230.45
733.86	230.34
734.19	230.16
734.52	230.02
734.85	230.13
735.18	229.85
735.51	229.75
735.84	229.50
736.17	229.46
736.50	228.93
736.83	229.14
737.16	228.97
737.49	228.91
737.82	228.65
738.15	228.53
738.48	228.41
738.81	228.21
739.14	228.04
739.47	227.85
739.80	227.72
740.13	227.67
740.46	227.35
740.79	227.10
741.12	226.87
741.45	226.64
741.78	226.23
742.11	226.15
742.44	225.87
742.77	225.87
743.10	225.61
743.43	225.54
743.75	225.01
744.08	225.30
744.41	225.05
744.74	224.90
745.07	224.71
745.40	224.61
745.73	224.65
746.06	224.51
746.39	224.43
746.71	224.23
747.04	224.08
747.37	224.05
747.70	223.97
748.03	223.82
748.36	223.90
748.68	223.83
749.01	223.66
749.34	223.52
749.67	223.42
750.00	223.43
750.33	223.62
750.65	223.53
750.98	222.99
751.31	222.96
751.64	222.95
751.97	223.09
752.29	223.00
752.62	222.67
752.95	222.57
753.28	222.50
753.60	222.43
753.93	222.45
754.26	222.32
754.59	222.08
754.91	222.07
755.24	221.88
755.57	221.80
755.90	221.67
756.22	221.63
756.55	221.48
756.88	221.33
757.20	220.98
757.53	220.82
757.86	220.74
758.19	220.77
758.51	220.65
758.84	220.30
759.17	220.19
759.49	220.22
759.82	220.40
760.15	220.30
760.47	220.14
760.80	219.87
761.13	219.85
761.45	219.79
761.78	219.62
762.11	219.53
762.43	219.49
762.76	219.40
763.08	219.37
763.41	219.30
763.74	219.22
764.06	219.18
764.39	219.11
764.71	218.98
765.04	218.83
765.37	218.71
765.69	218.69
766.02	218.60
766.34	218.40
766.67	218.11
767.00	218.11
767.32	218.24
767.65	218.40
767.97	218.28
768.30	218.25
768.62	218.17
768.95	218.02
769.27	217.83
769.60	217.79
769.92	217.62
770.25	217.47
770.57	217.29
770.90	217.20
771.22	217.10
771.55	217.10
771.87	217.00
772.20	216.92
772.52	217.13
772.85	217.48
773.17	217.49
773.50	217.41
773.82	217.30
774.15	217.08
774.47	216.82
774.80	216.76
775.12	216.67
775.45	216.58
775.77	216.58
776.09	216.62
776.42	216.60
776.74	216.67
777.07	216.58
777.39	216.55
777.72	216.41
778.04	216.40
778.36	216.27
778.69	216.21
779.01	216.16
779.33	215.80
779.66	215.34
779.98	215.25
780.31	215.22
780.63	215.36
780.95	215.34
781.28	215.25
781.60	215.19
781.92	215.14
782.25	215.11
782.57	215.04
782.89	214.94
783.22	214.85
783.54	214.63
783.86	214.65
784.19	214.55
784.51	214.67
784.83	214.52
785.16	214.50
785.48	214.47
785.80	214.49
786.12	214.53
786.45	214.48
786.77	214.52
787.09	214.42
787.42	214.24
787.74	214.22
788.06	214.19
788.38	214.10
788.71	214.14
789.03	214.20
789.35	214.14
789.67	214.07
789.99	214.11
790.32	214.10
790.64	214.08
790.96	214.40
791.28	214.28
791.61	214.27
791.93	214.25
792.25	214.24
792.57	214.45
792.89	214.32
793.21	214.34
793.54	214.29
793.86	214.23
794.18	214.19
