SpectraSuite Data File
++++++++++++++++++++++++++++++++++++
Date: Mon Feb 25 16:56:27 EST 2013
User: group
Dark Spectrum Present: No
Reference Spectrum Present: No
Number of Sampled Component Spectra: 1
Spectrometers: USB2E7196
Integration Time (usec): 104000 (USB2E7196)
Spectra Averaged: 20 (USB2E7196)
Boxcar Smoothing: 10 (USB2E7196)
Correct for Electrical Dark: No (USB2E7196)
Strobe/Lamp Enabled: No (USB2E7196)
Correct for Detector Non-linearity: No (USB2E7196)
Correct for Stray Light: No (USB2E7196)
Number of Pixels in Processed Spectrum: 2048
>>>>>Begin Processed Spectral Data<<<<<
339.09	0.00
339.48	199.45
339.86	200.50
340.24	202.30
340.63	201.50
341.01	209.70
341.39	206.35
341.78	207.05
342.16	207.95
342.54	208.75
342.93	198.39
343.31	208.35
343.69	208.86
344.07	209.30
344.46	209.74
344.84	210.16
345.22	210.23
345.60	210.47
345.99	210.69
346.37	210.80
346.75	210.90
347.13	210.96
347.52	211.03
347.90	211.15
348.28	211.17
348.66	211.27
349.05	211.10
349.43	211.17
349.81	211.16
350.19	211.18
350.57	211.21
350.96	211.26
351.34	211.37
351.72	211.42
352.10	211.51
352.48	211.50
352.87	211.57
353.25	211.57
353.63	211.62
354.01	211.62
354.39	211.73
354.77	211.80
355.15	211.93
355.54	211.91
355.92	211.89
356.30	211.94
356.68	212.21
357.06	212.35
357.44	212.35
357.82	212.45
358.20	212.49
358.58	212.56
358.97	212.64
359.35	212.80
359.73	212.97
360.11	213.03
360.49	213.14
360.87	213.12
361.25	213.20
361.63	213.37
362.01	213.45
362.39	213.50
362.77	213.57
363.15	213.64
363.53	213.75
363.91	213.71
364.29	213.72
364.67	213.51
365.05	213.47
365.43	213.62
365.81	213.69
366.19	213.90
366.57	214.02
366.95	214.07
367.33	213.99
367.71	213.99
368.09	213.97
368.47	213.98
368.85	214.09
369.23	214.18
369.61	213.99
369.99	214.07
370.37	214.07
370.75	214.26
371.13	214.16
371.51	214.09
371.89	214.13
372.27	214.19
372.65	214.16
373.03	214.19
373.41	214.05
373.78	214.00
374.16	213.81
374.54	213.69
374.92	213.57
375.30	213.55
375.68	213.42
376.06	213.50
376.44	213.50
376.82	213.50
377.19	213.44
377.57	213.44
377.95	213.31
378.33	213.29
378.71	213.04
379.09	213.05
379.47	213.09
379.84	213.09
380.22	213.01
380.60	212.94
380.98	212.86
381.36	212.84
381.73	212.81
382.11	212.85
382.49	212.88
382.87	212.88
383.25	212.91
383.62	213.27
384.00	213.21
384.38	213.11
384.76	213.09
385.13	213.19
385.51	213.25
385.89	213.22
386.27	213.17
386.64	213.14
387.02	213.13
387.40	212.99
387.78	212.96
388.15	212.95
388.53	212.93
388.91	212.89
389.29	212.88
389.66	212.85
390.04	212.79
390.42	212.80
390.79	212.76
391.17	212.68
391.55	212.25
391.92	212.16
392.30	212.23
392.68	212.15
393.05	212.13
393.43	212.07
393.81	212.07
394.18	212.08
394.56	212.09
394.94	212.12
395.31	212.15
395.69	212.27
396.06	212.26
396.44	212.18
396.82	212.25
397.19	212.38
397.57	212.42
397.95	212.54
398.32	212.47
398.70	212.55
399.07	212.67
399.45	212.80
399.82	212.93
400.20	212.99
400.58	213.09
400.95	213.02
401.33	213.15
401.70	213.48
402.08	213.65
402.45	213.80
402.83	214.03
403.20	214.25
403.58	214.27
403.95	214.60
404.33	214.94
404.71	215.15
405.08	215.58
405.46	215.83
405.83	216.13
406.21	216.47
406.58	216.84
406.96	217.17
407.33	217.54
407.70	217.97
408.08	218.70
408.45	219.27
408.83	219.96
409.20	220.53
409.58	221.00
409.95	221.74
410.33	222.52
410.70	223.21
411.08	224.18
411.45	225.20
411.82	226.08
412.20	227.22
412.57	228.55
412.95	229.50
413.32	230.98
413.69	232.36
414.07	233.84
414.44	235.49
414.82	237.24
415.19	239.15
415.56	241.20
415.94	243.15
416.31	245.59
416.68	248.01
417.06	250.80
417.43	253.38
417.81	256.33
418.18	259.50
418.55	262.83
418.93	266.33
419.30	270.01
419.67	273.95
420.04	277.85
420.42	282.03
420.79	287.02
421.16	291.79
421.54	296.88
421.91	302.18
422.28	307.63
422.66	313.43
423.03	319.37
423.40	325.30
423.77	331.85
424.15	338.34
424.52	345.04
424.89	352.55
425.26	359.78
425.64	366.63
426.01	374.19
426.38	382.07
426.75	390.08
427.13	398.46
427.50	407.25
427.87	416.55
428.24	425.81
428.61	434.62
428.99	444.44
429.36	454.80
429.73	465.19
430.10	475.53
430.47	486.20
430.85	497.22
431.22	509.07
431.59	521.47
431.96	533.35
432.33	546.70
432.70	559.51
433.08	574.63
433.45	588.99
433.82	603.27
434.19	619.11
434.56	634.90
434.93	650.16
435.30	665.41
435.68	682.35
436.05	699.14
436.42	715.85
436.79	731.08
437.16	747.91
437.53	765.45
437.90	782.88
438.27	800.23
438.64	818.15
439.01	834.76
439.38	849.96
439.75	864.81
440.13	881.29
440.50	897.15
440.87	910.34
441.24	923.96
441.61	939.14
441.98	950.68
442.35	963.95
442.72	977.21
443.09	990.00
443.46	998.14
443.83	1004.00
444.20	1009.39
444.57	1016.86
444.94	1020.86
445.31	1025.04
445.68	1028.97
446.05	1031.38
446.42	1031.20
446.79	1030.46
447.16	1029.30
447.53	1028.85
447.90	1023.98
448.27	1018.75
448.64	1011.08
449.01	1006.00
449.37	995.68
449.74	985.98
450.11	973.71
450.48	960.39
450.85	946.78
451.22	935.31
451.59	924.30
451.96	913.76
452.33	899.16
452.70	886.20
453.07	870.48
453.43	854.62
453.80	839.22
454.17	824.19
454.54	810.18
454.91	794.92
455.28	780.14
455.65	766.36
456.02	752.35
456.38	740.55
456.75	725.63
457.12	713.31
457.49	700.88
457.86	689.02
458.23	678.78
458.59	667.58
458.96	656.24
459.33	646.23
459.70	635.98
460.07	627.88
460.43	618.60
460.80	609.91
461.17	602.25
461.54	594.22
461.91	586.73
462.27	579.09
462.64	572.75
463.01	565.40
463.38	558.31
463.74	551.32
464.11	545.29
464.48	540.08
464.85	534.17
465.21	529.81
465.58	525.09
465.95	519.34
466.32	514.51
466.68	509.71
467.05	504.93
467.42	500.30
467.78	495.41
468.15	490.85
468.52	487.43
468.88	482.93
469.25	479.01
469.62	475.63
469.98	472.07
470.35	468.83
470.72	465.65
471.08	462.27
471.45	459.42
471.82	456.41
472.18	453.01
472.55	450.68
472.92	447.85
473.28	445.35
473.65	442.96
474.02	440.76
474.38	438.76
474.75	437.23
475.11	435.53
475.48	434.31
475.85	433.01
476.21	431.74
476.58	430.80
476.94	430.13
477.31	429.24
477.67	428.30
478.04	427.58
478.41	427.26
478.77	427.25
479.14	426.94
479.50	426.78
479.87	426.97
480.23	427.17
480.60	427.27
480.96	427.43
481.33	428.12
481.69	428.71
482.06	429.27
482.42	429.58
482.79	430.14
483.15	430.92
483.52	432.13
483.88	433.21
484.25	434.25
484.61	435.26
484.98	436.62
485.34	438.39
485.71	440.13
486.07	442.00
486.44	443.55
486.80	445.70
487.17	447.89
487.53	450.45
487.90	452.93
488.26	455.64
488.62	458.52
488.99	461.32
489.35	464.22
489.72	467.49
490.08	470.96
490.44	474.44
490.81	478.15
491.17	481.73
491.54	485.74
491.90	489.78
492.26	494.02
492.63	498.45
492.99	502.96
493.36	507.79
493.72	512.74
494.08	517.95
494.45	523.38
494.81	529.06
495.17	534.65
495.54	540.61
495.90	546.68
496.26	552.93
496.63	559.37
496.99	566.00
497.35	572.85
497.72	579.81
498.08	586.92
498.44	594.13
498.80	601.94
499.17	609.64
499.53	617.41
499.89	625.37
500.26	633.23
500.62	641.09
500.98	649.32
501.34	657.74
501.71	666.34
502.07	674.67
502.43	683.30
502.79	691.81
503.16	700.36
503.52	709.03
503.88	717.57
504.24	726.47
504.60	735.33
504.97	744.35
505.33	753.32
505.69	762.98
506.05	772.44
506.41	781.39
506.78	790.42
507.14	799.55
507.50	808.86
507.86	818.08
508.22	827.39
508.59	836.31
508.95	845.46
509.31	854.57
509.67	863.71
510.03	872.73
510.39	882.01
510.75	891.27
511.12	900.50
511.48	909.66
511.84	918.73
512.20	927.42
512.56	936.37
512.92	945.55
513.28	953.88
513.64	962.09
514.00	970.72
514.37	978.90
514.73	987.46
515.09	995.95
515.45	1004.15
515.81	1012.23
516.17	1020.24
516.53	1027.82
516.89	1035.43
517.25	1042.72
517.61	1050.07
517.97	1056.90
518.33	1063.70
518.69	1070.42
519.05	1077.32
519.41	1083.86
519.77	1090.96
520.13	1097.19
520.49	1103.06
520.85	1109.19
521.21	1115.39
521.57	1121.40
521.93	1127.12
522.29	1133.04
522.65	1138.29
523.01	1143.95
523.37	1149.24
523.73	1154.70
524.09	1159.89
524.45	1165.00
524.81	1170.49
525.17	1175.72
525.53	1181.35
525.89	1186.29
526.25	1191.33
526.61	1195.65
526.97	1200.22
527.33	1204.49
527.68	1209.10
528.04	1213.47
528.40	1217.41
528.76	1221.50
529.12	1225.50
529.48	1230.15
529.84	1233.95
530.20	1237.76
530.56	1241.59
530.91	1245.80
531.27	1249.80
531.63	1253.55
531.99	1257.15
532.35	1260.43
532.71	1263.52
533.07	1266.84
533.42	1270.48
533.78	1273.70
534.14	1277.10
534.50	1280.01
534.86	1283.49
535.21	1286.06
535.57	1289.39
535.93	1292.37
536.29	1295.22
536.65	1298.15
537.00	1300.53
537.36	1302.87
537.72	1305.17
538.08	1307.40
538.44	1309.45
538.79	1311.72
539.15	1314.01
539.51	1316.45
539.87	1319.10
540.22	1321.40
540.58	1323.80
540.94	1326.01
541.29	1327.74
541.65	1329.42
542.01	1331.35
542.37	1332.57
542.72	1334.56
543.08	1335.79
543.44	1337.85
543.79	1338.84
544.15	1339.99
544.51	1341.90
544.87	1343.62
545.22	1345.25
545.58	1346.46
545.94	1347.46
546.29	1347.93
546.65	1348.68
547.01	1349.32
547.36	1349.98
547.72	1350.57
548.07	1350.66
548.43	1350.25
548.79	1350.35
549.14	1350.79
549.50	1350.97
549.86	1350.90
550.21	1350.99
550.57	1351.24
550.92	1350.73
551.28	1351.04
551.64	1350.93
551.99	1350.70
552.35	1350.32
552.70	1350.00
553.06	1350.28
553.41	1350.30
553.77	1350.69
554.13	1350.86
554.48	1350.93
554.84	1350.90
555.19	1351.10
555.55	1351.28
555.90	1351.47
556.26	1351.51
556.61	1351.03
556.97	1350.30
557.32	1350.28
557.68	1349.48
558.03	1348.85
558.39	1348.18
558.74	1347.90
559.10	1347.61
559.45	1346.75
559.81	1346.79
560.16	1345.98
560.52	1345.04
560.87	1344.32
561.23	1342.88
561.58	1342.14
561.94	1340.93
562.29	1339.35
562.64	1338.34
563.00	1337.21
563.35	1336.43
563.71	1335.95
564.06	1335.49
564.42	1335.36
564.77	1335.14
565.12	1334.98
565.48	1334.58
565.83	1334.45
566.19	1334.08
566.54	1333.09
566.89	1332.28
567.25	1331.41
567.60	1331.05
567.96	1330.56
568.31	1330.24
568.66	1329.72
569.02	1328.52
569.37	1327.38
569.72	1326.60
570.08	1325.32
570.43	1324.08
570.78	1322.82
571.14	1320.84
571.49	1318.99
571.84	1317.40
572.20	1315.12
572.55	1313.02
572.90	1310.47
573.26	1307.93
573.61	1305.41
573.96	1303.15
574.31	1300.37
574.67	1297.55
575.02	1294.42
575.37	1291.08
575.72	1287.66
576.08	1284.82
576.43	1281.69
576.78	1278.68
577.13	1275.84
577.49	1273.04
577.84	1269.60
578.19	1266.80
578.54	1264.39
578.90	1262.26
579.25	1259.12
579.60	1255.53
579.95	1252.13
580.30	1249.37
580.66	1246.50
581.01	1243.10
581.36	1239.60
581.71	1236.49
582.06	1233.01
582.42	1229.94
582.77	1226.45
583.12	1222.72
583.47	1219.32
583.82	1215.94
584.17	1212.38
584.53	1208.88
584.88	1204.82
585.23	1201.54
585.58	1197.50
585.93	1193.63
586.28	1189.45
586.63	1185.66
586.98	1182.56
587.34	1179.09
587.69	1175.16
588.04	1171.24
588.39	1167.44
588.74	1163.60
589.09	1160.04
589.44	1156.11
589.79	1152.23
590.14	1148.98
590.49	1145.42
590.84	1141.57
591.19	1138.37
591.54	1134.63
591.89	1130.33
592.25	1126.76
592.60	1122.63
592.95	1118.47
593.30	1114.11
593.65	1109.46
594.00	1105.21
594.35	1101.97
594.70	1097.91
595.05	1094.07
595.40	1089.84
595.75	1085.58
596.10	1081.72
596.45	1077.61
596.80	1073.90
597.15	1070.30
597.50	1066.01
597.85	1062.15
598.19	1058.07
598.54	1053.70
598.89	1049.74
599.24	1046.34
599.59	1042.40
599.94	1038.33
600.29	1034.55
600.64	1030.71
600.99	1026.77
601.34	1023.01
601.69	1018.00
602.04	1013.77
602.39	1009.50
602.74	1005.90
603.08	1002.28
603.43	998.63
603.78	994.66
604.13	990.56
604.48	986.52
604.83	982.98
605.18	979.41
605.53	975.30
605.87	971.12
606.22	967.45
606.57	962.94
606.92	958.52
607.27	954.49
607.62	950.41
607.96	946.42
608.31	942.95
608.66	938.94
609.01	934.90
609.36	930.99
609.70	926.89
610.05	922.52
610.40	918.35
610.75	913.84
611.10	909.94
611.44	905.25
611.79	900.66
612.14	895.88
612.49	890.80
612.83	886.46
613.18	881.90
613.53	877.13
613.88	872.51
614.22	868.29
614.57	863.81
614.92	859.49
615.27	855.12
615.61	850.38
615.96	845.93
616.31	841.75
616.65	837.75
617.00	833.69
617.35	829.44
617.70	824.98
618.04	820.35
618.39	815.50
618.74	811.48
619.08	807.19
619.43	803.17
619.78	799.44
620.12	795.42
620.47	791.45
620.82	787.20
621.16	783.03
621.51	778.94
621.85	774.97
622.20	770.83
622.55	766.63
622.89	762.42
623.24	758.51
623.59	754.09
623.93	749.96
624.28	745.88
624.62	742.27
624.97	738.38
625.32	734.78
625.66	731.14
626.01	727.19
626.35	723.36
626.70	719.30
627.04	715.47
627.39	711.75
627.73	708.21
628.08	704.95
628.43	701.26
628.77	697.60
629.12	693.85
629.46	690.26
629.81	686.87
630.15	683.42
630.50	679.67
630.84	676.23
631.19	672.52
631.53	668.89
631.88	664.89
632.22	661.31
632.57	658.00
632.91	654.49
633.26	651.10
633.60	647.72
633.95	644.49
634.29	641.00
634.64	637.78
634.98	634.20
635.32	630.78
635.67	627.85
636.01	624.69
636.36	621.44
636.70	618.42
637.05	615.05
637.39	612.18
637.73	609.22
638.08	606.52
638.42	603.70
638.77	600.84
639.11	598.05
639.45	595.24
639.80	592.01
640.14	588.99
640.49	586.15
640.83	583.23
641.17	580.13
641.52	577.16
641.86	573.99
642.20	571.17
642.55	568.11
642.89	565.06
643.23	562.08
643.58	559.51
643.92	556.39
644.26	553.62
644.61	550.74
644.95	547.99
645.29	544.92
645.64	542.03
645.98	539.24
646.32	536.45
646.66	533.41
647.01	530.66
647.35	528.04
647.69	525.18
648.04	522.62
648.38	520.09
648.72	517.43
649.06	514.78
649.41	512.15
649.75	509.53
650.09	507.06
650.43	504.32
650.78	501.47
651.12	498.94
651.46	496.35
651.80	493.94
652.14	491.28
652.49	488.87
652.83	486.20
653.17	483.50
653.51	480.82
653.85	478.52
654.20	476.15
654.54	473.56
654.88	471.05
655.22	468.44
655.56	465.79
655.90	463.35
656.25	460.86
656.59	458.35
656.93	455.98
657.27	453.74
657.61	451.42
657.95	449.16
658.29	446.84
658.64	444.62
658.98	442.15
659.32	439.76
659.66	437.42
660.00	435.25
660.34	433.07
660.68	430.80
661.02	428.51
661.36	426.34
661.70	424.27
662.05	422.26
662.39	420.34
662.73	418.59
663.07	416.81
663.41	414.92
663.75	412.93
664.09	410.97
664.43	408.80
664.77	406.95
665.11	404.97
665.45	403.23
665.79	401.37
666.13	399.43
666.47	397.56
666.81	395.62
667.15	393.76
667.49	392.13
667.83	390.59
668.17	388.92
668.51	387.34
668.85	385.69
669.19	384.30
669.53	382.45
669.87	380.63
670.21	378.80
670.55	377.16
670.89	375.86
671.23	374.38
671.57	372.90
671.91	371.38
672.25	369.92
672.58	368.33
672.92	366.83
673.26	365.44
673.60	364.07
673.94	362.76
674.28	361.38
674.62	360.06
674.96	358.75
675.30	357.31
675.64	355.79
675.97	354.43
676.31	352.90
676.65	351.67
676.99	350.51
677.33	349.23
677.67	347.90
678.01	346.33
678.34	345.02
678.68	343.80
679.02	342.44
679.36	341.19
679.70	339.91
680.04	338.62
680.37	337.34
680.71	336.09
681.05	334.95
681.39	333.73
681.73	332.34
682.06	331.10
682.40	330.09
682.74	329.01
683.08	327.87
683.42	326.60
683.75	325.48
684.09	324.28
684.43	323.16
684.77	321.96
685.10	320.91
685.44	319.78
685.78	318.60
686.12	317.62
686.45	316.45
686.79	315.35
687.13	314.35
687.46	313.43
687.80	312.41
688.14	311.34
688.48	310.43
688.81	309.48
689.15	308.57
689.49	307.39
689.82	306.38
690.16	305.26
690.50	304.28
690.83	303.26
691.17	302.19
691.51	301.18
691.84	300.32
692.18	299.30
692.52	298.33
692.85	297.45
693.19	296.70
693.52	295.89
693.86	294.95
694.20	294.00
694.53	293.09
694.87	292.23
695.21	291.30
695.54	290.30
695.88	289.32
696.21	288.27
696.55	287.52
696.88	286.73
697.22	285.86
697.56	285.17
697.89	284.31
698.23	283.56
698.56	282.80
698.90	282.02
699.23	281.34
699.57	280.56
699.90	279.69
700.24	278.72
700.58	277.98
700.91	277.35
701.25	276.91
701.58	276.29
701.92	275.57
702.25	274.82
702.59	274.08
702.92	273.53
703.26	272.85
703.59	272.25
703.93	271.82
704.26	271.31
704.60	270.67
704.93	270.04
705.26	269.32
705.60	268.66
705.93	267.99
706.27	267.44
706.60	267.00
706.94	266.65
707.27	265.98
707.61	265.45
707.94	264.81
708.27	264.03
708.61	263.25
708.94	262.75
709.28	262.23
709.61	261.74
709.94	261.19
710.28	260.67
710.61	260.04
710.95	259.23
711.28	258.96
711.61	258.36
711.95	258.02
712.28	257.60
712.61	257.16
712.95	256.90
713.28	256.52
713.61	255.96
713.95	255.40
714.28	255.03
714.61	254.41
714.95	253.83
715.28	253.34
715.61	252.96
715.95	252.46
716.28	251.88
716.61	251.44
716.95	250.91
717.28	250.47
717.61	250.08
717.94	249.75
718.28	249.06
718.61	248.72
718.94	248.23
719.27	247.77
719.61	247.38
719.94	246.89
720.27	246.35
720.60	245.97
720.94	245.63
721.27	245.20
721.60	244.97
721.93	244.78
722.27	244.54
722.60	244.26
722.93	243.94
723.26	243.84
723.59	243.50
723.93	243.25
724.26	242.99
724.59	242.65
724.92	242.33
725.25	242.15
725.59	241.85
725.92	241.58
726.25	241.22
726.58	240.92
726.91	240.65
727.24	240.52
727.57	240.17
727.91	239.74
728.24	239.55
728.57	239.20
728.90	238.97
729.23	238.64
729.56	238.51
729.89	238.24
730.22	237.85
730.55	237.59
730.89	237.35
731.22	237.05
731.55	236.87
731.88	236.61
732.21	236.21
732.54	235.94
732.87	235.70
733.20	235.58
733.53	235.28
733.86	235.07
734.19	234.71
734.52	234.60
734.85	234.70
735.18	234.47
735.51	234.46
735.84	234.19
736.17	234.00
736.50	233.57
736.83	233.72
737.16	233.54
737.49	233.37
737.82	233.07
738.15	232.88
738.48	232.63
738.81	232.43
739.14	232.20
739.47	231.92
739.80	231.59
740.13	231.46
740.46	231.23
740.79	230.90
741.12	230.65
741.45	230.39
741.78	229.99
742.11	229.87
742.44	229.50
742.77	229.43
743.10	229.15
743.43	228.97
743.75	228.35
744.08	228.59
744.41	228.37
744.74	228.18
745.07	227.95
745.40	227.81
745.73	227.77
746.06	227.60
746.39	227.55
746.71	227.37
747.04	227.12
747.37	226.94
747.70	226.92
748.03	226.77
748.36	226.61
748.68	226.38
749.01	226.06
749.34	225.94
749.67	225.73
750.00	225.60
750.33	225.68
750.65	225.64
750.98	225.10
751.31	224.98
751.64	224.88
751.97	224.96
752.29	224.81
752.62	224.48
752.95	224.27
753.28	224.01
753.60	223.91
753.93	223.83
754.26	223.69
754.59	223.44
754.91	223.30
755.24	223.18
755.57	223.15
755.90	223.10
756.22	222.88
756.55	222.74
756.88	222.55
757.20	222.25
757.53	222.05
757.86	221.88
758.19	221.76
758.51	221.71
758.84	221.37
759.17	221.23
759.49	221.18
759.82	221.32
760.15	221.25
760.47	221.19
760.80	221.01
761.13	221.01
761.45	220.93
761.78	220.82
762.11	220.75
762.43	220.60
762.76	220.46
763.08	220.49
763.41	220.35
763.74	220.30
764.06	220.18
764.39	220.11
764.71	220.07
765.04	219.94
765.37	219.75
765.69	219.63
766.02	219.51
766.34	219.46
766.67	219.23
767.00	219.22
767.32	219.29
767.65	219.46
767.97	219.35
768.30	219.27
768.62	219.24
768.95	219.12
769.27	219.05
769.60	219.02
769.92	218.85
770.25	218.73
770.57	218.56
770.90	218.54
771.22	218.45
771.55	218.40
771.87	218.40
772.20	218.37
772.52	218.64
772.85	219.01
773.17	218.83
773.50	218.80
773.82	218.69
774.15	218.45
774.47	218.13
774.80	218.06
775.12	217.95
775.45	217.86
775.77	217.79
776.09	217.74
776.42	217.64
776.74	217.68
777.07	217.69
777.39	217.72
777.72	217.57
778.04	217.53
778.36	217.42
778.69	217.37
779.01	217.36
779.33	216.97
779.66	216.50
779.98	216.45
780.31	216.39
780.63	216.45
780.95	216.47
781.28	216.41
781.60	216.36
781.92	216.38
782.25	216.29
782.57	216.27
782.89	216.15
783.22	216.14
783.54	216.00
783.86	215.94
784.19	215.82
784.51	215.86
784.83	215.79
785.16	215.70
785.48	215.62
785.80	215.55
786.12	215.59
786.45	215.53
786.77	215.53
787.09	215.44
787.42	215.41
787.74	215.35
788.06	215.43
788.38	215.41
788.71	215.33
