SpectraSuite Data File
++++++++++++++++++++++++++++++++++++
Date: Mon Feb 25 17:01:39 EST 2013
User: group
Dark Spectrum Present: No
Reference Spectrum Present: No
Number of Sampled Component Spectra: 1
Spectrometers: USB2E7196
Integration Time (usec): 104000 (USB2E7196)
Spectra Averaged: 20 (USB2E7196)
Boxcar Smoothing: 10 (USB2E7196)
Correct for Electrical Dark: No (USB2E7196)
Strobe/Lamp Enabled: No (USB2E7196)
Correct for Detector Non-linearity: No (USB2E7196)
Correct for Stray Light: No (USB2E7196)
Number of Pixels in Processed Spectrum: 2048
>>>>>Begin Processed Spectral Data<<<<<
339.09	0.00
339.48	199.35
339.86	199.05
340.24	200.70
340.63	203.70
341.01	209.95
341.39	205.00
341.78	208.10
342.16	209.40
342.54	209.60
342.93	198.77
343.31	208.77
343.69	209.23
344.07	209.86
344.46	210.32
344.84	210.72
345.22	210.72
345.60	211.08
345.99	211.18
346.37	211.25
346.75	211.29
347.13	211.30
347.52	211.30
347.90	211.36
348.28	211.33
348.66	211.33
349.05	211.25
349.43	211.23
349.81	211.28
350.19	211.26
350.57	211.30
350.96	211.35
351.34	211.42
351.72	211.52
352.10	211.50
352.48	211.51
352.87	211.49
353.25	211.56
353.63	211.49
354.01	211.50
354.39	211.58
354.77	211.69
355.15	211.92
355.54	211.93
355.92	211.83
356.30	211.90
356.68	212.17
357.06	212.19
357.44	212.19
357.82	212.15
358.20	212.28
358.58	212.30
358.97	212.40
359.35	212.45
359.73	212.60
360.11	212.62
360.49	212.74
360.87	212.79
361.25	212.91
361.63	213.15
362.01	213.34
362.39	213.38
362.77	213.40
363.15	213.34
363.53	213.41
363.91	213.50
364.29	213.47
364.67	213.13
365.05	213.12
365.43	213.18
365.81	213.21
366.19	213.40
366.57	213.53
366.95	213.49
367.33	213.47
367.71	213.47
368.09	213.52
368.47	213.44
368.85	213.39
369.23	213.35
369.61	213.13
369.99	213.06
370.37	213.06
370.75	213.13
371.13	212.97
371.51	212.85
371.89	212.84
372.27	212.84
372.65	212.91
373.03	212.91
373.41	212.78
373.78	212.85
374.16	212.61
374.54	212.47
374.92	212.47
375.30	212.41
375.68	212.33
376.06	212.28
376.44	212.21
376.82	212.29
377.19	212.25
377.57	212.21
377.95	212.12
378.33	212.00
378.71	211.87
379.09	212.01
379.47	212.04
379.84	211.97
380.22	211.86
380.60	211.71
380.98	211.62
381.36	211.59
381.73	211.42
382.11	211.46
382.49	211.48
382.87	211.33
383.25	211.34
383.62	211.65
384.00	211.54
384.38	211.54
384.76	211.46
385.13	211.58
385.51	211.50
385.89	211.44
386.27	211.51
386.64	211.46
387.02	211.30
387.40	211.22
387.78	211.20
388.15	211.18
388.53	211.10
388.91	211.09
389.29	211.04
389.66	211.15
390.04	211.05
390.42	211.07
390.79	211.09
391.17	211.00
391.55	210.63
391.92	210.62
392.30	210.68
392.68	210.61
393.05	210.57
393.43	210.61
393.81	210.62
394.18	210.49
394.56	210.48
394.94	210.56
395.31	210.51
395.69	210.64
396.06	210.73
396.44	210.88
396.82	210.86
397.19	211.09
397.57	210.99
397.95	211.09
398.32	210.99
398.70	211.05
399.07	211.15
399.45	211.12
399.82	211.18
400.20	211.17
400.58	211.20
400.95	211.07
401.33	211.19
401.70	211.48
402.08	211.54
402.45	211.61
402.83	211.73
403.20	211.90
403.58	211.91
403.95	212.00
404.33	212.12
404.71	212.26
405.08	212.54
405.46	212.75
405.83	212.91
406.21	213.09
406.58	213.28
406.96	213.51
407.33	213.74
407.70	214.03
408.08	214.58
408.45	214.93
408.83	215.35
409.20	215.62
409.58	215.72
409.95	216.15
410.33	216.55
410.70	216.85
411.08	217.36
411.45	217.90
411.82	218.41
412.20	219.00
412.57	219.85
412.95	220.20
413.32	220.89
413.69	221.57
414.07	222.43
414.44	223.27
414.82	224.10
415.19	225.14
415.56	226.10
415.94	227.02
416.31	228.20
416.68	229.40
417.06	230.85
417.43	232.25
417.81	233.82
418.18	235.41
418.55	237.12
418.93	238.90
419.30	240.74
419.67	242.76
420.04	244.80
420.42	246.81
420.79	249.49
421.16	252.01
421.54	254.72
421.91	257.35
422.28	260.17
422.66	263.14
423.03	266.28
423.40	269.37
423.77	272.54
424.15	275.84
424.52	279.31
424.89	283.09
425.26	286.72
425.64	290.32
426.01	294.25
426.38	298.35
426.75	302.45
427.13	306.67
427.50	311.09
427.87	315.66
428.24	320.32
428.61	324.70
428.99	329.68
429.36	334.90
429.73	340.22
430.10	345.42
430.47	350.96
430.85	356.37
431.22	362.34
431.59	368.86
431.96	374.85
432.33	381.50
432.70	387.91
433.08	395.58
433.45	402.69
433.82	409.89
434.19	417.99
434.56	425.92
434.93	433.63
435.30	441.27
435.68	449.79
436.05	458.23
436.42	466.52
436.79	474.25
437.16	482.60
437.53	491.32
437.90	500.15
438.27	508.65
438.64	517.70
439.01	526.13
439.38	533.56
439.75	541.04
440.13	549.41
440.50	557.36
440.87	563.97
441.24	570.72
441.61	578.29
441.98	583.95
442.35	590.43
442.72	596.93
443.09	603.29
443.46	607.38
443.83	610.25
444.20	613.05
444.57	616.56
444.94	618.54
445.31	620.69
445.68	622.90
446.05	624.05
446.42	623.79
446.79	623.38
447.16	622.84
447.53	622.69
447.90	620.10
448.27	617.43
448.64	613.49
449.01	610.75
449.37	605.45
449.74	600.37
450.11	594.41
450.48	587.70
450.85	580.80
451.22	574.80
451.59	569.21
451.96	563.65
452.33	556.30
452.70	549.71
453.07	541.68
453.43	533.24
453.80	525.60
454.17	518.13
454.54	510.90
454.91	503.20
455.28	495.59
455.65	488.54
456.02	481.77
456.38	475.81
456.75	468.43
457.12	462.24
457.49	456.13
457.86	450.00
458.23	444.92
458.59	439.29
458.96	433.76
459.33	428.68
459.70	423.66
460.07	419.74
460.43	415.10
460.80	410.80
461.17	407.09
461.54	402.95
461.91	399.09
462.27	395.22
462.64	391.89
463.01	388.14
463.38	384.71
463.74	380.98
464.11	377.81
464.48	375.12
464.85	372.14
465.21	369.81
465.58	367.37
465.95	364.35
466.32	362.01
466.68	359.50
467.05	357.13
467.42	354.64
467.78	352.15
468.15	349.83
468.52	348.04
468.88	345.63
469.25	343.54
469.62	341.73
469.98	340.00
470.35	338.30
470.72	336.69
471.08	334.79
471.45	333.32
471.82	331.93
472.18	330.18
472.55	328.91
472.92	327.45
473.28	326.11
473.65	324.82
474.02	323.53
474.38	322.67
474.75	321.86
475.11	320.94
475.48	320.09
475.85	319.25
476.21	318.35
476.58	317.82
476.94	317.36
477.31	316.95
477.67	316.35
478.04	315.87
478.41	315.54
478.77	315.55
479.14	315.12
479.50	314.72
479.87	314.73
480.23	314.63
480.60	314.45
480.96	314.31
481.33	314.62
481.69	314.73
482.06	314.68
482.42	314.58
482.79	314.67
483.15	314.84
483.52	315.30
483.88	315.65
484.25	315.90
484.61	316.17
484.98	316.27
485.34	316.80
485.71	317.41
486.07	317.95
486.44	318.35
486.80	319.02
487.17	319.75
487.53	320.62
487.90	321.49
488.26	322.54
488.62	323.62
488.99	324.41
489.35	325.36
489.72	326.48
490.08	327.59
490.44	328.69
490.81	330.00
491.17	331.16
491.54	332.55
491.90	333.91
492.26	335.36
492.63	337.02
492.99	338.50
493.36	340.08
493.72	341.88
494.08	343.50
494.45	345.40
494.81	347.26
495.17	349.00
495.54	350.90
495.90	352.70
496.26	354.57
496.63	356.74
496.99	358.83
497.35	360.84
497.72	363.02
498.08	365.11
498.44	367.16
498.80	369.38
499.17	371.52
499.53	373.56
499.89	375.89
500.26	378.09
500.62	380.25
500.98	382.44
501.34	384.45
501.71	386.71
502.07	388.79
502.43	390.91
502.79	393.04
503.16	395.05
503.52	397.02
503.88	399.01
504.24	400.75
504.60	402.51
504.97	404.21
505.33	406.06
505.69	408.20
506.05	409.98
506.41	411.68
506.78	413.25
507.14	414.94
507.50	416.29
507.86	417.66
508.22	418.93
508.59	420.17
508.95	421.64
509.31	422.94
509.67	424.04
510.03	425.07
510.39	426.04
510.75	427.00
511.12	427.98
511.48	428.87
511.84	429.75
512.20	430.64
512.56	431.67
512.92	432.33
513.28	432.85
513.64	433.33
514.00	433.80
514.37	434.31
514.73	434.95
515.09	435.49
515.45	435.87
515.81	436.23
516.17	436.49
516.53	436.50
516.89	436.51
517.25	436.53
517.61	436.80
517.97	436.85
518.33	437.01
518.69	437.10
519.05	437.06
519.41	437.06
519.77	437.25
520.13	437.02
520.49	436.84
520.85	436.76
521.21	436.78
521.57	436.71
521.93	436.27
522.29	435.97
522.65	435.83
523.01	435.75
523.37	435.61
523.73	435.53
524.09	435.43
524.45	435.44
524.81	435.55
525.17	435.64
525.53	435.70
525.89	435.70
526.25	435.93
526.61	436.01
526.97	436.15
527.33	436.19
527.68	436.89
528.04	437.21
528.40	437.43
528.76	437.87
529.12	438.24
529.48	439.22
529.84	439.83
530.20	440.52
530.56	441.32
530.91	442.23
531.27	443.11
531.63	444.07
531.99	444.99
532.35	445.94
532.71	446.73
533.07	447.90
533.42	449.46
533.78	450.60
534.14	452.03
534.50	453.30
534.86	454.68
535.21	455.62
535.57	457.21
535.93	458.66
536.29	460.29
536.65	461.89
537.00	463.14
537.36	464.73
537.72	466.22
538.08	467.86
538.44	469.51
538.79	471.40
539.15	473.22
539.51	475.10
539.87	477.17
540.22	479.28
540.58	481.26
540.94	483.00
541.29	485.04
541.65	487.02
542.01	489.28
542.37	491.63
542.72	493.88
543.08	496.11
543.44	498.53
543.79	500.59
544.15	503.14
544.51	505.98
544.87	508.58
545.22	511.25
545.58	513.90
545.94	516.45
546.29	518.85
546.65	521.37
547.01	523.95
547.36	526.63
547.72	529.21
548.07	531.90
548.43	534.49
548.79	536.95
549.14	539.59
549.50	542.32
549.86	544.85
550.21	547.61
550.57	550.40
550.92	553.00
551.28	555.87
551.64	558.36
551.99	560.97
552.35	563.65
552.70	566.24
553.06	568.83
553.41	571.51
553.77	574.35
554.13	577.15
554.48	579.94
554.84	582.65
555.19	585.30
555.55	588.17
555.90	590.62
556.26	593.25
556.61	595.79
556.97	598.14
557.32	600.67
557.68	603.05
558.03	605.24
558.39	607.59
558.74	609.91
559.10	612.48
559.45	614.92
559.81	617.46
560.16	619.69
560.52	622.10
560.87	624.53
561.23	626.71
561.58	629.23
561.94	631.53
562.29	633.61
562.64	635.90
563.00	637.90
563.35	640.36
563.71	642.69
564.06	644.83
564.42	647.11
564.77	649.39
565.12	651.77
565.48	654.44
565.83	656.73
566.19	659.10
566.54	660.98
566.89	662.79
567.25	664.75
567.60	666.95
567.96	669.04
568.31	671.12
568.66	673.13
569.02	674.68
569.37	676.03
569.72	677.67
570.08	679.34
570.43	680.85
570.78	682.01
571.14	683.07
571.49	684.34
571.84	685.57
572.20	686.52
572.55	687.37
572.90	687.88
573.26	688.57
573.61	688.90
573.96	689.68
574.31	690.30
574.67	690.48
575.02	690.68
575.37	690.60
575.72	690.48
576.08	690.66
576.43	690.78
576.78	691.05
577.13	691.36
577.49	691.31
577.84	691.20
578.19	691.57
578.54	692.03
578.90	692.39
579.25	692.51
579.60	692.42
579.95	692.34
580.30	692.32
580.66	692.49
581.01	692.45
581.36	692.26
581.71	692.19
582.06	692.17
582.42	692.16
582.77	691.97
583.12	691.75
583.47	691.45
583.82	691.32
584.17	690.95
584.53	690.80
584.88	690.47
585.23	690.38
585.58	689.81
585.93	689.35
586.28	688.92
586.63	688.43
586.98	688.15
587.34	687.86
587.69	687.35
588.04	686.81
588.39	686.53
588.74	685.94
589.09	685.59
589.44	684.97
589.79	684.36
590.14	684.02
590.49	683.55
590.84	682.90
591.19	682.23
591.54	681.78
591.89	680.53
592.25	679.87
592.60	678.80
592.95	677.92
593.30	676.65
593.65	675.28
594.00	674.13
594.35	673.83
594.70	672.78
595.05	671.79
595.40	670.77
595.75	669.46
596.10	668.54
596.45	667.37
596.80	666.53
597.15	665.49
597.50	664.29
597.85	663.28
598.19	662.06
598.54	660.91
598.89	659.62
599.24	658.87
599.59	657.65
599.94	656.74
600.29	655.59
600.64	654.71
600.99	653.68
601.34	652.65
601.69	650.62
602.04	649.23
602.39	648.06
602.74	646.86
603.08	645.91
603.43	645.08
603.78	643.80
604.13	642.43
604.48	641.28
604.83	640.36
605.18	639.28
605.53	638.27
605.87	637.14
606.22	636.17
606.57	634.69
606.92	633.32
607.27	631.98
607.62	630.72
607.96	629.61
608.31	628.50
608.66	627.12
609.01	625.95
609.36	624.67
609.70	623.19
610.05	621.80
610.40	620.39
610.75	618.47
611.10	617.15
611.44	615.49
611.79	613.70
612.14	611.93
612.49	610.01
612.83	608.32
613.18	606.38
613.53	604.56
613.88	602.79
614.22	601.16
614.57	599.38
614.92	597.60
615.27	595.53
615.61	593.71
615.96	592.06
616.31	590.34
616.65	588.76
617.00	587.04
617.35	585.10
617.70	583.04
618.04	581.10
618.39	578.84
618.74	577.02
619.08	575.27
619.43	573.32
619.78	571.59
620.12	569.77
620.47	568.10
620.82	566.06
621.16	563.97
621.51	562.08
621.85	560.13
622.20	558.29
622.55	556.49
622.89	554.52
623.24	552.61
623.59	550.42
623.93	548.43
624.28	546.61
624.62	545.01
624.97	543.30
625.32	541.40
625.66	539.73
626.01	538.00
626.35	536.19
626.70	534.37
627.04	532.65
627.39	530.79
627.73	529.05
628.08	527.47
628.43	525.73
628.77	523.86
629.12	522.17
629.46	520.49
629.81	518.68
630.15	516.80
630.50	514.85
630.84	513.04
631.19	511.16
631.53	509.45
631.88	507.34
632.22	505.38
632.57	503.85
632.91	502.15
633.26	500.28
633.60	498.47
633.95	496.72
634.29	494.87
634.64	493.19
634.98	491.15
635.32	489.43
635.67	487.94
636.01	486.40
636.36	484.62
636.70	482.93
637.05	481.23
637.39	479.62
637.73	478.18
638.08	476.98
638.42	475.51
638.77	474.01
639.11	472.41
639.45	470.87
639.80	469.00
640.14	467.24
640.49	465.58
640.83	463.86
641.17	462.21
641.52	460.48
641.86	458.65
642.20	457.17
642.55	455.23
642.89	453.48
643.23	451.66
643.58	450.20
643.92	448.42
644.26	446.77
644.61	445.20
644.95	443.44
645.29	441.34
645.64	439.59
645.98	437.66
646.32	436.01
646.66	434.20
647.01	432.66
647.35	431.07
647.69	429.35
648.04	427.77
648.38	425.99
648.72	424.28
649.06	422.65
649.41	421.04
649.75	419.53
650.09	418.00
650.43	416.39
650.78	414.62
651.12	413.05
651.46	411.43
651.80	409.87
652.14	408.32
652.49	406.95
652.83	405.22
653.17	403.61
653.51	401.95
653.85	400.48
654.20	398.93
654.54	397.40
654.88	395.89
655.22	394.42
655.56	392.89
655.90	391.40
656.25	389.87
656.59	388.27
656.93	386.73
657.27	385.30
657.61	383.63
657.95	382.13
658.29	380.64
658.64	379.32
658.98	377.72
659.32	376.03
659.66	374.50
660.00	373.11
660.34	371.65
660.68	370.21
661.02	368.69
661.36	367.28
661.70	365.86
662.05	364.41
662.39	363.00
662.73	361.83
663.07	360.73
663.41	359.42
663.75	358.01
664.09	356.59
664.43	355.08
664.77	353.97
665.11	352.56
665.45	351.26
665.79	349.92
666.13	348.61
666.47	347.42
666.81	346.13
667.15	344.78
667.49	343.64
667.83	342.52
668.17	341.41
668.51	340.31
668.85	339.24
669.19	338.29
669.53	337.15
669.87	335.87
670.21	334.48
670.55	333.32
670.89	332.49
671.23	331.50
671.57	330.49
671.91	329.39
672.25	328.37
672.58	327.50
672.92	326.41
673.26	325.44
673.60	324.38
673.94	323.37
674.28	322.50
674.62	321.60
674.96	320.64
675.30	319.69
675.64	318.72
675.97	317.63
676.31	316.70
676.65	315.69
676.99	314.85
677.33	313.96
677.67	313.05
678.01	311.96
678.34	311.10
678.68	310.18
679.02	309.22
679.36	308.26
679.70	307.18
680.04	306.35
680.37	305.47
680.71	304.65
681.05	303.89
681.39	303.11
681.73	302.19
682.06	301.42
682.40	300.67
682.74	299.81
683.08	299.12
683.42	298.12
683.75	297.37
684.09	296.57
684.43	295.80
684.77	294.98
685.10	294.17
685.44	293.21
685.78	292.49
686.12	291.78
686.45	291.13
686.79	290.40
687.13	289.62
687.46	288.90
687.80	288.36
688.14	287.62
688.48	286.90
688.81	286.13
689.15	285.40
689.49	284.65
689.82	283.99
690.16	283.10
690.50	282.43
690.83	281.63
691.17	280.88
691.51	280.12
691.84	279.46
692.18	278.84
692.52	278.26
692.85	277.58
693.19	277.06
693.52	276.36
693.86	275.64
694.20	275.01
694.53	274.32
694.87	273.55
695.21	272.84
695.54	272.09
695.88	271.43
696.21	270.67
696.55	269.99
696.88	269.35
697.22	268.75
697.56	268.18
697.89	267.60
698.23	267.02
698.56	266.49
698.90	265.97
699.23	265.29
699.57	264.70
699.90	264.12
700.24	263.39
700.58	262.82
700.91	262.34
701.25	262.05
701.58	261.65
701.92	261.16
702.25	260.66
702.59	260.20
702.92	259.72
703.26	259.31
703.59	258.83
703.93	258.56
704.26	258.15
704.60	257.70
704.93	257.20
705.26	256.65
705.60	256.22
705.93	255.59
706.27	255.34
706.60	255.05
706.94	254.64
707.27	254.13
707.61	253.70
707.94	253.27
708.27	252.56
708.61	252.02
708.94	251.57
709.28	251.06
709.61	250.59
709.94	250.22
710.28	249.73
710.61	249.30
710.95	248.56
711.28	248.40
711.61	247.99
711.95	247.73
712.28	247.31
712.61	246.88
712.95	246.76
713.28	246.36
713.61	245.94
713.95	245.56
714.28	245.28
714.61	244.87
714.95	244.46
715.28	244.01
715.61	243.72
715.95	243.40
716.28	243.06
716.61	242.75
716.95	242.37
717.28	242.18
717.61	241.90
717.94	241.64
718.28	241.02
718.61	240.67
718.94	240.30
719.27	240.09
719.61	239.84
719.94	239.44
720.27	239.10
720.60	238.79
720.94	238.56
721.27	238.28
721.60	238.15
721.93	237.91
722.27	237.85
722.60	237.56
722.93	237.20
723.26	237.02
723.59	236.68
723.93	236.46
724.26	236.15
724.59	235.83
724.92	235.62
725.25	235.50
725.59	235.34
725.92	235.14
726.25	234.89
726.58	234.62
726.91	234.42
727.24	234.16
727.57	233.93
727.91	233.57
728.24	233.43
728.57	233.10
728.90	232.93
729.23	232.58
729.56	232.59
729.89	232.42
730.22	232.14
730.55	232.04
730.89	231.86
731.22	231.68
731.55	231.50
731.88	231.32
732.21	231.07
732.54	230.77
732.87	230.57
733.20	230.35
733.53	230.19
733.86	230.01
734.19	229.78
734.52	229.60
734.85	229.73
735.18	229.48
735.51	229.47
735.84	229.34
736.17	229.32
736.50	228.90
736.83	229.12
737.16	229.04
737.49	228.82
737.82	228.61
738.15	228.45
738.48	228.25
738.81	228.06
739.14	227.85
739.47	227.82
739.80	227.63
740.13	227.51
740.46	227.25
740.79	227.05
741.12	227.00
741.45	226.79
741.78	226.41
742.11	226.37
742.44	226.14
742.77	226.02
743.10	225.79
743.43	225.65
743.75	225.14
744.08	225.45
744.41	225.32
744.74	225.06
745.07	224.83
745.40	224.78
745.73	224.78
746.06	224.65
746.39	224.42
746.71	224.27
747.04	224.13
747.37	224.04
747.70	223.93
748.03	223.77
748.36	223.72
748.68	223.63
749.01	223.38
749.34	223.16
749.67	223.02
750.00	222.96
750.33	223.02
750.65	222.97
750.98	222.38
751.31	222.22
751.64	222.23
751.97	222.36
752.29	222.23
752.62	222.00
752.95	221.85
753.28	221.68
753.60	221.64
753.93	221.64
754.26	221.51
754.59	221.36
754.91	221.16
755.24	221.05
755.57	220.82
755.90	220.68
756.22	220.67
756.55	220.48
756.88	220.34
757.20	220.03
757.53	219.85
757.86	219.71
758.19	219.72
758.51	219.58
758.84	219.32
759.17	219.17
759.49	219.07
759.82	219.11
760.15	219.16
760.47	219.07
760.80	218.83
761.13	218.81
761.45	218.73
761.78	218.68
762.11	218.61
762.43	218.56
762.76	218.52
763.08	218.45
763.41	218.41
763.74	218.30
764.06	218.33
764.39	218.25
764.71	218.26
765.04	218.08
765.37	218.00
765.69	217.86
766.02	217.86
766.34	217.78
766.67	217.66
767.00	217.57
767.32	217.63
767.65	217.81
767.97	217.77
768.30	217.70
768.62	217.70
768.95	217.59
769.27	217.65
769.60	217.68
769.92	217.54
770.25	217.43
770.57	217.32
770.90	217.24
771.22	217.15
771.55	217.10
771.87	217.09
772.20	217.01
772.52	217.27
772.85	217.60
773.17	217.48
773.50	217.46
773.82	217.34
774.15	217.13
774.47	216.78
774.80	216.70
775.12	216.59
775.45	216.50
775.77	216.46
776.09	216.37
776.42	216.25
776.74	216.36
777.07	216.35
777.39	216.32
777.72	216.26
778.04	216.26
778.36	216.10
778.69	216.11
779.01	216.11
779.33	215.78
779.66	215.34
779.98	215.32
780.31	215.22
780.63	215.39
780.95	215.45
781.28	215.45
781.60	215.34
781.92	215.35
782.25	215.33
782.57	215.21
782.89	215.14
783.22	215.09
783.54	214.90
783.86	214.89
784.19	214.89
784.51	214.92
784.83	214.82
785.16	214.85
785.48	214.80
785.80	214.80
786.12	214.84
786.45	214.81
786.77	214.87
787.09	214.81
787.42	214.61
787.74	214.55
788.06	214.53
788.38	214.55
788.71	214.46
789.03	214.45
789.35	214.59
789.67	214.56
789.99	214.64
790.32	214.62
790.64	214.58
790.96	214.76
791.28	214.67
791.61	214.64
791.93	214.66
792.25	214.64
792.57	214.87
792.89	214.74
793.21	214.81
793.54	214.69
793.86	214.71
794.18	214.72
