SpectraSuite Data File
++++++++++++++++++++++++++++++++++++
Date: Mon Feb 25 17:17:10 EST 2013
User: group
Dark Spectrum Present: No
Reference Spectrum Present: No
Number of Sampled Component Spectra: 1
Spectrometers: USB2E7196
Integration Time (usec): 104000 (USB2E7196)
Spectra Averaged: 20 (USB2E7196)
Boxcar Smoothing: 10 (USB2E7196)
Correct for Electrical Dark: No (USB2E7196)
Strobe/Lamp Enabled: No (USB2E7196)
Correct for Detector Non-linearity: No (USB2E7196)
Correct for Stray Light: No (USB2E7196)
Number of Pixels in Processed Spectrum: 2048
>>>>>Begin Processed Spectral Data<<<<<
339.09	0.00
339.48	199.70
339.86	200.05
340.24	201.15
340.63	202.25
341.01	208.35
341.39	206.25
341.78	208.55
342.16	210.50
342.54	208.45
342.93	198.67
343.31	208.68
343.69	209.19
344.07	209.63
344.46	210.16
344.84	210.62
345.22	210.73
345.60	211.03
345.99	211.14
346.37	211.19
346.75	211.36
347.13	211.45
347.52	211.53
347.90	211.76
348.28	211.74
348.66	211.81
349.05	211.77
349.43	211.79
349.81	211.88
350.19	211.88
350.57	211.94
350.96	212.00
351.34	212.12
351.72	212.18
352.10	212.35
352.48	212.40
352.87	212.44
353.25	212.50
353.63	212.45
354.01	212.57
354.39	212.70
354.77	212.74
355.15	212.88
355.54	212.95
355.92	212.82
356.30	212.88
356.68	213.10
357.06	213.14
357.44	213.19
357.82	213.24
358.20	213.37
358.58	213.43
358.97	213.52
359.35	213.70
359.73	213.81
360.11	213.85
360.49	213.89
360.87	213.92
361.25	214.00
361.63	214.22
362.01	214.20
362.39	214.10
362.77	214.20
363.15	214.22
363.53	214.28
363.91	214.26
364.29	214.31
364.67	214.00
365.05	214.03
365.43	214.09
365.81	214.13
366.19	214.23
366.57	214.44
366.95	214.43
367.33	214.22
367.71	214.29
368.09	214.36
368.47	214.30
368.85	214.26
369.23	214.33
369.61	214.18
369.99	214.29
370.37	214.35
370.75	214.45
371.13	214.35
371.51	214.20
371.89	214.23
372.27	214.25
372.65	214.29
373.03	214.30
373.41	214.18
373.78	214.06
374.16	213.91
374.54	213.69
374.92	213.58
375.30	213.58
375.68	213.52
376.06	213.45
376.44	213.43
376.82	213.51
377.19	213.47
377.57	213.49
377.95	213.40
378.33	213.34
378.71	213.11
379.09	213.16
379.47	213.25
379.84	213.27
380.22	213.12
380.60	213.05
380.98	212.95
381.36	212.97
381.73	212.92
382.11	212.96
382.49	212.88
382.87	212.79
383.25	212.79
383.62	213.07
384.00	212.98
384.38	212.89
384.76	212.89
385.13	213.01
385.51	212.94
385.89	212.88
386.27	212.90
386.64	212.88
387.02	212.74
387.40	212.60
387.78	212.56
388.15	212.66
388.53	212.60
388.91	212.60
389.29	212.56
389.66	212.65
390.04	212.55
390.42	212.60
390.79	212.68
391.17	212.68
391.55	212.28
391.92	212.26
392.30	212.37
392.68	212.23
393.05	212.15
393.43	212.18
393.81	212.09
394.18	212.01
394.56	211.98
394.94	212.10
395.31	212.09
395.69	212.21
396.06	212.25
396.44	212.23
396.82	212.22
397.19	212.36
397.57	212.29
397.95	212.37
398.32	212.30
398.70	212.35
399.07	212.43
399.45	212.47
399.82	212.53
400.20	212.45
400.58	212.46
400.95	212.41
401.33	212.40
401.70	212.78
402.08	212.82
402.45	212.93
402.83	213.00
403.20	213.11
403.58	213.05
403.95	213.19
404.33	213.36
404.71	213.48
405.08	213.78
405.46	213.93
405.83	214.07
406.21	214.28
406.58	214.41
406.96	214.49
407.33	214.60
407.70	214.77
408.08	215.34
408.45	215.72
408.83	215.97
409.20	216.23
409.58	216.26
409.95	216.61
410.33	216.93
410.70	217.18
411.08	217.60
411.45	218.03
411.82	218.31
412.20	218.80
412.57	219.39
412.95	219.58
413.32	220.18
413.69	220.69
414.07	221.26
414.44	221.89
414.82	222.67
415.19	223.56
415.56	224.35
415.94	224.99
416.31	225.92
416.68	226.88
417.06	228.00
417.43	229.08
417.81	230.28
418.18	231.52
418.55	232.85
418.93	234.12
419.30	235.56
419.67	237.05
420.04	238.56
420.42	240.10
420.79	242.15
421.16	243.95
421.54	245.99
421.91	248.02
422.28	250.06
422.66	252.09
423.03	254.42
423.40	256.70
423.77	259.00
424.15	261.33
424.52	263.83
424.89	266.50
425.26	269.12
425.64	271.56
426.01	274.26
426.38	277.13
426.75	280.10
427.13	282.94
427.50	286.05
427.87	289.29
428.24	292.56
428.61	295.50
428.99	299.07
429.36	302.71
429.73	306.31
430.10	309.99
430.47	313.82
430.85	317.45
431.22	321.48
431.59	326.00
431.96	330.19
432.33	334.73
432.70	339.18
433.08	344.29
433.45	349.19
433.82	353.98
434.19	359.29
434.56	364.65
434.93	369.79
435.30	374.88
435.68	380.38
436.05	385.92
436.42	391.43
436.79	396.32
437.16	401.63
437.53	407.32
437.90	412.90
438.27	418.46
438.64	424.16
439.01	429.41
439.38	433.93
439.75	438.34
440.13	443.44
440.50	448.30
440.87	452.35
441.24	456.48
441.61	461.04
441.98	464.51
442.35	468.33
442.72	472.27
443.09	476.09
443.46	478.45
443.83	479.83
444.20	481.12
444.57	483.05
444.94	483.87
445.31	484.70
445.68	485.75
446.05	486.06
446.42	485.41
446.79	484.86
447.16	484.00
447.53	483.42
447.90	481.07
448.27	478.80
448.64	475.65
449.01	473.40
449.37	469.55
449.74	465.75
450.11	461.45
450.48	456.60
450.85	451.67
451.22	447.45
451.59	443.55
451.96	439.72
452.33	434.64
452.70	430.09
453.07	424.70
453.43	418.98
453.80	413.67
454.17	408.67
454.54	403.71
454.91	398.68
455.28	393.75
455.65	389.25
456.02	385.11
456.38	381.26
456.75	376.35
457.12	372.31
457.49	368.28
457.86	364.22
458.23	361.01
458.59	357.35
458.96	353.58
459.33	350.25
459.70	346.98
460.07	344.31
460.43	341.34
460.80	338.55
461.17	336.18
461.54	333.50
461.91	331.00
462.27	328.53
462.64	326.29
463.01	323.89
463.38	321.79
463.74	319.07
464.11	317.08
464.48	315.42
464.85	313.59
465.21	312.25
465.58	310.77
465.95	308.85
466.32	307.34
466.68	305.93
467.05	304.52
467.42	303.03
467.78	301.55
468.15	300.21
468.52	299.21
468.88	297.76
469.25	296.63
469.62	295.72
469.98	294.71
470.35	293.87
470.72	292.96
471.08	291.95
471.45	291.19
471.82	290.48
472.18	289.61
472.55	289.03
472.92	288.30
473.28	287.66
473.65	287.21
474.02	286.66
474.38	286.22
474.75	285.92
475.11	285.50
475.48	285.26
475.85	285.05
476.21	284.78
476.58	284.74
476.94	284.70
477.31	284.64
477.67	284.62
478.04	284.55
478.41	284.85
478.77	285.33
479.14	285.49
479.50	285.78
479.87	286.13
480.23	286.60
480.60	286.87
480.96	287.38
481.33	287.95
481.69	288.62
482.06	289.30
482.42	289.97
482.79	290.84
483.15	291.65
483.52	292.62
483.88	293.67
484.25	294.67
484.61	295.76
484.98	296.88
485.34	298.39
485.71	299.87
486.07	301.24
486.44	302.39
486.80	304.11
487.17	305.79
487.53	307.83
487.90	309.81
488.26	312.22
488.62	314.51
488.99	316.80
489.35	319.25
489.72	321.82
490.08	324.58
490.44	327.36
490.81	330.48
491.17	333.60
491.54	336.97
491.90	340.50
492.26	344.28
492.63	348.18
492.99	352.09
493.36	356.32
493.72	360.90
494.08	365.75
494.45	370.67
494.81	375.96
495.17	381.16
495.54	386.78
495.90	392.49
496.26	398.59
496.63	404.98
496.99	411.59
497.35	418.45
497.72	425.52
498.08	432.98
498.44	440.64
498.80	448.82
499.17	457.19
499.53	465.89
499.89	475.01
500.26	484.27
500.62	493.77
500.98	503.91
501.34	514.27
501.71	524.85
502.07	535.68
502.43	546.77
502.79	558.29
503.16	570.20
503.52	582.56
503.88	595.02
504.24	607.95
504.60	621.34
504.97	635.26
505.33	649.41
505.69	664.33
506.05	679.20
506.41	694.44
506.78	709.87
507.14	725.66
507.50	741.83
507.86	758.52
508.22	775.59
508.59	792.67
508.95	810.28
509.31	828.25
509.67	846.94
510.03	865.81
510.39	885.30
510.75	904.92
511.12	924.58
511.48	944.87
511.84	965.52
512.20	985.87
512.56	1006.91
512.92	1028.44
513.28	1049.95
513.64	1071.91
514.00	1093.56
514.37	1115.77
514.73	1138.25
515.09	1160.88
515.45	1183.47
515.81	1206.35
516.17	1229.65
516.53	1252.90
516.89	1276.29
517.25	1299.27
517.61	1323.14
517.97	1346.39
518.33	1369.75
518.69	1393.52
519.05	1417.16
519.41	1440.99
519.77	1465.59
520.13	1489.54
520.49	1513.12
520.85	1536.92
521.21	1560.78
521.57	1585.54
521.93	1609.17
522.29	1633.81
522.65	1658.41
523.01	1682.56
523.37	1706.24
523.73	1729.91
524.09	1753.45
524.45	1777.28
524.81	1801.10
525.17	1824.55
525.53	1848.60
525.89	1871.88
526.25	1895.26
526.61	1918.09
526.97	1940.53
527.33	1963.12
527.68	1985.72
528.04	2007.76
528.40	2029.20
528.76	2050.85
529.12	2072.48
529.48	2094.94
529.84	2116.20
530.20	2136.95
530.56	2157.95
530.91	2179.83
531.27	2201.49
531.63	2222.29
531.99	2242.86
532.35	2262.77
532.71	2282.49
533.07	2302.35
533.42	2321.95
533.78	2341.33
534.14	2360.27
534.50	2378.28
534.86	2396.22
535.21	2413.43
535.57	2432.16
535.93	2449.55
536.29	2466.57
536.65	2483.55
537.00	2499.11
537.36	2513.78
537.72	2528.96
538.08	2544.06
538.44	2558.75
538.79	2572.91
539.15	2587.38
539.51	2601.16
539.87	2616.31
540.22	2629.70
540.58	2643.53
540.94	2656.70
541.29	2668.42
541.65	2679.79
542.01	2692.15
542.37	2703.52
542.72	2715.29
543.08	2725.03
543.44	2736.65
543.79	2746.32
544.15	2755.29
544.51	2764.98
544.87	2775.40
545.22	2784.21
545.58	2792.25
545.94	2799.18
546.29	2805.75
546.65	2811.89
547.01	2818.15
547.36	2823.25
547.72	2828.78
548.07	2832.36
548.43	2836.77
548.79	2841.21
549.14	2845.65
549.50	2849.37
549.86	2852.51
550.21	2854.87
550.57	2858.32
550.92	2859.61
551.28	2861.71
551.64	2863.59
551.99	2865.88
552.35	2866.61
552.70	2867.85
553.06	2869.27
553.41	2869.99
553.77	2870.82
554.13	2871.47
554.48	2872.26
554.84	2872.72
555.19	2872.47
555.55	2872.00
555.90	2870.36
556.26	2868.86
556.61	2867.54
556.97	2865.42
557.32	2863.99
557.68	2861.59
558.03	2858.59
558.39	2856.59
558.74	2855.32
559.10	2853.42
559.45	2850.32
559.81	2848.35
560.16	2844.87
560.52	2842.09
560.87	2839.32
561.23	2835.24
561.58	2831.95
561.94	2827.35
562.29	2822.42
562.64	2818.56
563.00	2815.02
563.35	2812.08
563.71	2809.32
564.06	2805.59
564.42	2802.60
564.77	2799.61
565.12	2797.13
565.48	2793.67
565.83	2790.06
566.19	2786.30
566.54	2781.06
566.89	2776.17
567.25	2771.41
567.60	2767.36
567.96	2762.30
568.31	2757.54
568.66	2752.39
569.02	2746.85
569.37	2740.79
569.72	2735.85
570.08	2729.74
570.43	2723.29
570.78	2716.50
571.14	2709.10
571.49	2702.28
571.84	2695.62
572.20	2687.35
572.55	2679.80
572.90	2671.90
573.26	2663.23
573.61	2654.66
573.96	2646.92
574.31	2638.44
574.67	2629.16
575.02	2619.72
575.37	2610.57
575.72	2601.06
576.08	2593.31
576.43	2584.11
576.78	2575.72
577.13	2567.11
577.49	2558.68
577.84	2550.06
578.19	2542.19
578.54	2534.67
578.90	2526.83
579.25	2517.55
579.60	2508.20
579.95	2498.64
580.30	2490.64
580.66	2482.93
581.01	2473.51
581.36	2464.09
581.71	2455.30
582.06	2446.96
582.42	2438.47
582.77	2429.22
583.12	2420.24
583.47	2411.51
583.82	2403.16
584.17	2394.50
584.53	2385.84
584.88	2376.87
585.23	2367.63
585.58	2358.31
585.93	2348.79
586.28	2340.15
586.63	2331.26
586.98	2322.95
587.34	2314.94
587.69	2305.54
588.04	2296.49
588.39	2288.34
588.74	2279.44
589.09	2271.30
589.44	2262.33
589.79	2253.95
590.14	2246.16
590.49	2237.84
590.84	2228.83
591.19	2221.11
591.54	2212.56
591.89	2202.27
592.25	2193.45
592.60	2184.70
592.95	2175.19
593.30	2165.35
593.65	2155.27
594.00	2146.13
594.35	2138.90
594.70	2129.85
595.05	2121.56
595.40	2112.79
595.75	2103.29
596.10	2095.48
596.45	2086.82
596.80	2078.82
597.15	2070.85
597.50	2061.81
597.85	2053.74
598.19	2045.25
598.54	2036.55
598.89	2028.57
599.24	2021.97
599.59	2014.26
599.94	2007.45
600.29	2000.21
600.64	1993.14
600.99	1985.13
601.34	1978.02
601.69	1968.66
602.04	1960.31
602.39	1952.10
602.74	1944.46
603.08	1938.12
603.43	1930.89
603.78	1923.59
604.13	1916.23
604.48	1908.45
604.83	1902.36
605.18	1895.41
605.53	1887.74
605.87	1879.62
606.22	1872.56
606.57	1864.57
606.92	1856.69
607.27	1848.20
607.62	1840.25
607.96	1832.88
608.31	1826.24
608.66	1818.11
609.01	1810.10
609.36	1802.22
609.70	1793.80
610.05	1785.23
610.40	1776.68
610.75	1767.90
611.10	1759.84
611.44	1750.20
611.79	1741.08
612.14	1731.25
612.49	1721.54
612.83	1712.99
613.18	1703.81
613.53	1694.43
613.88	1684.75
614.22	1675.80
614.57	1666.70
614.92	1657.46
615.27	1647.90
615.61	1638.37
615.96	1629.61
616.31	1621.47
616.65	1613.45
617.00	1605.35
617.35	1596.89
617.70	1587.72
618.04	1578.32
618.39	1568.45
618.74	1560.10
619.08	1551.02
619.43	1542.25
619.78	1534.00
620.12	1525.34
620.47	1516.98
620.82	1507.64
621.16	1498.78
621.51	1489.98
621.85	1481.62
622.20	1473.03
622.55	1464.17
622.89	1455.46
623.24	1446.55
623.59	1437.24
623.93	1428.46
624.28	1419.89
624.62	1411.27
624.97	1402.55
625.32	1394.83
625.66	1387.04
626.01	1379.02
626.35	1371.20
626.70	1363.15
627.04	1355.40
627.39	1347.59
627.73	1339.86
628.08	1332.75
628.43	1324.85
628.77	1316.80
629.12	1308.50
629.46	1301.59
629.81	1294.29
630.15	1286.73
630.50	1279.21
630.84	1271.57
631.19	1263.69
631.53	1255.92
631.88	1247.95
632.22	1240.35
632.57	1232.90
632.91	1225.16
633.26	1217.53
633.60	1210.33
633.95	1203.39
634.29	1195.57
634.64	1188.26
634.98	1180.56
635.32	1173.30
635.67	1166.71
636.01	1159.91
636.36	1152.58
636.70	1144.99
637.05	1137.88
637.39	1131.14
637.73	1124.53
638.08	1118.31
638.42	1111.98
638.77	1105.53
639.11	1098.90
639.45	1092.31
639.80	1085.03
640.14	1078.17
640.49	1071.26
640.83	1064.31
641.17	1057.27
641.52	1050.48
641.86	1043.35
642.20	1036.85
642.55	1029.58
642.89	1022.57
643.23	1015.57
643.58	1009.52
643.92	1002.63
644.26	995.90
644.61	988.91
644.95	982.00
645.29	975.09
645.64	967.99
645.98	961.20
646.32	955.07
646.66	948.32
647.01	941.98
647.35	935.70
647.69	928.93
648.04	922.56
648.38	916.08
648.72	909.53
649.06	903.10
649.41	896.55
649.75	890.32
650.09	884.16
650.43	877.87
650.78	871.03
651.12	864.49
651.46	858.31
651.80	852.26
652.14	846.16
652.49	840.00
652.83	833.88
653.17	827.24
653.51	820.88
653.85	815.00
654.20	809.12
654.54	802.84
654.88	796.80
655.22	790.80
655.56	784.54
655.90	778.60
656.25	772.68
656.59	766.89
656.93	761.21
657.27	755.43
657.61	749.52
657.95	744.26
658.29	738.97
658.64	733.50
658.98	728.01
659.32	722.28
659.66	716.88
660.00	711.32
660.34	706.06
660.68	700.53
661.02	695.08
661.36	689.84
661.70	684.94
662.05	680.13
662.39	675.37
662.73	670.71
663.07	666.12
663.41	661.46
663.75	656.56
664.09	651.65
664.43	646.78
664.77	642.24
665.11	637.48
665.45	632.93
665.79	628.39
666.13	623.81
666.47	619.31
666.81	614.86
667.15	610.48
667.49	606.61
667.83	602.58
668.17	598.54
668.51	594.48
668.85	590.47
669.19	586.74
669.53	582.64
669.87	578.56
670.21	574.62
670.55	570.70
670.89	567.43
671.23	563.85
671.57	560.31
671.91	556.64
672.25	552.99
672.58	549.52
672.92	545.93
673.26	542.55
673.60	539.20
673.94	535.76
674.28	532.52
674.62	529.12
674.96	525.85
675.30	522.62
675.64	519.19
675.97	515.85
676.31	512.49
676.65	509.43
676.99	506.64
677.33	503.40
677.67	500.32
678.01	496.72
678.34	493.61
678.68	490.50
679.02	487.57
679.36	484.81
679.70	481.64
680.04	478.65
680.37	475.64
680.71	472.70
681.05	470.04
681.39	467.28
681.73	464.51
682.06	461.85
682.40	459.18
682.74	456.52
683.08	453.96
683.42	451.14
683.75	448.34
684.09	445.45
684.43	442.95
684.77	440.27
685.10	437.89
685.44	435.21
685.78	432.70
686.12	430.25
686.45	427.62
686.79	425.25
687.13	422.95
687.46	420.63
687.80	418.38
688.14	415.76
688.48	413.38
688.81	410.87
689.15	408.39
689.49	405.92
689.82	403.65
690.16	401.11
690.50	398.84
690.83	396.48
691.17	394.16
691.51	391.89
691.84	389.72
692.18	387.63
692.52	385.74
692.85	383.89
693.19	381.88
693.52	379.84
693.86	377.87
694.20	375.84
694.53	373.80
694.87	371.77
695.21	369.87
695.54	367.80
695.88	365.76
696.21	363.83
696.55	362.05
696.88	360.20
697.22	358.36
697.56	356.71
697.89	354.95
698.23	353.28
698.56	351.47
698.90	349.89
699.23	348.08
699.57	346.29
699.90	344.41
700.24	342.58
700.58	340.98
700.91	339.37
701.25	338.05
701.58	336.50
701.92	335.03
702.25	333.51
702.59	332.08
702.92	330.66
703.26	329.26
703.59	327.84
703.93	326.70
704.26	325.45
704.60	324.00
704.93	322.69
705.26	321.24
705.60	320.09
705.93	318.65
706.27	317.45
706.60	316.38
706.94	315.30
707.27	314.05
707.61	312.72
707.94	311.40
708.27	309.83
708.61	308.54
708.94	307.33
709.28	306.15
709.61	305.08
709.94	304.08
710.28	302.94
710.61	301.88
710.95	300.50
711.28	299.56
711.61	298.49
711.95	297.60
712.28	296.71
712.61	295.61
712.95	294.87
713.28	294.02
713.61	292.85
713.95	291.85
714.28	291.04
714.61	290.15
714.95	289.23
715.28	288.34
715.61	287.51
715.95	286.60
716.28	285.74
716.61	284.88
716.95	283.95
717.28	283.17
717.61	282.31
717.94	281.57
718.28	280.48
718.61	279.71
718.94	278.81
719.27	277.99
719.61	277.26
719.94	276.32
720.27	275.33
720.60	274.60
720.94	273.86
721.27	273.13
721.60	272.50
721.93	271.84
722.27	271.30
722.60	270.65
722.93	269.97
723.26	269.35
723.59	268.58
723.93	267.95
724.26	267.31
724.59	266.61
724.92	266.01
725.25	265.55
725.59	264.95
725.92	264.38
726.25	263.70
726.58	263.15
726.91	262.60
727.24	262.20
727.57	261.63
727.91	261.02
728.24	260.48
728.57	259.89
728.90	259.42
729.23	258.78
729.56	258.40
729.89	257.87
730.22	257.32
730.55	256.82
730.89	256.35
731.22	255.83
731.55	255.31
731.88	254.77
732.21	254.17
732.54	253.65
732.87	253.14
733.20	252.78
733.53	252.29
733.86	251.87
734.19	251.27
734.52	250.96
734.85	250.77
735.18	250.29
735.51	250.00
735.84	249.56
736.17	249.16
736.50	248.57
736.83	248.55
737.16	248.10
737.49	247.69
737.82	247.28
738.15	246.87
738.48	246.59
738.81	246.17
739.14	245.78
739.47	245.43
739.80	245.02
740.13	244.65
740.46	244.28
740.79	243.86
741.12	243.55
741.45	243.07
741.78	242.54
742.11	242.27
742.44	241.81
742.77	241.54
743.10	241.27
743.43	240.93
743.75	240.20
744.08	240.37
744.41	240.05
744.74	239.71
745.07	239.33
745.40	239.09
745.73	238.94
746.06	238.64
746.39	238.33
746.71	238.04
747.04	237.70
747.37	237.37
747.70	237.10
748.03	236.84
748.36	236.60
748.68	236.31
749.01	235.89
749.34	235.65
749.67	235.34
750.00	235.02
750.33	235.04
750.65	234.82
750.98	234.04
751.31	233.77
751.64	233.50
751.97	233.41
752.29	233.07
752.62	232.76
752.95	232.50
753.28	232.29
753.60	232.09
753.93	231.97
754.26	231.80
754.59	231.49
754.91	231.18
755.24	230.93
755.57	230.60
755.90	230.43
756.22	230.18
756.55	229.93
756.88	229.70
757.20	229.24
757.53	228.94
757.86	228.78
758.19	228.64
758.51	228.39
758.84	228.05
759.17	227.78
759.49	227.52
759.82	227.52
760.15	227.29
760.47	227.05
760.80	226.70
761.13	226.51
761.45	226.32
761.78	226.12
762.11	225.96
762.43	225.79
762.76	225.65
763.08	225.43
763.41	225.24
763.74	224.98
764.06	224.84
764.39	224.73
764.71	224.55
765.04	224.31
765.37	224.26
765.69	224.09
766.02	224.01
766.34	223.76
766.67	223.47
767.00	223.39
767.32	223.51
767.65	223.57
767.97	223.39
768.30	223.33
768.62	223.25
768.95	223.14
769.27	223.03
769.60	223.01
769.92	222.90
770.25	222.76
770.57	222.63
770.90	222.43
771.22	222.22
771.55	222.15
771.87	222.04
772.20	221.81
772.52	222.05
772.85	222.24
773.17	222.24
773.50	222.07
773.82	221.90
774.15	221.56
774.47	221.23
774.80	221.07
775.12	220.95
775.45	220.76
775.77	220.55
776.09	220.44
776.42	220.26
776.74	220.24
777.07	220.13
777.39	220.06
777.72	220.01
778.04	219.99
778.36	219.91
778.69	219.89
779.01	219.85
779.33	219.43
779.66	219.07
779.98	218.92
780.31	218.88
780.63	218.96
780.95	218.98
781.28	218.95
781.60	218.91
781.92	218.78
782.25	218.71
782.57	218.70
782.89	218.59
783.22	218.50
783.54	218.41
783.86	218.35
784.19	218.29
784.51	218.28
784.83	218.18
785.16	218.05
785.48	217.99
785.80	217.87
786.12	217.84
