SpectraSuite Data File
++++++++++++++++++++++++++++++++++++
Date: Mon Feb 25 17:18:16 EST 2013
User: group
Dark Spectrum Present: No
Reference Spectrum Present: No
Number of Sampled Component Spectra: 1
Spectrometers: USB2E7196
Integration Time (usec): 104000 (USB2E7196)
Spectra Averaged: 20 (USB2E7196)
Boxcar Smoothing: 10 (USB2E7196)
Correct for Electrical Dark: No (USB2E7196)
Strobe/Lamp Enabled: No (USB2E7196)
Correct for Detector Non-linearity: No (USB2E7196)
Correct for Stray Light: No (USB2E7196)
Number of Pixels in Processed Spectrum: 2048
>>>>>Begin Processed Spectral Data<<<<<
339.09	0.00
339.48	199.30
339.86	200.50
340.24	202.20
340.63	202.95
341.01	209.60
341.39	206.15
341.78	207.15
342.16	208.95
342.54	209.80
342.93	198.77
343.31	208.75
343.69	209.28
344.07	209.74
344.46	210.19
344.84	210.59
345.22	210.65
345.60	210.93
345.99	211.18
346.37	211.30
346.75	211.43
347.13	211.49
347.52	211.58
347.90	211.69
348.28	211.72
348.66	211.83
349.05	211.75
349.43	211.88
349.81	211.86
350.19	211.87
350.57	211.93
350.96	212.05
351.34	212.26
351.72	212.43
352.10	212.53
352.48	212.55
352.87	212.61
353.25	212.71
353.63	212.72
354.01	212.73
354.39	212.81
354.77	212.84
355.15	213.00
355.54	213.01
355.92	213.04
356.30	213.10
356.68	213.32
357.06	213.37
357.44	213.32
357.82	213.43
358.20	213.51
358.58	213.46
358.97	213.55
359.35	213.61
359.73	213.70
360.11	213.80
360.49	213.90
360.87	213.97
361.25	214.14
361.63	214.32
362.01	214.41
362.39	214.46
362.77	214.54
363.15	214.58
363.53	214.63
363.91	214.62
364.29	214.70
364.67	214.51
365.05	214.51
365.43	214.56
365.81	214.69
366.19	214.87
366.57	215.04
366.95	215.06
367.33	214.96
367.71	214.95
368.09	215.01
368.47	214.93
368.85	214.93
369.23	214.88
369.61	214.71
369.99	214.80
370.37	214.80
370.75	214.97
371.13	214.85
371.51	214.83
371.89	214.86
372.27	214.89
372.65	214.86
373.03	214.90
373.41	214.86
373.78	214.77
374.16	214.55
374.54	214.47
374.92	214.39
375.30	214.39
375.68	214.27
376.06	214.22
376.44	214.25
376.82	214.21
377.19	214.12
377.57	214.10
377.95	213.93
378.33	213.88
378.71	213.65
379.09	213.65
379.47	213.65
379.84	213.55
380.22	213.49
380.60	213.38
380.98	213.32
381.36	213.22
381.73	213.10
382.11	213.14
382.49	213.01
382.87	212.94
383.25	212.89
383.62	213.22
384.00	213.10
384.38	213.06
384.76	213.10
385.13	213.26
385.51	213.27
385.89	213.20
386.27	213.15
386.64	213.16
387.02	213.11
387.40	213.02
387.78	213.01
388.15	213.00
388.53	213.00
388.91	213.03
389.29	213.06
389.66	213.17
390.04	213.13
390.42	213.27
390.79	213.24
391.17	213.20
391.55	212.85
391.92	212.83
392.30	212.89
392.68	212.82
393.05	212.75
393.43	212.74
393.81	212.75
394.18	212.70
394.56	212.64
394.94	212.68
395.31	212.70
395.69	212.80
396.06	212.72
396.44	212.73
396.82	212.65
397.19	212.84
397.57	212.77
397.95	212.83
398.32	212.70
398.70	212.74
399.07	212.85
399.45	212.77
399.82	212.81
400.20	212.81
400.58	212.89
400.95	212.80
401.33	212.85
401.70	213.12
402.08	213.23
402.45	213.29
402.83	213.49
403.20	213.53
403.58	213.54
403.95	213.77
404.33	213.95
404.71	214.10
405.08	214.33
405.46	214.55
405.83	214.70
406.21	214.84
406.58	215.05
406.96	215.25
407.33	215.52
407.70	215.79
408.08	216.24
408.45	216.50
408.83	216.81
409.20	217.08
409.58	217.25
409.95	217.71
410.33	218.10
410.70	218.32
411.08	218.86
411.45	219.32
411.82	219.70
412.20	220.26
412.57	220.88
412.95	221.15
413.32	221.71
413.69	222.24
414.07	222.96
414.44	223.64
414.82	224.37
415.19	225.26
415.56	226.14
415.94	226.88
416.31	227.97
416.68	229.10
417.06	230.33
417.43	231.57
417.81	232.87
418.18	234.25
418.55	235.70
418.93	237.21
419.30	238.80
419.67	240.43
420.04	242.07
420.42	243.88
420.79	246.14
421.16	248.19
421.54	250.53
421.91	252.74
422.28	255.04
422.66	257.50
423.03	260.15
423.40	262.55
423.77	265.16
424.15	267.74
424.52	270.45
424.89	273.46
425.26	276.36
425.64	279.09
426.01	282.12
426.38	285.25
426.75	288.43
427.13	291.73
427.50	295.29
427.87	298.88
428.24	302.62
428.61	306.02
428.99	309.94
429.36	314.13
429.73	318.27
430.10	322.43
430.47	326.64
430.85	330.73
431.22	335.38
431.59	340.33
431.96	344.98
432.33	350.08
432.70	355.07
433.08	360.82
433.45	366.24
433.82	371.71
434.19	377.91
434.56	383.90
434.93	389.55
435.30	395.16
435.68	401.45
436.05	407.52
436.42	413.62
436.79	419.24
437.16	425.13
437.53	431.38
437.90	437.57
438.27	443.75
438.64	450.14
439.01	456.09
439.38	461.21
439.75	466.37
440.13	472.19
440.50	477.67
440.87	482.04
441.24	486.72
441.61	491.89
441.98	495.55
442.35	499.85
442.72	504.25
443.09	508.54
443.46	511.10
443.83	512.89
444.20	514.42
444.57	516.49
444.94	517.40
445.31	518.50
445.68	519.76
446.05	520.01
446.42	519.32
446.79	518.47
447.16	517.66
447.53	516.95
447.90	514.42
448.27	511.86
448.64	508.64
449.01	506.06
449.37	501.59
449.74	497.36
450.11	492.68
450.48	487.37
450.85	481.81
451.22	477.04
451.59	472.53
451.96	468.12
452.33	462.47
452.70	457.33
453.07	451.16
453.43	444.78
453.80	438.85
454.17	433.14
454.54	427.67
454.91	421.92
455.28	416.43
455.65	411.23
456.02	406.50
456.38	402.00
456.75	396.57
457.12	392.02
457.49	387.59
457.86	382.90
458.23	379.16
458.59	375.11
458.96	371.00
459.33	367.25
459.70	363.57
460.07	360.62
460.43	357.28
460.80	354.15
461.17	351.42
461.54	348.55
461.91	345.85
462.27	343.22
462.64	340.79
463.01	338.02
463.38	335.67
463.74	332.73
464.11	330.46
464.48	328.59
464.85	326.58
465.21	324.99
465.58	323.33
465.95	321.30
466.32	319.63
466.68	317.97
467.05	316.23
467.42	314.60
467.78	312.88
468.15	311.30
468.52	310.14
468.88	308.46
469.25	307.10
469.62	306.04
469.98	304.83
470.35	303.81
470.72	302.87
471.08	301.73
471.45	300.85
471.82	300.03
472.18	299.04
472.55	298.36
472.92	297.53
473.28	296.93
473.65	296.24
474.02	295.67
474.38	295.29
474.75	295.06
475.11	294.78
475.48	294.56
475.85	294.35
476.21	294.18
476.58	294.20
476.94	294.26
477.31	294.17
477.67	294.15
478.04	294.33
478.41	294.68
478.77	295.20
479.14	295.37
479.50	295.78
479.87	296.31
480.23	296.81
480.60	297.30
480.96	297.79
481.33	298.61
481.69	299.35
482.06	300.05
482.42	300.79
482.79	301.63
483.15	302.68
483.52	303.88
483.88	305.01
484.25	306.17
484.61	307.45
484.98	308.84
485.34	310.46
485.71	312.03
486.07	313.65
486.44	315.18
486.80	317.16
487.17	319.14
487.53	321.38
487.90	323.74
488.26	326.36
488.62	328.97
488.99	331.56
489.35	334.43
489.72	337.57
490.08	340.84
490.44	344.11
490.81	347.72
491.17	351.33
491.54	355.20
491.90	359.28
492.26	363.51
492.63	368.04
492.99	372.59
493.36	377.49
493.72	382.79
494.08	388.15
494.45	393.94
494.81	400.01
495.17	406.08
495.54	412.62
495.90	419.24
496.26	426.32
496.63	433.68
496.99	441.40
497.35	449.27
497.72	457.47
498.08	466.06
498.44	474.90
498.80	484.49
499.17	494.33
499.53	504.30
499.89	514.69
500.26	525.39
500.62	536.35
500.98	547.99
501.34	559.72
501.71	572.09
502.07	584.54
502.43	597.31
502.79	610.62
503.16	624.45
503.52	638.65
503.88	653.15
504.24	668.16
504.60	683.33
504.97	699.28
505.33	715.48
505.69	732.68
506.05	750.00
506.41	767.39
506.78	785.13
507.14	803.52
507.50	822.36
507.86	841.54
508.22	861.52
508.59	881.41
508.95	902.03
509.31	922.92
509.67	944.45
510.03	966.27
510.39	988.68
510.75	1011.29
511.12	1034.42
511.48	1057.77
511.84	1081.65
512.20	1105.63
512.56	1130.02
512.92	1154.90
513.28	1179.80
513.64	1204.79
514.00	1230.09
514.37	1255.83
514.73	1282.01
515.09	1308.09
515.45	1334.22
515.81	1360.52
516.17	1387.18
516.53	1413.76
516.89	1440.81
517.25	1467.68
517.61	1494.76
517.97	1521.76
518.33	1548.49
518.69	1575.15
519.05	1602.55
519.41	1629.96
519.77	1657.89
520.13	1685.07
520.49	1712.05
520.85	1739.10
521.21	1766.84
521.57	1794.69
521.93	1821.40
522.29	1849.26
522.65	1876.98
523.01	1904.53
523.37	1931.32
523.73	1958.29
524.09	1985.05
524.45	2011.90
524.81	2038.81
525.17	2066.10
525.53	2092.94
525.89	2119.62
526.25	2146.38
526.61	2171.76
526.97	2197.08
527.33	2222.38
527.68	2247.95
528.04	2272.71
528.40	2296.70
528.76	2321.30
529.12	2346.18
529.48	2371.70
529.84	2395.67
530.20	2419.36
530.56	2443.64
530.91	2468.30
531.27	2492.21
531.63	2515.74
531.99	2538.78
532.35	2560.85
532.71	2582.34
533.07	2605.03
533.42	2627.11
533.78	2648.93
534.14	2670.32
534.50	2690.09
534.86	2710.73
535.21	2729.92
535.57	2751.01
535.93	2770.56
536.29	2788.80
536.65	2807.37
537.00	2824.93
537.36	2841.83
537.72	2858.53
538.08	2874.59
538.44	2890.99
538.79	2907.25
539.15	2923.39
539.51	2938.94
539.87	2955.60
540.22	2970.86
540.58	2985.93
540.94	3000.19
541.29	3013.24
541.65	3026.22
542.01	3040.15
542.37	3052.75
542.72	3066.09
543.08	3077.19
543.44	3090.33
543.79	3101.53
544.15	3111.33
544.51	3122.16
544.87	3133.36
545.22	3143.12
545.58	3152.41
545.94	3159.82
546.29	3167.12
546.65	3173.52
547.01	3180.07
547.36	3185.93
547.72	3191.98
548.07	3196.27
548.43	3200.83
548.79	3205.48
549.14	3210.00
549.50	3214.29
549.86	3217.30
550.21	3220.02
550.57	3223.40
550.92	3224.55
551.28	3226.43
551.64	3228.80
551.99	3230.60
552.35	3231.66
552.70	3233.24
553.06	3234.87
553.41	3236.11
553.77	3236.54
554.13	3237.37
554.48	3238.08
554.84	3238.71
555.19	3238.22
555.55	3237.30
555.90	3235.78
556.26	3234.19
556.61	3232.67
556.97	3230.00
557.32	3228.49
557.68	3225.54
558.03	3222.52
558.39	3220.30
558.74	3219.24
559.10	3217.07
559.45	3214.16
559.81	3211.28
560.16	3207.45
560.52	3203.65
560.87	3200.06
561.23	3195.70
561.58	3192.00
561.94	3186.96
562.29	3181.03
562.64	3176.84
563.00	3172.82
563.35	3169.60
563.71	3166.59
564.06	3162.71
564.42	3159.42
564.77	3155.49
565.12	3152.29
565.48	3147.97
565.83	3143.50
566.19	3138.98
566.54	3132.84
566.89	3127.21
567.25	3121.79
567.60	3117.05
567.96	3110.95
568.31	3105.76
568.66	3100.16
569.02	3093.85
569.37	3086.94
569.72	3081.18
570.08	3074.37
570.43	3067.18
570.78	3059.45
571.14	3051.02
571.49	3042.56
571.84	3035.05
572.20	3026.05
572.55	3017.78
572.90	3008.86
573.26	2999.65
573.61	2989.63
573.96	2980.97
574.31	2970.82
574.67	2960.37
575.02	2949.34
575.37	2939.25
575.72	2928.28
576.08	2919.04
576.43	2908.26
576.78	2898.88
577.13	2889.44
577.49	2879.56
577.84	2869.32
578.19	2859.84
578.54	2851.02
578.90	2842.39
579.25	2831.92
579.60	2821.23
579.95	2810.14
580.30	2800.83
580.66	2791.62
581.01	2780.93
581.36	2770.13
581.71	2760.43
582.06	2750.27
582.42	2740.65
582.77	2730.10
583.12	2719.52
583.47	2709.30
583.82	2700.19
584.17	2689.90
584.53	2679.47
584.88	2669.39
585.23	2659.30
585.58	2648.80
585.93	2637.92
586.28	2627.67
586.63	2617.41
586.98	2608.09
587.34	2599.12
587.69	2588.78
588.04	2578.12
588.39	2568.86
588.74	2558.39
589.09	2548.96
589.44	2539.03
589.79	2529.59
590.14	2520.41
590.49	2511.05
590.84	2500.92
591.19	2491.76
591.54	2482.11
591.89	2470.73
592.25	2460.03
592.60	2449.50
592.95	2438.82
593.30	2427.39
593.65	2416.35
594.00	2405.77
594.35	2396.92
594.70	2386.44
595.05	2376.83
595.40	2367.20
595.75	2356.50
596.10	2347.38
596.45	2337.51
596.80	2328.36
597.15	2319.27
597.50	2309.29
597.85	2299.92
598.19	2290.04
598.54	2280.11
598.89	2271.12
599.24	2263.51
599.59	2254.60
599.94	2246.83
600.29	2238.43
600.64	2230.36
600.99	2221.28
601.34	2212.88
601.69	2202.45
602.04	2193.00
602.39	2183.49
602.74	2174.51
603.08	2166.78
603.43	2158.86
603.78	2149.82
604.13	2140.98
604.48	2131.89
604.83	2124.43
605.18	2117.08
605.53	2108.91
605.87	2099.80
606.22	2091.18
606.57	2082.10
606.92	2073.76
607.27	2064.16
607.62	2054.95
607.96	2046.55
608.31	2038.54
608.66	2029.29
609.01	2020.42
609.36	2011.43
609.70	2001.86
610.05	1992.35
610.40	1982.76
610.75	1972.77
611.10	1964.03
611.44	1953.49
611.79	1943.27
612.14	1932.52
612.49	1921.36
612.83	1911.21
613.18	1900.53
613.53	1889.92
613.88	1878.99
614.22	1868.72
614.57	1858.46
614.92	1848.29
615.27	1837.73
615.61	1826.99
615.96	1817.22
616.31	1808.05
616.65	1798.86
617.00	1789.56
617.35	1779.72
617.70	1769.42
618.04	1758.65
618.39	1747.78
618.74	1738.08
619.08	1728.04
619.43	1718.24
619.78	1708.62
620.12	1698.92
620.47	1689.76
620.82	1679.60
621.16	1669.57
621.51	1659.44
621.85	1650.12
622.20	1640.10
622.55	1630.22
622.89	1620.16
623.24	1610.09
623.59	1599.28
623.93	1589.15
624.28	1579.48
624.62	1570.16
624.97	1560.91
625.32	1552.12
625.66	1543.18
626.01	1534.25
626.35	1525.44
626.70	1516.29
627.04	1507.41
627.39	1498.48
627.73	1489.42
628.08	1481.16
628.43	1472.40
628.77	1463.57
629.12	1454.21
629.46	1446.36
629.81	1437.74
630.15	1429.50
630.50	1420.79
630.84	1412.20
631.19	1403.72
631.53	1395.05
631.88	1385.70
632.22	1376.31
632.57	1367.81
632.91	1359.21
633.26	1350.86
633.60	1342.33
633.95	1334.30
634.29	1325.46
634.64	1317.50
634.98	1309.21
635.32	1300.94
635.67	1293.53
636.01	1285.63
636.36	1277.46
636.70	1269.29
637.05	1261.35
637.39	1253.52
637.73	1246.32
638.08	1239.37
638.42	1232.01
638.77	1224.69
639.11	1217.55
639.45	1210.12
639.80	1202.16
640.14	1193.91
640.49	1185.82
640.83	1178.04
641.17	1170.29
641.52	1162.69
641.86	1154.38
642.20	1146.85
642.55	1138.90
642.89	1130.69
643.23	1122.78
643.58	1115.78
643.92	1107.45
644.26	1099.85
644.61	1092.16
644.95	1084.27
645.29	1076.30
645.64	1068.22
645.98	1060.57
646.32	1053.22
646.66	1045.71
647.01	1038.29
647.35	1031.52
647.69	1023.94
648.04	1016.62
648.38	1008.90
648.72	1001.63
649.06	994.41
649.41	986.92
649.75	979.69
650.09	972.73
650.43	965.55
650.78	957.73
651.12	950.56
651.46	943.50
651.80	936.52
652.14	929.47
652.49	922.56
652.83	915.57
653.17	907.92
653.51	900.70
653.85	894.10
654.20	887.28
654.54	880.07
654.88	873.40
655.22	866.62
655.56	859.78
655.90	852.88
656.25	846.20
656.59	839.62
656.93	833.08
657.27	826.66
657.61	820.00
657.95	813.89
658.29	807.83
658.64	801.58
658.98	795.01
659.32	788.43
659.66	782.07
660.00	775.85
660.34	769.83
660.68	763.47
661.02	757.19
661.36	751.35
661.70	745.64
662.05	740.11
662.39	734.58
662.73	729.40
663.07	724.24
663.41	718.79
663.75	713.27
664.09	707.83
664.43	702.08
664.77	696.84
665.11	691.42
665.45	686.32
665.79	681.12
666.13	676.23
666.47	671.29
666.81	666.21
667.15	661.25
667.49	656.77
667.83	652.37
668.17	647.70
668.51	643.29
668.85	638.74
669.19	634.24
669.53	629.62
669.87	624.89
670.21	620.36
670.55	616.04
670.89	612.05
671.23	608.10
671.57	604.05
671.91	599.84
672.25	595.69
672.58	591.39
672.92	587.30
673.26	583.46
673.60	579.61
673.94	575.68
674.28	571.73
674.62	567.88
674.96	564.07
675.30	560.48
675.64	556.58
675.97	552.93
676.31	549.39
676.65	545.78
676.99	542.55
677.33	539.06
677.67	535.62
678.01	531.69
678.34	528.03
678.68	524.59
679.02	521.18
679.36	517.95
679.70	514.74
680.04	511.37
680.37	507.77
680.71	504.58
681.05	501.61
681.39	498.65
681.73	495.36
682.06	492.35
682.40	489.29
682.74	486.27
683.08	483.29
683.42	480.01
683.75	477.00
684.09	473.75
684.43	470.62
684.77	467.47
685.10	464.73
685.44	461.70
685.78	458.79
686.12	456.14
686.45	453.30
686.79	450.61
687.13	447.95
687.46	445.45
687.80	442.80
688.14	439.94
688.48	437.31
688.81	434.70
689.15	431.97
689.49	429.41
689.82	426.71
690.16	423.80
690.50	421.15
690.83	418.57
691.17	415.94
691.51	413.43
691.84	411.02
692.18	408.71
692.52	406.56
692.85	404.31
693.19	402.10
693.52	399.81
693.86	397.39
694.20	395.23
694.53	392.99
694.87	390.63
695.21	388.51
695.54	386.15
695.88	383.86
696.21	381.72
696.55	379.61
696.88	377.58
697.22	375.58
697.56	373.87
697.89	371.80
698.23	369.96
698.56	367.98
698.90	366.22
699.23	364.03
699.57	362.06
699.90	360.13
700.24	358.14
700.58	356.28
700.91	354.51
701.25	352.82
701.58	351.08
701.92	349.39
702.25	347.58
702.59	346.03
702.92	344.44
703.26	342.73
703.59	341.11
703.93	339.76
704.26	338.25
704.60	336.67
704.93	335.20
705.26	333.60
705.60	332.25
705.93	330.66
706.27	329.47
706.60	328.10
706.94	326.84
707.27	325.36
707.61	323.98
707.94	322.47
708.27	320.83
708.61	319.44
708.94	318.18
709.28	316.98
709.61	315.64
709.94	314.44
710.28	313.21
710.61	311.88
710.95	310.32
711.28	309.36
711.61	308.04
711.95	307.00
712.28	305.80
712.61	304.63
712.95	303.77
713.28	302.65
713.61	301.52
713.95	300.37
714.28	299.44
714.61	298.28
714.95	297.29
715.28	296.25
715.61	295.11
715.95	294.04
716.28	293.02
716.61	292.01
716.95	290.92
717.28	289.95
717.61	289.05
717.94	288.20
718.28	287.10
718.61	286.23
718.94	285.24
719.27	284.44
719.61	283.59
719.94	282.53
720.27	281.60
720.60	280.73
720.94	279.95
721.27	279.07
721.60	278.43
721.93	277.61
722.27	277.05
722.60	276.48
722.93	275.68
723.26	274.90
723.59	274.15
723.93	273.58
724.26	272.90
724.59	272.24
724.92	271.53
725.25	270.93
725.59	270.26
725.92	269.70
726.25	268.99
726.58	268.33
726.91	267.68
727.24	267.06
727.57	266.39
727.91	265.67
728.24	265.15
728.57	264.52
728.90	264.14
729.23	263.43
729.56	263.04
729.89	262.54
730.22	262.05
730.55	261.56
730.89	260.97
731.22	260.39
731.55	259.89
731.88	259.39
732.21	258.79
732.54	258.21
732.87	257.59
733.20	257.11
733.53	256.62
733.86	256.17
734.19	255.67
734.52	255.30
734.85	255.09
735.18	254.56
735.51	254.17
735.84	253.56
736.17	253.15
736.50	252.53
736.83	252.49
737.16	252.03
737.49	251.52
737.82	250.99
738.15	250.59
738.48	250.10
738.81	249.67
739.14	249.22
739.47	248.79
739.80	248.39
740.13	248.05
740.46	247.59
740.79	247.10
741.12	246.67
741.45	246.23
741.78	245.58
742.11	245.26
742.44	244.82
742.77	244.56
743.10	244.15
743.43	243.69
743.75	242.88
744.08	242.90
744.41	242.59
744.74	242.30
745.07	241.92
745.40	241.63
745.73	241.41
746.06	241.02
746.39	240.80
746.71	240.50
747.04	240.08
747.37	239.76
747.70	239.49
748.03	239.25
748.36	238.91
748.68	238.71
749.01	238.30
749.34	238.02
749.67	237.75
750.00	237.48
750.33	237.41
750.65	237.16
750.98	236.47
751.31	236.13
751.64	235.81
751.97	235.76
752.29	235.44
752.62	235.04
752.95	234.75
753.28	234.45
753.60	234.16
753.93	234.05
754.26	233.80
754.59	233.45
754.91	233.12
755.24	232.90
755.57	232.57
755.90	232.39
756.22	232.07
756.55	231.71
756.88	231.37
757.20	230.91
757.53	230.58
757.86	230.35
758.19	230.18
758.51	229.91
758.84	229.43
759.17	229.16
759.49	228.98
759.82	228.94
760.15	228.64
760.47	228.33
760.80	227.98
761.13	227.82
761.45	227.61
761.78	227.46
762.11	227.24
762.43	227.04
762.76	226.76
763.08	226.60
763.41	226.45
763.74	226.32
764.06	226.10
764.39	225.96
764.71	225.72
765.04	225.49
765.37	225.34
765.69	225.27
766.02	225.09
766.34	224.86
766.67	224.59
767.00	224.50
767.32	224.62
767.65	224.60
767.97	224.42
768.30	224.33
768.62	224.16
768.95	223.99
769.27	223.79
769.60	223.70
769.92	223.51
770.25	223.33
770.57	223.18
770.90	223.12
771.22	222.95
771.55	222.87
771.87	222.77
772.20	222.63
772.52	222.83
772.85	223.10
773.17	223.00
773.50	222.85
773.82	222.70
774.15	222.43
774.47	222.12
774.80	221.96
775.12	221.85
775.45	221.73
775.77	221.60
776.09	221.64
776.42	221.51
776.74	221.48
777.07	221.39
777.39	221.35
777.72	221.25
778.04	221.20
778.36	221.05
778.69	221.00
779.01	220.99
779.33	220.55
779.66	220.12
779.98	220.06
780.31	219.99
780.63	220.09
780.95	220.04
781.28	220.02
781.60	219.93
781.92	219.84
782.25	219.72
782.57	219.68
782.89	219.45
783.22	219.40
783.54	219.21
783.86	219.13
784.19	219.01
784.51	218.98
784.83	218.84
785.16	218.73
785.48	218.68
785.80	218.62
