SpectraSuite Data File
++++++++++++++++++++++++++++++++++++
Date: Mon Feb 25 17:01:14 EST 2013
User: group
Dark Spectrum Present: No
Reference Spectrum Present: No
Number of Sampled Component Spectra: 1
Spectrometers: USB2E7196
Integration Time (usec): 104000 (USB2E7196)
Spectra Averaged: 20 (USB2E7196)
Boxcar Smoothing: 10 (USB2E7196)
Correct for Electrical Dark: No (USB2E7196)
Strobe/Lamp Enabled: No (USB2E7196)
Correct for Detector Non-linearity: No (USB2E7196)
Correct for Stray Light: No (USB2E7196)
Number of Pixels in Processed Spectrum: 2048
>>>>>Begin Processed Spectral Data<<<<<
339.09	0.00
339.48	198.05
339.86	198.15
340.24	200.90
340.63	201.85
341.01	209.40
341.39	206.35
341.78	207.85
342.16	208.20
342.54	207.65
342.93	197.76
343.31	207.72
343.69	208.25
344.07	208.77
344.46	209.28
344.84	209.69
345.22	209.69
345.60	209.90
345.99	210.03
346.37	210.12
346.75	210.21
347.13	210.24
347.52	210.17
347.90	210.36
348.28	210.37
348.66	210.49
349.05	210.38
349.43	210.46
349.81	210.55
350.19	210.63
350.57	210.65
350.96	210.76
351.34	210.90
351.72	211.00
352.10	211.16
352.48	211.13
352.87	211.21
353.25	211.30
353.63	211.33
354.01	211.43
354.39	211.53
354.77	211.62
355.15	211.79
355.54	211.91
355.92	211.94
356.30	212.05
356.68	212.29
357.06	212.42
357.44	212.43
357.82	212.56
358.20	212.68
358.58	212.75
358.97	212.83
359.35	212.96
359.73	213.12
360.11	213.09
360.49	213.17
360.87	213.22
361.25	213.30
361.63	213.52
362.01	213.55
362.39	213.60
362.77	213.65
363.15	213.62
363.53	213.69
363.91	213.73
364.29	213.75
364.67	213.42
365.05	213.46
365.43	213.54
365.81	213.58
366.19	213.76
366.57	213.86
366.95	213.90
367.33	213.85
367.71	213.86
368.09	213.96
368.47	214.01
368.85	213.96
369.23	214.09
369.61	213.93
369.99	214.09
370.37	214.11
370.75	214.33
371.13	214.24
371.51	214.09
371.89	214.00
372.27	213.99
372.65	214.05
373.03	213.91
373.41	213.86
373.78	213.74
374.16	213.45
374.54	213.33
374.92	213.25
375.30	213.15
375.68	212.95
376.06	212.91
376.44	212.82
376.82	212.80
377.19	212.72
377.57	212.63
377.95	212.37
378.33	212.26
378.71	211.98
379.09	212.00
379.47	212.00
379.84	212.05
380.22	211.94
380.60	211.84
380.98	211.77
381.36	211.65
381.73	211.56
382.11	211.63
382.49	211.65
382.87	211.53
383.25	211.46
383.62	211.81
384.00	211.73
384.38	211.73
384.76	211.74
385.13	211.83
385.51	211.82
385.89	211.78
386.27	211.74
386.64	211.75
387.02	211.66
387.40	211.63
387.78	211.60
388.15	211.58
388.53	211.48
388.91	211.41
389.29	211.40
389.66	211.43
390.04	211.31
390.42	211.35
390.79	211.34
391.17	211.37
391.55	211.04
391.92	211.02
392.30	210.94
392.68	210.87
393.05	210.75
393.43	210.70
393.81	210.69
394.18	210.65
394.56	210.59
394.94	210.65
395.31	210.64
395.69	210.63
396.06	210.69
396.44	210.71
396.82	210.76
397.19	210.93
397.57	210.88
397.95	210.96
398.32	210.81
398.70	210.83
399.07	210.82
399.45	210.80
399.82	210.71
400.20	210.74
400.58	210.76
400.95	210.58
401.33	210.75
401.70	211.08
402.08	211.12
402.45	211.20
402.83	211.32
403.20	211.42
403.58	211.45
403.95	211.64
404.33	211.79
404.71	211.93
405.08	212.27
405.46	212.42
405.83	212.60
406.21	212.71
406.58	212.93
406.96	213.15
407.33	213.39
407.70	213.75
408.08	214.19
408.45	214.55
408.83	214.96
409.20	215.20
409.58	215.30
409.95	215.76
410.33	216.22
410.70	216.57
411.08	217.08
411.45	217.65
411.82	218.04
412.20	218.69
412.57	219.53
412.95	219.84
413.32	220.56
413.69	221.30
414.07	222.16
414.44	223.03
414.82	223.96
415.19	225.05
415.56	226.10
415.94	227.19
416.31	228.47
416.68	229.82
417.06	231.30
417.43	232.78
417.81	234.41
418.18	235.98
418.55	237.79
418.93	239.60
419.30	241.55
419.67	243.68
420.04	245.75
420.42	247.95
420.79	250.82
421.16	253.46
421.54	256.26
421.91	259.17
422.28	262.08
422.66	265.20
423.03	268.42
423.40	271.70
423.77	275.05
424.15	278.45
424.52	282.09
424.89	286.02
425.26	289.78
425.64	293.41
426.01	297.52
426.38	301.71
426.75	306.00
427.13	310.37
427.50	315.09
427.87	320.01
428.24	324.94
428.61	329.48
428.99	334.75
429.36	340.34
429.73	345.85
430.10	351.38
430.47	357.04
430.85	362.77
431.22	368.92
431.59	375.82
431.96	382.32
432.33	389.30
432.70	396.23
433.08	404.34
433.45	411.96
433.82	419.55
434.19	427.97
434.56	436.34
434.93	444.38
435.30	452.51
435.68	461.42
436.05	470.17
436.42	478.92
436.79	487.09
437.16	495.79
437.53	505.04
437.90	514.29
438.27	523.43
438.64	532.97
439.01	541.87
439.38	549.58
439.75	557.21
440.13	566.04
440.50	574.36
440.87	581.30
441.24	588.56
441.61	596.47
441.98	602.43
442.35	609.30
442.72	616.22
443.09	622.85
443.46	627.22
443.83	630.35
444.20	633.03
444.57	636.65
444.94	638.75
445.31	640.85
445.68	643.18
446.05	644.51
446.42	644.10
446.79	643.78
447.16	643.22
447.53	643.08
447.90	640.44
448.27	637.63
448.64	633.39
449.01	630.45
449.37	625.04
449.74	619.84
450.11	613.67
450.48	606.80
450.85	599.52
451.22	593.29
451.59	587.43
451.96	581.88
452.33	574.26
452.70	567.34
453.07	559.02
453.43	550.30
453.80	542.08
454.17	534.41
454.54	526.82
454.91	518.79
455.28	510.79
455.65	503.42
456.02	496.37
456.38	490.16
456.75	482.23
457.12	475.64
457.49	469.16
457.86	462.65
458.23	457.17
458.59	451.29
458.96	445.37
459.33	439.99
459.70	434.72
460.07	430.49
460.43	425.52
460.80	420.94
461.17	416.88
461.54	412.61
461.91	408.46
462.27	404.30
462.64	400.82
463.01	397.01
463.38	393.30
463.74	389.19
464.11	385.95
464.48	383.18
464.85	380.05
465.21	377.73
465.58	375.18
465.95	371.94
466.32	369.32
466.68	366.68
467.05	364.08
467.42	361.50
467.78	358.66
468.15	356.22
468.52	354.30
468.88	351.80
469.25	349.64
469.62	347.87
469.98	346.02
470.35	344.19
470.72	342.46
471.08	340.52
471.45	339.01
471.82	337.41
472.18	335.72
472.55	334.37
472.92	332.72
473.28	331.36
473.65	330.18
474.02	329.00
474.38	328.00
474.75	327.18
475.11	326.09
475.48	325.40
475.85	324.64
476.21	323.92
476.58	323.27
476.94	322.76
477.31	322.08
477.67	321.41
478.04	320.95
478.41	320.52
478.77	320.46
479.14	320.03
479.50	319.80
479.87	319.60
480.23	319.54
480.60	319.37
480.96	319.18
481.33	319.36
481.69	319.41
482.06	319.36
482.42	319.30
482.79	319.53
483.15	319.79
483.52	320.22
483.88	320.41
484.25	320.77
484.61	321.09
484.98	321.53
485.34	322.22
485.71	322.81
486.07	323.46
486.44	323.86
486.80	324.70
487.17	325.38
487.53	326.51
487.90	327.55
488.26	328.75
488.62	330.03
488.99	331.04
489.35	332.07
489.72	333.39
490.08	334.77
490.44	335.95
490.81	337.36
491.17	338.65
491.54	340.28
491.90	341.89
492.26	343.53
492.63	345.29
492.99	347.00
493.36	348.80
493.72	350.70
494.08	352.50
494.45	354.40
494.81	356.46
495.17	358.33
495.54	360.36
495.90	362.29
496.26	364.28
496.63	366.45
496.99	368.74
497.35	371.00
497.72	373.22
498.08	375.55
498.44	377.72
498.80	380.13
499.17	382.38
499.53	384.65
499.89	386.97
500.26	389.24
500.62	391.35
500.98	393.79
501.34	396.07
501.71	398.55
502.07	400.79
502.43	403.04
502.79	405.25
503.16	407.35
503.52	409.51
503.88	411.65
504.24	413.77
504.60	415.85
504.97	418.07
505.33	420.06
505.69	422.31
506.05	424.35
506.41	426.09
506.78	427.90
507.14	429.68
507.50	431.40
507.86	433.09
508.22	434.88
508.59	436.22
508.95	437.81
509.31	439.45
509.67	440.85
510.03	442.15
510.39	443.53
510.75	444.89
511.12	446.24
511.48	447.36
511.84	448.44
512.20	449.49
512.56	450.28
512.92	451.33
513.28	452.02
513.64	452.75
514.00	453.65
514.37	454.42
514.73	455.06
515.09	455.61
515.45	456.13
515.81	456.63
516.17	457.08
516.53	457.39
516.89	457.45
517.25	457.74
517.61	458.15
517.97	458.16
518.33	458.21
518.69	458.23
519.05	458.41
519.41	458.44
519.77	458.72
520.13	458.67
520.49	458.44
520.85	458.49
521.21	458.70
521.57	458.60
521.93	458.47
522.29	458.49
522.65	458.37
523.01	458.41
523.37	458.18
523.73	458.20
524.09	458.19
524.45	458.10
524.81	458.12
525.17	458.18
525.53	458.39
525.89	458.53
526.25	458.71
526.61	458.80
526.97	459.03
527.33	459.00
527.68	459.64
528.04	460.18
528.40	460.35
528.76	460.74
529.12	461.30
529.48	461.93
529.84	462.49
530.20	463.32
530.56	463.93
530.91	464.84
531.27	465.79
531.63	466.74
531.99	467.82
532.35	468.91
532.71	469.84
533.07	471.10
533.42	472.62
533.78	473.92
534.14	475.19
534.50	476.40
534.86	477.93
535.21	479.00
535.57	480.37
535.93	481.87
536.29	483.47
536.65	485.12
537.00	486.60
537.36	488.01
537.72	489.56
538.08	491.34
538.44	492.98
538.79	494.78
539.15	496.44
539.51	498.32
539.87	500.21
540.22	502.25
540.58	504.29
540.94	506.19
541.29	508.20
541.65	510.21
542.01	512.61
542.37	514.65
542.72	516.87
543.08	519.03
543.44	521.49
543.79	523.60
544.15	526.05
544.51	528.73
544.87	531.49
545.22	534.07
545.58	536.47
545.94	539.09
546.29	541.55
546.65	544.24
547.01	546.79
547.36	549.45
547.72	552.24
548.07	554.85
548.43	557.25
548.79	559.79
549.14	562.37
549.50	565.02
549.86	567.68
550.21	570.44
550.57	573.36
550.92	575.95
551.28	578.58
551.64	581.06
551.99	583.62
552.35	586.16
552.70	588.74
553.06	591.49
553.41	594.21
553.77	597.01
554.13	599.82
554.48	602.63
554.84	605.40
555.19	607.81
555.55	610.69
555.90	613.30
556.26	615.90
556.61	618.52
556.97	620.87
557.32	623.28
557.68	625.78
558.03	627.97
558.39	630.25
558.74	632.65
559.10	635.01
559.45	637.50
559.81	639.98
560.16	642.26
560.52	644.64
560.87	646.91
561.23	648.94
561.58	651.26
561.94	653.33
562.29	655.25
562.64	657.56
563.00	659.37
563.35	661.63
563.71	663.86
564.06	666.23
564.42	668.45
564.77	670.74
565.12	673.02
565.48	675.50
565.83	677.76
566.19	679.96
566.54	681.95
566.89	683.73
567.25	685.81
567.60	687.97
567.96	690.03
568.31	692.12
568.66	694.06
569.02	695.38
569.37	696.89
569.72	698.64
570.08	700.19
570.43	701.58
570.78	703.00
571.14	704.10
571.49	704.89
571.84	706.01
572.20	706.96
572.55	707.80
572.90	708.20
573.26	708.86
573.61	709.50
573.96	710.10
574.31	710.76
574.67	711.09
575.02	711.22
575.37	711.25
575.72	711.00
576.08	711.20
576.43	711.55
576.78	711.60
577.13	711.81
577.49	711.93
577.84	712.17
578.19	712.17
578.54	712.58
578.90	713.01
579.25	713.04
579.60	712.90
579.95	712.47
580.30	712.81
580.66	712.88
581.01	712.71
581.36	712.52
581.71	712.25
582.06	712.07
582.42	711.97
582.77	711.65
583.12	711.55
583.47	711.31
583.82	710.89
584.17	710.71
584.53	710.41
584.88	709.76
585.23	709.35
585.58	708.88
585.93	708.34
586.28	707.72
586.63	707.22
586.98	707.00
587.34	706.95
587.69	706.24
588.04	705.65
588.39	705.15
588.74	704.55
589.09	704.06
589.44	703.22
589.79	702.58
590.14	702.12
590.49	701.36
590.84	700.45
591.19	700.01
591.54	699.26
591.89	697.80
592.25	697.20
592.60	696.08
592.95	694.85
593.30	693.54
593.65	692.24
594.00	690.95
594.35	690.57
594.70	689.25
595.05	688.16
595.40	686.96
595.75	685.62
596.10	684.66
596.45	683.51
596.80	682.63
597.15	681.44
597.50	680.10
597.85	679.00
598.19	677.95
598.54	676.47
598.89	675.27
599.24	674.50
599.59	673.18
599.94	671.95
600.29	670.81
600.64	669.57
600.99	668.57
601.34	667.48
601.69	665.21
602.04	663.80
602.39	662.35
602.74	660.96
603.08	659.85
603.43	658.75
603.78	657.28
604.13	655.82
604.48	654.53
604.83	653.48
605.18	652.30
605.53	650.86
605.87	649.50
606.22	648.39
606.57	647.01
606.92	645.59
607.27	644.22
607.62	642.92
607.96	641.84
608.31	640.70
608.66	639.23
609.01	637.78
609.36	636.23
609.70	634.67
610.05	633.11
610.40	631.60
610.75	629.77
611.10	628.42
611.44	626.50
611.79	624.67
612.14	622.94
612.49	620.95
612.83	619.25
613.18	617.55
613.53	615.40
613.88	613.44
614.22	611.63
614.57	609.77
614.92	607.88
615.27	605.75
615.61	603.64
615.96	601.86
616.31	600.22
616.65	598.61
617.00	596.89
617.35	595.07
617.70	593.06
618.04	590.78
618.39	588.57
618.74	586.86
619.08	584.96
619.43	582.95
619.78	581.16
620.12	579.16
620.47	577.14
620.82	575.05
621.16	572.99
621.51	571.01
621.85	569.02
622.20	567.04
622.55	564.99
622.89	562.82
623.24	560.76
623.59	558.54
623.93	556.47
624.28	554.43
624.62	552.81
624.97	551.04
625.32	549.26
625.66	547.40
626.01	545.39
626.35	543.55
626.70	541.48
627.04	539.79
627.39	537.89
627.73	536.20
628.08	534.67
628.43	532.86
628.77	530.90
629.12	529.10
629.46	527.39
629.81	525.68
630.15	523.86
630.50	521.90
630.84	519.99
631.19	518.12
631.53	516.35
631.88	514.11
632.22	512.03
632.57	510.38
632.91	508.52
633.26	506.81
633.60	504.87
633.95	503.10
634.29	500.96
634.64	499.30
634.98	497.37
635.32	495.47
635.67	493.91
636.01	492.27
636.36	490.41
636.70	488.68
637.05	486.93
637.39	485.33
637.73	483.90
638.08	482.58
638.42	481.04
638.77	479.45
639.11	477.76
639.45	476.19
639.80	474.32
640.14	472.51
640.49	470.65
640.83	469.05
641.17	467.30
641.52	465.55
641.86	463.65
642.20	461.93
642.55	460.05
642.89	458.16
643.23	456.35
643.58	454.84
643.92	452.91
644.26	451.23
644.61	449.55
644.95	447.59
645.29	445.68
645.64	443.93
645.98	442.16
646.32	440.50
646.66	438.59
647.01	436.88
647.35	435.30
647.69	433.57
648.04	431.90
648.38	430.25
648.72	428.65
649.06	426.97
649.41	425.31
649.75	423.72
650.09	422.07
650.43	420.49
650.78	418.65
651.12	417.00
651.46	415.25
651.80	413.62
652.14	412.05
652.49	410.50
652.83	408.77
653.17	407.08
653.51	405.37
653.85	403.94
654.20	402.44
654.54	400.80
654.88	399.21
655.22	397.57
655.56	395.85
655.90	394.22
656.25	392.56
656.59	390.94
656.93	389.52
657.27	388.06
657.61	386.29
657.95	384.85
658.29	383.28
658.64	381.86
658.98	380.25
659.32	378.60
659.66	377.07
660.00	375.45
660.34	373.87
660.68	372.34
661.02	370.71
661.36	369.18
661.70	367.77
662.05	366.31
662.39	364.98
662.73	363.75
663.07	362.59
663.41	361.26
663.75	359.84
664.09	358.42
664.43	356.92
664.77	355.70
665.11	354.30
665.45	353.16
665.79	351.98
666.13	350.68
666.47	349.46
666.81	348.08
667.15	346.77
667.49	345.62
667.83	344.57
668.17	343.38
668.51	342.15
668.85	340.98
669.19	340.04
669.53	338.70
669.87	337.46
670.21	336.22
670.55	335.10
670.89	334.20
671.23	333.16
671.57	332.23
671.91	331.14
672.25	330.05
672.58	328.96
672.92	327.75
673.26	326.73
673.60	325.60
673.94	324.58
674.28	323.80
674.62	322.89
674.96	321.87
675.30	320.94
675.64	319.99
675.97	318.97
676.31	317.94
676.65	317.09
676.99	316.33
677.33	315.33
677.67	314.52
678.01	313.38
678.34	312.45
678.68	311.52
679.02	310.53
679.36	309.56
679.70	308.67
680.04	307.86
680.37	307.06
680.71	306.23
681.05	305.34
681.39	304.39
681.73	303.43
682.06	302.65
682.40	301.85
682.74	301.05
683.08	300.37
683.42	299.51
683.75	298.70
684.09	297.81
684.43	297.05
684.77	296.18
685.10	295.47
685.44	294.62
685.78	293.80
686.12	293.18
686.45	292.53
686.79	291.75
687.13	290.97
687.46	290.19
687.80	289.65
688.14	288.96
688.48	288.30
688.81	287.66
689.15	287.01
689.49	286.25
689.82	285.48
690.16	284.56
690.50	283.74
690.83	283.02
691.17	282.22
691.51	281.51
691.84	280.87
692.18	280.13
692.52	279.41
692.85	278.79
693.19	278.16
693.52	277.40
693.86	276.64
694.20	275.98
694.53	275.37
694.87	274.59
695.21	273.86
695.54	273.07
695.88	272.27
696.21	271.43
696.55	270.74
696.88	270.15
697.22	269.53
697.56	269.07
697.89	268.41
698.23	267.86
698.56	267.12
698.90	266.50
699.23	265.94
699.57	265.33
699.90	264.70
700.24	263.90
700.58	263.41
700.91	262.87
701.25	262.55
701.58	262.00
701.92	261.60
702.25	261.12
702.59	260.66
702.92	260.20
703.26	259.64
703.59	259.18
703.93	258.95
704.26	258.55
704.60	258.10
704.93	257.62
705.26	257.08
705.60	256.68
705.93	256.07
706.27	255.64
706.60	255.27
706.94	254.88
707.27	254.55
707.61	254.08
707.94	253.58
708.27	252.85
708.61	252.42
708.94	251.86
709.28	251.42
709.61	250.95
709.94	250.54
710.28	250.23
710.61	249.89
710.95	249.16
711.28	248.97
711.61	248.44
711.95	248.14
712.28	247.80
712.61	247.41
712.95	247.27
713.28	247.03
713.61	246.59
713.95	246.15
714.28	245.74
714.61	245.26
714.95	244.92
715.28	244.58
715.61	244.15
715.95	243.85
716.28	243.47
716.61	243.18
716.95	242.86
717.28	242.58
717.61	242.20
717.94	241.90
718.28	241.30
718.61	240.96
718.94	240.60
719.27	240.26
719.61	240.06
719.94	239.66
720.27	239.26
720.60	238.99
720.94	238.68
721.27	238.43
721.60	238.22
721.93	238.01
722.27	237.82
722.60	237.65
722.93	237.33
723.26	237.16
723.59	236.86
723.93	236.66
724.26	236.34
724.59	236.07
724.92	235.86
725.25	235.71
725.59	235.51
725.92	235.34
726.25	235.09
726.58	234.78
726.91	234.50
727.24	234.28
727.57	234.05
727.91	233.83
728.24	233.65
728.57	233.49
728.90	233.34
729.23	233.14
729.56	233.04
729.89	232.92
730.22	232.66
730.55	232.52
730.89	232.23
731.22	232.00
731.55	231.83
731.88	231.68
732.21	231.48
732.54	231.26
732.87	231.01
733.20	230.85
733.53	230.67
733.86	230.57
734.19	230.35
734.52	230.21
734.85	230.24
735.18	230.03
735.51	229.90
735.84	229.65
736.17	229.43
736.50	229.04
736.83	229.16
737.16	228.92
737.49	228.68
737.82	228.46
738.15	228.32
738.48	228.20
738.81	227.92
739.14	227.68
739.47	227.53
739.80	227.37
740.13	227.23
740.46	227.00
740.79	226.77
741.12	226.63
741.45	226.35
741.78	225.99
742.11	225.95
742.44	225.71
742.77	225.62
743.10	225.47
743.43	225.28
743.75	224.79
744.08	225.15
744.41	225.04
744.74	224.90
745.07	224.66
745.40	224.54
745.73	224.55
746.06	224.48
746.39	224.32
746.71	224.09
747.04	223.90
747.37	223.74
747.70	223.61
748.03	223.44
748.36	223.38
748.68	223.18
749.01	222.88
749.34	222.73
749.67	222.52
750.00	222.49
750.33	222.66
750.65	222.53
750.98	221.96
751.31	221.80
751.64	221.75
751.97	221.91
752.29	221.75
752.62	221.50
752.95	221.36
753.28	221.24
753.60	221.20
753.93	221.18
754.26	221.12
754.59	220.96
754.91	220.83
755.24	220.69
755.57	220.62
755.90	220.62
756.22	220.55
756.55	220.49
756.88	220.22
757.20	219.90
757.53	219.73
757.86	219.63
758.19	219.61
758.51	219.50
758.84	219.21
759.17	219.00
759.49	218.91
759.82	218.98
760.15	218.91
760.47	218.76
760.80	218.61
761.13	218.59
761.45	218.50
761.78	218.45
762.11	218.45
762.43	218.37
762.76	218.19
763.08	218.17
763.41	218.08
763.74	218.03
764.06	217.94
764.39	217.92
764.71	217.90
765.04	217.75
765.37	217.66
765.69	217.59
766.02	217.58
766.34	217.49
766.67	217.25
767.00	217.30
767.32	217.43
767.65	217.54
767.97	217.46
768.30	217.42
768.62	217.36
768.95	217.25
769.27	217.17
769.60	217.19
769.92	217.05
770.25	217.01
770.57	216.98
770.90	216.85
771.22	216.70
771.55	216.62
771.87	216.62
772.20	216.60
772.52	216.80
772.85	217.16
773.17	217.16
773.50	217.13
773.82	216.99
774.15	216.78
774.47	216.49
774.80	216.49
775.12	216.47
775.45	216.40
775.77	216.38
776.09	216.37
776.42	216.30
776.74	216.34
777.07	216.22
777.39	216.16
777.72	216.13
778.04	216.20
778.36	216.12
778.69	216.12
779.01	216.07
779.33	215.81
779.66	215.33
779.98	215.22
780.31	215.16
780.63	215.25
780.95	215.23
781.28	215.22
781.60	215.05
781.92	215.03
782.25	215.02
782.57	214.97
782.89	214.95
783.22	214.81
783.54	214.66
783.86	214.63
784.19	214.51
784.51	214.58
784.83	214.52
785.16	214.47
785.48	214.41
785.80	214.36
786.12	214.30
786.45	214.33
786.77	214.32
787.09	214.23
787.42	214.10
787.74	214.14
788.06	214.19
788.38	214.13
788.71	214.02
789.03	213.97
789.35	213.99
789.67	213.90
789.99	214.02
790.32	214.04
790.64	214.09
790.96	214.44
791.28	214.32
791.61	214.25
791.93	214.29
792.25	214.27
792.57	214.50
792.89	214.43
793.21	214.41
793.54	214.40
793.86	214.43
794.18	214.37
