SpectraSuite Data File
++++++++++++++++++++++++++++++++++++
Date: Mon Feb 25 17:14:38 EST 2013
User: group
Dark Spectrum Present: No
Reference Spectrum Present: No
Number of Sampled Component Spectra: 1
Spectrometers: USB2E7196
Integration Time (usec): 104000 (USB2E7196)
Spectra Averaged: 20 (USB2E7196)
Boxcar Smoothing: 10 (USB2E7196)
Correct for Electrical Dark: No (USB2E7196)
Strobe/Lamp Enabled: No (USB2E7196)
Correct for Detector Non-linearity: No (USB2E7196)
Correct for Stray Light: No (USB2E7196)
Number of Pixels in Processed Spectrum: 2048
>>>>>Begin Processed Spectral Data<<<<<
339.09	0.00
339.48	198.95
339.86	200.40
340.24	202.20
340.63	203.40
341.01	209.10
341.39	205.50
341.78	208.40
342.16	209.95
342.54	209.15
342.93	198.45
343.31	208.43
343.69	208.94
344.07	209.35
344.46	209.75
344.84	210.11
345.22	210.12
345.60	210.35
345.99	210.46
346.37	210.47
346.75	210.60
347.13	210.56
347.52	210.57
347.90	210.68
348.28	210.70
348.66	210.77
349.05	210.70
349.43	210.72
349.81	210.79
350.19	210.70
350.57	210.82
350.96	210.88
351.34	210.96
351.72	211.06
352.10	211.16
352.48	211.15
352.87	211.20
353.25	211.31
353.63	211.40
354.01	211.42
354.39	211.58
354.77	211.66
355.15	211.90
355.54	212.01
355.92	212.00
356.30	212.13
356.68	212.47
357.06	212.59
357.44	212.68
357.82	212.71
358.20	212.92
358.58	212.90
358.97	213.01
359.35	213.16
359.73	213.31
360.11	213.37
360.49	213.55
360.87	213.62
361.25	213.71
361.63	213.90
362.01	214.06
362.39	214.11
362.77	214.13
363.15	214.18
363.53	214.18
363.91	214.26
364.29	214.23
364.67	213.91
365.05	213.96
365.43	213.93
365.81	214.01
366.19	214.16
366.57	214.35
366.95	214.39
367.33	214.31
367.71	214.24
368.09	214.34
368.47	214.27
368.85	214.26
369.23	214.34
369.61	214.18
369.99	214.25
370.37	214.20
370.75	214.36
371.13	214.21
371.51	214.19
371.89	214.21
372.27	214.27
372.65	214.31
373.03	214.30
373.41	214.28
373.78	214.23
374.16	213.97
374.54	213.79
374.92	213.69
375.30	213.68
375.68	213.64
376.06	213.62
376.44	213.64
376.82	213.57
377.19	213.49
377.57	213.42
377.95	213.25
378.33	213.23
378.71	213.02
379.09	213.10
379.47	213.08
379.84	212.94
380.22	212.85
380.60	212.71
380.98	212.62
381.36	212.54
381.73	212.42
382.11	212.49
382.49	212.49
382.87	212.42
383.25	212.33
383.62	212.64
384.00	212.45
384.38	212.35
384.76	212.40
385.13	212.51
385.51	212.48
385.89	212.44
386.27	212.38
386.64	212.33
387.02	212.28
387.40	212.20
387.78	212.11
388.15	212.08
388.53	212.04
388.91	211.99
389.29	211.96
389.66	211.98
390.04	211.85
390.42	211.84
390.79	211.79
391.17	211.75
391.55	211.38
391.92	211.47
392.30	211.50
392.68	211.40
393.05	211.29
393.43	211.35
393.81	211.35
394.18	211.28
394.56	211.30
394.94	211.33
395.31	211.30
395.69	211.49
396.06	211.55
396.44	211.54
396.82	211.52
397.19	211.74
397.57	211.69
397.95	211.79
398.32	211.71
398.70	211.84
399.07	211.93
399.45	211.96
399.82	211.91
400.20	211.96
400.58	212.06
400.95	211.89
401.33	211.91
401.70	212.18
402.08	212.25
402.45	212.24
402.83	212.35
403.20	212.47
403.58	212.55
403.95	212.66
404.33	212.82
404.71	212.90
405.08	213.11
405.46	213.30
405.83	213.36
406.21	213.41
406.58	213.51
406.96	213.68
407.33	213.82
407.70	214.05
408.08	214.41
408.45	214.61
408.83	215.03
409.20	215.22
409.58	215.19
409.95	215.45
410.33	215.71
410.70	215.82
411.08	216.16
411.45	216.37
411.82	216.61
412.20	216.94
412.57	217.51
412.95	217.62
413.32	218.04
413.69	218.42
414.07	218.98
414.44	219.44
414.82	219.95
415.19	220.53
415.56	221.01
415.94	221.48
416.31	222.23
416.68	222.84
417.06	223.70
417.43	224.59
417.81	225.51
418.18	226.50
418.55	227.55
418.93	228.60
419.30	229.71
419.67	230.83
420.04	232.01
420.42	233.16
420.79	234.77
421.16	236.24
421.54	237.91
421.91	239.55
422.28	241.20
422.66	242.82
423.03	244.73
423.40	246.57
423.77	248.38
424.15	250.11
424.52	252.08
424.89	254.17
425.26	256.26
425.64	258.20
426.01	260.24
426.38	262.38
426.75	264.73
427.13	267.05
427.50	269.50
427.87	272.12
428.24	274.66
428.61	276.91
428.99	279.64
429.36	282.47
429.73	285.26
430.10	288.14
430.47	291.21
430.85	294.03
431.22	297.23
431.59	300.85
431.96	304.21
432.33	307.78
432.70	311.26
433.08	315.26
433.45	319.15
433.82	323.00
434.19	327.31
434.56	331.46
434.93	335.41
435.30	339.32
435.68	343.60
436.05	347.98
436.42	352.28
436.79	356.22
437.16	360.42
437.53	364.76
437.90	369.18
438.27	373.47
438.64	377.83
439.01	382.02
439.38	385.41
439.75	388.88
440.13	392.98
440.50	396.75
440.87	399.88
441.24	403.04
441.61	406.63
441.98	409.25
442.35	412.23
442.72	415.32
443.09	418.46
443.46	420.34
443.83	421.52
444.20	422.64
444.57	423.98
444.94	424.52
445.31	425.24
445.68	426.22
446.05	426.48
446.42	426.03
446.79	425.46
447.16	424.90
447.53	424.51
447.90	422.86
448.27	421.20
448.64	418.83
449.01	417.21
449.37	414.17
449.74	411.25
450.11	408.08
450.48	404.38
450.85	400.47
451.22	397.14
451.59	393.87
451.96	390.86
452.33	386.90
452.70	383.32
453.07	379.11
453.43	374.46
453.80	370.33
454.17	366.45
454.54	362.69
454.91	358.69
455.28	354.75
455.65	350.99
456.02	347.73
456.38	344.67
456.75	340.85
457.12	337.65
457.49	334.55
457.86	331.17
458.23	328.55
458.59	325.70
458.96	322.81
459.33	320.34
459.70	317.76
460.07	315.74
460.43	313.43
460.80	311.21
461.17	309.33
461.54	307.26
461.91	305.28
462.27	303.25
462.64	301.57
463.01	299.75
463.38	298.15
463.74	295.91
464.11	294.32
464.48	292.86
464.85	291.32
465.21	290.25
465.58	289.04
465.95	287.51
466.32	286.34
466.68	285.13
467.05	283.91
467.42	282.77
467.78	281.57
468.15	280.45
468.52	279.73
468.88	278.53
469.25	277.41
469.62	276.74
469.98	275.94
470.35	275.15
470.72	274.43
471.08	273.42
471.45	272.82
471.82	272.20
472.18	271.48
472.55	271.13
472.92	270.48
473.28	270.06
473.65	269.64
474.02	269.15
474.38	268.80
474.75	268.57
475.11	268.15
475.48	268.03
475.85	267.84
476.21	267.53
476.58	267.47
476.94	267.60
477.31	267.42
477.67	267.39
478.04	267.48
478.41	267.49
478.77	268.03
479.14	268.11
479.50	268.24
479.87	268.52
480.23	268.72
480.60	268.93
480.96	269.08
481.33	269.58
481.69	269.91
482.06	270.34
482.42	270.79
482.79	271.30
483.15	271.72
483.52	272.46
483.88	273.05
484.25	273.74
484.61	274.42
484.98	275.24
485.34	276.17
485.71	277.06
486.07	278.14
486.44	278.84
486.80	279.95
487.17	281.13
487.53	282.46
487.90	283.81
488.26	285.37
488.62	286.97
488.99	288.40
489.35	290.16
489.72	291.92
490.08	293.71
490.44	295.69
490.81	297.87
491.17	299.95
491.54	302.35
491.90	304.83
492.26	307.40
492.63	310.10
492.99	312.78
493.36	315.78
493.72	318.90
494.08	322.13
494.45	325.62
494.81	329.16
495.17	332.79
495.54	336.76
495.90	340.73
496.26	345.00
496.63	349.48
496.99	353.96
497.35	358.66
497.72	363.67
498.08	368.66
498.44	373.88
498.80	379.64
499.17	385.48
499.53	391.22
499.89	397.50
500.26	403.80
500.62	410.36
500.98	417.12
501.34	424.02
501.71	431.35
502.07	438.79
502.43	446.50
502.79	454.23
503.16	462.29
503.52	470.57
503.88	478.99
504.24	487.67
504.60	496.62
504.97	506.05
505.33	515.55
505.69	525.82
506.05	535.99
506.41	546.30
506.78	556.70
507.14	567.39
507.50	578.36
507.86	589.72
508.22	601.25
508.59	612.81
508.95	624.87
509.31	637.05
509.67	649.55
510.03	662.32
510.39	675.48
510.75	688.77
511.12	702.17
511.48	715.91
511.84	730.04
512.20	744.34
512.56	758.79
512.92	773.43
513.28	788.05
513.64	803.16
514.00	818.04
514.37	833.30
514.73	848.94
515.09	864.30
515.45	879.73
515.81	895.52
516.17	911.62
516.53	927.53
516.89	943.70
517.25	959.82
517.61	976.17
517.97	992.45
518.33	1008.70
518.69	1025.23
519.05	1042.13
519.41	1058.80
519.77	1075.84
520.13	1092.30
520.49	1108.80
520.85	1125.37
521.21	1142.01
521.57	1159.08
521.93	1175.50
522.29	1192.71
522.65	1209.78
523.01	1226.68
523.37	1243.47
523.73	1260.24
524.09	1276.95
524.45	1293.64
524.81	1310.58
525.17	1327.31
525.53	1344.10
525.89	1360.94
526.25	1377.83
526.61	1393.56
526.97	1409.73
527.33	1425.55
527.68	1442.14
528.04	1457.97
528.40	1473.56
528.76	1489.05
529.12	1504.60
529.48	1520.89
529.84	1536.25
530.20	1551.87
530.56	1567.19
530.91	1582.79
531.27	1598.23
531.63	1613.41
531.99	1628.35
532.35	1642.75
532.71	1656.85
533.07	1671.58
533.42	1685.55
533.78	1699.54
534.14	1713.63
534.50	1726.37
534.86	1740.05
535.21	1752.45
535.57	1765.88
535.93	1778.80
536.29	1791.33
536.65	1803.72
537.00	1815.25
537.36	1826.69
537.72	1837.30
538.08	1848.72
538.44	1859.75
538.79	1870.43
539.15	1880.96
539.51	1891.24
539.87	1902.23
540.22	1912.81
540.58	1923.13
540.94	1933.36
541.29	1942.29
541.65	1950.99
542.01	1960.26
542.37	1968.41
542.72	1977.26
543.08	1985.00
543.44	1993.69
543.79	2001.14
544.15	2008.16
544.51	2015.80
544.87	2023.41
545.22	2030.55
545.58	2036.53
545.94	2041.79
546.29	2046.86
546.65	2051.55
547.01	2056.21
547.36	2060.53
547.72	2064.72
548.07	2068.07
548.43	2071.00
548.79	2074.44
549.14	2077.92
549.50	2081.54
549.86	2084.14
550.21	2086.41
550.57	2089.24
550.92	2090.45
551.28	2092.24
551.64	2094.16
551.99	2095.95
552.35	2096.56
552.70	2097.88
553.06	2099.42
553.41	2100.87
553.77	2102.35
554.13	2103.47
554.48	2104.67
554.84	2105.15
555.19	2105.24
555.55	2104.79
555.90	2104.51
556.26	2103.74
556.61	2103.29
556.97	2101.60
557.32	2101.06
557.68	2099.56
558.03	2098.09
558.39	2097.16
558.74	2096.79
559.10	2095.97
559.45	2093.97
559.81	2093.06
560.16	2091.10
560.52	2089.30
560.87	2087.02
561.23	2084.23
561.58	2082.44
561.94	2079.51
562.29	2076.68
562.64	2074.23
563.00	2072.48
563.35	2070.67
563.71	2069.53
564.06	2067.17
564.42	2065.65
564.77	2063.82
565.12	2062.17
565.48	2059.98
565.83	2057.58
566.19	2054.98
566.54	2051.56
566.89	2048.50
567.25	2045.49
567.60	2043.00
567.96	2039.65
568.31	2036.92
568.66	2033.68
569.02	2029.64
569.37	2025.83
569.72	2022.11
570.08	2018.35
570.43	2013.93
570.78	2009.47
571.14	2004.17
571.49	1999.49
571.84	1995.18
572.20	1989.66
572.55	1985.08
572.90	1979.52
573.26	1973.91
573.61	1968.15
573.96	1962.62
574.31	1956.71
574.67	1950.18
575.02	1943.34
575.37	1937.22
575.72	1930.49
576.08	1924.73
576.43	1918.37
576.78	1912.75
577.13	1907.10
577.49	1901.08
577.84	1894.74
578.19	1889.15
578.54	1883.83
578.90	1878.52
579.25	1872.26
579.60	1865.88
579.95	1858.97
580.30	1853.46
580.66	1847.85
581.01	1841.51
581.36	1835.10
581.71	1829.11
582.06	1823.44
582.42	1817.70
582.77	1811.26
583.12	1805.37
583.47	1799.56
583.82	1794.16
584.17	1787.89
584.53	1781.85
584.88	1775.55
585.23	1769.90
585.58	1763.44
585.93	1757.01
586.28	1750.74
586.63	1744.52
586.98	1738.69
587.34	1733.31
587.69	1726.91
588.04	1720.57
588.39	1714.89
588.74	1708.62
589.09	1703.04
589.44	1696.71
589.79	1690.98
590.14	1685.71
590.49	1679.65
590.84	1673.42
591.19	1667.95
591.54	1662.16
591.89	1655.25
592.25	1649.31
592.60	1642.88
592.95	1636.53
593.30	1629.54
593.65	1622.70
594.00	1616.24
594.35	1611.46
594.70	1604.90
595.05	1598.86
595.40	1592.73
595.75	1586.11
596.10	1580.63
596.45	1574.67
596.80	1569.31
597.15	1563.43
597.50	1557.07
597.85	1551.56
598.19	1545.48
598.54	1539.25
598.89	1533.72
599.24	1529.04
599.59	1523.71
599.94	1518.83
600.29	1513.49
600.64	1508.51
600.99	1502.81
601.34	1497.49
601.69	1490.48
602.04	1484.89
602.39	1479.00
602.74	1473.49
603.08	1468.67
603.43	1464.00
603.78	1458.48
604.13	1452.81
604.48	1447.40
604.83	1442.94
605.18	1438.25
605.53	1433.05
605.87	1427.61
606.22	1422.37
606.57	1416.64
606.92	1410.89
607.27	1404.97
607.62	1399.18
607.96	1394.08
608.31	1389.17
608.66	1383.50
609.01	1377.85
609.36	1372.28
609.70	1366.61
610.05	1360.68
610.40	1354.56
610.75	1347.74
611.10	1342.23
611.44	1335.63
611.79	1329.05
612.14	1321.85
612.49	1314.55
612.83	1308.38
613.18	1301.65
613.53	1294.83
613.88	1287.90
614.22	1281.35
614.57	1274.59
614.92	1268.15
615.27	1261.19
615.61	1254.55
615.96	1248.15
616.31	1242.34
616.65	1236.33
617.00	1230.42
617.35	1224.31
617.70	1217.93
618.04	1211.37
618.39	1204.19
618.74	1198.08
619.08	1192.09
619.43	1185.90
619.78	1179.90
620.12	1173.49
620.47	1167.70
620.82	1161.33
621.16	1154.91
621.51	1148.69
621.85	1142.51
622.20	1136.06
622.55	1129.82
622.89	1123.31
623.24	1117.06
623.59	1110.43
623.93	1103.94
624.28	1097.66
624.62	1091.76
624.97	1085.84
625.32	1079.93
625.66	1074.25
626.01	1068.37
626.35	1062.36
626.70	1056.52
627.04	1050.76
627.39	1045.13
627.73	1039.12
628.08	1033.70
628.43	1028.06
628.77	1022.29
629.12	1016.57
629.46	1011.54
629.81	1006.16
630.15	1000.76
630.50	995.03
630.84	989.26
631.19	983.70
631.53	978.14
631.88	972.10
632.22	966.20
632.57	960.96
632.91	955.35
633.26	950.12
633.60	944.79
633.95	939.87
634.29	934.48
634.64	929.26
634.98	923.84
635.32	918.52
635.67	913.64
636.01	908.66
636.36	903.40
636.70	898.18
637.05	892.94
637.39	888.14
637.73	883.57
638.08	879.35
638.42	874.91
638.77	870.06
639.11	865.33
639.45	860.47
639.80	855.28
640.14	850.28
640.49	845.13
640.83	840.15
641.17	835.09
641.52	830.08
641.86	825.07
642.20	820.35
642.55	815.05
642.89	809.96
643.23	804.79
643.58	800.20
643.92	795.14
644.26	790.28
644.61	785.36
644.95	780.39
645.29	775.23
645.64	769.98
645.98	765.07
646.32	760.44
646.66	755.59
647.01	751.10
647.35	746.63
647.69	741.62
648.04	736.87
648.38	732.13
648.72	727.58
649.06	722.90
649.41	718.30
649.75	713.93
650.09	709.40
650.43	704.88
650.78	700.05
651.12	695.33
651.46	690.76
651.80	686.18
652.14	681.84
652.49	677.45
652.83	672.95
653.17	668.37
653.51	663.75
653.85	659.60
654.20	655.18
654.54	650.64
654.88	646.43
655.22	642.18
655.56	637.75
655.90	633.35
656.25	628.88
656.59	624.60
656.93	620.48
657.27	616.52
657.61	612.25
657.95	608.20
658.29	604.30
658.64	600.50
658.98	596.48
659.32	592.00
659.66	588.04
660.00	584.08
660.34	580.05
660.68	576.01
661.02	572.06
661.36	568.22
661.70	564.65
662.05	561.13
662.39	557.73
662.73	554.21
663.07	550.85
663.41	547.39
663.75	543.88
664.09	540.11
664.43	536.40
664.77	533.07
665.11	529.85
665.45	526.59
665.79	523.16
666.13	519.93
666.47	516.95
666.81	513.71
667.15	510.49
667.49	507.76
667.83	504.89
668.17	501.84
668.51	499.00
668.85	496.09
669.19	493.36
669.53	490.29
669.87	487.30
670.21	484.36
670.55	481.61
670.89	479.01
671.23	476.67
671.57	474.10
671.91	471.50
672.25	468.70
672.58	465.97
672.92	463.35
673.26	460.88
673.60	458.37
673.94	455.81
674.28	453.52
674.62	451.04
674.96	448.64
675.30	446.18
675.64	443.64
675.97	441.22
676.31	438.80
676.65	436.61
676.99	434.62
677.33	432.28
677.67	430.00
678.01	427.62
678.34	425.20
678.68	422.89
679.02	420.54
679.36	418.47
679.70	416.32
680.04	414.14
680.37	411.90
680.71	409.69
681.05	407.77
681.39	405.67
681.73	403.60
682.06	401.63
682.40	399.84
682.74	397.96
683.08	396.02
683.42	393.88
683.75	391.86
684.09	389.63
684.43	387.72
684.77	385.65
685.10	383.68
685.44	381.68
685.78	379.77
686.12	378.09
686.45	376.17
686.79	374.37
687.13	372.71
687.46	371.00
687.80	369.38
688.14	367.33
688.48	365.58
688.81	363.79
689.15	362.12
689.49	360.25
689.82	358.49
690.16	356.61
690.50	354.92
690.83	353.21
691.17	351.55
691.51	349.83
691.84	348.39
692.18	346.95
692.52	345.45
692.85	344.11
693.19	342.74
693.52	341.28
693.86	339.64
694.20	338.12
694.53	336.54
694.87	335.07
695.21	333.65
695.54	332.07
695.88	330.45
696.21	328.75
696.55	327.38
696.88	326.01
697.22	324.61
697.56	323.32
697.89	321.87
698.23	320.59
698.56	319.24
698.90	317.96
699.23	316.54
699.57	315.21
699.90	313.82
700.24	312.34
700.58	311.12
700.91	310.03
701.25	309.03
701.58	307.93
701.92	306.71
702.25	305.60
702.59	304.50
702.92	303.49
703.26	302.45
703.59	301.38
703.93	300.60
704.26	299.67
704.60	298.53
704.93	297.49
705.26	296.47
705.60	295.56
705.93	294.45
706.27	293.53
706.60	292.74
706.94	291.94
707.27	291.04
707.61	290.05
707.94	289.06
708.27	287.86
708.61	286.90
708.94	286.02
709.28	285.21
709.61	284.33
709.94	283.53
710.28	282.68
710.61	281.89
710.95	280.68
711.28	279.96
711.61	279.26
711.95	278.55
712.28	277.79
712.61	276.96
712.95	276.45
713.28	275.80
713.61	275.05
713.95	274.22
714.28	273.54
714.61	272.76
714.95	272.01
715.28	271.28
715.61	270.59
715.95	269.88
716.28	269.07
716.61	268.43
716.95	267.78
717.28	267.20
717.61	266.56
717.94	265.94
718.28	265.16
718.61	264.51
718.94	263.84
719.27	263.22
719.61	262.75
719.94	262.01
720.27	261.26
720.60	260.62
720.94	260.04
721.27	259.43
721.60	259.00
721.93	258.47
722.27	258.10
722.60	257.58
722.93	257.04
723.26	256.57
723.59	255.97
723.93	255.49
724.26	254.97
724.59	254.47
724.92	253.98
725.25	253.58
725.59	253.10
725.92	252.79
726.25	252.32
726.58	251.82
726.91	251.39
727.24	251.04
727.57	250.61
727.91	250.11
728.24	249.74
728.57	249.30
728.90	249.00
729.23	248.55
729.56	248.25
729.89	247.89
730.22	247.45
730.55	247.11
730.89	246.68
731.22	246.29
731.55	245.85
731.88	245.52
732.21	245.13
732.54	244.70
732.87	244.30
733.20	243.91
733.53	243.57
733.86	243.25
734.19	242.82
734.52	242.53
734.85	242.46
735.18	242.10
735.51	241.91
735.84	241.52
736.17	241.23
736.50	240.76
736.83	240.86
737.16	240.58
737.49	240.28
737.82	240.04
738.15	239.71
738.48	239.46
738.81	239.19
739.14	238.83
739.47	238.59
739.80	238.24
740.13	237.95
740.46	237.58
740.79	237.29
741.12	237.06
741.45	236.67
741.78	236.13
742.11	235.85
742.44	235.43
742.77	235.32
743.10	235.03
743.43	234.79
743.75	234.19
744.08	234.33
744.41	234.09
744.74	233.75
745.07	233.50
745.40	233.31
745.73	233.17
746.06	232.95
746.39	232.76
746.71	232.46
747.04	232.21
747.37	232.01
747.70	231.78
748.03	231.52
748.36	231.34
748.68	231.17
749.01	230.90
749.34	230.70
749.67	230.38
750.00	230.20
750.33	230.21
750.65	229.97
750.98	229.35
751.31	229.12
751.64	228.89
751.97	228.84
752.29	228.59
752.62	228.21
752.95	227.94
753.28	227.71
753.60	227.50
753.93	227.52
754.26	227.36
754.59	227.08
754.91	226.87
755.24	226.75
755.57	226.58
755.90	226.46
756.22	226.20
756.55	226.05
756.88	225.73
757.20	225.29
757.53	224.93
757.86	224.75
758.19	224.62
758.51	224.50
758.84	224.22
759.17	224.05
759.49	223.94
759.82	224.05
760.15	223.98
760.47	223.85
760.80	223.59
761.13	223.46
761.45	223.33
761.78	223.15
762.11	223.06
762.43	222.82
762.76	222.63
763.08	222.59
763.41	222.46
763.74	222.41
764.06	222.39
764.39	222.40
764.71	222.28
765.04	222.15
765.37	222.07
765.69	221.93
766.02	221.77
766.34	221.65
766.67	221.43
767.00	221.39
767.32	221.53
767.65	221.60
767.97	221.47
768.30	221.38
768.62	221.31
768.95	221.14
769.27	221.14
769.60	221.12
769.92	220.98
770.25	220.83
770.57	220.69
770.90	220.62
771.22	220.54
771.55	220.47
771.87	220.37
772.20	220.19
772.52	220.39
772.85	220.65
773.17	220.55
773.50	220.27
773.82	220.04
774.15	219.76
774.47	219.47
774.80	219.31
775.12	219.29
775.45	219.23
775.77	219.17
776.09	219.10
776.42	219.00
776.74	219.01
777.07	218.97
777.39	218.88
777.72	218.70
778.04	218.66
778.36	218.58
778.69	218.53
779.01	218.50
779.33	218.11
779.66	217.77
779.98	217.74
780.31	217.80
780.63	217.91
780.95	217.89
781.28	217.76
781.60	217.68
781.92	217.56
782.25	217.54
782.57	217.43
782.89	217.36
783.22	217.27
783.54	217.10
783.86	217.00
784.19	216.91
784.51	216.94
784.83	216.74
785.16	216.69
785.48	216.65
785.80	216.64
786.12	216.69
786.45	216.57
786.77	216.52
787.09	216.49
787.42	216.34
