SpectraSuite Data File
++++++++++++++++++++++++++++++++++++
Date: Mon Feb 25 17:08:10 EST 2013
User: group
Dark Spectrum Present: No
Reference Spectrum Present: No
Number of Sampled Component Spectra: 1
Spectrometers: USB2E7196
Integration Time (usec): 104000 (USB2E7196)
Spectra Averaged: 20 (USB2E7196)
Boxcar Smoothing: 10 (USB2E7196)
Correct for Electrical Dark: No (USB2E7196)
Strobe/Lamp Enabled: No (USB2E7196)
Correct for Detector Non-linearity: No (USB2E7196)
Correct for Stray Light: No (USB2E7196)
Number of Pixels in Processed Spectrum: 2048
>>>>>Begin Processed Spectral Data<<<<<
339.09	0.00
339.48	198.50
339.86	200.80
340.24	201.20
340.63	203.45
341.01	210.40
341.39	205.40
341.78	208.90
342.16	209.05
342.54	209.45
342.93	198.78
343.31	208.78
343.69	209.32
344.07	209.76
344.46	210.27
344.84	210.60
345.22	210.59
345.60	210.89
345.99	211.02
346.37	211.10
346.75	211.16
347.13	211.20
347.52	211.19
347.90	211.25
348.28	211.22
348.66	211.33
349.05	211.13
349.43	211.16
349.81	211.24
350.19	211.25
350.57	211.31
350.96	211.35
351.34	211.41
351.72	211.52
352.10	211.56
352.48	211.56
352.87	211.61
353.25	211.62
353.63	211.59
354.01	211.58
354.39	211.66
354.77	211.71
355.15	211.81
355.54	211.90
355.92	211.91
356.30	211.95
356.68	212.17
357.06	212.26
357.44	212.26
357.82	212.29
358.20	212.30
358.58	212.24
358.97	212.26
359.35	212.36
359.73	212.41
360.11	212.44
360.49	212.42
360.87	212.42
361.25	212.54
361.63	212.73
362.01	212.78
362.39	212.73
362.77	212.70
363.15	212.66
363.53	212.61
363.91	212.49
364.29	212.46
364.67	212.14
365.05	212.16
365.43	212.25
365.81	212.23
366.19	212.38
366.57	212.59
366.95	212.54
367.33	212.42
367.71	212.44
368.09	212.48
368.47	212.51
368.85	212.53
369.23	212.49
369.61	212.29
369.99	212.30
370.37	212.38
370.75	212.62
371.13	212.55
371.51	212.46
371.89	212.50
372.27	212.48
372.65	212.50
373.03	212.46
373.41	212.31
373.78	212.33
374.16	212.14
374.54	211.95
374.92	211.99
375.30	211.97
375.68	211.79
376.06	211.75
376.44	211.62
376.82	211.66
377.19	211.59
377.57	211.55
377.95	211.42
378.33	211.36
378.71	211.06
379.09	210.96
379.47	211.03
379.84	211.01
380.22	210.93
380.60	210.75
380.98	210.69
381.36	210.74
381.73	210.66
382.11	210.63
382.49	210.66
382.87	210.50
383.25	210.45
383.62	210.86
384.00	210.79
384.38	210.85
384.76	210.78
385.13	210.95
385.51	210.95
385.89	210.94
386.27	210.91
386.64	211.02
387.02	211.03
387.40	210.93
387.78	210.91
388.15	210.95
388.53	210.97
388.91	210.98
389.29	210.81
389.66	210.82
390.04	210.78
390.42	210.77
390.79	210.80
391.17	210.82
391.55	210.49
391.92	210.50
392.30	210.42
392.68	210.43
393.05	210.35
393.43	210.40
393.81	210.38
394.18	210.29
394.56	210.25
394.94	210.37
395.31	210.39
395.69	210.44
396.06	210.50
396.44	210.62
396.82	210.53
397.19	210.78
397.57	210.71
397.95	210.80
398.32	210.71
398.70	210.72
399.07	210.86
399.45	210.79
399.82	210.85
400.20	210.88
400.58	210.89
400.95	210.76
401.33	210.86
401.70	211.18
402.08	211.28
402.45	211.30
402.83	211.30
403.20	211.36
403.58	211.38
403.95	211.40
404.33	211.42
404.71	211.58
405.08	211.82
405.46	211.96
405.83	212.01
406.21	212.12
406.58	212.27
406.96	212.30
407.33	212.40
407.70	212.49
408.08	212.95
408.45	213.05
408.83	213.33
409.20	213.38
409.58	213.32
409.95	213.51
410.33	213.68
410.70	213.82
411.08	214.16
411.45	214.43
411.82	214.68
412.20	215.04
412.57	215.52
412.95	215.64
413.32	216.06
413.69	216.49
414.07	216.90
414.44	217.34
414.82	217.85
415.19	218.44
415.56	218.96
415.94	219.35
416.31	220.07
416.68	220.70
417.06	221.46
417.43	222.30
417.81	223.10
418.18	223.96
418.55	224.91
418.93	225.78
419.30	226.76
419.67	227.82
420.04	228.85
420.42	229.91
420.79	231.34
421.16	232.59
421.54	234.09
421.91	235.46
422.28	236.95
422.66	238.50
423.03	240.18
423.40	241.86
423.77	243.53
424.15	245.15
424.52	246.94
424.89	248.95
425.26	250.75
425.64	252.57
426.01	254.53
426.38	256.54
426.75	258.70
427.13	260.86
427.50	263.14
427.87	265.43
428.24	267.67
428.61	269.72
428.99	272.44
429.36	274.94
429.73	277.62
430.10	280.26
430.47	282.99
430.85	285.66
431.22	288.51
431.59	291.81
431.96	294.94
432.33	298.31
432.70	301.62
433.08	305.50
433.45	309.20
433.82	312.89
434.19	316.88
434.56	320.80
434.93	324.53
435.30	328.30
435.68	332.48
436.05	336.62
436.42	340.70
436.79	344.35
437.16	348.50
437.53	352.88
437.90	357.13
438.27	361.43
438.64	365.74
439.01	369.91
439.38	373.35
439.75	376.76
440.13	380.75
440.50	384.33
440.87	387.39
441.24	390.48
441.61	393.99
441.98	396.65
442.35	399.67
442.72	402.82
443.09	405.90
443.46	407.74
443.83	409.05
444.20	410.26
444.57	411.83
444.94	412.61
445.31	413.48
445.68	414.72
446.05	415.05
446.42	414.71
446.79	414.40
447.16	414.05
447.53	413.84
447.90	412.32
448.27	410.96
448.64	408.91
449.01	407.46
449.37	404.88
449.74	402.33
450.11	399.51
450.48	396.10
450.85	392.42
451.22	389.56
451.59	386.88
451.96	384.11
452.33	380.34
452.70	376.95
453.07	372.83
453.43	368.47
453.80	364.55
454.17	360.95
454.54	357.30
454.91	353.45
455.28	349.75
455.65	346.22
456.02	343.24
456.38	340.19
456.75	336.55
457.12	333.44
457.49	330.45
457.86	327.24
458.23	324.78
458.59	321.96
458.96	319.11
459.33	316.43
459.70	313.86
460.07	311.99
460.43	309.78
460.80	307.75
461.17	305.89
461.54	303.87
461.91	301.88
462.27	299.96
462.64	298.39
463.01	296.63
463.38	295.11
463.74	292.88
464.11	291.37
464.48	289.97
464.85	288.40
465.21	287.29
465.58	286.01
465.95	284.41
466.32	283.35
466.68	282.00
467.05	280.82
467.42	279.73
467.78	278.50
468.15	277.30
468.52	276.37
468.88	275.07
469.25	274.04
469.62	273.25
469.98	272.39
470.35	271.50
470.72	270.63
471.08	269.52
471.45	268.88
471.82	268.23
472.18	267.47
472.55	266.92
472.92	266.13
473.28	265.52
473.65	264.91
474.02	264.30
474.38	263.97
474.75	263.62
475.11	263.11
475.48	262.70
475.85	262.40
476.21	262.04
476.58	261.70
476.94	261.49
477.31	261.20
477.67	260.97
478.04	260.68
478.41	260.56
478.77	260.79
479.14	260.53
479.50	260.35
479.87	260.22
480.23	260.18
480.60	260.12
480.96	260.04
481.33	260.31
481.69	260.42
482.06	260.47
482.42	260.52
482.79	260.64
483.15	260.73
483.52	260.88
483.88	261.01
484.25	261.23
484.61	261.46
484.98	261.69
485.34	261.99
485.71	262.34
486.07	262.72
486.44	262.89
486.80	263.26
487.17	263.71
487.53	264.35
487.90	264.93
488.26	265.56
488.62	266.32
488.99	266.72
489.35	267.40
489.72	268.09
490.08	268.77
490.44	269.58
490.81	270.54
491.17	271.35
491.54	272.26
491.90	273.20
492.26	274.17
492.63	275.13
492.99	276.09
493.36	277.26
493.72	278.40
494.08	279.57
494.45	280.88
494.81	282.19
495.17	283.46
495.54	284.76
495.90	286.06
496.26	287.43
496.63	289.07
496.99	290.52
497.35	292.04
497.72	293.71
498.08	295.24
498.44	296.81
498.80	298.62
499.17	300.45
499.53	302.15
499.89	304.09
500.26	306.08
500.62	307.93
500.98	309.96
501.34	311.82
501.71	313.91
502.07	315.92
502.43	317.96
502.79	319.94
503.16	322.15
503.52	324.34
503.88	326.48
504.24	328.75
504.60	331.16
504.97	333.64
505.33	335.95
505.69	338.55
506.05	340.95
506.41	343.35
506.78	345.80
507.14	348.52
507.50	351.11
507.86	353.87
508.22	356.67
508.59	359.29
508.95	362.24
509.31	365.24
509.67	368.25
510.03	371.15
510.39	374.15
510.75	377.13
511.12	380.24
511.48	383.35
511.84	386.38
512.20	389.51
512.56	392.65
512.92	395.89
513.28	399.16
513.64	402.45
514.00	405.82
514.37	409.03
514.73	412.29
515.09	415.76
515.45	419.11
515.81	422.60
516.17	426.13
516.53	429.52
516.89	432.75
517.25	436.29
517.61	439.91
517.97	443.56
518.33	447.19
518.69	450.72
519.05	454.44
519.41	458.18
519.77	462.18
520.13	465.82
520.49	469.58
520.85	473.28
521.21	477.31
521.57	481.19
521.93	485.04
522.29	489.06
522.65	492.81
523.01	496.64
523.37	500.41
523.73	504.35
524.09	508.33
524.45	512.33
524.81	516.26
525.17	520.49
525.53	524.61
525.89	528.69
526.25	532.96
526.61	537.03
526.97	541.12
527.33	545.05
527.68	549.59
528.04	553.79
528.40	557.91
528.76	562.03
529.12	566.25
529.48	570.80
529.84	575.01
530.20	579.56
530.56	583.99
530.91	588.77
531.27	593.22
531.63	597.81
531.99	602.14
532.35	606.58
532.71	610.80
533.07	615.41
533.42	620.18
533.78	624.57
534.14	629.04
534.50	633.31
534.86	637.52
535.21	641.28
535.57	645.77
535.93	650.16
536.29	654.52
536.65	658.81
537.00	662.50
537.36	666.65
537.72	670.60
538.08	674.79
538.44	678.56
538.79	682.66
539.15	686.72
539.51	690.99
539.87	695.08
540.22	698.97
540.58	703.01
540.94	706.79
541.29	710.55
541.65	714.18
542.01	718.11
542.37	722.03
542.72	726.16
543.08	729.67
543.44	733.28
543.79	736.55
544.15	740.15
544.51	744.31
544.87	747.93
545.22	751.30
545.58	754.52
545.94	757.75
546.29	760.81
546.65	763.66
547.01	766.43
547.36	769.62
547.72	772.60
548.07	775.18
548.43	777.65
548.79	780.36
549.14	782.99
549.50	785.69
549.86	787.96
550.21	790.24
550.57	792.78
550.92	795.02
551.28	797.40
551.64	799.60
551.99	801.88
552.35	803.79
552.70	805.87
553.06	807.84
553.41	809.67
553.77	811.69
554.13	813.66
554.48	815.87
554.84	817.45
555.19	819.22
555.55	821.11
555.90	822.60
556.26	824.04
556.61	825.54
556.97	826.72
557.32	828.32
557.68	829.49
558.03	830.58
558.39	831.87
558.74	833.35
559.10	834.46
559.45	835.32
559.81	836.78
560.16	837.79
560.52	839.06
560.87	840.34
561.23	841.09
561.58	842.26
561.94	842.96
562.29	843.58
562.64	844.42
563.00	844.85
563.35	846.00
563.71	847.21
564.06	848.22
564.42	849.08
564.77	849.85
565.12	850.96
565.48	852.10
565.83	852.89
566.19	853.69
566.54	854.19
566.89	854.56
567.25	855.06
567.60	855.63
567.96	855.94
568.31	856.55
568.66	857.02
569.02	856.86
569.37	856.60
569.72	856.79
570.08	856.70
570.43	856.65
570.78	856.06
571.14	855.49
571.49	854.93
571.84	854.72
572.20	854.08
572.55	853.56
572.90	852.59
573.26	851.95
573.61	850.91
573.96	850.27
574.31	849.40
574.67	848.15
575.02	846.77
575.37	845.49
575.72	843.95
576.08	842.92
576.43	841.79
576.78	840.88
577.13	839.86
577.49	838.87
577.84	837.83
578.19	837.10
578.54	836.30
578.90	835.30
579.25	833.94
579.60	832.79
579.95	831.19
580.30	830.32
580.66	829.26
581.01	828.06
581.36	826.89
581.71	825.68
582.06	824.69
582.42	823.56
582.77	822.35
583.12	821.25
583.47	820.20
583.82	819.09
584.17	817.88
584.53	816.63
584.88	815.25
585.23	814.06
585.58	812.77
585.93	811.05
586.28	809.86
586.63	808.70
586.98	807.55
587.34	806.70
587.69	804.97
588.04	803.50
588.39	802.20
588.74	800.48
589.09	799.35
589.44	797.70
589.79	796.53
590.14	795.19
590.49	793.72
590.84	791.97
591.19	790.79
591.54	789.55
591.89	787.75
592.25	786.41
592.60	784.60
592.95	782.82
593.30	780.96
593.65	779.10
594.00	777.21
594.35	776.25
594.70	774.31
595.05	772.83
595.40	770.98
595.75	768.95
596.10	767.43
596.45	765.74
596.80	764.47
597.15	762.98
597.50	761.30
597.85	759.75
598.19	758.04
598.54	756.26
598.89	754.47
599.24	753.26
599.59	751.72
599.94	750.50
600.29	748.99
600.64	747.78
600.99	746.15
601.34	744.65
601.69	742.13
602.04	740.49
602.39	738.69
602.74	737.44
603.08	736.41
603.43	735.29
603.78	733.79
604.13	731.91
604.48	730.14
604.83	728.97
605.18	727.56
605.53	726.10
605.87	724.45
606.22	723.00
606.57	721.32
606.92	719.39
607.27	717.55
607.62	715.82
607.96	714.29
608.31	712.95
608.66	711.29
609.01	709.61
609.36	707.76
609.70	705.92
610.05	703.83
610.40	701.84
610.75	699.45
611.10	697.61
611.44	695.50
611.79	693.45
612.14	691.00
612.49	688.65
612.83	686.54
613.18	684.28
613.53	682.04
613.88	679.67
614.22	677.50
614.57	675.21
614.92	673.09
615.27	670.78
615.61	668.33
615.96	666.13
616.31	664.06
616.65	662.27
617.00	660.24
617.35	658.15
617.70	655.66
618.04	653.42
618.39	650.75
618.74	648.66
619.08	646.33
619.43	644.20
619.78	641.93
620.12	639.60
620.47	637.44
620.82	635.09
621.16	632.58
621.51	630.47
621.85	628.25
622.20	625.81
622.55	623.36
622.89	620.91
623.24	618.65
623.59	616.07
623.93	613.45
624.28	611.10
624.62	608.96
624.97	606.88
625.32	604.65
625.66	602.51
626.01	600.19
626.35	598.08
626.70	595.87
627.04	593.82
627.39	591.62
627.73	589.36
628.08	587.24
628.43	585.03
628.77	582.65
629.12	580.34
629.46	578.21
629.81	576.00
630.15	573.88
630.50	571.38
630.84	569.24
631.19	567.06
631.53	564.95
631.88	562.24
632.22	559.85
632.57	557.65
632.91	555.33
633.26	553.02
633.60	550.94
633.95	548.69
634.29	546.36
634.64	544.42
634.98	542.18
635.32	540.10
635.67	538.30
636.01	536.26
636.36	534.18
636.70	532.21
637.05	530.25
637.39	528.34
637.73	526.60
638.08	524.85
638.42	522.95
638.77	520.96
639.11	519.09
639.45	517.10
639.80	515.02
640.14	512.99
640.49	511.12
640.83	508.99
641.17	506.99
641.52	505.03
641.86	502.82
642.20	500.96
642.55	498.68
642.89	496.51
643.23	494.31
643.58	492.36
643.92	490.07
644.26	487.96
644.61	485.94
644.95	483.80
645.29	481.64
645.64	479.48
645.98	477.48
646.32	475.69
646.66	473.50
647.01	471.54
647.35	469.72
647.69	467.61
648.04	465.61
648.38	463.60
648.72	461.59
649.06	459.60
649.41	457.54
649.75	455.64
650.09	453.73
650.43	451.79
650.78	449.62
651.12	447.64
651.46	445.58
651.80	443.49
652.14	441.49
652.49	439.60
652.83	437.68
653.17	435.41
653.51	433.27
653.85	431.56
654.20	429.76
654.54	427.73
654.88	425.80
655.22	423.93
655.56	421.98
655.90	420.05
656.25	418.02
656.59	416.00
656.93	414.14
657.27	412.33
657.61	410.38
657.95	408.68
658.29	406.93
658.64	405.24
658.98	403.47
659.32	401.67
659.66	399.86
660.00	397.97
660.34	396.38
660.68	394.52
661.02	392.70
661.36	390.90
661.70	389.24
662.05	387.59
662.39	386.02
662.73	384.55
663.07	383.13
663.41	381.64
663.75	380.09
664.09	378.54
664.43	376.80
664.77	375.34
665.11	373.70
665.45	372.21
665.79	370.76
666.13	369.18
666.47	367.68
666.81	366.10
667.15	364.67
667.49	363.36
667.83	362.21
668.17	360.78
668.51	359.43
668.85	358.14
669.19	356.95
669.53	355.38
669.87	353.80
670.21	352.17
670.55	350.83
670.89	349.79
671.23	348.61
671.57	347.40
671.91	346.27
672.25	345.10
672.58	343.93
672.92	342.69
673.26	341.58
673.60	340.46
673.94	339.31
674.28	338.25
674.62	337.11
674.96	335.85
675.30	334.84
675.64	333.59
675.97	332.42
676.31	331.30
676.65	330.27
676.99	329.43
677.33	328.37
677.67	327.26
678.01	325.99
678.34	324.82
678.68	323.78
679.02	322.56
679.36	321.48
679.70	320.33
680.04	319.25
680.37	318.15
680.71	317.11
681.05	316.20
681.39	315.09
681.73	313.99
682.06	313.00
682.40	311.98
682.74	311.10
683.08	310.21
683.42	309.17
683.75	308.28
684.09	307.22
684.43	306.40
684.77	305.44
685.10	304.58
685.44	303.53
685.78	302.62
686.12	301.83
686.45	301.02
686.79	300.02
687.13	299.29
687.46	298.44
687.80	297.52
688.14	296.60
688.48	295.76
688.81	294.89
689.15	294.07
689.49	293.14
689.82	292.28
690.16	291.31
690.50	290.40
690.83	289.53
691.17	288.57
691.51	287.73
691.84	286.97
692.18	286.10
692.52	285.34
692.85	284.55
693.19	283.85
693.52	283.07
693.86	282.30
694.20	281.44
694.53	280.70
694.87	279.96
695.21	279.18
695.54	278.46
695.88	277.65
696.21	276.75
696.55	276.17
696.88	275.36
697.22	274.58
697.56	274.06
697.89	273.33
698.23	272.82
698.56	272.07
698.90	271.40
699.23	270.62
699.57	270.07
699.90	269.38
700.24	268.61
700.58	267.88
700.91	267.34
701.25	266.98
701.58	266.49
701.92	266.06
702.25	265.49
702.59	264.86
702.92	264.27
703.26	263.79
703.59	263.16
703.93	262.95
704.26	262.51
704.60	261.85
704.93	261.29
705.26	260.58
705.60	260.17
705.93	259.63
706.27	259.25
706.60	258.77
706.94	258.50
707.27	257.95
707.61	257.57
707.94	257.12
708.27	256.34
708.61	255.70
708.94	255.04
709.28	254.60
709.61	254.13
709.94	253.79
710.28	253.40
710.61	252.98
710.95	252.20
711.28	251.95
711.61	251.58
711.95	251.22
712.28	250.85
712.61	250.37
712.95	250.19
713.28	249.91
713.61	249.36
713.95	248.82
714.28	248.48
714.61	248.00
714.95	247.61
715.28	247.19
715.61	246.83
715.95	246.49
716.28	246.10
716.61	245.80
716.95	245.39
717.28	244.94
717.61	244.62
717.94	244.35
718.28	243.80
718.61	243.44
718.94	243.02
719.27	242.63
719.61	242.29
719.94	241.81
720.27	241.27
720.60	241.03
720.94	240.68
721.27	240.35
721.60	240.17
721.93	239.85
722.27	239.76
722.60	239.53
722.93	239.23
723.26	239.02
723.59	238.65
723.93	238.43
724.26	238.23
724.59	237.90
724.92	237.56
725.25	237.39
725.59	237.11
725.92	236.86
726.25	236.69
726.58	236.47
726.91	236.24
727.24	236.04
727.57	235.73
727.91	235.45
728.24	235.34
728.57	234.97
728.90	234.77
729.23	234.41
729.56	234.26
729.89	233.99
730.22	233.68
730.55	233.44
730.89	233.17
731.22	232.88
731.55	232.63
731.88	232.42
732.21	232.11
732.54	231.85
732.87	231.66
733.20	231.46
733.53	231.31
733.86	231.07
734.19	230.84
734.52	230.76
734.85	230.85
735.18	230.55
735.51	230.55
735.84	230.40
736.17	230.23
736.50	229.89
736.83	230.14
737.16	229.98
737.49	229.85
737.82	229.66
738.15	229.51
738.48	229.31
738.81	229.14
739.14	228.94
739.47	228.72
739.80	228.54
740.13	228.39
740.46	228.08
740.79	227.85
741.12	227.65
741.45	227.34
741.78	226.91
742.11	226.80
742.44	226.51
742.77	226.34
743.10	226.11
743.43	225.94
743.75	225.42
744.08	225.71
744.41	225.52
744.74	225.28
745.07	225.14
745.40	225.10
745.73	225.13
746.06	224.97
746.39	224.94
746.71	224.80
747.04	224.67
747.37	224.61
747.70	224.55
748.03	224.47
748.36	224.42
748.68	224.35
749.01	224.15
749.34	223.98
749.67	223.83
750.00	223.81
750.33	223.92
750.65	223.85
750.98	223.28
751.31	223.13
751.64	223.17
751.97	223.18
752.29	223.08
752.62	222.77
752.95	222.63
753.28	222.48
753.60	222.31
753.93	222.24
754.26	222.14
754.59	221.92
754.91	221.80
755.24	221.63
755.57	221.41
755.90	221.30
756.22	221.22
756.55	221.05
756.88	220.84
757.20	220.55
757.53	220.34
757.86	220.20
758.19	220.22
758.51	220.08
758.84	219.82
759.17	219.67
759.49	219.61
759.82	219.71
760.15	219.67
760.47	219.61
760.80	219.37
761.13	219.30
761.45	219.23
761.78	219.14
762.11	219.16
762.43	219.13
762.76	218.99
763.08	219.00
763.41	219.00
763.74	218.95
764.06	218.85
764.39	218.78
764.71	218.70
765.04	218.52
765.37	218.39
765.69	218.35
766.02	218.22
766.34	218.11
766.67	217.96
767.00	217.86
767.32	217.99
767.65	218.20
767.97	218.09
768.30	218.05
768.62	217.99
768.95	217.83
769.27	217.79
769.60	217.83
769.92	217.66
770.25	217.50
770.57	217.41
770.90	217.32
771.22	217.25
771.55	217.24
771.87	217.20
772.20	217.17
772.52	217.35
772.85	217.74
773.17	217.71
773.50	217.55
773.82	217.50
774.15	217.22
774.47	216.95
774.80	216.84
775.12	216.76
775.45	216.74
775.77	216.71
776.09	216.65
776.42	216.56
776.74	216.65
777.07	216.59
777.39	216.52
777.72	216.46
778.04	216.45
778.36	216.34
778.69	216.33
779.01	216.22
779.33	215.85
779.66	215.41
779.98	215.31
780.31	215.30
780.63	215.40
780.95	215.43
781.28	215.35
781.60	215.32
781.92	215.33
782.25	215.25
782.57	215.21
782.89	215.17
783.22	215.15
783.54	214.97
783.86	214.96
784.19	214.92
784.51	214.90
784.83	214.74
785.16	214.71
785.48	214.65
785.80	214.70
786.12	214.77
786.45	214.72
786.77	214.74
787.09	214.66
787.42	214.46
787.74	214.46
788.06	214.41
788.38	214.38
788.71	214.34
789.03	214.33
789.35	214.28
789.67	214.17
789.99	214.13
790.32	214.11
790.64	214.10
790.96	214.37
791.28	214.34
791.61	214.34
791.93	214.32
792.25	214.35
792.57	214.56
792.89	214.40
793.21	214.40
793.54	214.32
793.86	214.32
794.18	214.28
