SpectraSuite Data File
++++++++++++++++++++++++++++++++++++
Date: Mon Feb 25 17:08:00 EST 2013
User: group
Dark Spectrum Present: No
Reference Spectrum Present: No
Number of Sampled Component Spectra: 1
Spectrometers: USB2E7196
Integration Time (usec): 104000 (USB2E7196)
Spectra Averaged: 20 (USB2E7196)
Boxcar Smoothing: 10 (USB2E7196)
Correct for Electrical Dark: No (USB2E7196)
Strobe/Lamp Enabled: No (USB2E7196)
Correct for Detector Non-linearity: No (USB2E7196)
Correct for Stray Light: No (USB2E7196)
Number of Pixels in Processed Spectrum: 2048
>>>>>Begin Processed Spectral Data<<<<<
339.09	0.00
339.48	198.30
339.86	200.30
340.24	201.65
340.63	202.30
341.01	209.30
341.39	204.80
341.78	207.40
342.16	210.75
342.54	208.85
342.93	198.59
343.31	208.61
343.69	209.14
344.07	209.58
344.46	210.01
344.84	210.38
345.22	210.42
345.60	210.72
345.99	210.89
346.37	210.96
346.75	211.08
347.13	211.05
347.52	211.00
347.90	211.11
348.28	211.10
348.66	211.12
349.05	211.02
349.43	211.07
349.81	211.21
350.19	211.23
350.57	211.28
350.96	211.31
351.34	211.39
351.72	211.47
352.10	211.55
352.48	211.50
352.87	211.56
353.25	211.61
353.63	211.64
354.01	211.65
354.39	211.68
354.77	211.71
355.15	211.91
355.54	211.98
355.92	211.84
356.30	211.80
356.68	212.08
357.06	212.14
357.44	212.17
357.82	212.10
358.20	212.21
358.58	212.22
358.97	212.30
359.35	212.37
359.73	212.44
360.11	212.50
360.49	212.63
360.87	212.67
361.25	212.77
361.63	212.92
362.01	213.06
362.39	213.04
362.77	213.09
363.15	213.05
363.53	213.05
363.91	213.15
364.29	213.22
364.67	212.85
365.05	212.85
365.43	212.85
365.81	212.88
366.19	212.97
366.57	213.12
366.95	213.10
367.33	213.07
367.71	213.10
368.09	213.12
368.47	213.06
368.85	213.02
369.23	213.05
369.61	212.90
369.99	212.91
370.37	212.89
370.75	213.04
371.13	213.02
371.51	212.98
371.89	212.96
372.27	212.89
372.65	212.90
373.03	212.84
373.41	212.79
373.78	212.73
374.16	212.46
374.54	212.36
374.92	212.27
375.30	212.22
375.68	212.15
376.06	212.10
376.44	212.10
376.82	212.11
377.19	212.06
377.57	212.03
377.95	211.81
378.33	211.80
378.71	211.53
379.09	211.46
379.47	211.41
379.84	211.29
380.22	211.26
380.60	211.13
380.98	211.01
381.36	210.92
381.73	210.85
382.11	210.98
382.49	210.91
382.87	210.81
383.25	210.79
383.62	211.13
384.00	211.04
384.38	211.03
384.76	211.02
385.13	211.06
385.51	211.02
385.89	210.95
386.27	210.95
386.64	210.98
387.02	210.89
387.40	210.85
387.78	210.91
388.15	210.90
388.53	210.83
388.91	210.88
389.29	210.85
389.66	210.85
390.04	210.75
390.42	210.78
390.79	210.75
391.17	210.70
391.55	210.27
391.92	210.29
392.30	210.21
392.68	210.08
393.05	210.06
393.43	210.09
393.81	210.12
394.18	209.93
394.56	209.93
394.94	209.98
395.31	209.98
395.69	210.08
396.06	210.17
396.44	210.27
396.82	210.21
397.19	210.48
397.57	210.49
397.95	210.60
398.32	210.56
398.70	210.68
399.07	210.72
399.45	210.74
399.82	210.72
400.20	210.71
400.58	210.82
400.95	210.73
401.33	210.74
401.70	211.01
402.08	211.16
402.45	211.15
402.83	211.30
403.20	211.32
403.58	211.27
403.95	211.31
404.33	211.36
404.71	211.48
405.08	211.62
405.46	211.71
405.83	211.70
406.21	211.73
406.58	211.85
406.96	211.93
407.33	212.02
407.70	212.19
408.08	212.73
408.45	212.90
408.83	213.14
409.20	213.31
409.58	213.33
409.95	213.55
410.33	213.83
410.70	213.96
411.08	214.29
411.45	214.59
411.82	214.82
412.20	215.25
412.57	215.79
412.95	215.86
413.32	216.25
413.69	216.60
414.07	216.94
414.44	217.30
414.82	217.82
415.19	218.44
415.56	218.93
415.94	219.23
416.31	219.93
416.68	220.50
417.06	221.27
417.43	222.03
417.81	222.92
418.18	223.79
418.55	224.70
418.93	225.57
419.30	226.56
419.67	227.63
420.04	228.73
420.42	229.76
420.79	231.30
421.16	232.61
421.54	234.12
421.91	235.65
422.28	237.25
422.66	238.73
423.03	240.40
423.40	241.98
423.77	243.74
424.15	245.38
424.52	247.26
424.89	249.26
425.26	251.10
425.64	252.84
426.01	254.76
426.38	256.83
426.75	259.09
427.13	261.22
427.50	263.55
427.87	265.80
428.24	268.12
428.61	270.17
428.99	272.79
429.36	275.42
429.73	278.12
430.10	280.83
430.47	283.74
430.85	286.37
431.22	289.50
431.59	292.87
431.96	295.93
432.33	299.34
432.70	302.56
433.08	306.35
433.45	309.98
433.82	313.60
434.19	317.67
434.56	321.69
434.93	325.49
435.30	329.24
435.68	333.46
436.05	337.61
436.42	341.76
436.79	345.57
437.16	349.65
437.53	354.00
437.90	358.17
438.27	362.44
438.64	366.76
439.01	370.90
439.38	374.41
439.75	377.95
440.13	381.94
440.50	385.65
440.87	388.83
441.24	392.10
441.61	395.64
441.98	398.31
442.35	401.25
442.72	404.37
443.09	407.45
443.46	409.34
443.83	410.82
444.20	412.09
444.57	413.58
444.94	414.50
445.31	415.43
445.68	416.59
446.05	416.92
446.42	416.64
446.79	416.29
447.16	415.77
447.53	415.62
447.90	414.20
448.27	412.78
448.64	410.67
449.01	409.22
449.37	406.67
449.74	404.01
450.11	401.08
450.48	397.59
450.85	393.90
451.22	390.88
451.59	387.96
451.96	385.13
452.33	381.47
452.70	378.05
453.07	373.97
453.43	369.68
453.80	365.75
454.17	362.09
454.54	358.39
454.91	354.50
455.28	350.65
455.65	346.99
456.02	343.96
456.38	341.00
456.75	337.32
457.12	334.12
457.49	331.03
457.86	327.85
458.23	325.38
458.59	322.69
458.96	319.90
459.33	317.29
459.70	314.77
460.07	312.68
460.43	310.36
460.80	308.19
461.17	306.24
461.54	304.20
461.91	302.25
462.27	300.34
462.64	298.72
463.01	296.83
463.38	295.27
463.74	292.99
464.11	291.47
464.48	290.01
464.85	288.53
465.21	287.50
465.58	286.35
465.95	284.85
466.32	283.60
466.68	282.29
467.05	281.03
467.42	279.84
467.78	278.59
468.15	277.46
468.52	276.53
468.88	275.34
469.25	274.33
469.62	273.56
469.98	272.67
470.35	271.86
470.72	271.06
471.08	270.08
471.45	269.45
471.82	268.74
472.18	267.92
472.55	267.36
472.92	266.62
473.28	265.94
473.65	265.35
474.02	264.71
474.38	264.33
474.75	263.93
475.11	263.43
475.48	263.01
475.85	262.54
476.21	262.16
476.58	261.83
476.94	261.55
477.31	261.18
477.67	260.97
478.04	260.75
478.41	260.69
478.77	260.88
479.14	260.64
479.50	260.51
479.87	260.51
480.23	260.38
480.60	260.21
480.96	260.19
481.33	260.35
481.69	260.46
482.06	260.46
482.42	260.58
482.79	260.74
483.15	260.92
483.52	261.24
483.88	261.46
484.25	261.66
484.61	261.88
484.98	262.09
485.34	262.45
485.71	262.73
486.07	263.02
486.44	263.00
486.80	263.45
487.17	263.88
487.53	264.46
487.90	265.03
488.26	265.67
488.62	266.31
488.99	266.80
489.35	267.43
489.72	268.08
490.08	268.74
490.44	269.31
490.81	270.19
491.17	270.95
491.54	271.77
491.90	272.77
492.26	273.72
492.63	274.75
492.99	275.64
493.36	276.69
493.72	277.84
494.08	279.06
494.45	280.27
494.81	281.56
495.17	282.74
495.54	284.06
495.90	285.42
496.26	286.79
496.63	288.22
496.99	289.73
497.35	291.31
497.72	292.93
498.08	294.63
498.44	296.24
498.80	297.96
499.17	299.74
499.53	301.45
499.89	303.36
500.26	305.27
500.62	307.13
500.98	309.21
501.34	311.16
501.71	313.33
502.07	315.45
502.43	317.50
502.79	319.58
503.16	321.81
503.52	323.94
503.88	326.08
504.24	328.37
504.60	330.57
504.97	332.96
505.33	335.28
505.69	337.79
506.05	340.22
506.41	342.76
506.78	345.15
507.14	347.55
507.50	350.10
507.86	352.72
508.22	355.45
508.59	358.00
508.95	360.73
509.31	363.41
509.67	366.12
510.03	368.88
510.39	371.64
510.75	374.41
511.12	377.31
511.48	380.24
511.84	383.11
512.20	386.14
512.56	389.18
512.92	392.15
513.28	395.18
513.64	398.28
514.00	401.31
514.37	404.49
514.73	407.80
515.09	411.07
515.45	414.25
515.81	417.42
516.17	420.65
516.53	423.85
516.89	427.01
517.25	430.32
517.61	433.76
517.97	437.15
518.33	440.43
518.69	443.86
519.05	447.34
519.41	450.98
519.77	454.73
520.13	458.19
520.49	461.73
520.85	465.22
521.21	468.87
521.57	472.69
521.93	476.23
522.29	479.92
522.65	483.53
523.01	487.19
523.37	490.93
523.73	494.82
524.09	498.60
524.45	502.61
524.81	506.50
525.17	510.32
525.53	514.38
525.89	518.59
526.25	522.56
526.61	526.36
526.97	530.24
527.33	534.11
527.68	538.48
528.04	542.56
528.40	546.53
528.76	550.53
529.12	554.44
529.48	558.80
529.84	562.89
530.20	566.90
530.56	571.28
530.91	575.78
531.27	580.04
531.63	584.40
531.99	588.55
532.35	592.68
532.71	596.92
533.07	601.15
533.42	605.60
533.78	609.87
534.14	614.26
534.50	618.30
534.86	622.59
535.21	626.27
535.57	630.66
535.93	634.77
536.29	639.24
536.65	643.60
537.00	647.63
537.36	651.65
537.72	655.78
538.08	659.75
538.44	663.53
538.79	667.50
539.15	671.46
539.51	675.32
539.87	679.45
540.22	683.52
540.58	687.70
540.94	691.42
541.29	695.19
541.65	698.72
542.01	702.68
542.37	706.40
542.72	710.35
543.08	713.92
543.44	717.85
543.79	721.07
544.15	724.40
544.51	728.12
544.87	731.77
545.22	735.20
545.58	738.40
545.94	741.47
546.29	744.64
546.65	747.59
547.01	750.80
547.36	753.81
547.72	756.51
548.07	759.07
548.43	761.74
548.79	764.37
549.14	767.03
549.50	769.79
549.86	772.13
550.21	774.45
550.57	776.86
550.92	778.96
551.28	781.28
551.64	783.55
551.99	785.69
552.35	787.65
552.70	789.60
553.06	791.84
553.41	793.96
553.77	796.00
554.13	798.00
554.48	799.91
554.84	801.81
555.19	803.72
555.55	805.69
555.90	807.14
556.26	808.60
556.61	810.20
556.97	811.31
557.32	812.77
557.68	814.12
558.03	815.46
558.39	816.70
558.74	818.16
559.10	819.40
559.45	820.56
559.81	821.83
560.16	822.77
560.52	823.76
560.87	825.10
561.23	825.85
561.58	827.29
561.94	828.07
562.29	828.63
562.64	829.46
563.00	830.13
563.35	831.11
563.71	832.37
564.06	833.29
564.42	834.20
564.77	835.07
565.12	836.11
565.48	837.24
565.83	838.26
566.19	838.94
566.54	839.42
566.89	839.82
567.25	840.53
567.60	841.55
567.96	842.36
568.31	842.61
568.66	843.09
569.02	842.89
569.37	842.95
569.72	843.34
570.08	843.35
570.43	843.29
570.78	843.24
571.14	842.65
571.49	842.28
571.84	842.16
572.20	841.72
572.55	841.34
572.90	840.19
573.26	839.46
573.61	838.72
573.96	837.94
574.31	836.95
574.67	835.91
575.02	834.62
575.37	833.14
575.72	831.88
576.08	830.92
576.43	829.70
576.78	828.67
577.13	827.51
577.49	826.42
577.84	825.28
578.19	824.22
578.54	823.66
578.90	823.02
579.25	821.93
579.60	820.61
579.95	819.07
580.30	818.32
580.66	817.17
581.01	815.86
581.36	814.77
581.71	813.45
582.06	812.35
582.42	811.20
582.77	809.84
583.12	808.84
583.47	807.79
583.82	806.83
584.17	805.74
584.53	804.65
584.88	803.43
585.23	802.37
585.58	801.03
585.93	799.40
586.28	798.25
586.63	796.81
586.98	795.71
587.34	794.87
587.69	793.31
588.04	792.06
588.39	790.95
588.74	789.51
589.09	788.67
589.44	787.22
589.79	786.07
590.14	785.06
590.49	783.51
590.84	781.92
591.19	780.73
591.54	779.42
591.89	777.64
592.25	776.41
592.60	774.68
592.95	773.19
593.30	771.39
593.65	769.27
594.00	767.56
594.35	766.96
594.70	765.03
595.05	763.45
595.40	761.76
595.75	759.89
596.10	758.36
596.45	756.72
596.80	755.24
597.15	753.73
597.50	751.87
597.85	750.37
598.19	748.76
598.54	746.97
598.89	745.17
599.24	743.92
599.59	742.32
599.94	740.98
600.29	739.46
600.64	738.23
600.99	736.79
601.34	735.43
601.69	732.96
602.04	731.33
602.39	729.70
602.74	728.26
603.08	726.94
603.43	725.88
603.78	724.25
604.13	722.64
604.48	721.16
604.83	720.06
605.18	718.97
605.53	717.46
605.87	715.86
606.22	714.34
606.57	712.76
606.92	710.93
607.27	709.27
607.62	707.65
607.96	706.13
608.31	704.69
608.66	703.07
609.01	701.27
609.36	699.65
609.70	698.06
610.05	696.15
610.40	694.39
610.75	692.29
611.10	690.65
611.44	688.40
611.79	686.13
612.14	683.80
612.49	681.24
612.83	679.14
613.18	677.01
613.53	674.99
613.88	672.61
614.22	670.60
614.57	668.27
614.92	666.00
615.27	663.71
615.61	661.52
615.96	659.24
616.31	657.06
616.65	655.10
617.00	652.88
617.35	650.56
617.70	648.22
618.04	645.95
618.39	643.20
618.74	641.35
619.08	639.07
619.43	637.05
619.78	634.99
620.12	632.70
620.47	630.53
620.82	628.07
621.16	625.68
621.51	623.33
621.85	621.13
622.20	618.88
622.55	616.45
622.89	613.97
623.24	611.83
623.59	609.53
623.93	607.08
624.28	604.82
624.62	603.05
624.97	600.83
625.32	598.57
625.66	596.64
626.01	594.34
626.35	592.29
626.70	589.85
627.04	587.82
627.39	585.75
627.73	583.68
628.08	581.82
628.43	579.66
628.77	577.39
629.12	575.12
629.46	573.11
629.81	571.15
630.15	568.97
630.50	566.74
630.84	564.42
631.19	562.20
631.53	560.10
631.88	557.47
632.22	555.04
632.57	552.95
632.91	550.84
633.26	548.56
633.60	546.35
633.95	544.32
634.29	541.79
634.64	539.59
634.98	537.25
635.32	535.04
635.67	533.19
636.01	531.25
636.36	529.28
636.70	527.29
637.05	525.24
637.39	523.22
637.73	521.31
638.08	519.91
638.42	518.04
638.77	516.10
639.11	514.28
639.45	512.38
639.80	510.10
640.14	508.06
640.49	506.21
640.83	504.18
641.17	502.25
641.52	500.34
641.86	498.23
642.20	496.44
642.55	494.27
642.89	492.15
643.23	489.99
643.58	488.10
643.92	485.77
644.26	483.68
644.61	481.70
644.95	479.58
645.29	477.13
645.64	475.07
645.98	473.05
646.32	471.07
646.66	469.01
647.01	467.15
647.35	465.23
647.69	463.04
648.04	461.13
648.38	459.10
648.72	457.16
649.06	455.35
649.41	453.30
649.75	451.37
650.09	449.46
650.43	447.59
650.78	445.47
651.12	443.63
651.46	441.65
651.80	439.81
652.14	437.97
652.49	436.08
652.83	434.19
653.17	432.08
653.51	430.20
653.85	428.57
654.20	426.74
654.54	424.78
654.88	422.90
655.22	421.05
655.56	419.13
655.90	417.37
656.25	415.38
656.59	413.44
656.93	411.64
657.27	410.00
657.61	408.21
657.95	406.45
658.29	404.67
658.64	403.06
658.98	401.27
659.32	399.35
659.66	397.65
660.00	395.87
660.34	394.19
660.68	392.30
661.02	390.53
661.36	388.82
661.70	387.07
662.05	385.62
662.39	384.09
662.73	382.63
663.07	381.17
663.41	379.71
663.75	378.15
664.09	376.65
664.43	374.87
664.77	373.27
665.11	371.66
665.45	370.29
665.79	368.82
666.13	367.30
666.47	365.83
666.81	364.37
667.15	363.00
667.49	361.69
667.83	360.48
668.17	359.11
668.51	357.76
668.85	356.59
669.19	355.36
669.53	353.94
669.87	352.49
670.21	351.08
670.55	349.76
670.89	348.78
671.23	347.58
671.57	346.48
671.91	345.24
672.25	344.10
672.58	342.87
672.92	341.55
673.26	340.44
673.60	339.42
673.94	338.30
674.28	337.00
674.62	335.89
674.96	334.76
675.30	333.58
675.64	332.41
675.97	331.22
676.31	330.02
676.65	328.90
676.99	327.94
677.33	326.80
677.67	325.72
678.01	324.42
678.34	323.25
678.68	322.22
679.02	321.22
679.36	320.21
679.70	319.10
680.04	318.06
680.37	317.06
680.71	315.91
681.05	314.93
681.39	314.10
681.73	312.96
682.06	311.94
682.40	311.05
682.74	310.20
683.08	309.35
683.42	308.34
683.75	307.53
684.09	306.61
684.43	305.67
684.77	304.70
685.10	303.72
685.44	302.70
685.78	301.77
686.12	300.86
686.45	300.01
686.79	299.12
687.13	298.31
687.46	297.32
687.80	296.60
688.14	295.70
688.48	294.90
688.81	294.08
689.15	293.30
689.49	292.40
689.82	291.52
690.16	290.47
690.50	289.68
690.83	288.73
691.17	287.79
691.51	286.93
691.84	286.23
692.18	285.59
692.52	284.92
692.85	284.15
693.19	283.47
693.52	282.70
693.86	281.89
694.20	281.12
694.53	280.43
694.87	279.63
695.21	278.89
695.54	278.02
695.88	277.23
696.21	276.42
696.55	275.72
696.88	274.98
697.22	274.34
697.56	273.70
697.89	273.03
698.23	272.34
698.56	271.69
698.90	271.09
699.23	270.35
699.57	269.74
699.90	269.00
700.24	268.34
700.58	267.65
700.91	267.17
701.25	266.79
701.58	266.26
701.92	265.68
702.25	265.05
702.59	264.43
702.92	263.92
703.26	263.28
703.59	262.69
703.93	262.41
704.26	261.90
704.60	261.25
704.93	260.73
705.26	260.26
705.60	259.77
705.93	259.09
706.27	258.68
706.60	258.30
706.94	258.07
707.27	257.52
707.61	257.05
707.94	256.44
708.27	255.75
708.61	255.22
708.94	254.71
709.28	254.28
709.61	253.85
709.94	253.47
710.28	253.06
710.61	252.75
710.95	252.06
711.28	251.81
711.61	251.44
711.95	251.05
712.28	250.63
712.61	250.21
712.95	250.04
713.28	249.71
713.61	249.15
713.95	248.51
714.28	248.23
714.61	247.81
714.95	247.51
715.28	247.04
715.61	246.61
715.95	246.28
716.28	245.82
716.61	245.48
716.95	245.03
717.28	244.70
717.61	244.23
717.94	243.85
718.28	243.32
718.61	243.00
718.94	242.67
719.27	242.34
719.61	241.99
719.94	241.54
720.27	241.01
720.60	240.75
720.94	240.46
721.27	240.07
721.60	239.79
721.93	239.47
722.27	239.37
722.60	239.11
722.93	238.77
723.26	238.60
723.59	238.25
723.93	238.04
724.26	237.82
724.59	237.49
724.92	237.31
725.25	237.15
725.59	236.86
725.92	236.56
726.25	236.28
726.58	236.08
726.91	235.84
727.24	235.66
727.57	235.41
727.91	235.14
728.24	234.97
728.57	234.71
728.90	234.48
729.23	234.14
729.56	234.09
729.89	233.86
730.22	233.58
730.55	233.47
730.89	233.23
731.22	232.86
731.55	232.68
731.88	232.45
732.21	232.14
732.54	231.83
732.87	231.63
733.20	231.40
733.53	231.18
733.86	231.00
734.19	230.85
734.52	230.69
734.85	230.78
735.18	230.52
735.51	230.42
735.84	230.22
736.17	230.11
736.50	229.68
736.83	229.86
737.16	229.69
737.49	229.48
737.82	229.24
738.15	229.15
738.48	228.97
738.81	228.76
739.14	228.50
739.47	228.37
739.80	228.11
740.13	227.99
740.46	227.81
740.79	227.64
741.12	227.33
741.45	227.06
741.78	226.64
742.11	226.61
742.44	226.37
742.77	226.29
743.10	226.14
743.43	226.08
743.75	225.60
744.08	225.88
744.41	225.75
744.74	225.62
745.07	225.40
745.40	225.34
745.73	225.34
746.06	225.23
746.39	225.14
746.71	225.05
747.04	224.86
747.37	224.71
747.70	224.63
748.03	224.56
748.36	224.54
748.68	224.49
749.01	224.17
749.34	224.08
749.67	223.88
750.00	223.74
750.33	223.87
750.65	223.78
750.98	223.23
751.31	223.11
751.64	222.99
751.97	223.05
752.29	222.92
752.62	222.67
752.95	222.50
753.28	222.28
753.60	222.18
753.93	222.15
754.26	222.02
754.59	221.81
754.91	221.63
755.24	221.55
755.57	221.37
755.90	221.29
756.22	221.20
756.55	221.05
756.88	220.78
757.20	220.40
757.53	220.13
757.86	220.01
758.19	219.91
758.51	219.80
758.84	219.56
759.17	219.46
759.49	219.32
759.82	219.46
760.15	219.46
760.47	219.35
760.80	219.20
761.13	219.16
761.45	219.01
761.78	218.92
762.11	218.78
762.43	218.70
762.76	218.63
763.08	218.55
763.41	218.48
763.74	218.46
764.06	218.40
764.39	218.38
764.71	218.32
765.04	218.09
765.37	218.01
765.69	217.90
766.02	217.75
766.34	217.72
766.67	217.51
767.00	217.48
767.32	217.60
767.65	217.71
767.97	217.59
768.30	217.53
768.62	217.51
768.95	217.42
769.27	217.33
769.60	217.30
769.92	217.10
770.25	217.04
770.57	216.90
770.90	216.78
771.22	216.67
771.55	216.65
771.87	216.70
772.20	216.69
772.52	217.01
772.85	217.35
773.17	217.27
773.50	217.15
773.82	217.09
774.15	216.91
774.47	216.63
774.80	216.60
775.12	216.57
775.45	216.57
775.77	216.53
776.09	216.55
776.42	216.55
776.74	216.67
777.07	216.69
777.39	216.71
777.72	216.64
778.04	216.72
778.36	216.63
778.69	216.61
779.01	216.51
779.33	216.12
779.66	215.75
779.98	215.75
780.31	215.71
780.63	215.78
780.95	215.76
781.28	215.70
781.60	215.60
781.92	215.57
782.25	215.46
782.57	215.39
782.89	215.27
783.22	215.16
783.54	215.04
783.86	214.95
784.19	214.92
784.51	215.06
784.83	214.93
785.16	214.91
785.48	214.84
785.80	214.84
786.12	214.78
786.45	214.75
786.77	214.70
787.09	214.73
787.42	214.54
787.74	214.56
788.06	214.51
788.38	214.43
788.71	214.38
789.03	214.34
789.35	214.36
789.67	214.32
789.99	214.27
790.32	214.18
790.64	214.22
790.96	214.45
791.28	214.23
791.61	214.18
791.93	214.14
792.25	214.09
792.57	214.30
792.89	214.24
793.21	214.16
793.54	214.09
793.86	213.98
794.18	214.01
