SpectraSuite Data File
++++++++++++++++++++++++++++++++++++
Date: Mon Feb 25 17:13:11 EST 2013
User: group
Dark Spectrum Present: No
Reference Spectrum Present: No
Number of Sampled Component Spectra: 1
Spectrometers: USB2E7196
Integration Time (usec): 104000 (USB2E7196)
Spectra Averaged: 20 (USB2E7196)
Boxcar Smoothing: 10 (USB2E7196)
Correct for Electrical Dark: No (USB2E7196)
Strobe/Lamp Enabled: No (USB2E7196)
Correct for Detector Non-linearity: No (USB2E7196)
Correct for Stray Light: No (USB2E7196)
Number of Pixels in Processed Spectrum: 2048
>>>>>Begin Processed Spectral Data<<<<<
339.09	0.00
339.48	199.10
339.86	200.20
340.24	201.40
340.63	204.15
341.01	210.75
341.39	205.15
341.78	207.00
342.16	210.15
342.54	208.75
342.93	198.53
343.31	208.60
343.69	209.15
344.07	209.60
344.46	210.05
344.84	210.34
345.22	210.32
345.60	210.53
345.99	210.76
346.37	210.80
346.75	210.88
347.13	210.83
347.52	210.80
347.90	210.91
348.28	210.88
348.66	210.96
349.05	210.89
349.43	210.91
349.81	210.92
350.19	211.01
350.57	211.10
350.96	211.14
351.34	211.15
351.72	211.22
352.10	211.32
352.48	211.36
352.87	211.40
353.25	211.49
353.63	211.58
354.01	211.61
354.39	211.70
354.77	211.79
355.15	211.94
355.54	211.96
355.92	211.92
356.30	211.94
356.68	212.20
357.06	212.31
357.44	212.23
357.82	212.32
358.20	212.41
358.58	212.52
358.97	212.62
359.35	212.72
359.73	212.78
360.11	212.82
360.49	212.85
360.87	212.95
361.25	213.00
361.63	213.15
362.01	213.23
362.39	213.26
362.77	213.30
363.15	213.32
363.53	213.40
363.91	213.42
364.29	213.46
364.67	213.18
365.05	213.15
365.43	213.31
365.81	213.33
366.19	213.50
366.57	213.60
366.95	213.65
367.33	213.56
367.71	213.60
368.09	213.62
368.47	213.67
368.85	213.62
369.23	213.66
369.61	213.55
369.99	213.62
370.37	213.70
370.75	213.80
371.13	213.76
371.51	213.61
371.89	213.59
372.27	213.59
372.65	213.65
373.03	213.68
373.41	213.56
373.78	213.43
374.16	213.17
374.54	212.98
374.92	212.88
375.30	212.92
375.68	212.79
376.06	212.81
376.44	212.70
376.82	212.72
377.19	212.72
377.57	212.73
377.95	212.55
378.33	212.39
378.71	212.24
379.09	212.26
379.47	212.37
379.84	212.37
380.22	212.31
380.60	212.21
380.98	212.13
381.36	212.13
381.73	212.12
382.11	212.21
382.49	212.27
382.87	212.20
383.25	212.11
383.62	212.54
384.00	212.47
384.38	212.51
384.76	212.52
385.13	212.62
385.51	212.52
385.89	212.53
386.27	212.52
386.64	212.49
387.02	212.39
387.40	212.25
387.78	212.18
388.15	212.20
388.53	212.15
388.91	212.11
389.29	212.10
389.66	212.14
390.04	212.06
390.42	212.05
390.79	212.02
391.17	211.99
391.55	211.59
391.92	211.56
392.30	211.54
392.68	211.44
393.05	211.31
393.43	211.33
393.81	211.29
394.18	211.22
394.56	211.27
394.94	211.37
395.31	211.40
395.69	211.47
396.06	211.51
396.44	211.53
396.82	211.47
397.19	211.56
397.57	211.51
397.95	211.55
398.32	211.47
398.70	211.51
399.07	211.61
399.45	211.56
399.82	211.51
400.20	211.48
400.58	211.48
400.95	211.39
401.33	211.42
401.70	211.67
402.08	211.71
402.45	211.68
402.83	211.80
403.20	211.82
403.58	211.85
403.95	211.91
404.33	212.00
404.71	212.09
405.08	212.32
405.46	212.43
405.83	212.50
406.21	212.59
406.58	212.69
406.96	212.78
407.33	212.97
407.70	213.16
408.08	213.60
408.45	213.74
408.83	213.94
409.20	214.11
409.58	214.10
409.95	214.36
410.33	214.63
410.70	214.65
411.08	214.99
411.45	215.27
411.82	215.47
412.20	215.87
412.57	216.35
412.95	216.44
413.32	216.87
413.69	217.25
414.07	217.68
414.44	218.14
414.82	218.60
415.19	219.24
415.56	219.81
415.94	220.18
416.31	220.98
416.68	221.62
417.06	222.41
417.43	223.24
417.81	224.07
418.18	224.87
418.55	225.86
418.93	226.83
419.30	227.82
419.67	228.92
420.04	229.90
420.42	230.98
420.79	232.50
421.16	233.74
421.54	235.27
421.91	236.68
422.28	238.15
422.66	239.69
423.03	241.28
423.40	242.80
423.77	244.43
424.15	245.98
424.52	247.82
424.89	249.76
425.26	251.51
425.64	253.28
426.01	255.25
426.38	257.25
426.75	259.30
427.13	261.43
427.50	263.71
427.87	266.08
428.24	268.35
428.61	270.45
428.99	273.05
429.36	275.53
429.73	278.13
430.10	280.66
430.47	283.28
430.85	285.82
431.22	288.76
431.59	292.04
431.96	295.01
432.33	298.28
432.70	301.37
433.08	305.00
433.45	308.45
433.82	311.93
434.19	315.75
434.56	319.56
434.93	323.07
435.30	326.65
435.68	330.58
436.05	334.55
436.42	338.40
436.79	341.90
437.16	345.69
437.53	349.55
437.90	353.59
438.27	357.51
438.64	361.61
439.01	365.32
439.38	368.41
439.75	371.70
440.13	375.24
440.50	378.68
440.87	381.56
441.24	384.46
441.61	387.69
441.98	390.03
442.35	392.61
442.72	395.40
443.09	398.11
443.46	399.71
443.83	400.78
444.20	401.72
444.57	403.06
444.94	403.69
445.31	404.44
445.68	405.38
446.05	405.62
446.42	405.22
446.79	404.86
447.16	404.40
447.53	403.97
447.90	402.53
448.27	400.98
448.64	398.82
449.01	397.32
449.37	394.64
449.74	392.06
450.11	389.37
450.48	385.95
450.85	382.41
451.22	379.43
451.59	376.64
451.96	373.89
452.33	370.27
452.70	366.99
453.07	363.33
453.43	359.08
453.80	355.33
454.17	351.71
454.54	348.18
454.91	344.51
455.28	340.84
455.65	337.43
456.02	334.65
456.38	331.86
456.75	328.33
457.12	325.31
457.49	322.47
457.86	319.31
458.23	317.09
458.59	314.42
458.96	311.79
459.33	309.42
459.70	307.08
460.07	305.17
460.43	303.07
460.80	300.93
461.17	299.26
461.54	297.43
461.91	295.63
462.27	293.78
462.64	292.23
463.01	290.67
463.38	289.26
463.74	287.18
464.11	285.76
464.48	284.67
464.85	283.40
465.21	282.38
465.58	281.40
465.95	279.97
466.32	278.96
466.68	277.87
467.05	276.81
467.42	275.70
467.78	274.55
468.15	273.50
468.52	272.76
468.88	271.66
469.25	270.76
469.62	270.08
469.98	269.41
470.35	268.77
470.72	268.13
471.08	267.28
471.45	266.71
471.82	266.15
472.18	265.31
472.55	264.81
472.92	264.16
473.28	263.63
473.65	263.24
474.02	262.84
474.38	262.56
474.75	262.24
475.11	261.89
475.48	261.73
475.85	261.58
476.21	261.33
476.58	261.19
476.94	261.11
477.31	260.90
477.67	260.77
478.04	260.70
478.41	260.76
478.77	261.17
479.14	261.02
479.50	261.11
479.87	261.38
480.23	261.57
480.60	261.70
480.96	261.92
481.33	262.18
481.69	262.44
482.06	262.62
482.42	262.94
482.79	263.38
483.15	263.77
483.52	264.26
483.88	264.69
484.25	265.24
484.61	265.80
484.98	266.41
485.34	267.14
485.71	267.95
486.07	268.64
486.44	269.03
486.80	270.04
487.17	270.95
487.53	271.97
487.90	273.00
488.26	274.33
488.62	275.62
488.99	276.86
489.35	278.20
489.72	279.64
490.08	281.20
490.44	282.72
490.81	284.51
491.17	286.20
491.54	288.07
491.90	290.01
492.26	292.04
492.63	294.16
492.99	296.40
493.36	298.62
493.72	301.06
494.08	303.59
494.45	306.27
494.81	309.23
495.17	312.09
495.54	315.19
495.90	318.20
496.26	321.35
496.63	324.73
496.99	328.23
497.35	331.93
497.72	335.74
498.08	339.74
498.44	343.66
498.80	347.94
499.17	352.41
499.53	356.90
499.89	361.74
500.26	366.60
500.62	371.52
500.98	376.75
501.34	382.06
501.71	387.74
502.07	393.55
502.43	399.10
502.79	405.01
503.16	411.12
503.52	417.58
503.88	424.18
504.24	430.86
504.60	437.74
504.97	444.85
505.33	452.01
505.69	459.67
506.05	467.49
506.41	475.39
506.78	483.24
507.14	491.50
507.50	499.89
507.86	508.54
508.22	517.44
508.59	526.35
508.95	535.70
509.31	544.98
509.67	554.51
510.03	564.48
510.39	574.54
510.75	584.84
511.12	595.13
511.48	605.55
511.84	616.31
512.20	627.10
512.56	638.12
512.92	649.28
513.28	660.49
513.64	671.81
514.00	683.26
514.37	694.92
514.73	706.86
515.09	718.60
515.45	730.31
515.81	742.17
516.17	754.47
516.53	766.49
516.89	778.77
517.25	791.03
517.61	803.35
517.97	815.75
518.33	828.02
518.69	840.55
519.05	853.41
519.41	866.40
519.77	879.49
520.13	892.30
520.49	904.82
520.85	917.82
521.21	930.91
521.57	943.97
521.93	956.86
522.29	969.96
522.65	983.26
523.01	996.59
523.37	1009.53
523.73	1022.51
524.09	1035.65
524.45	1048.87
524.81	1061.95
525.17	1075.34
525.53	1088.45
525.89	1101.75
526.25	1114.78
526.61	1127.25
526.97	1139.81
527.33	1152.41
527.68	1165.27
528.04	1177.99
528.40	1190.10
528.76	1202.56
529.12	1214.97
529.48	1227.88
529.84	1240.18
530.20	1252.13
530.56	1264.43
530.91	1276.94
531.27	1289.14
531.63	1301.07
531.99	1312.83
532.35	1324.33
532.71	1335.65
533.07	1347.46
533.42	1358.75
533.78	1370.20
534.14	1381.37
534.50	1391.54
534.86	1402.55
535.21	1412.36
535.57	1423.27
535.93	1433.43
536.29	1443.39
536.65	1453.55
537.00	1462.69
537.36	1471.69
537.72	1480.98
538.08	1489.94
538.44	1498.88
538.79	1507.56
539.15	1516.32
539.51	1524.96
539.87	1533.79
540.22	1541.88
540.58	1550.29
540.94	1558.36
541.29	1565.80
541.65	1573.03
542.01	1580.85
542.37	1587.76
542.72	1595.34
543.08	1601.70
543.44	1608.99
543.79	1615.11
544.15	1620.96
544.51	1627.59
544.87	1634.18
545.22	1639.86
545.58	1645.07
545.94	1649.86
546.29	1654.47
546.65	1658.83
547.01	1663.24
547.36	1667.12
547.72	1671.39
548.07	1674.37
548.43	1677.38
548.79	1680.15
549.14	1683.22
549.50	1686.18
549.86	1688.69
550.21	1690.90
550.57	1693.57
550.92	1694.90
551.28	1696.75
551.64	1698.47
551.99	1700.26
552.35	1701.14
552.70	1702.35
553.06	1704.11
553.41	1705.72
553.77	1706.88
554.13	1707.81
554.48	1708.77
554.84	1710.17
555.19	1710.65
555.55	1711.22
555.90	1711.38
556.26	1711.60
556.61	1711.46
556.97	1710.95
557.32	1710.70
557.68	1710.15
558.03	1709.28
558.39	1708.91
558.74	1709.07
559.10	1708.61
559.45	1707.52
559.81	1707.32
560.16	1706.44
560.52	1705.33
560.87	1704.15
561.23	1702.74
561.58	1701.95
561.94	1700.04
562.29	1697.63
562.64	1695.74
563.00	1694.28
563.35	1693.38
563.71	1692.74
564.06	1691.50
564.42	1690.42
564.77	1689.21
565.12	1688.21
565.48	1687.02
565.83	1685.64
566.19	1684.12
566.54	1681.98
566.89	1679.93
567.25	1677.55
567.60	1675.71
567.96	1673.42
568.31	1671.19
568.66	1669.00
569.02	1666.07
569.37	1663.11
569.72	1660.43
570.08	1657.78
570.43	1654.43
570.78	1650.73
571.14	1646.99
571.49	1643.43
571.84	1640.14
572.20	1636.17
572.55	1632.37
572.90	1628.07
573.26	1623.95
573.61	1619.35
573.96	1615.39
574.31	1611.00
574.67	1606.42
575.02	1601.36
575.37	1596.45
575.72	1591.26
576.08	1587.04
576.43	1581.91
576.78	1577.35
577.13	1573.24
577.49	1568.86
577.84	1564.47
578.19	1560.41
578.54	1556.19
578.90	1552.21
579.25	1547.36
579.60	1542.46
579.95	1537.17
580.30	1532.89
580.66	1528.45
581.01	1523.60
581.36	1518.51
581.71	1513.70
582.06	1508.97
582.42	1504.70
582.77	1499.79
583.12	1495.14
583.47	1490.47
583.82	1486.54
584.17	1482.08
584.53	1477.59
584.88	1472.88
585.23	1468.04
585.58	1463.22
585.93	1458.19
586.28	1453.51
586.63	1448.79
586.98	1444.53
587.34	1440.79
587.69	1435.84
588.04	1431.13
588.39	1426.62
588.74	1421.96
589.09	1417.74
589.44	1412.90
589.79	1408.27
590.14	1404.07
590.49	1399.69
590.84	1394.64
591.19	1390.53
591.54	1385.93
591.89	1380.37
592.25	1375.57
592.60	1370.66
592.95	1365.39
593.30	1359.92
593.65	1354.54
594.00	1349.55
594.35	1345.67
594.70	1340.58
595.05	1336.05
595.40	1331.30
595.75	1326.02
596.10	1321.32
596.45	1316.56
596.80	1312.60
597.15	1308.26
597.50	1303.49
597.85	1299.02
598.19	1294.40
598.54	1289.31
598.89	1285.22
599.24	1281.73
599.59	1277.43
599.94	1273.71
600.29	1269.68
600.64	1265.72
600.99	1261.23
601.34	1257.40
601.69	1252.01
602.04	1247.33
602.39	1242.92
602.74	1238.72
603.08	1235.33
603.43	1231.71
603.78	1227.42
604.13	1223.15
604.48	1218.98
604.83	1215.55
605.18	1211.80
605.53	1207.86
605.87	1203.58
606.22	1199.60
606.57	1195.10
606.92	1190.81
607.27	1186.19
607.62	1181.85
607.96	1177.90
608.31	1174.27
608.66	1169.71
609.01	1165.25
609.36	1160.84
609.70	1156.15
610.05	1151.20
610.40	1146.24
610.75	1141.38
611.10	1137.10
611.44	1131.69
611.79	1126.48
612.14	1120.95
612.49	1115.27
612.83	1110.12
613.18	1104.74
613.53	1099.11
613.88	1093.47
614.22	1088.30
614.57	1082.93
614.92	1077.68
615.27	1072.38
615.61	1066.80
615.96	1061.65
616.31	1056.86
616.65	1052.21
617.00	1047.38
617.35	1042.57
617.70	1037.50
618.04	1031.75
618.39	1026.07
618.74	1021.26
619.08	1015.94
619.43	1010.84
619.78	1006.05
620.12	1001.25
620.47	996.50
620.82	991.18
621.16	986.04
621.51	981.03
621.85	976.23
622.20	971.28
622.55	966.01
622.89	960.92
623.24	955.78
623.59	950.33
623.93	945.30
624.28	940.25
624.62	935.50
624.97	930.67
625.32	926.36
625.66	921.68
626.01	916.80
626.35	912.32
626.70	907.73
627.04	903.39
627.39	898.69
627.73	894.18
628.08	889.96
628.43	885.31
628.77	880.38
629.12	875.57
629.46	871.35
629.81	867.04
630.15	862.80
630.50	858.35
630.84	853.82
631.19	849.25
631.53	844.88
631.88	839.93
632.22	835.16
632.57	830.78
632.91	826.21
633.26	822.03
633.60	817.58
633.95	813.39
634.29	808.80
634.64	804.46
634.98	799.94
635.32	795.77
635.67	791.88
636.01	788.02
636.36	783.84
636.70	779.56
637.05	775.42
637.39	771.45
637.73	767.60
638.08	764.21
638.42	760.42
638.77	756.45
639.11	752.68
639.45	748.87
639.80	744.52
640.14	740.53
640.49	736.38
640.83	732.49
641.17	728.57
641.52	724.52
641.86	720.34
642.20	716.51
642.55	712.15
642.89	708.18
643.23	703.93
643.58	700.24
643.92	696.03
644.26	692.07
644.61	688.03
644.95	683.83
645.29	679.69
645.64	675.52
645.98	671.62
646.32	667.91
646.66	663.90
647.01	660.21
647.35	656.57
647.69	652.54
648.04	648.67
648.38	644.64
648.72	640.77
649.06	637.19
649.41	633.27
649.75	629.66
650.09	625.94
650.43	622.18
650.78	618.25
651.12	614.40
651.46	610.61
651.80	606.95
652.14	603.36
652.49	599.51
652.83	595.75
653.17	591.92
653.51	588.07
653.85	584.51
654.20	580.93
654.54	577.12
654.88	573.74
655.22	570.29
655.56	566.61
655.90	563.06
656.25	559.42
656.59	555.90
656.93	552.48
657.27	549.23
657.61	545.78
657.95	542.48
658.29	539.34
658.64	536.30
658.98	532.95
659.32	529.64
659.66	526.46
660.00	523.35
660.34	520.15
660.68	517.00
661.02	513.84
661.36	510.91
661.70	507.90
662.05	504.93
662.39	502.06
662.73	499.29
663.07	496.59
663.41	493.85
663.75	490.98
664.09	488.01
664.43	484.80
664.77	482.07
665.11	479.24
665.45	476.55
665.79	473.68
666.13	471.02
666.47	468.34
666.81	465.68
667.15	462.94
667.49	460.55
667.83	458.07
668.17	455.57
668.51	452.92
668.85	450.56
669.19	448.30
669.53	445.71
669.87	443.31
670.21	440.81
670.55	438.40
670.89	436.51
671.23	434.52
671.57	432.37
671.91	430.24
672.25	427.97
672.58	425.84
672.92	423.60
673.26	421.52
673.60	419.51
673.94	417.44
674.28	415.45
674.62	413.47
674.96	411.44
675.30	409.57
675.64	407.65
675.97	405.70
676.31	403.65
676.65	401.83
676.99	400.10
677.33	398.19
677.67	396.22
678.01	394.05
678.34	392.07
678.68	390.37
679.02	388.49
679.36	386.84
679.70	385.01
680.04	383.31
680.37	381.43
680.71	379.56
681.05	377.99
681.39	376.38
681.73	374.54
682.06	372.91
682.40	371.20
682.74	369.53
683.08	367.95
683.42	366.19
683.75	364.56
684.09	362.69
684.43	361.05
684.77	359.45
685.10	357.90
685.44	356.35
685.78	354.62
686.12	353.01
686.45	351.45
686.79	349.81
687.13	348.36
687.46	346.97
687.80	345.63
688.14	344.00
688.48	342.55
688.81	341.06
689.15	339.62
689.49	338.06
689.82	336.68
690.16	335.02
690.50	333.63
690.83	332.20
691.17	330.78
691.51	329.37
691.84	328.00
692.18	326.64
692.52	325.30
692.85	324.19
693.19	323.05
693.52	321.83
693.86	320.59
694.20	319.33
694.53	318.03
694.87	316.68
695.21	315.46
695.54	314.13
695.88	312.83
696.21	311.56
696.55	310.53
696.88	309.32
697.22	308.29
697.56	307.26
697.89	305.98
698.23	304.95
698.56	303.88
698.90	302.90
699.23	301.85
699.57	300.73
699.90	299.56
700.24	298.47
700.58	297.36
700.91	296.30
701.25	295.49
701.58	294.54
701.92	293.56
702.25	292.56
702.59	291.65
702.92	290.77
703.26	289.77
703.59	288.80
703.93	288.19
704.26	287.34
704.60	286.45
704.93	285.69
705.26	284.68
705.60	283.93
705.93	283.00
706.27	282.23
706.60	281.50
706.94	280.83
707.27	279.95
707.61	279.16
707.94	278.36
708.27	277.35
708.61	276.45
708.94	275.70
709.28	274.97
709.61	274.20
709.94	273.55
710.28	272.89
710.61	272.21
710.95	271.23
711.28	270.75
711.61	269.99
711.95	269.44
712.28	268.85
712.61	268.14
712.95	267.69
713.28	267.15
713.61	266.44
713.95	265.75
714.28	265.14
714.61	264.48
714.95	263.88
715.28	263.29
715.61	262.83
715.95	262.27
716.28	261.62
716.61	261.09
716.95	260.45
717.28	259.82
717.61	259.26
717.94	258.75
718.28	257.89
718.61	257.40
718.94	256.71
719.27	256.13
719.61	255.71
719.94	255.12
720.27	254.41
720.60	253.99
720.94	253.44
721.27	252.99
721.60	252.56
721.93	252.07
722.27	251.67
722.60	251.23
722.93	250.80
723.26	250.47
723.59	249.99
723.93	249.62
724.26	249.31
724.59	248.90
724.92	248.47
725.25	248.29
725.59	247.82
725.92	247.55
726.25	247.21
726.58	246.73
726.91	246.32
727.24	246.05
727.57	245.66
727.91	245.24
728.24	244.97
728.57	244.60
728.90	244.40
729.23	244.02
729.56	243.85
729.89	243.49
730.22	243.13
730.55	242.83
730.89	242.51
731.22	242.18
731.55	241.90
731.88	241.57
732.21	241.14
732.54	240.87
732.87	240.50
733.20	240.23
733.53	239.95
733.86	239.68
734.19	239.26
734.52	239.00
734.85	238.99
735.18	238.64
735.51	238.47
735.84	238.20
736.17	238.02
736.50	237.53
736.83	237.67
737.16	237.36
737.49	237.09
737.82	236.82
738.15	236.51
738.48	236.26
738.81	236.05
739.14	235.76
739.47	235.43
739.80	235.19
740.13	234.94
740.46	234.60
740.79	234.25
741.12	234.10
741.45	233.81
741.78	233.40
742.11	233.25
742.44	232.94
742.77	232.74
743.10	232.40
743.43	232.16
743.75	231.62
744.08	231.90
744.41	231.60
744.74	231.35
745.07	231.10
745.40	230.87
745.73	230.80
746.06	230.61
746.39	230.42
746.71	230.18
747.04	229.96
747.37	229.80
747.70	229.72
748.03	229.49
748.36	229.34
748.68	229.11
749.01	228.80
749.34	228.63
749.67	228.42
750.00	228.31
750.33	228.41
750.65	228.20
750.98	227.57
751.31	227.43
751.64	227.27
751.97	227.33
752.29	227.08
752.62	226.67
752.95	226.40
753.28	226.28
753.60	226.10
753.93	226.04
754.26	225.96
754.59	225.66
754.91	225.49
755.24	225.34
755.57	225.19
755.90	224.99
756.22	224.79
756.55	224.61
756.88	224.35
757.20	223.95
757.53	223.62
757.86	223.44
758.19	223.35
758.51	223.18
758.84	222.84
759.17	222.66
759.49	222.61
759.82	222.72
760.15	222.57
760.47	222.41
760.80	222.16
761.13	221.99
761.45	221.90
761.78	221.74
762.11	221.55
762.43	221.38
762.76	221.28
763.08	221.18
763.41	221.10
763.74	220.95
764.06	220.83
764.39	220.79
764.71	220.68
765.04	220.48
765.37	220.38
765.69	220.24
766.02	220.20
766.34	220.03
766.67	219.78
767.00	219.73
767.32	219.81
767.65	219.91
767.97	219.82
768.30	219.77
768.62	219.69
768.95	219.51
769.27	219.41
769.60	219.34
769.92	219.18
770.25	218.99
770.57	218.90
770.90	218.79
771.22	218.68
771.55	218.67
771.87	218.65
772.20	218.59
772.52	218.86
772.85	219.18
773.17	219.15
773.50	219.00
773.82	218.97
774.15	218.76
774.47	218.47
774.80	218.37
775.12	218.30
775.45	218.24
775.77	218.29
776.09	218.28
776.42	218.30
776.74	218.31
777.07	218.21
777.39	218.13
777.72	218.03
778.04	218.07
778.36	217.92
778.69	217.86
779.01	217.80
779.33	217.45
779.66	216.94
779.98	216.80
780.31	216.78
780.63	216.77
780.95	216.77
781.28	216.73
781.60	216.68
781.92	216.64
782.25	216.53
782.57	216.45
782.89	216.34
783.22	216.20
783.54	216.10
783.86	216.18
784.19	216.18
784.51	216.17
784.83	216.00
785.16	215.97
785.48	215.95
785.80	215.91
786.12	215.88
786.45	215.93
786.77	215.91
787.09	215.92
787.42	215.74
787.74	215.70
788.06	215.67
788.38	215.58
