SpectraSuite Data File
++++++++++++++++++++++++++++++++++++
Date: Mon Feb 25 17:04:04 EST 2013
User: group
Dark Spectrum Present: No
Reference Spectrum Present: No
Number of Sampled Component Spectra: 1
Spectrometers: USB2E7196
Integration Time (usec): 104000 (USB2E7196)
Spectra Averaged: 20 (USB2E7196)
Boxcar Smoothing: 10 (USB2E7196)
Correct for Electrical Dark: No (USB2E7196)
Strobe/Lamp Enabled: No (USB2E7196)
Correct for Detector Non-linearity: No (USB2E7196)
Correct for Stray Light: No (USB2E7196)
Number of Pixels in Processed Spectrum: 2048
>>>>>Begin Processed Spectral Data<<<<<
339.09	0.00
339.48	197.95
339.86	198.50
340.24	202.35
340.63	203.05
341.01	209.40
341.39	204.90
341.78	207.20
342.16	209.05
342.54	207.70
342.93	197.86
343.31	207.79
343.69	208.30
344.07	208.78
344.46	209.15
344.84	209.46
345.22	209.46
345.60	209.65
345.99	209.76
346.37	209.80
346.75	209.94
347.13	209.98
347.52	210.02
347.90	210.12
348.28	210.12
348.66	210.19
349.05	209.98
349.43	210.00
349.81	210.05
350.19	210.14
350.57	210.29
350.96	210.28
351.34	210.38
351.72	210.48
352.10	210.55
352.48	210.58
352.87	210.65
353.25	210.75
353.63	210.79
354.01	210.90
354.39	211.05
354.77	211.10
355.15	211.26
355.54	211.36
355.92	211.31
356.30	211.34
356.68	211.66
357.06	211.81
357.44	211.80
357.82	211.78
358.20	211.82
358.58	211.84
358.97	212.05
359.35	212.23
359.73	212.41
360.11	212.52
360.49	212.61
360.87	212.66
361.25	212.78
361.63	213.03
362.01	213.15
362.39	213.15
362.77	213.20
363.15	213.20
363.53	213.16
363.91	213.23
364.29	213.33
364.67	213.01
365.05	213.12
365.43	213.25
365.81	213.36
366.19	213.51
366.57	213.69
366.95	213.65
367.33	213.53
367.71	213.50
368.09	213.57
368.47	213.60
368.85	213.64
369.23	213.63
369.61	213.45
369.99	213.56
370.37	213.55
370.75	213.74
371.13	213.67
371.51	213.63
371.89	213.67
372.27	213.55
372.65	213.59
373.03	213.48
373.41	213.46
373.78	213.46
374.16	213.22
374.54	213.02
374.92	212.92
375.30	212.96
375.68	212.78
376.06	212.71
376.44	212.62
376.82	212.55
377.19	212.51
377.57	212.50
377.95	212.28
378.33	212.22
378.71	211.92
379.09	211.89
379.47	211.87
379.84	211.78
380.22	211.73
380.60	211.53
380.98	211.52
381.36	211.40
381.73	211.24
382.11	211.30
382.49	211.32
382.87	211.30
383.25	211.17
383.62	211.55
384.00	211.44
384.38	211.34
384.76	211.42
385.13	211.48
385.51	211.40
385.89	211.30
386.27	211.24
386.64	211.25
387.02	211.19
387.40	211.10
387.78	211.09
388.15	211.09
388.53	211.13
388.91	211.06
389.29	211.02
389.66	211.02
390.04	210.93
390.42	210.94
390.79	210.89
391.17	210.80
391.55	210.41
391.92	210.38
392.30	210.45
392.68	210.30
393.05	210.32
393.43	210.34
393.81	210.38
394.18	210.34
394.56	210.34
394.94	210.47
395.31	210.52
395.69	210.60
396.06	210.66
396.44	210.63
396.82	210.60
397.19	210.78
397.57	210.76
397.95	210.81
398.32	210.60
398.70	210.68
399.07	210.82
399.45	210.87
399.82	210.90
400.20	210.84
400.58	210.77
400.95	210.67
401.33	210.76
401.70	211.05
402.08	211.09
402.45	211.10
402.83	211.14
403.20	211.20
403.58	211.24
403.95	211.34
404.33	211.52
404.71	211.61
405.08	211.84
405.46	211.95
405.83	212.13
406.21	212.29
406.58	212.41
406.96	212.57
407.33	212.68
407.70	212.99
408.08	213.55
408.45	213.89
408.83	214.14
409.20	214.30
409.58	214.33
409.95	214.68
410.33	214.97
410.70	215.22
411.08	215.62
411.45	216.02
411.82	216.34
412.20	216.85
412.57	217.53
412.95	217.78
413.32	218.38
413.69	218.85
414.07	219.51
414.44	220.16
414.82	220.78
415.19	221.58
415.56	222.29
415.94	222.86
416.31	223.77
416.68	224.62
417.06	225.73
417.43	226.75
417.81	227.94
418.18	229.15
418.55	230.38
418.93	231.64
419.30	232.99
419.67	234.50
420.04	235.93
420.42	237.39
420.79	239.32
421.16	241.15
421.54	243.24
421.91	245.24
422.28	247.36
422.66	249.57
423.03	251.89
423.40	254.14
423.77	256.52
424.15	258.93
424.52	261.53
424.89	264.27
425.26	266.97
425.64	269.54
426.01	272.36
426.38	275.31
426.75	278.48
427.13	281.58
427.50	284.85
427.87	288.22
428.24	291.65
428.61	294.84
428.99	298.55
429.36	302.36
429.73	306.30
430.10	310.09
430.47	314.13
430.85	318.13
431.22	322.45
431.59	327.18
431.96	331.63
432.33	336.62
432.70	341.44
433.08	347.06
433.45	352.29
433.82	357.60
434.19	363.60
434.56	369.43
434.93	375.02
435.30	380.56
435.68	386.85
436.05	393.04
436.42	399.20
436.79	404.80
437.16	410.90
437.53	417.28
437.90	423.71
438.27	429.93
438.64	436.51
439.01	442.61
439.38	448.11
439.75	453.45
440.13	459.40
440.50	465.04
440.87	469.77
441.24	474.78
441.61	480.23
441.98	484.14
442.35	488.80
442.72	493.71
443.09	498.38
443.46	501.26
443.83	503.38
444.20	505.17
444.57	507.77
444.94	509.16
445.31	510.62
445.68	512.32
446.05	513.19
446.42	512.90
446.79	512.65
447.16	512.07
447.53	511.96
447.90	510.08
448.27	508.18
448.64	505.37
449.01	503.33
449.37	499.53
449.74	496.00
450.11	491.64
450.48	486.52
450.85	481.38
451.22	477.10
451.59	473.00
451.96	469.10
452.33	463.58
452.70	458.66
453.07	452.84
453.43	446.60
453.80	440.83
454.17	435.31
454.54	430.08
454.91	424.53
455.28	418.89
455.65	413.60
456.02	408.88
456.38	404.40
456.75	398.90
457.12	394.37
457.49	389.81
457.86	385.25
458.23	381.55
458.59	377.48
458.96	373.26
459.33	369.55
459.70	365.86
460.07	363.01
460.43	359.61
460.80	356.40
461.17	353.65
461.54	350.77
461.91	348.03
462.27	345.14
462.64	342.65
463.01	339.98
463.38	337.56
463.74	334.47
464.11	332.13
464.48	330.15
464.85	327.85
465.21	326.10
465.58	324.37
465.95	322.12
466.32	320.33
466.68	318.56
467.05	316.70
467.42	314.90
467.78	312.94
468.15	311.16
468.52	309.77
468.88	307.92
469.25	306.30
469.62	305.05
469.98	303.70
470.35	302.43
470.72	301.25
471.08	299.93
471.45	298.92
471.82	297.86
472.18	296.57
472.55	295.68
472.92	294.63
473.28	293.55
473.65	292.71
474.02	291.77
474.38	291.06
474.75	290.37
475.11	289.59
475.48	288.96
475.85	288.50
476.21	287.96
476.58	287.49
476.94	287.15
477.31	286.64
477.67	286.21
478.04	285.84
478.41	285.64
478.77	285.65
479.14	285.29
479.50	285.09
479.87	285.01
480.23	284.88
480.60	284.71
480.96	284.68
481.33	284.75
481.69	284.75
482.06	284.65
482.42	284.70
482.79	284.77
483.15	284.92
483.52	285.10
483.88	285.22
484.25	285.41
484.61	285.57
484.98	285.78
485.34	286.13
485.71	286.58
486.07	286.77
486.44	286.80
486.80	287.24
487.17	287.68
487.53	288.25
487.90	288.91
488.26	289.65
488.62	290.25
488.99	290.96
489.35	291.65
489.72	292.43
490.08	293.17
490.44	293.92
490.81	294.86
491.17	295.69
491.54	296.63
491.90	297.48
492.26	298.44
492.63	299.46
492.99	300.44
493.36	301.45
493.72	302.69
494.08	303.95
494.45	305.20
494.81	306.45
495.17	307.65
495.54	308.89
495.90	310.10
496.26	311.48
496.63	312.69
496.99	313.94
497.35	315.28
497.72	316.69
498.08	318.19
498.44	319.53
498.80	320.99
499.17	322.38
499.53	323.88
499.89	325.39
500.26	326.69
500.62	328.10
500.98	329.58
501.34	330.85
501.71	332.23
502.07	333.48
502.43	334.81
502.79	336.07
503.16	337.25
503.52	338.52
503.88	339.59
504.24	340.79
504.60	342.04
504.97	343.24
505.33	344.25
505.69	345.47
506.05	346.58
506.41	347.60
506.78	348.55
507.14	349.43
507.50	350.35
507.86	351.43
508.22	352.33
508.59	353.00
508.95	353.85
509.31	354.73
509.67	355.52
510.03	356.23
510.39	357.03
510.75	357.76
511.12	358.36
511.48	359.03
511.84	359.55
512.20	360.15
512.56	360.64
512.92	361.20
513.28	361.51
513.64	361.82
514.00	362.24
514.37	362.69
514.73	363.14
515.09	363.56
515.45	363.74
515.81	364.00
516.17	364.23
516.53	364.47
516.89	364.53
517.25	364.75
517.61	364.85
517.97	364.96
518.33	365.06
518.69	365.21
519.05	365.34
519.41	365.51
519.77	365.88
520.13	365.98
520.49	366.11
520.85	366.23
521.21	366.55
521.57	366.70
521.93	366.80
522.29	366.92
522.65	367.00
523.01	367.35
523.37	367.58
523.73	368.13
524.09	368.55
524.45	368.98
524.81	369.35
525.17	370.00
525.53	370.58
525.89	371.19
526.25	371.86
526.61	372.55
526.97	373.27
527.33	373.87
527.68	375.10
528.04	375.96
528.40	376.84
528.76	377.73
529.12	378.78
529.48	379.95
529.84	381.19
530.20	382.38
530.56	383.70
530.91	385.07
531.27	386.35
531.63	387.79
531.99	389.14
532.35	390.52
532.71	391.95
533.07	393.57
533.42	395.59
533.78	397.20
534.14	398.94
534.50	400.64
534.86	402.52
535.21	403.86
535.57	405.74
535.93	407.62
536.29	409.77
536.65	411.70
537.00	413.57
537.36	415.43
537.72	417.44
538.08	419.37
538.44	421.33
538.79	423.47
539.15	425.70
539.51	428.08
539.87	430.55
540.22	432.90
540.58	435.20
540.94	437.27
541.29	439.69
541.65	442.01
542.01	444.45
542.37	446.89
542.72	449.47
543.08	451.96
543.44	454.77
543.79	456.98
544.15	459.68
544.51	462.61
544.87	465.44
545.22	468.24
545.58	471.05
545.94	473.91
546.29	476.48
546.65	479.06
547.01	481.66
547.36	484.40
547.72	487.11
548.07	489.90
548.43	492.60
548.79	495.21
549.14	497.73
549.50	500.57
549.86	503.18
550.21	505.91
550.57	508.63
550.92	511.16
551.28	514.06
551.64	516.63
551.99	519.22
552.35	521.77
552.70	524.17
553.06	526.61
553.41	528.97
553.77	531.77
554.13	534.45
554.48	537.04
554.84	539.71
555.19	542.08
555.55	544.67
555.90	546.99
556.26	549.42
556.61	551.86
556.97	554.10
557.32	556.50
557.68	558.66
558.03	560.96
558.39	563.03
558.74	565.12
559.10	567.32
559.45	569.45
559.81	571.65
560.16	573.71
560.52	576.00
560.87	578.24
561.23	580.20
561.58	582.45
561.94	584.41
562.29	586.12
562.64	588.19
563.00	589.92
563.35	591.97
563.71	594.08
564.06	596.15
564.42	598.15
564.77	600.12
565.12	602.33
565.48	604.61
565.83	606.61
566.19	608.63
566.54	610.25
566.89	611.98
567.25	613.82
567.60	615.98
567.96	617.94
568.31	619.77
568.66	621.23
569.02	622.37
569.37	623.62
569.72	625.00
570.08	626.25
570.43	627.40
570.78	628.54
571.14	629.46
571.49	630.35
571.84	631.30
572.20	631.97
572.55	632.68
572.90	633.03
573.26	633.66
573.61	634.00
573.96	634.65
574.31	635.01
574.67	635.32
575.02	635.27
575.37	635.15
575.72	635.09
576.08	635.61
576.43	635.56
576.78	636.02
577.13	636.28
577.49	636.48
577.84	636.73
578.19	636.90
578.54	637.26
578.90	637.72
579.25	637.88
579.60	637.98
579.95	637.93
580.30	638.02
580.66	638.06
581.01	638.15
581.36	638.11
581.71	638.09
582.06	638.25
582.42	638.24
582.77	637.94
583.12	637.96
583.47	637.67
583.82	637.80
584.17	637.58
584.53	637.60
584.88	637.53
585.23	637.45
585.58	637.11
585.93	636.75
586.28	636.43
586.63	636.11
586.98	636.00
587.34	635.92
587.69	635.56
588.04	635.51
588.39	635.22
588.74	634.74
589.09	634.51
589.44	633.74
589.79	633.52
590.14	633.33
590.49	632.80
590.84	632.31
591.19	632.00
591.54	631.44
591.89	630.50
592.25	630.04
592.60	629.24
592.95	628.53
593.30	627.67
593.65	626.81
594.00	625.87
594.35	625.74
594.70	624.65
595.05	623.89
595.40	622.81
595.75	621.79
596.10	621.17
596.45	620.29
596.80	619.87
597.15	619.13
597.50	618.22
597.85	617.62
598.19	616.71
598.54	615.81
598.89	615.25
599.24	614.76
599.59	613.76
599.94	612.96
600.29	612.24
600.64	611.54
600.99	610.74
601.34	610.13
601.69	608.49
602.04	607.68
602.39	606.79
602.74	606.11
603.08	605.54
603.43	604.91
603.78	604.03
604.13	603.07
604.48	602.14
604.83	601.59
605.18	600.67
605.53	599.84
605.87	598.95
606.22	597.91
606.57	596.79
606.92	595.78
607.27	594.91
607.62	593.85
607.96	592.95
608.31	592.02
608.66	591.01
609.01	589.94
609.36	588.90
609.70	587.60
610.05	586.25
610.40	585.11
610.75	583.70
611.10	582.64
611.44	581.26
611.79	579.98
612.14	578.44
612.49	576.85
612.83	575.56
613.18	574.05
613.53	572.56
613.88	571.06
614.22	569.63
614.57	567.99
614.92	566.50
615.27	564.82
615.61	563.17
615.96	561.65
616.31	560.22
616.65	558.91
617.00	557.40
617.35	555.95
617.70	554.18
618.04	552.51
618.39	550.66
618.74	548.97
619.08	547.23
619.43	545.71
619.78	544.26
620.12	542.60
620.47	541.05
620.82	539.36
621.16	537.73
621.51	536.11
621.85	534.69
622.20	533.28
622.55	531.79
622.89	530.08
623.24	528.37
623.59	526.71
623.93	524.92
624.28	523.51
624.62	522.13
624.97	520.69
625.32	519.06
625.66	517.75
626.01	516.22
626.35	514.75
626.70	513.15
627.04	511.74
627.39	510.23
627.73	508.73
628.08	507.17
628.43	505.51
628.77	503.97
629.12	502.17
629.46	500.58
629.81	498.88
630.15	497.47
630.50	495.79
630.84	494.00
631.19	492.49
631.53	490.89
631.88	489.04
632.22	487.32
632.57	486.07
632.91	484.40
633.26	482.86
633.60	481.22
633.95	479.71
634.29	478.05
634.64	476.49
634.98	474.77
635.32	473.36
635.67	472.10
636.01	470.46
636.36	468.94
636.70	467.45
637.05	466.06
637.39	464.43
637.73	463.15
638.08	461.98
638.42	460.52
638.77	459.16
639.11	457.76
639.45	456.23
639.80	454.42
640.14	452.69
640.49	451.15
640.83	449.68
641.17	448.20
641.52	446.55
641.86	444.84
642.20	443.48
642.55	441.67
642.89	440.02
643.23	438.46
643.58	437.22
643.92	435.47
644.26	433.90
644.61	432.41
644.95	430.77
645.29	429.19
645.64	427.65
645.98	425.92
646.32	424.32
646.66	422.74
647.01	421.29
647.35	420.00
647.69	418.33
648.04	416.86
648.38	415.27
648.72	413.96
649.06	412.53
649.41	410.99
649.75	409.55
650.09	408.10
650.43	406.58
650.78	404.88
651.12	403.40
651.46	401.87
651.80	400.45
652.14	398.95
652.49	397.49
652.83	395.86
653.17	394.29
653.51	392.76
653.85	391.48
654.20	389.99
654.54	388.39
654.88	386.90
655.22	385.38
655.56	383.84
655.90	382.19
656.25	380.63
656.59	379.13
656.93	377.78
657.27	376.34
657.61	374.99
657.95	373.58
658.29	372.29
658.64	371.03
658.98	369.55
659.32	368.10
659.66	366.55
660.00	365.20
660.34	363.93
660.68	362.48
661.02	360.95
661.36	359.55
661.70	358.19
662.05	357.06
662.39	355.85
662.73	354.67
663.07	353.62
663.41	352.47
663.75	351.16
664.09	349.84
664.43	348.56
664.77	347.24
665.11	345.97
665.45	344.67
665.79	343.43
666.13	342.16
666.47	340.93
666.81	339.84
667.15	338.61
667.49	337.52
667.83	336.57
668.17	335.49
668.51	334.51
668.85	333.50
669.19	332.47
669.53	331.20
669.87	330.05
670.21	328.82
670.55	327.67
670.89	326.78
671.23	325.80
671.57	324.76
671.91	323.74
672.25	322.78
672.58	321.89
672.92	320.75
673.26	320.00
673.60	319.10
673.94	318.18
674.28	317.31
674.62	316.43
674.96	315.43
675.30	314.51
675.64	313.50
675.97	312.60
676.31	311.71
676.65	310.95
676.99	310.19
677.33	309.31
677.67	308.53
678.01	307.55
678.34	306.71
678.68	305.96
679.02	305.12
679.36	304.22
679.70	303.39
680.04	302.53
680.37	301.50
680.71	300.70
681.05	299.91
681.39	299.07
681.73	298.15
682.06	297.38
682.40	296.64
682.74	295.92
683.08	295.20
683.42	294.28
683.75	293.56
684.09	292.64
684.43	291.89
684.77	291.09
685.10	290.35
685.44	289.56
685.78	288.76
686.12	288.13
686.45	287.41
686.79	286.59
687.13	286.00
687.46	285.48
687.80	284.82
688.14	284.03
688.48	283.39
688.81	282.76
689.15	282.18
689.49	281.37
689.82	280.64
690.16	279.88
690.50	279.22
690.83	278.48
691.17	277.77
691.51	277.04
691.84	276.43
692.18	275.79
692.52	275.23
692.85	274.63
693.19	274.07
693.52	273.45
693.86	272.71
694.20	272.18
694.53	271.47
694.87	270.81
695.21	270.18
695.54	269.54
695.88	268.78
696.21	268.05
696.55	267.58
696.88	267.00
697.22	266.37
697.56	265.91
697.89	265.30
698.23	264.81
698.56	264.22
698.90	263.68
699.23	263.10
699.57	262.50
699.90	261.88
700.24	261.24
700.58	260.73
700.91	260.42
701.25	260.13
701.58	259.68
701.92	259.22
702.25	258.68
702.59	258.16
702.92	257.74
703.26	257.32
703.59	256.78
703.93	256.61
704.26	256.13
704.60	255.60
704.93	255.15
705.26	254.63
705.60	254.26
705.93	253.73
706.27	253.43
706.60	253.10
706.94	252.82
707.27	252.34
707.61	251.91
707.94	251.33
708.27	250.62
708.61	250.11
708.94	249.75
709.28	249.40
709.61	249.04
709.94	248.73
710.28	248.31
710.61	247.96
710.95	247.20
711.28	247.12
711.61	246.74
711.95	246.38
712.28	246.00
712.61	245.59
712.95	245.39
713.28	245.11
713.61	244.67
713.95	244.15
714.28	243.84
714.61	243.52
714.95	243.17
715.28	242.74
715.61	242.48
715.95	242.03
716.28	241.62
716.61	241.37
716.95	240.98
717.28	240.72
717.61	240.41
717.94	240.19
718.28	239.56
718.61	239.26
718.94	239.03
719.27	238.77
719.61	238.60
719.94	238.29
720.27	237.79
720.60	237.50
720.94	237.31
721.27	237.07
721.60	236.76
721.93	236.53
722.27	236.37
722.60	236.11
722.93	235.89
723.26	235.76
723.59	235.41
723.93	235.18
724.26	234.88
724.59	234.70
724.92	234.49
725.25	234.36
725.59	234.17
725.92	233.92
726.25	233.70
726.58	233.45
726.91	233.21
727.24	233.09
727.57	232.75
727.91	232.53
728.24	232.39
728.57	232.19
728.90	232.04
729.23	231.76
729.56	231.80
729.89	231.56
730.22	231.31
730.55	231.09
730.89	230.86
731.22	230.59
731.55	230.32
731.88	230.14
732.21	229.94
732.54	229.70
732.87	229.53
733.20	229.40
733.53	229.18
733.86	229.05
734.19	228.80
734.52	228.78
734.85	228.87
735.18	228.58
735.51	228.55
735.84	228.37
736.17	228.26
736.50	227.82
736.83	228.09
737.16	227.91
737.49	227.81
737.82	227.65
738.15	227.64
738.48	227.50
738.81	227.23
739.14	226.99
739.47	226.82
739.80	226.62
740.13	226.45
740.46	226.21
740.79	225.92
741.12	225.78
741.45	225.60
741.78	225.19
742.11	225.20
742.44	224.98
742.77	224.82
743.10	224.71
743.43	224.55
743.75	224.08
744.08	224.40
744.41	224.25
744.74	224.09
745.07	223.85
745.40	223.72
745.73	223.80
746.06	223.72
746.39	223.65
746.71	223.40
747.04	223.21
747.37	223.11
747.70	223.13
748.03	223.02
748.36	222.93
748.68	222.82
749.01	222.59
749.34	222.38
749.67	222.26
750.00	222.20
750.33	222.38
750.65	222.25
750.98	221.72
751.31	221.55
751.64	221.47
751.97	221.60
752.29	221.51
752.62	221.21
752.95	221.15
753.28	221.00
753.60	220.93
753.93	220.95
754.26	220.82
754.59	220.59
754.91	220.40
755.24	220.31
755.57	220.21
755.90	220.10
756.22	220.02
756.55	219.90
756.88	219.71
757.20	219.36
757.53	219.20
757.86	219.06
758.19	219.00
758.51	218.93
758.84	218.66
759.17	218.62
759.49	218.63
759.82	218.66
760.15	218.53
760.47	218.55
760.80	218.32
761.13	218.39
761.45	218.34
761.78	218.30
762.11	218.20
762.43	218.11
762.76	217.97
763.08	217.94
763.41	217.94
763.74	217.87
764.06	217.76
764.39	217.69
764.71	217.61
765.04	217.51
765.37	217.35
765.69	217.31
766.02	217.22
766.34	217.11
766.67	216.90
767.00	217.03
767.32	217.15
767.65	217.30
767.97	217.16
768.30	217.21
768.62	217.16
768.95	217.16
769.27	217.10
769.60	217.20
769.92	217.10
770.25	216.94
770.57	216.83
770.90	216.77
771.22	216.66
771.55	216.63
771.87	216.70
772.20	216.75
772.52	216.88
772.85	217.27
773.17	217.21
773.50	217.19
773.82	217.03
774.15	216.79
774.47	216.50
774.80	216.46
775.12	216.32
775.45	216.21
775.77	216.06
776.09	216.02
776.42	215.90
776.74	215.88
777.07	215.86
777.39	215.79
777.72	215.78
778.04	215.78
778.36	215.75
778.69	215.64
779.01	215.55
779.33	215.30
779.66	214.78
779.98	214.70
780.31	214.65
780.63	214.74
780.95	214.75
781.28	214.73
781.60	214.64
781.92	214.55
782.25	214.61
782.57	214.55
782.89	214.50
783.22	214.43
783.54	214.35
783.86	214.41
784.19	214.35
784.51	214.41
784.83	214.38
785.16	214.30
785.48	214.29
785.80	214.23
786.12	214.25
786.45	214.22
786.77	214.29
787.09	214.20
787.42	214.05
787.74	214.04
788.06	214.01
788.38	214.01
788.71	213.97
789.03	213.95
789.35	213.99
789.67	213.94
789.99	213.97
790.32	213.96
790.64	213.88
790.96	214.18
791.28	214.03
791.61	214.03
791.93	213.99
792.25	213.97
792.57	214.20
792.89	214.10
793.21	214.13
793.54	214.07
793.86	214.05
794.18	214.01
