SpectraSuite Data File
++++++++++++++++++++++++++++++++++++
Date: Mon Feb 25 17:20:35 EST 2013
User: group
Dark Spectrum Present: No
Reference Spectrum Present: No
Number of Sampled Component Spectra: 1
Spectrometers: USB2E7196
Integration Time (usec): 104000 (USB2E7196)
Spectra Averaged: 20 (USB2E7196)
Boxcar Smoothing: 10 (USB2E7196)
Correct for Electrical Dark: No (USB2E7196)
Strobe/Lamp Enabled: No (USB2E7196)
Correct for Detector Non-linearity: No (USB2E7196)
Correct for Stray Light: No (USB2E7196)
Number of Pixels in Processed Spectrum: 2048
>>>>>Begin Processed Spectral Data<<<<<
339.09	0.00
339.48	199.55
339.86	199.85
340.24	201.30
340.63	203.40
341.01	209.70
341.39	205.55
341.78	208.45
342.16	208.80
342.54	208.95
342.93	198.41
343.31	208.36
343.69	208.83
344.07	209.30
344.46	209.84
344.84	210.27
345.22	210.40
345.60	210.77
345.99	210.95
346.37	211.10
346.75	211.25
347.13	211.30
347.52	211.40
347.90	211.58
348.28	211.74
348.66	211.86
349.05	211.78
349.43	211.95
349.81	212.07
350.19	212.20
350.57	212.35
350.96	212.44
351.34	212.61
351.72	212.85
352.10	212.96
352.48	213.00
352.87	213.12
353.25	213.16
353.63	213.10
354.01	213.18
354.39	213.34
354.77	213.39
355.15	213.64
355.54	213.68
355.92	213.61
356.30	213.67
356.68	213.94
357.06	214.05
357.44	214.06
357.82	214.13
358.20	214.20
358.58	214.34
358.97	214.42
359.35	214.61
359.73	214.73
360.11	214.86
360.49	214.92
360.87	214.87
361.25	214.96
361.63	215.21
362.01	215.26
362.39	215.21
362.77	215.25
363.15	215.20
363.53	215.27
363.91	215.36
364.29	215.39
364.67	215.09
365.05	215.14
365.43	215.19
365.81	215.26
366.19	215.48
366.57	215.54
366.95	215.57
367.33	215.55
367.71	215.51
368.09	215.57
368.47	215.51
368.85	215.55
369.23	215.66
369.61	215.55
369.99	215.60
370.37	215.68
370.75	215.91
371.13	215.88
371.51	215.83
371.89	215.85
372.27	215.83
372.65	215.82
373.03	215.77
373.41	215.72
373.78	215.61
374.16	215.32
374.54	215.20
374.92	215.18
375.30	215.10
375.68	214.98
376.06	214.96
376.44	214.97
376.82	214.92
377.19	214.77
377.57	214.68
377.95	214.55
378.33	214.48
378.71	214.19
379.09	214.22
379.47	214.24
379.84	214.14
380.22	214.04
380.60	213.96
380.98	213.93
381.36	213.84
381.73	213.80
382.11	213.82
382.49	213.80
382.87	213.66
383.25	213.62
383.62	213.94
384.00	213.80
384.38	213.80
384.76	213.87
385.13	214.01
385.51	214.03
385.89	214.01
386.27	213.92
386.64	213.94
387.02	213.82
387.40	213.73
387.78	213.74
388.15	213.77
388.53	213.77
388.91	213.75
389.29	213.77
389.66	213.86
390.04	213.88
390.42	213.90
390.79	213.88
391.17	213.85
391.55	213.44
391.92	213.44
392.30	213.45
392.68	213.34
393.05	213.26
393.43	213.25
393.81	213.22
394.18	213.23
394.56	213.24
394.94	213.35
395.31	213.35
395.69	213.43
396.06	213.50
396.44	213.50
396.82	213.48
397.19	213.64
397.57	213.57
397.95	213.63
398.32	213.59
398.70	213.70
399.07	213.82
399.45	213.89
399.82	214.00
400.20	213.98
400.58	214.04
400.95	213.94
401.33	214.08
401.70	214.39
402.08	214.45
402.45	214.58
402.83	214.74
403.20	214.80
403.58	214.90
403.95	215.04
404.33	215.27
404.71	215.43
405.08	215.68
405.46	215.87
405.83	216.00
406.21	216.22
406.58	216.48
406.96	216.65
407.33	217.01
407.70	217.25
408.08	217.87
408.45	218.27
408.83	218.77
409.20	219.04
409.58	219.25
409.95	219.72
410.33	220.21
410.70	220.57
411.08	221.22
411.45	221.73
411.82	222.25
412.20	222.90
412.57	223.80
412.95	224.28
413.32	225.11
413.69	225.97
414.07	226.78
414.44	227.69
414.82	228.73
415.19	229.88
415.56	231.03
415.94	232.03
416.31	233.37
416.68	234.71
417.06	236.25
417.43	237.75
417.81	239.49
418.18	241.17
418.55	242.98
418.93	244.89
419.30	246.94
419.67	249.17
420.04	251.30
420.42	253.50
420.79	256.29
421.16	258.92
421.54	261.79
421.91	264.67
422.28	267.65
422.66	270.75
423.03	273.78
423.40	277.02
423.77	280.39
424.15	283.72
424.52	287.28
424.89	291.28
425.26	295.15
425.64	298.65
426.01	302.61
426.38	306.77
426.75	311.05
427.13	315.47
427.50	319.99
427.87	324.88
428.24	329.68
428.61	334.20
428.99	339.27
429.36	344.57
429.73	349.90
430.10	355.17
430.47	360.67
430.85	366.33
431.22	372.23
431.59	378.66
431.96	384.76
432.33	391.39
432.70	397.79
433.08	405.31
433.45	412.66
433.82	419.75
434.19	427.73
434.56	435.39
434.93	442.68
435.30	450.03
435.68	458.04
436.05	465.95
436.42	473.95
436.79	481.24
437.16	489.12
437.53	497.38
437.90	505.77
438.27	513.88
438.64	522.29
439.01	530.14
439.38	537.02
439.75	543.72
440.13	551.47
440.50	558.78
440.87	564.61
441.24	570.57
441.61	577.32
441.98	582.25
442.35	587.99
442.72	593.83
443.09	599.46
443.46	602.71
443.83	605.01
444.20	606.97
444.57	609.73
444.94	611.07
445.31	612.41
445.68	613.61
446.05	614.03
446.42	613.00
446.79	612.02
447.16	610.80
447.53	609.98
447.90	606.77
448.27	603.37
448.64	599.08
449.01	595.77
449.37	590.27
449.74	584.85
450.11	578.66
450.48	571.70
450.85	564.56
451.22	558.65
451.59	553.00
451.96	547.44
452.33	540.04
452.70	533.34
453.07	525.30
453.43	517.15
453.80	509.50
454.17	502.12
454.54	494.97
454.91	487.50
455.28	480.12
455.65	473.22
456.02	466.81
456.38	461.02
456.75	453.95
457.12	447.87
457.49	441.97
457.86	436.06
458.23	431.10
458.59	425.70
458.96	420.18
459.33	415.27
459.70	410.43
460.07	406.66
460.43	402.28
460.80	398.33
461.17	394.77
461.54	390.91
461.91	387.39
462.27	383.74
462.64	380.65
463.01	377.24
463.38	374.11
463.74	370.53
464.11	367.59
464.48	365.12
464.85	362.44
465.21	360.43
465.58	358.30
465.95	355.66
466.32	353.59
466.68	351.44
467.05	349.27
467.42	347.10
467.78	344.83
468.15	342.73
468.52	341.24
468.88	339.28
469.25	337.52
469.62	336.20
469.98	334.74
470.35	333.40
470.72	332.26
471.08	330.74
471.45	329.61
471.82	328.50
472.18	327.22
472.55	326.39
472.92	325.27
473.28	324.41
473.65	323.58
474.02	322.86
474.38	322.41
474.75	321.98
475.11	321.46
475.48	321.19
475.85	321.00
476.21	320.71
476.58	320.58
476.94	320.71
477.31	320.66
477.67	320.73
478.04	320.95
478.41	321.20
478.77	321.82
479.14	322.10
479.50	322.63
479.87	323.31
480.23	323.98
480.60	324.66
480.96	325.35
481.33	326.63
481.69	327.53
482.06	328.46
482.42	329.63
482.79	330.90
483.15	332.33
483.52	333.90
483.88	335.46
484.25	337.05
484.61	338.80
484.98	340.68
485.34	342.87
485.71	345.14
486.07	347.51
486.44	349.76
486.80	352.42
487.17	355.10
487.53	358.19
487.90	361.48
488.26	364.96
488.62	368.56
488.99	372.03
489.35	375.81
489.72	380.01
490.08	384.24
490.44	388.80
490.81	393.51
491.17	398.34
491.54	403.67
491.90	409.25
492.26	415.11
492.63	421.12
492.99	427.38
493.36	433.90
493.72	440.83
494.08	447.92
494.45	455.65
494.81	463.84
495.17	472.07
495.54	480.66
495.90	489.72
496.26	499.01
496.63	508.79
496.99	519.10
497.35	529.76
497.72	540.86
498.08	552.26
498.44	564.15
498.80	576.89
499.17	589.93
499.53	603.53
499.89	617.40
500.26	631.87
500.62	646.53
500.98	662.09
501.34	678.19
501.71	694.94
502.07	711.93
502.43	729.26
502.79	747.10
503.16	765.70
503.52	784.78
503.88	804.51
504.24	824.58
504.60	845.27
504.97	866.47
505.33	888.06
505.69	911.32
506.05	934.69
506.41	958.12
506.78	982.14
507.14	1006.62
507.50	1031.80
507.86	1057.52
508.22	1083.93
508.59	1110.58
508.95	1137.99
509.31	1165.68
509.67	1194.02
510.03	1223.01
510.39	1252.97
510.75	1283.01
511.12	1313.61
511.48	1344.89
511.84	1376.34
512.20	1407.73
512.56	1440.24
512.92	1473.20
513.28	1505.69
513.64	1538.80
514.00	1572.15
514.37	1605.81
514.73	1639.99
515.09	1674.40
515.45	1708.71
515.81	1743.17
516.17	1777.86
516.53	1812.54
516.89	1847.66
517.25	1882.48
517.61	1917.49
517.97	1952.30
518.33	1987.05
518.69	2021.94
519.05	2056.95
519.41	2092.50
519.77	2128.83
520.13	2164.04
520.49	2198.87
520.85	2234.24
521.21	2269.57
521.57	2305.22
521.93	2339.90
522.29	2375.55
522.65	2411.09
523.01	2445.99
523.37	2480.67
523.73	2515.45
524.09	2549.64
524.45	2584.34
524.81	2619.21
525.17	2654.28
525.53	2688.51
525.89	2722.89
526.25	2756.52
526.61	2788.76
526.97	2821.76
527.33	2853.98
527.68	2886.65
528.04	2918.60
528.40	2948.93
528.76	2979.87
529.12	3011.32
529.48	3043.42
529.84	3073.91
530.20	3104.15
530.56	3134.70
530.91	3165.81
531.27	3196.09
531.63	3226.17
531.99	3255.44
532.35	3283.44
532.71	3310.93
533.07	3339.15
533.42	3365.90
533.78	3393.45
534.14	3420.17
534.50	3444.69
534.86	3470.69
535.21	3494.58
535.57	3520.36
535.93	3544.97
536.29	3568.36
536.65	3591.52
537.00	3613.15
537.36	3634.54
537.72	3655.09
538.08	3675.77
538.44	3695.72
538.79	3716.08
539.15	3735.75
539.51	3754.74
539.87	3774.92
540.22	3793.48
540.58	3812.71
540.94	3831.46
541.29	3847.92
541.65	3864.17
542.01	3881.02
542.37	3895.85
542.72	3911.85
543.08	3925.66
543.44	3941.35
543.79	3955.02
544.15	3967.37
544.51	3980.64
544.87	3993.21
545.22	4005.16
545.58	4015.76
545.94	4025.30
546.29	4033.48
546.65	4041.36
547.01	4048.56
547.36	4054.44
547.72	4060.35
548.07	4063.98
548.43	4067.98
548.79	4072.21
549.14	4077.01
549.50	4080.95
549.86	4084.16
550.21	4086.57
550.57	4088.90
550.92	4089.67
551.28	4091.51
551.64	4092.75
551.99	4093.20
552.35	4093.26
552.70	4093.48
553.06	4093.86
553.41	4094.15
553.77	4094.21
554.13	4094.28
554.48	4094.37
554.84	4094.37
555.19	4094.27
555.55	4093.90
555.90	4092.71
556.26	4091.46
556.61	4089.66
556.97	4087.49
557.32	4085.98
557.68	4083.10
558.03	4080.51
558.39	4077.74
558.74	4075.98
559.10	4074.22
559.45	4071.95
559.81	4069.90
560.16	4066.27
560.52	4063.11
560.87	4059.21
561.23	4054.16
561.58	4050.04
561.94	4044.66
562.29	4039.07
562.64	4033.92
563.00	4029.00
563.35	4024.80
563.71	4020.38
564.06	4015.40
564.42	4010.58
564.77	4005.65
565.12	4001.43
565.48	3996.39
565.83	3991.38
566.19	3985.78
566.54	3978.20
566.89	3970.81
567.25	3963.54
567.60	3957.04
567.96	3949.97
568.31	3943.22
568.66	3935.83
569.02	3927.06
569.37	3918.47
569.72	3911.10
570.08	3902.40
570.43	3893.09
570.78	3883.44
571.14	3873.17
571.49	3862.98
571.84	3853.76
572.20	3842.08
572.55	3831.24
572.90	3819.62
573.26	3807.37
573.61	3795.11
573.96	3783.57
574.31	3771.07
574.67	3758.07
575.02	3744.33
575.37	3730.64
575.72	3716.47
576.08	3704.78
576.43	3691.56
576.78	3679.54
577.13	3667.20
577.49	3654.93
577.84	3642.13
578.19	3630.14
578.54	3618.43
578.90	3607.18
579.25	3593.56
579.60	3580.27
579.95	3566.25
580.30	3553.95
580.66	3542.15
581.01	3528.30
581.36	3514.73
581.71	3501.77
582.06	3489.10
582.42	3476.38
582.77	3462.70
583.12	3449.42
583.47	3436.34
583.82	3424.19
584.17	3410.53
584.53	3397.21
584.88	3383.35
585.23	3370.21
585.58	3356.44
585.93	3342.30
586.28	3328.60
586.63	3315.31
586.98	3302.74
587.34	3290.91
587.69	3277.59
588.04	3264.48
588.39	3252.17
588.74	3238.78
589.09	3226.41
589.44	3212.85
589.79	3200.93
590.14	3189.40
590.49	3177.25
590.84	3164.46
591.19	3153.04
591.54	3140.91
591.89	3126.37
592.25	3113.17
592.60	3099.32
592.95	3085.32
593.30	3071.03
593.65	3056.79
594.00	3042.97
594.35	3031.11
594.70	3017.59
595.05	3004.79
595.40	2991.53
595.75	2977.77
596.10	2965.63
596.45	2953.36
596.80	2942.12
597.15	2930.21
597.50	2917.19
597.85	2904.73
598.19	2891.58
598.54	2878.52
598.89	2866.65
599.24	2856.25
599.59	2844.97
599.94	2835.00
600.29	2823.91
600.64	2813.21
600.99	2801.14
601.34	2790.67
601.69	2777.92
602.04	2765.72
602.39	2753.55
602.74	2741.99
603.08	2732.01
603.43	2721.67
603.78	2710.26
604.13	2698.67
604.48	2686.87
604.83	2677.31
605.18	2667.60
605.53	2656.58
605.87	2644.86
606.22	2634.03
606.57	2622.33
606.92	2610.71
607.27	2598.58
607.62	2586.84
607.96	2576.02
608.31	2565.99
608.66	2553.90
609.01	2541.96
609.36	2530.38
609.70	2518.41
610.05	2505.78
610.40	2493.02
610.75	2480.53
611.10	2468.80
611.44	2455.02
611.79	2441.56
612.14	2427.20
612.49	2412.60
612.83	2399.68
613.18	2386.10
613.53	2372.25
613.88	2357.99
614.22	2344.98
614.57	2331.51
614.92	2318.38
615.27	2304.50
615.61	2290.89
615.96	2278.28
616.31	2266.24
616.65	2254.50
617.00	2242.53
617.35	2230.52
617.70	2217.45
618.04	2203.67
618.39	2189.60
618.74	2177.45
619.08	2164.83
619.43	2152.41
619.78	2140.59
620.12	2128.58
620.47	2116.84
620.82	2103.89
621.16	2091.63
621.51	2078.89
621.85	2066.83
622.20	2053.97
622.55	2041.68
622.89	2028.85
623.24	2016.14
623.59	2003.23
623.93	1990.21
624.28	1977.98
624.62	1965.82
624.97	1953.87
625.32	1942.45
625.66	1931.75
626.01	1920.26
626.35	1909.12
626.70	1897.68
627.04	1886.32
627.39	1875.16
627.73	1863.42
628.08	1852.90
628.43	1841.26
628.77	1829.74
629.12	1817.98
629.46	1807.97
629.81	1797.19
630.15	1786.45
630.50	1775.35
630.84	1764.10
631.19	1753.14
631.53	1742.06
631.88	1730.34
632.22	1718.77
632.57	1708.09
632.91	1696.50
633.26	1685.40
633.60	1674.32
633.95	1663.91
634.29	1652.99
634.64	1642.15
634.98	1631.47
635.32	1621.07
635.67	1611.74
636.01	1602.03
636.36	1591.53
636.70	1580.92
637.05	1570.35
637.39	1560.36
637.73	1550.95
638.08	1541.95
638.42	1532.71
638.77	1523.05
639.11	1513.68
639.45	1504.21
639.80	1493.80
640.14	1483.54
640.49	1473.76
640.83	1463.87
641.17	1453.63
641.52	1443.62
641.86	1433.04
642.20	1423.33
642.55	1412.53
642.89	1401.95
643.23	1391.61
643.58	1382.49
643.92	1372.12
644.26	1362.10
644.61	1352.17
644.95	1341.68
645.29	1331.60
645.64	1321.17
645.98	1311.17
646.32	1301.82
646.66	1292.05
647.01	1282.77
647.35	1273.64
647.69	1263.57
648.04	1254.39
648.38	1244.95
648.72	1235.45
649.06	1226.26
649.41	1216.65
649.75	1207.52
650.09	1198.41
650.43	1189.16
650.78	1179.16
651.12	1169.75
651.46	1160.80
651.80	1151.86
652.14	1143.09
652.49	1133.58
652.83	1124.71
653.17	1114.89
653.51	1105.39
653.85	1096.66
654.20	1087.55
654.54	1078.60
654.88	1069.94
655.22	1060.70
655.56	1051.53
655.90	1042.61
656.25	1033.85
656.59	1025.35
656.93	1016.95
657.27	1008.61
657.61	999.68
657.95	991.65
658.29	983.68
658.64	975.65
658.98	967.32
659.32	958.73
659.66	950.88
660.00	942.45
660.34	934.75
660.68	926.61
661.02	918.32
661.36	910.58
661.70	902.77
662.05	895.39
662.39	888.33
662.73	881.19
663.07	874.32
663.41	867.18
663.75	859.92
664.09	852.61
664.43	845.31
664.77	838.69
665.11	831.45
665.45	824.60
665.79	818.01
666.13	811.14
666.47	804.53
666.81	797.87
667.15	791.44
667.49	785.41
667.83	779.52
668.17	773.59
668.51	767.69
668.85	761.95
669.19	756.24
669.53	750.15
669.87	744.13
670.21	738.07
670.55	732.19
670.89	727.00
671.23	721.87
671.57	716.44
671.91	710.99
672.25	705.74
672.58	700.50
672.92	694.91
673.26	690.00
673.60	685.05
673.94	679.84
674.28	674.88
674.62	669.91
674.96	664.80
675.30	659.82
675.64	654.80
675.97	649.72
676.31	645.05
676.65	640.43
676.99	636.19
677.33	631.66
677.67	627.05
678.01	622.07
678.34	617.33
678.68	612.88
679.02	608.41
679.36	604.09
679.70	599.68
680.04	595.46
680.37	590.92
680.71	586.61
681.05	582.69
681.39	578.67
681.73	574.61
682.06	570.90
682.40	567.16
682.74	563.25
683.08	559.33
683.42	555.16
683.75	551.19
684.09	547.17
684.43	543.30
684.77	539.39
685.10	535.52
685.44	531.68
685.78	527.91
686.12	524.42
686.45	520.85
686.79	517.16
687.13	513.73
687.46	510.49
687.80	507.09
688.14	503.53
688.48	499.99
688.81	496.28
689.15	492.69
689.49	489.16
689.82	485.87
690.16	482.39
690.50	478.95
690.83	475.64
691.17	472.19
691.51	468.96
691.84	465.96
692.18	462.94
692.52	459.95
692.85	457.20
693.19	454.21
693.52	451.19
693.86	448.30
694.20	445.29
694.53	442.26
694.87	439.51
695.21	436.65
695.54	433.69
695.88	430.93
696.21	427.97
696.55	425.30
696.88	422.50
697.22	419.90
697.56	417.41
697.89	414.75
698.23	412.23
698.56	409.69
698.90	407.29
699.23	404.81
699.57	402.29
699.90	399.62
700.24	397.12
700.58	394.64
700.91	392.27
701.25	390.22
701.58	388.04
701.92	385.56
702.25	383.35
702.59	381.28
702.92	379.11
703.26	377.06
703.59	375.04
703.93	373.29
704.26	371.26
704.60	369.25
704.93	367.34
705.26	365.36
705.60	363.54
705.93	361.51
706.27	359.76
706.60	358.04
706.94	356.46
707.27	354.59
707.61	352.87
707.94	351.09
708.27	348.99
708.61	347.14
708.94	345.49
709.28	343.75
709.61	342.05
709.94	340.62
710.28	339.15
710.61	337.54
710.95	335.64
711.28	334.28
711.61	332.80
711.95	331.42
712.28	329.94
712.61	328.49
712.95	327.25
713.28	325.90
713.61	324.44
713.95	323.05
714.28	321.86
714.61	320.47
714.95	319.13
715.28	317.80
715.61	316.56
715.95	315.23
716.28	313.93
716.61	312.88
716.95	311.46
717.28	310.15
717.61	308.86
717.94	307.69
718.28	306.40
718.61	305.15
718.94	304.00
719.27	302.99
719.61	301.99
719.94	300.76
720.27	299.54
720.60	298.50
720.94	297.28
721.27	296.15
721.60	295.27
721.93	294.36
722.27	293.63
722.60	292.70
722.93	291.88
723.26	290.94
723.59	289.83
723.93	288.95
724.26	288.15
724.59	287.34
724.92	286.48
725.25	285.66
725.59	284.91
725.92	284.08
726.25	283.26
726.58	282.35
726.91	281.56
727.24	280.76
727.57	279.97
727.91	279.20
728.24	278.51
728.57	277.61
728.90	276.88
729.23	276.02
729.56	275.41
729.89	274.65
730.22	273.97
730.55	273.30
730.89	272.60
731.22	271.87
731.55	271.20
731.88	270.55
732.21	269.80
732.54	269.14
732.87	268.43
733.20	267.70
733.53	267.02
733.86	266.52
734.19	265.84
734.52	265.23
734.85	264.90
735.18	264.25
735.51	263.79
735.84	263.26
736.17	262.76
736.50	262.02
736.83	261.85
737.16	261.27
737.49	260.76
737.82	260.23
738.15	259.63
738.48	259.06
738.81	258.60
739.14	258.04
739.47	257.41
739.80	256.87
740.13	256.36
740.46	255.72
740.79	255.05
741.12	254.50
741.45	253.93
741.78	253.19
742.11	252.77
742.44	252.26
742.77	251.79
743.10	251.25
743.43	250.80
743.75	249.95
744.08	250.02
744.41	249.47
744.74	249.00
745.07	248.56
745.40	248.22
745.73	247.94
746.06	247.48
746.39	247.19
746.71	246.73
747.04	246.35
747.37	246.03
747.70	245.71
748.03	245.38
748.36	245.14
748.68	244.81
749.01	244.43
749.34	244.08
749.67	243.65
750.00	243.37
750.33	243.23
750.65	242.90
750.98	242.05
751.31	241.73
751.64	241.45
751.97	241.26
752.29	240.89
752.62	240.29
752.95	240.00
753.28	239.54
753.60	239.28
753.93	239.05
754.26	238.66
754.59	238.27
754.91	237.97
755.24	237.62
755.57	237.25
755.90	236.88
756.22	236.55
756.55	236.21
756.88	235.80
757.20	235.18
757.53	234.80
757.86	234.44
758.19	234.17
758.51	233.86
758.84	233.35
759.17	232.94
759.49	232.75
759.82	232.58
760.15	232.28
760.47	231.98
760.80	231.61
761.13	231.46
761.45	231.23
761.78	231.01
762.11	230.76
762.43	230.54
762.76	230.30
763.08	230.04
763.41	229.83
763.74	229.66
764.06	229.54
764.39	229.35
764.71	229.24
765.04	229.03
765.37	228.78
765.69	228.60
766.02	228.49
766.34	228.27
766.67	228.04
767.00	228.01
767.32	228.01
767.65	228.02
767.97	227.81
768.30	227.70
768.62	227.42
768.95	227.19
769.27	226.96
769.60	226.86
769.92	226.67
770.25	226.44
770.57	226.23
770.90	226.08
771.22	225.78
771.55	225.62
771.87	225.53
772.20	225.32
772.52	225.51
772.85	225.75
773.17	225.66
773.50	225.50
773.82	225.28
774.15	224.98
774.47	224.61
774.80	224.47
775.12	224.26
775.45	224.13
775.77	224.08
776.09	223.93
776.42	223.84
776.74	223.82
777.07	223.69
777.39	223.58
777.72	223.44
778.04	223.38
778.36	223.19
778.69	223.10
779.01	223.09
779.33	222.70
779.66	222.16
779.98	222.00
780.31	221.87
780.63	221.88
780.95	221.74
781.28	221.61
781.60	221.49
781.92	221.44
782.25	221.40
782.57	221.24
782.89	221.15
783.22	220.91
783.54	220.72
783.86	220.59
784.19	220.42
784.51	220.35
784.83	220.25
785.16	220.10
