SpectraSuite Data File
++++++++++++++++++++++++++++++++++++
Date: Mon Feb 25 17:05:06 EST 2013
User: group
Dark Spectrum Present: No
Reference Spectrum Present: No
Number of Sampled Component Spectra: 1
Spectrometers: USB2E7196
Integration Time (usec): 104000 (USB2E7196)
Spectra Averaged: 20 (USB2E7196)
Boxcar Smoothing: 10 (USB2E7196)
Correct for Electrical Dark: No (USB2E7196)
Strobe/Lamp Enabled: No (USB2E7196)
Correct for Detector Non-linearity: No (USB2E7196)
Correct for Stray Light: No (USB2E7196)
Number of Pixels in Processed Spectrum: 2048
>>>>>Begin Processed Spectral Data<<<<<
339.09	0.00
339.48	198.45
339.86	199.40
340.24	201.45
340.63	202.50
341.01	209.10
341.39	205.60
341.78	207.90
342.16	209.15
342.54	208.00
342.93	198.38
343.31	208.39
343.69	208.94
344.07	209.49
344.46	209.97
344.84	210.41
345.22	210.47
345.60	210.73
345.99	210.88
346.37	210.95
346.75	211.07
347.13	211.17
347.52	211.21
347.90	211.34
348.28	211.39
348.66	211.54
349.05	211.45
349.43	211.52
349.81	211.55
350.19	211.49
350.57	211.54
350.96	211.63
351.34	211.82
351.72	211.95
352.10	212.00
352.48	211.99
352.87	212.04
353.25	212.06
353.63	212.18
354.01	212.22
354.39	212.32
354.77	212.40
355.15	212.56
355.54	212.55
355.92	212.50
356.30	212.44
356.68	212.73
357.06	212.76
357.44	212.75
357.82	212.81
358.20	212.94
358.58	212.91
358.97	212.95
359.35	212.98
359.73	213.06
360.11	213.16
360.49	213.26
360.87	213.25
361.25	213.41
361.63	213.54
362.01	213.61
362.39	213.55
362.77	213.59
363.15	213.52
363.53	213.60
363.91	213.71
364.29	213.75
364.67	213.40
365.05	213.44
365.43	213.43
365.81	213.49
366.19	213.65
366.57	213.88
366.95	213.83
367.33	213.74
367.71	213.64
368.09	213.66
368.47	213.57
368.85	213.56
369.23	213.56
369.61	213.36
369.99	213.47
370.37	213.53
370.75	213.64
371.13	213.57
371.51	213.48
371.89	213.39
372.27	213.37
372.65	213.37
373.03	213.33
373.41	213.26
373.78	213.10
374.16	212.84
374.54	212.62
374.92	212.55
375.30	212.46
375.68	212.35
376.06	212.27
376.44	212.23
376.82	212.20
377.19	212.11
377.57	212.05
377.95	211.85
378.33	211.78
378.71	211.55
379.09	211.54
379.47	211.55
379.84	211.45
380.22	211.42
380.60	211.30
380.98	211.25
381.36	211.21
381.73	211.13
382.11	211.14
382.49	211.15
382.87	210.98
383.25	210.91
383.62	211.31
384.00	211.17
384.38	211.07
384.76	211.06
385.13	211.15
385.51	211.08
385.89	211.09
386.27	211.08
386.64	211.08
387.02	210.96
387.40	210.91
387.78	210.91
388.15	210.95
388.53	210.88
388.91	210.87
389.29	210.76
389.66	210.86
390.04	210.77
390.42	210.85
390.79	210.95
391.17	210.92
391.55	210.53
391.92	210.53
392.30	210.58
392.68	210.51
393.05	210.44
393.43	210.45
393.81	210.39
394.18	210.28
394.56	210.25
394.94	210.35
395.31	210.31
395.69	210.41
396.06	210.34
396.44	210.42
396.82	210.34
397.19	210.56
397.57	210.47
397.95	210.47
398.32	210.35
398.70	210.38
399.07	210.51
399.45	210.54
399.82	210.57
400.20	210.59
400.58	210.57
400.95	210.47
401.33	210.51
401.70	210.75
402.08	210.80
402.45	210.90
402.83	211.05
403.20	211.06
403.58	210.99
403.95	211.17
404.33	211.23
404.71	211.37
405.08	211.63
405.46	211.75
405.83	211.89
406.21	211.98
406.58	212.13
406.96	212.25
407.33	212.43
407.70	212.68
408.08	213.11
408.45	213.33
408.83	213.65
409.20	213.85
409.58	213.76
409.95	214.06
410.33	214.38
410.70	214.51
411.08	214.90
411.45	215.25
411.82	215.46
412.20	215.84
412.57	216.44
412.95	216.54
413.32	217.11
413.69	217.55
414.07	218.01
414.44	218.50
414.82	219.11
415.19	219.72
415.56	220.36
415.94	220.89
416.31	221.83
416.68	222.58
417.06	223.58
417.43	224.72
417.81	225.75
418.18	226.61
418.55	227.80
418.93	228.96
419.30	230.27
419.67	231.62
420.04	233.01
420.42	234.30
420.79	236.17
421.16	237.70
421.54	239.66
421.91	241.54
422.28	243.41
422.66	245.33
423.03	247.50
423.40	249.52
423.77	251.66
424.15	253.71
424.52	256.03
424.89	258.50
425.26	260.74
425.64	263.02
426.01	265.69
426.38	268.18
426.75	270.99
427.13	273.77
427.50	276.75
427.87	279.72
428.24	282.73
428.61	285.59
428.99	289.11
429.36	292.52
429.73	295.99
430.10	299.53
430.47	303.10
430.85	306.66
431.22	310.53
431.59	314.93
431.96	318.90
432.33	323.39
432.70	327.68
433.08	332.84
433.45	337.69
433.82	342.42
434.19	347.83
434.56	352.99
434.93	357.90
435.30	362.82
435.68	368.40
436.05	373.94
436.42	379.30
436.79	384.16
437.16	389.48
437.53	395.23
437.90	400.82
438.27	406.53
438.64	412.18
439.01	417.67
439.38	422.32
439.75	427.17
440.13	432.41
440.50	437.45
440.87	441.59
441.24	445.84
441.61	450.73
441.98	454.25
442.35	458.36
442.72	462.75
443.09	466.97
443.46	469.54
443.83	471.42
444.20	473.08
444.57	475.29
444.94	476.54
445.31	477.86
445.68	479.51
446.05	480.10
446.42	480.02
446.79	479.65
447.16	479.20
447.53	479.06
447.90	477.33
448.27	475.61
448.64	473.01
449.01	471.17
449.37	467.71
449.74	464.43
450.11	460.65
450.48	456.10
450.85	451.39
451.22	447.51
451.59	443.81
451.96	440.21
452.33	435.42
452.70	431.01
453.07	425.66
453.43	419.88
453.80	414.79
454.17	409.86
454.54	405.20
454.91	400.27
455.28	395.20
455.65	390.63
456.02	386.36
456.38	382.39
456.75	377.65
457.12	373.49
457.49	369.59
457.86	365.38
458.23	362.10
458.59	358.49
458.96	354.81
459.33	351.47
459.70	348.24
460.07	345.65
460.43	342.70
460.80	339.83
461.17	337.41
461.54	334.72
461.91	332.17
462.27	329.66
462.64	327.43
463.01	325.02
463.38	322.81
463.74	320.11
464.11	318.10
464.48	316.26
464.85	314.34
465.21	312.81
465.58	311.34
465.95	309.39
466.32	307.78
466.68	306.18
467.05	304.61
467.42	302.93
467.78	301.11
468.15	299.58
468.52	298.58
468.88	296.92
469.25	295.54
469.62	294.55
469.98	293.32
470.35	292.22
470.72	291.11
471.08	289.85
471.45	288.79
471.82	287.83
472.18	286.78
472.55	286.00
472.92	285.04
473.28	284.17
473.65	283.28
474.02	282.55
474.38	281.93
474.75	281.40
475.11	280.78
475.48	280.36
475.85	279.83
476.21	279.30
476.58	278.98
476.94	278.79
477.31	278.30
477.67	277.94
478.04	277.54
478.41	277.32
478.77	277.43
479.14	277.20
479.50	277.13
479.87	277.00
480.23	276.89
480.60	276.74
480.96	276.56
481.33	276.74
481.69	276.74
482.06	276.70
482.42	276.65
482.79	276.73
483.15	276.72
483.52	276.94
483.88	276.93
484.25	277.05
484.61	277.17
484.98	277.39
485.34	277.72
485.71	278.05
486.07	278.46
486.44	278.45
486.80	278.88
487.17	279.25
487.53	279.82
487.90	280.38
488.26	280.99
488.62	281.82
488.99	282.25
489.35	282.81
489.72	283.49
490.08	284.15
490.44	284.79
490.81	285.70
491.17	286.37
491.54	287.23
491.90	288.19
492.26	289.03
492.63	289.89
492.99	290.70
493.36	291.72
493.72	292.70
494.08	293.80
494.45	294.94
494.81	296.01
495.17	297.06
495.54	298.19
495.90	299.26
496.26	300.30
496.63	301.60
496.99	302.87
497.35	304.05
497.72	305.41
498.08	306.72
498.44	307.93
498.80	309.39
499.17	310.77
499.53	312.01
499.89	313.39
500.26	314.71
500.62	316.15
500.98	317.52
501.34	318.85
501.71	320.27
502.07	321.59
502.43	322.83
502.79	324.06
503.16	325.34
503.52	326.70
503.88	327.88
504.24	329.11
504.60	330.39
504.97	331.85
505.33	333.00
505.69	334.38
506.05	335.69
506.41	336.83
506.78	337.88
507.14	338.99
507.50	340.13
507.86	341.20
508.22	342.17
508.59	343.07
508.95	344.10
509.31	345.22
509.67	346.17
510.03	347.14
510.39	348.09
510.75	348.94
511.12	349.75
511.48	350.62
511.84	351.43
512.20	352.26
512.56	352.89
512.92	353.81
513.28	354.55
513.64	355.18
514.00	355.86
514.37	356.56
514.73	357.40
515.09	358.10
515.45	358.85
515.81	359.48
516.17	360.21
516.53	360.83
516.89	361.26
517.25	361.87
517.61	362.61
517.97	363.35
518.33	364.05
518.69	364.75
519.05	365.55
519.41	366.30
519.77	367.20
520.13	367.89
520.49	368.45
520.85	369.10
521.21	369.95
521.57	370.85
521.93	371.69
522.29	372.43
522.65	373.36
523.01	374.20
523.37	375.16
523.73	376.21
524.09	377.22
524.45	378.20
524.81	379.27
525.17	380.48
525.53	381.64
525.89	382.91
526.25	384.19
526.61	385.30
526.97	386.44
527.33	387.65
527.68	389.50
528.04	391.03
528.40	392.55
528.76	394.04
529.12	395.55
529.48	397.25
529.84	398.88
530.20	400.56
530.56	402.43
530.91	404.41
531.27	406.27
531.63	408.28
531.99	410.27
532.35	412.22
532.71	414.00
533.07	416.03
533.42	418.42
533.78	420.43
534.14	422.62
534.50	424.84
534.86	427.26
535.21	429.15
535.57	431.47
535.93	433.70
536.29	436.21
536.65	438.57
537.00	440.88
537.36	443.26
537.72	445.57
538.08	448.07
538.44	450.38
538.79	452.96
539.15	455.37
539.51	457.86
539.87	460.46
540.22	463.27
540.58	465.93
540.94	468.36
541.29	471.12
541.65	473.83
542.01	476.58
542.37	479.17
542.72	481.95
543.08	484.54
543.44	487.46
543.79	489.84
544.15	492.70
544.51	495.79
544.87	498.68
545.22	501.53
545.58	504.26
545.94	506.97
546.29	509.74
546.65	512.50
547.01	515.23
547.36	518.05
547.72	520.59
548.07	523.25
548.43	525.72
548.79	528.30
549.14	530.90
549.50	533.65
549.86	536.10
550.21	538.52
550.57	541.34
550.92	543.74
551.28	546.28
551.64	548.71
551.99	550.96
552.35	553.40
552.70	555.78
553.06	558.30
553.41	560.86
553.77	563.23
554.13	565.49
554.48	568.01
554.84	570.48
555.19	572.92
555.55	575.54
555.90	577.73
556.26	579.94
556.61	581.98
556.97	583.83
557.32	585.96
557.68	588.03
558.03	589.95
558.39	591.99
558.74	594.24
559.10	596.27
559.45	598.37
559.81	600.45
560.16	602.41
560.52	604.28
560.87	606.13
561.23	607.83
561.58	610.16
561.94	611.92
562.29	613.58
562.64	615.26
563.00	616.71
563.35	618.53
563.71	620.49
564.06	622.35
564.42	624.28
564.77	626.15
565.12	628.11
565.48	630.05
565.83	631.62
566.19	633.22
566.54	634.73
566.89	636.12
567.25	637.64
567.60	639.25
567.96	640.91
568.31	642.49
568.66	643.88
569.02	644.79
569.37	645.70
569.72	646.75
570.08	647.86
570.43	648.69
570.78	649.57
571.14	650.20
571.49	650.93
571.84	651.70
572.20	652.07
572.55	652.53
572.90	652.70
573.26	653.23
573.61	653.69
573.96	654.07
574.31	654.44
574.67	654.48
575.02	654.39
575.37	653.95
575.72	653.70
576.08	653.74
576.43	653.55
576.78	653.69
577.13	653.66
577.49	653.66
577.84	653.67
578.19	653.87
578.54	654.16
578.90	654.28
579.25	654.17
579.60	654.03
579.95	653.64
580.30	653.47
580.66	653.38
581.01	653.11
581.36	652.83
581.71	652.55
582.06	652.58
582.42	652.42
582.77	652.40
583.12	652.22
583.47	652.08
583.82	652.08
584.17	651.98
584.53	651.88
584.88	651.50
585.23	651.29
585.58	650.86
585.93	650.17
586.28	649.88
586.63	649.59
586.98	649.43
587.34	649.48
587.69	649.21
588.04	648.88
588.39	648.51
588.74	647.90
589.09	647.49
589.44	646.70
589.79	646.33
590.14	645.94
590.49	645.46
590.84	644.78
591.19	644.28
591.54	643.61
591.89	642.74
592.25	642.20
592.60	641.44
592.95	640.68
593.30	639.84
593.65	638.67
594.00	637.66
594.35	637.75
594.70	636.72
595.05	635.94
595.40	635.01
595.75	633.77
596.10	633.09
596.45	632.15
596.80	631.46
597.15	630.54
597.50	629.43
597.85	628.53
598.19	627.46
598.54	626.49
598.89	625.57
599.24	624.91
599.59	623.92
599.94	623.17
600.29	622.17
600.64	621.46
600.99	620.74
601.34	619.93
601.69	618.08
602.04	617.12
602.39	616.04
602.74	615.24
603.08	614.70
603.43	613.96
603.78	613.10
604.13	612.23
604.48	611.52
604.83	610.85
605.18	610.10
605.53	609.33
605.87	608.34
606.22	607.49
606.57	606.46
606.92	605.43
607.27	604.24
607.62	603.18
607.96	602.18
608.31	601.33
608.66	600.28
609.01	599.14
609.36	598.02
609.70	596.87
610.05	595.60
610.40	594.41
610.75	593.05
611.10	591.84
611.44	590.24
611.79	588.52
612.14	586.85
612.49	585.12
612.83	583.83
613.18	582.34
613.53	580.81
613.88	579.14
614.22	577.66
614.57	576.19
614.92	574.86
615.27	573.24
615.61	571.55
615.96	569.96
616.31	568.53
616.65	567.02
617.00	565.58
617.35	563.99
617.70	562.40
618.04	560.64
618.39	558.85
618.74	557.48
619.08	555.98
619.43	554.48
619.78	552.93
620.12	551.17
620.47	549.65
620.82	547.80
621.16	546.00
621.51	544.48
621.85	542.92
622.20	541.12
622.55	539.41
622.89	537.58
623.24	536.04
623.59	534.09
623.93	532.44
624.28	530.72
624.62	529.41
624.97	527.81
625.32	526.10
625.66	524.51
626.01	522.70
626.35	520.96
626.70	519.34
627.04	517.94
627.39	516.34
627.73	514.72
628.08	513.17
628.43	511.73
628.77	509.93
629.12	508.16
629.46	506.56
629.81	504.91
630.15	503.31
630.50	501.57
630.84	500.03
631.19	498.39
631.53	496.70
631.88	494.62
632.22	492.75
632.57	491.45
632.91	489.81
633.26	488.25
633.60	486.63
633.95	485.17
634.29	483.26
634.64	481.79
634.98	480.02
635.32	478.54
635.67	477.06
636.01	475.53
636.36	473.97
636.70	472.55
637.05	470.96
637.39	469.51
637.73	468.12
638.08	466.75
638.42	465.36
638.77	463.95
639.11	462.44
639.45	460.93
639.80	459.04
640.14	457.38
640.49	455.72
640.83	454.24
641.17	452.58
641.52	451.09
641.86	449.34
642.20	447.90
642.55	446.17
642.89	444.42
643.23	442.77
643.58	441.44
643.92	439.62
644.26	438.11
644.61	436.58
644.95	434.78
645.29	433.05
645.64	431.45
645.98	429.73
646.32	428.31
646.66	426.64
647.01	425.19
647.35	423.68
647.69	422.11
648.04	420.59
648.38	418.96
648.72	417.43
649.06	415.80
649.41	414.16
649.75	412.60
650.09	411.21
650.43	409.65
650.78	407.80
651.12	406.28
651.46	404.76
651.80	403.17
652.14	401.70
652.49	400.34
652.83	398.69
653.17	397.15
653.51	395.39
653.85	394.03
654.20	392.55
654.54	391.07
654.88	389.55
655.22	388.17
655.56	386.67
655.90	385.04
656.25	383.60
656.59	382.13
656.93	380.61
657.27	379.21
657.61	377.71
657.95	376.34
658.29	374.88
658.64	373.48
658.98	371.95
659.32	370.46
659.66	368.87
660.00	367.39
660.34	365.99
660.68	364.67
661.02	363.13
661.36	361.85
661.70	360.43
662.05	359.15
662.39	357.81
662.73	356.61
663.07	355.55
663.41	354.35
663.75	353.07
664.09	351.80
664.43	350.30
664.77	349.11
665.11	347.90
665.45	346.72
665.79	345.50
666.13	344.39
666.47	343.15
666.81	342.00
667.15	340.73
667.49	339.67
667.83	338.60
668.17	337.54
668.51	336.32
668.85	335.39
669.19	334.43
669.53	333.18
669.87	331.97
670.21	330.78
670.55	329.59
670.89	328.65
671.23	327.73
671.57	326.78
671.91	325.72
672.25	324.72
672.58	323.84
672.92	322.78
673.26	321.74
673.60	320.83
673.94	319.93
674.28	319.11
674.62	318.16
674.96	317.14
675.30	316.16
675.64	315.23
675.97	314.18
676.31	313.21
676.65	312.33
676.99	311.63
677.33	310.72
677.67	309.93
678.01	308.91
678.34	308.00
678.68	307.25
679.02	306.33
679.36	305.36
679.70	304.43
680.04	303.58
680.37	302.77
680.71	301.92
681.05	301.07
681.39	300.20
681.73	299.28
682.06	298.50
682.40	297.70
682.74	296.89
683.08	296.21
683.42	295.35
683.75	294.62
684.09	293.77
684.43	292.94
684.77	291.96
685.10	291.19
685.44	290.37
685.78	289.52
686.12	288.88
686.45	288.17
686.79	287.42
687.13	286.72
687.46	286.00
687.80	285.35
688.14	284.59
688.48	283.88
688.81	283.23
689.15	282.54
689.49	281.78
689.82	281.12
690.16	280.22
690.50	279.54
690.83	278.72
691.17	277.87
691.51	277.18
691.84	276.64
692.18	275.96
692.52	275.40
692.85	274.79
693.19	274.22
693.52	273.57
693.86	272.86
694.20	272.25
694.53	271.61
694.87	270.89
695.21	270.20
695.54	269.63
695.88	268.93
696.21	268.23
696.55	267.75
696.88	267.10
697.22	266.55
697.56	266.01
697.89	265.42
698.23	264.92
698.56	264.42
698.90	263.96
699.23	263.36
699.57	262.73
699.90	262.08
700.24	261.45
700.58	260.92
700.91	260.49
701.25	260.19
701.58	259.77
701.92	259.32
702.25	258.85
702.59	258.26
702.92	257.87
703.26	257.41
703.59	256.94
703.93	256.81
704.26	256.46
704.60	256.00
704.93	255.58
705.26	255.03
705.60	254.68
705.93	254.09
706.27	253.84
706.60	253.50
706.94	253.27
707.27	252.74
707.61	252.35
707.94	251.90
708.27	251.17
708.61	250.67
708.94	250.25
709.28	249.89
709.61	249.53
709.94	249.11
710.28	248.70
710.61	248.30
710.95	247.55
711.28	247.34
711.61	246.92
711.95	246.62
712.28	246.30
712.61	245.93
712.95	245.81
713.28	245.53
713.61	245.16
713.95	244.70
714.28	244.50
714.61	244.08
714.95	243.69
715.28	243.32
715.61	242.93
715.95	242.61
716.28	242.20
716.61	241.95
716.95	241.61
717.28	241.33
717.61	241.05
717.94	240.73
718.28	240.24
718.61	240.00
718.94	239.60
719.27	239.31
719.61	238.98
719.94	238.55
720.27	238.12
720.60	237.81
720.94	237.61
721.27	237.28
721.60	237.08
721.93	236.87
722.27	236.75
722.60	236.60
722.93	236.31
723.26	236.21
723.59	235.87
723.93	235.64
724.26	235.47
724.59	235.23
724.92	235.15
725.25	234.95
725.59	234.73
725.92	234.67
726.25	234.49
726.58	234.28
726.91	234.11
727.24	233.90
727.57	233.69
727.91	233.38
728.24	233.11
728.57	232.93
728.90	232.75
729.23	232.45
729.56	232.40
729.89	232.25
730.22	231.97
730.55	231.75
730.89	231.55
731.22	231.27
731.55	231.02
731.88	230.78
732.21	230.47
732.54	230.16
732.87	229.85
733.20	229.61
733.53	229.41
733.86	229.23
734.19	229.00
734.52	228.94
734.85	228.92
735.18	228.71
735.51	228.58
735.84	228.39
736.17	228.33
736.50	227.93
736.83	228.19
737.16	228.04
737.49	227.94
737.82	227.70
738.15	227.57
738.48	227.41
738.81	227.22
739.14	227.02
739.47	226.95
739.80	226.77
740.13	226.71
740.46	226.45
740.79	226.20
741.12	226.03
741.45	225.73
741.78	225.49
742.11	225.51
742.44	225.29
742.77	225.21
743.10	225.05
743.43	224.90
743.75	224.32
744.08	224.56
744.41	224.38
744.74	224.28
745.07	224.11
745.40	224.05
745.73	224.00
746.06	223.93
746.39	223.80
746.71	223.65
747.04	223.43
747.37	223.40
747.70	223.38
748.03	223.35
748.36	223.28
748.68	223.11
749.01	222.87
749.34	222.81
749.67	222.66
750.00	222.59
750.33	222.82
750.65	222.79
750.98	222.25
751.31	222.19
751.64	222.10
751.97	222.19
752.29	222.03
752.62	221.80
752.95	221.67
753.28	221.49
753.60	221.48
753.93	221.50
754.26	221.44
754.59	221.25
754.91	221.07
755.24	221.00
755.57	220.93
755.90	220.82
756.22	220.69
756.55	220.58
756.88	220.35
757.20	219.99
757.53	219.76
757.86	219.62
758.19	219.63
758.51	219.56
758.84	219.29
759.17	219.23
759.49	219.22
759.82	219.28
760.15	219.29
760.47	219.14
760.80	218.98
761.13	218.95
761.45	218.83
761.78	218.79
762.11	218.67
762.43	218.54
762.76	218.53
763.08	218.54
763.41	218.45
763.74	218.46
764.06	218.37
764.39	218.30
764.71	218.24
765.04	218.07
765.37	217.96
765.69	217.92
766.02	217.83
766.34	217.70
766.67	217.55
767.00	217.51
767.32	217.66
767.65	217.77
767.97	217.63
768.30	217.60
768.62	217.47
768.95	217.46
769.27	217.38
769.60	217.27
769.92	217.06
770.25	216.98
770.57	216.87
770.90	216.82
771.22	216.76
771.55	216.76
771.87	216.71
772.20	216.63
772.52	216.82
772.85	217.17
773.17	217.13
773.50	217.00
773.82	216.87
774.15	216.62
774.47	216.40
774.80	216.35
775.12	216.27
775.45	216.23
775.77	216.15
776.09	216.15
776.42	216.14
776.74	216.21
777.07	216.11
777.39	216.03
777.72	215.93
778.04	215.93
778.36	215.82
778.69	215.79
779.01	215.73
779.33	215.44
779.66	214.97
779.98	214.92
780.31	214.95
780.63	215.08
780.95	215.16
781.28	215.05
781.60	214.95
781.92	214.96
782.25	214.93
782.57	214.81
782.89	214.73
783.22	214.65
783.54	214.56
783.86	214.59
784.19	214.55
784.51	214.66
784.83	214.61
785.16	214.62
785.48	214.65
785.80	214.67
786.12	214.65
786.45	214.59
786.77	214.64
787.09	214.55
787.42	214.37
787.74	214.27
788.06	214.24
788.38	214.25
788.71	214.15
789.03	214.13
789.35	214.16
789.67	214.12
789.99	214.15
790.32	214.01
790.64	214.01
790.96	214.28
791.28	214.14
791.61	214.09
791.93	214.08
792.25	213.94
792.57	214.17
792.89	214.14
793.21	214.17
793.54	214.09
793.86	214.14
794.18	214.23
