SpectraSuite Data File
++++++++++++++++++++++++++++++++++++
Date: Mon Feb 25 17:20:18 EST 2013
User: group
Dark Spectrum Present: No
Reference Spectrum Present: No
Number of Sampled Component Spectra: 1
Spectrometers: USB2E7196
Integration Time (usec): 104000 (USB2E7196)
Spectra Averaged: 20 (USB2E7196)
Boxcar Smoothing: 10 (USB2E7196)
Correct for Electrical Dark: No (USB2E7196)
Strobe/Lamp Enabled: No (USB2E7196)
Correct for Detector Non-linearity: No (USB2E7196)
Correct for Stray Light: No (USB2E7196)
Number of Pixels in Processed Spectrum: 2048
>>>>>Begin Processed Spectral Data<<<<<
339.09	0.00
339.48	199.70
339.86	200.80
340.24	202.10
340.63	203.10
341.01	209.50
341.39	204.85
341.78	208.45
342.16	208.55
342.54	209.30
342.93	198.79
343.31	208.86
343.69	209.34
344.07	209.80
344.46	210.24
344.84	210.63
345.22	210.75
345.60	211.13
345.99	211.31
346.37	211.48
346.75	211.64
347.13	211.65
347.52	211.69
347.90	211.86
348.28	211.87
348.66	211.93
349.05	211.80
349.43	211.88
349.81	211.92
350.19	211.96
350.57	212.14
350.96	212.20
351.34	212.24
351.72	212.35
352.10	212.44
352.48	212.48
352.87	212.54
353.25	212.58
353.63	212.56
354.01	212.61
354.39	212.71
354.77	212.71
355.15	212.84
355.54	212.89
355.92	212.83
356.30	212.93
356.68	213.25
357.06	213.41
357.44	213.41
357.82	213.45
358.20	213.55
358.58	213.53
358.97	213.62
359.35	213.77
359.73	213.93
360.11	213.96
360.49	214.05
360.87	214.08
361.25	214.11
361.63	214.34
362.01	214.31
362.39	214.24
362.77	214.31
363.15	214.35
363.53	214.45
363.91	214.52
364.29	214.48
364.67	214.19
365.05	214.17
365.43	214.23
365.81	214.27
366.19	214.45
366.57	214.58
366.95	214.60
367.33	214.51
367.71	214.46
368.09	214.54
368.47	214.57
368.85	214.57
369.23	214.69
369.61	214.57
369.99	214.69
370.37	214.76
370.75	214.96
371.13	214.90
371.51	214.80
371.89	214.74
372.27	214.80
372.65	214.80
373.03	214.77
373.41	214.71
373.78	214.72
374.16	214.52
374.54	214.43
374.92	214.41
375.30	214.41
375.68	214.32
376.06	214.35
376.44	214.27
376.82	214.32
377.19	214.25
377.57	214.15
377.95	214.06
378.33	214.04
378.71	213.78
379.09	213.80
379.47	213.81
379.84	213.79
380.22	213.74
380.60	213.64
380.98	213.61
381.36	213.63
381.73	213.56
382.11	213.62
382.49	213.57
382.87	213.45
383.25	213.45
383.62	213.85
384.00	213.62
384.38	213.64
384.76	213.65
385.13	213.82
385.51	213.85
385.89	213.78
386.27	213.79
386.64	213.78
387.02	213.73
387.40	213.65
387.78	213.65
388.15	213.59
388.53	213.57
388.91	213.62
389.29	213.58
389.66	213.69
390.04	213.62
390.42	213.69
390.79	213.68
391.17	213.58
391.55	213.21
391.92	213.31
392.30	213.33
392.68	213.22
393.05	213.14
393.43	213.09
393.81	213.16
394.18	213.11
394.56	213.15
394.94	213.22
395.31	213.30
395.69	213.41
396.06	213.51
396.44	213.57
396.82	213.55
397.19	213.74
397.57	213.70
397.95	213.77
398.32	213.67
398.70	213.78
399.07	213.95
399.45	213.95
399.82	214.08
400.20	214.04
400.58	214.14
400.95	214.11
401.33	214.27
401.70	214.48
402.08	214.59
402.45	214.70
402.83	214.94
403.20	215.04
403.58	215.17
403.95	215.25
404.33	215.43
404.71	215.60
405.08	215.92
405.46	216.09
405.83	216.25
406.21	216.49
406.58	216.72
406.96	216.92
407.33	217.17
407.70	217.38
408.08	217.95
408.45	218.29
408.83	218.65
409.20	218.98
409.58	219.15
409.95	219.59
410.33	220.08
410.70	220.33
411.08	220.88
411.45	221.33
411.82	221.94
412.20	222.66
412.57	223.54
412.95	223.93
413.32	224.74
413.69	225.49
414.07	226.35
414.44	227.21
414.82	228.19
415.19	229.35
415.56	230.47
415.94	231.54
416.31	232.88
416.68	234.24
417.06	235.73
417.43	237.35
417.81	238.94
418.18	240.65
418.55	242.54
418.93	244.52
419.30	246.48
419.67	248.58
420.04	250.68
420.42	252.85
420.79	255.60
421.16	258.18
421.54	261.02
421.91	263.80
422.28	266.73
422.66	269.85
423.03	272.95
423.40	276.11
423.77	279.42
424.15	282.72
424.52	286.26
424.89	290.12
425.26	293.70
425.64	297.18
426.01	301.00
426.38	304.95
426.75	308.99
427.13	313.15
427.50	317.53
427.87	322.09
428.24	326.70
428.61	330.97
428.99	335.90
429.36	341.17
429.73	346.36
430.10	351.43
430.47	356.66
430.85	362.05
431.22	367.77
431.59	373.92
431.96	379.73
432.33	385.99
432.70	392.20
433.08	399.55
433.45	406.43
433.82	413.23
434.19	420.90
434.56	428.27
434.93	435.52
435.30	442.67
435.68	450.64
436.05	458.35
436.42	466.15
436.79	473.10
437.16	480.60
437.53	488.52
437.90	496.61
438.27	504.34
438.64	512.37
439.01	520.05
439.38	526.58
439.75	533.08
440.13	540.61
440.50	547.66
440.87	553.34
441.24	559.36
441.61	565.95
441.98	570.63
442.35	576.23
442.72	581.82
443.09	587.28
443.46	590.41
443.83	592.56
444.20	594.33
444.57	597.22
444.94	598.46
445.31	599.85
445.68	601.22
446.05	601.70
446.42	600.90
446.79	599.78
447.16	598.69
447.53	597.88
447.90	594.75
448.27	591.48
448.64	587.35
449.01	584.14
449.37	578.85
449.74	573.65
450.11	567.67
450.48	560.92
450.85	553.94
451.22	548.06
451.59	542.55
451.96	537.24
452.33	530.09
452.70	523.59
453.07	515.87
453.43	507.93
453.80	500.55
454.17	493.31
454.54	486.50
454.91	479.21
455.28	472.15
455.65	465.58
456.02	459.36
456.38	453.57
456.75	446.70
457.12	440.74
457.49	435.11
457.86	429.32
458.23	424.71
458.59	419.55
458.96	414.31
459.33	409.66
459.70	405.02
460.07	401.14
460.43	396.95
460.80	392.95
461.17	389.36
461.54	385.71
461.91	382.37
462.27	378.93
462.64	375.91
463.01	372.66
463.38	369.63
463.74	366.15
464.11	363.39
464.48	360.99
464.85	358.39
465.21	356.50
465.58	354.41
465.95	351.72
466.32	349.62
466.68	347.64
467.05	345.52
467.42	343.40
467.78	341.31
468.15	339.27
468.52	337.80
468.88	335.82
469.25	334.06
469.62	332.67
469.98	331.20
470.35	329.97
470.72	328.73
471.08	327.21
471.45	326.15
471.82	325.15
472.18	323.87
472.55	323.10
472.92	322.03
473.28	321.17
473.65	320.36
474.02	319.56
474.38	318.90
474.75	318.45
475.11	317.98
475.48	317.75
475.85	317.57
476.21	317.35
476.58	317.32
476.94	317.39
477.31	317.36
477.67	317.33
478.04	317.55
478.41	317.80
478.77	318.53
479.14	318.80
479.50	319.31
479.87	320.07
480.23	320.75
480.60	321.32
480.96	322.05
481.33	323.11
481.69	324.16
482.06	325.16
482.42	326.22
482.79	327.45
483.15	328.69
483.52	330.19
483.88	331.73
484.25	333.30
484.61	334.99
484.98	336.82
485.34	339.00
485.71	341.26
486.07	343.57
486.44	345.57
486.80	348.20
487.17	350.83
487.53	353.74
487.90	356.78
488.26	360.20
488.62	363.79
488.99	367.21
489.35	370.94
489.72	374.87
490.08	379.04
490.44	383.35
490.81	387.93
491.17	392.63
491.54	397.81
491.90	403.06
492.26	408.69
492.63	414.57
492.99	420.60
493.36	426.81
493.72	433.51
494.08	440.44
494.45	447.72
494.81	455.62
495.17	463.49
495.54	471.86
495.90	480.50
496.26	489.44
496.63	499.05
496.99	508.97
497.35	519.34
497.72	530.20
498.08	541.34
498.44	552.88
498.80	565.31
499.17	577.96
499.53	590.96
499.89	604.50
500.26	618.30
500.62	632.55
500.98	647.62
501.34	663.12
501.71	679.34
502.07	695.79
502.43	712.68
502.79	729.97
503.16	748.00
503.52	766.64
503.88	785.85
504.24	805.57
504.60	825.48
504.97	846.14
505.33	867.11
505.69	889.60
506.05	912.50
506.41	935.15
506.78	958.47
507.14	982.46
507.50	1006.89
507.86	1031.87
508.22	1057.52
508.59	1083.25
508.95	1109.93
509.31	1136.68
509.67	1164.41
510.03	1192.52
510.39	1221.61
510.75	1250.96
511.12	1280.66
511.48	1310.58
511.84	1340.87
512.20	1371.67
512.56	1403.02
512.92	1434.70
513.28	1466.39
513.64	1498.54
514.00	1531.08
514.37	1563.54
514.73	1596.88
515.09	1629.99
515.45	1663.32
515.81	1697.01
516.17	1730.98
516.53	1764.76
516.89	1799.10
517.25	1833.11
517.61	1866.93
517.97	1900.68
518.33	1934.36
518.69	1968.40
519.05	2002.83
519.41	2037.50
519.77	2072.30
520.13	2106.41
520.49	2140.56
520.85	2174.85
521.21	2209.18
521.57	2243.93
521.93	2278.04
522.29	2312.84
522.65	2347.56
523.01	2381.89
523.37	2415.06
523.73	2448.73
524.09	2482.45
524.45	2516.08
524.81	2549.71
525.17	2584.01
525.53	2617.65
525.89	2651.26
526.25	2684.22
526.61	2715.84
526.97	2747.73
527.33	2779.54
527.68	2811.57
528.04	2842.25
528.40	2872.12
528.76	2902.17
529.12	2932.75
529.48	2964.16
529.84	2993.73
530.20	3023.40
530.56	3053.30
530.91	3084.31
531.27	3114.27
531.63	3142.95
531.99	3171.32
532.35	3198.74
532.71	3225.33
533.07	3253.04
533.42	3279.01
533.78	3306.00
534.14	3332.21
534.50	3356.24
534.86	3381.52
535.21	3404.91
535.57	3430.84
535.93	3454.69
536.29	3477.53
536.65	3500.07
537.00	3520.95
537.36	3541.63
537.72	3562.03
538.08	3581.84
538.44	3601.50
538.79	3621.36
539.15	3640.86
539.51	3659.86
539.87	3679.63
540.22	3698.38
540.58	3717.21
540.94	3735.43
541.29	3751.08
541.65	3766.75
542.01	3783.20
542.37	3798.04
542.72	3813.81
543.08	3827.11
543.44	3842.17
543.79	3855.50
544.15	3867.45
544.51	3880.75
544.87	3894.05
545.22	3905.32
545.58	3915.99
545.94	3924.85
546.29	3932.92
546.65	3940.76
547.01	3948.24
547.36	3955.31
547.72	3962.00
548.07	3966.59
548.43	3971.86
548.79	3976.71
549.14	3981.64
549.50	3986.36
549.86	3990.12
550.21	3993.23
550.57	3996.95
550.92	3998.58
551.28	4000.78
551.64	4003.40
551.99	4005.56
552.35	4006.53
552.70	4008.24
553.06	4009.54
553.41	4010.70
553.77	4011.10
554.13	4011.50
554.48	4012.29
554.84	4012.46
555.19	4011.58
555.55	4010.35
555.90	4008.09
556.26	4006.31
556.61	4004.44
556.97	4001.78
557.32	3999.47
557.68	3996.24
558.03	3992.62
558.39	3989.36
558.74	3987.10
559.10	3984.15
559.45	3980.18
559.81	3976.46
560.16	3971.42
560.52	3967.15
560.87	3962.48
561.23	3956.78
561.58	3952.30
561.94	3946.05
562.29	3938.91
562.64	3933.91
563.00	3928.87
563.35	3924.62
563.71	3920.68
564.06	3915.53
564.42	3910.85
564.77	3906.12
565.12	3901.25
565.48	3895.33
565.83	3890.05
566.19	3884.99
566.54	3877.63
566.89	3870.26
567.25	3863.57
567.60	3857.35
567.96	3850.50
568.31	3843.55
568.66	3836.60
569.02	3828.39
569.37	3819.70
569.72	3812.48
570.08	3803.56
570.43	3794.43
570.78	3784.31
571.14	3773.79
571.49	3764.03
571.84	3754.51
572.20	3743.12
572.55	3733.28
572.90	3722.51
573.26	3710.78
573.61	3698.52
573.96	3687.10
574.31	3674.92
574.67	3662.16
575.02	3648.84
575.37	3635.88
575.72	3622.57
576.08	3610.98
576.43	3597.92
576.78	3586.17
577.13	3574.08
577.49	3561.72
577.84	3549.10
578.19	3537.71
578.54	3526.73
578.90	3515.90
579.25	3502.98
579.60	3489.87
579.95	3476.07
580.30	3464.23
580.66	3453.22
581.01	3439.85
581.36	3426.86
581.71	3414.06
582.06	3401.53
582.42	3389.11
582.77	3375.41
583.12	3362.50
583.47	3349.72
583.82	3338.02
584.17	3324.77
584.53	3312.12
584.88	3299.11
585.23	3286.55
585.58	3273.40
585.93	3259.32
586.28	3246.05
586.63	3232.82
586.98	3220.54
587.34	3208.76
587.69	3195.60
588.04	3182.47
588.39	3170.52
588.74	3157.41
589.09	3145.46
589.44	3132.85
589.79	3121.26
590.14	3110.26
590.49	3097.64
590.84	3085.30
591.19	3073.72
591.54	3061.96
591.89	3047.56
592.25	3034.48
592.60	3020.89
592.95	3007.39
593.30	2993.15
593.65	2978.83
594.00	2965.90
594.35	2954.67
594.70	2941.58
595.05	2929.25
595.40	2916.25
595.75	2902.50
596.10	2890.62
596.45	2878.61
596.80	2866.92
597.15	2855.13
597.50	2842.17
597.85	2831.00
598.19	2818.77
598.54	2806.11
598.89	2794.70
599.24	2784.72
599.59	2773.70
599.94	2763.90
600.29	2753.15
600.64	2743.19
600.99	2731.48
601.34	2720.72
601.69	2707.95
602.04	2695.91
602.39	2684.12
602.74	2672.98
603.08	2663.40
603.43	2653.20
603.78	2641.31
604.13	2630.22
604.48	2619.05
604.83	2609.74
605.18	2599.94
605.53	2588.71
605.87	2577.32
606.22	2566.57
606.57	2555.30
606.92	2544.25
607.27	2532.45
607.62	2521.10
607.96	2510.61
608.31	2501.21
608.66	2489.72
609.01	2478.53
609.36	2467.36
609.70	2455.61
610.05	2443.47
610.40	2431.23
610.75	2419.06
611.10	2408.59
611.44	2395.20
611.79	2382.22
612.14	2368.48
612.49	2354.39
612.83	2342.04
613.18	2328.90
613.53	2315.57
613.88	2301.70
614.22	2289.16
614.57	2275.88
614.92	2263.15
615.27	2249.51
615.61	2235.89
615.96	2223.58
616.31	2211.83
616.65	2200.51
617.00	2188.83
617.35	2176.85
617.70	2164.29
618.04	2150.74
618.39	2136.74
618.74	2124.91
619.08	2112.03
619.43	2099.95
619.78	2088.17
620.12	2076.15
620.47	2064.50
620.82	2052.22
621.16	2040.19
621.51	2027.50
621.85	2016.01
622.20	2003.61
622.55	1991.46
622.89	1979.22
623.24	1966.85
623.59	1954.13
623.93	1941.59
624.28	1929.62
624.62	1917.86
624.97	1906.10
625.32	1895.27
625.66	1884.50
626.01	1873.29
626.35	1862.85
626.70	1851.42
627.04	1840.85
627.39	1829.87
627.73	1818.84
628.08	1807.94
628.43	1796.66
628.77	1785.67
629.12	1773.97
629.46	1763.97
629.81	1753.55
630.15	1742.91
630.50	1732.25
630.84	1721.05
631.19	1710.21
631.53	1699.30
631.88	1688.04
632.22	1676.97
632.57	1666.55
632.91	1655.73
633.26	1644.95
633.60	1634.30
633.95	1624.30
634.29	1613.33
634.64	1602.90
634.98	1592.03
635.32	1582.16
635.67	1572.94
636.01	1563.16
636.36	1552.94
636.70	1542.60
637.05	1532.60
637.39	1523.11
637.73	1513.79
638.08	1505.18
638.42	1496.35
638.77	1487.13
639.11	1477.80
639.45	1468.29
639.80	1458.22
640.14	1448.36
640.49	1438.64
640.83	1428.95
641.17	1419.26
641.52	1409.34
641.86	1399.32
642.20	1389.94
642.55	1379.45
642.89	1369.28
643.23	1359.07
643.58	1349.96
643.92	1339.83
644.26	1330.04
644.61	1320.25
644.95	1310.00
645.29	1300.19
645.64	1289.85
645.98	1280.16
646.32	1270.93
646.66	1261.48
647.01	1252.36
647.35	1243.28
647.69	1233.60
648.04	1224.30
648.38	1214.84
648.72	1205.74
649.06	1196.50
649.41	1187.41
649.75	1178.41
650.09	1169.64
650.43	1160.80
650.78	1151.60
651.12	1142.52
651.46	1133.49
651.80	1124.77
652.14	1116.11
652.49	1106.90
652.83	1097.93
653.17	1088.20
653.51	1079.19
653.85	1070.52
654.20	1061.60
654.54	1052.87
654.88	1044.30
655.22	1035.43
655.56	1026.65
655.90	1018.11
656.25	1009.62
656.59	1001.11
656.93	993.01
657.27	984.65
657.61	976.08
657.95	967.92
658.29	960.12
658.64	952.50
658.98	944.24
659.32	936.24
659.66	928.40
660.00	920.63
660.34	913.24
660.68	905.07
661.02	897.38
661.36	890.00
661.70	882.52
662.05	875.57
662.39	868.70
662.73	861.76
663.07	854.93
663.41	847.99
663.75	841.10
664.09	833.95
664.43	826.77
664.77	820.35
665.11	813.59
665.45	806.97
665.79	800.36
666.13	794.04
666.47	787.59
666.81	781.24
667.15	775.12
667.49	769.30
667.83	763.70
668.17	757.73
668.51	752.03
668.85	746.23
669.19	740.54
669.53	734.73
669.87	728.80
670.21	723.05
670.55	717.48
670.89	712.30
671.23	707.25
671.57	702.24
671.91	696.94
672.25	691.63
672.58	686.33
672.92	681.13
673.26	676.29
673.60	671.38
673.94	666.41
674.28	661.38
674.62	656.54
674.96	651.68
675.30	646.91
675.64	641.95
675.97	637.26
676.31	632.83
676.65	628.32
676.99	624.01
677.33	619.54
677.67	614.94
678.01	610.27
678.34	605.89
678.68	601.34
679.02	597.02
679.36	592.94
679.70	588.92
680.04	584.74
680.37	580.20
680.71	576.06
681.05	572.23
681.39	568.33
681.73	564.45
682.06	560.74
682.40	556.99
682.74	553.24
683.08	549.48
683.42	545.31
683.75	541.46
684.09	537.72
684.43	533.96
684.77	530.25
685.10	526.60
685.44	522.70
685.78	519.19
686.12	515.87
686.45	512.34
686.79	508.84
687.13	505.48
687.46	502.25
687.80	498.99
688.14	495.33
688.48	492.04
688.81	488.46
689.15	485.08
689.49	481.64
689.82	478.30
690.16	474.82
690.50	471.59
690.83	468.35
691.17	465.02
691.51	461.86
691.84	458.87
692.18	455.79
692.52	452.98
692.85	450.27
693.19	447.26
693.52	444.44
693.86	441.42
694.20	438.55
694.53	435.75
694.87	432.83
695.21	430.17
695.54	427.32
695.88	424.52
696.21	421.72
696.55	419.23
696.88	416.70
697.22	414.12
697.56	411.78
697.89	409.25
698.23	406.75
698.56	404.33
698.90	402.15
699.23	399.82
699.57	397.43
699.90	394.92
700.24	392.52
700.58	390.15
700.91	387.96
701.25	385.97
701.58	383.72
701.92	381.58
702.25	379.43
702.59	377.35
702.92	375.43
703.26	373.45
703.59	371.55
703.93	369.69
704.26	367.77
704.60	365.77
704.93	363.85
705.26	361.96
705.60	360.11
705.93	358.04
706.27	356.25
706.60	354.68
706.94	353.11
707.27	351.31
707.61	349.56
707.94	347.84
708.27	345.75
708.61	344.08
708.94	342.32
709.28	340.70
709.61	339.04
709.94	337.40
710.28	335.82
710.61	334.19
710.95	332.50
711.28	331.27
711.61	329.65
711.95	328.35
712.28	326.97
712.61	325.57
712.95	324.36
713.28	323.14
713.61	321.56
713.95	320.13
714.28	318.88
714.61	317.54
714.95	316.32
715.28	315.10
715.61	313.72
715.95	312.54
716.28	311.34
716.61	310.11
716.95	308.85
717.28	307.71
717.61	306.56
717.94	305.42
718.28	303.97
718.61	302.92
718.94	301.73
719.27	300.72
719.61	299.69
719.94	298.56
720.27	297.30
720.60	296.25
720.94	295.16
721.27	294.18
721.60	293.25
721.93	292.24
722.27	291.44
722.60	290.60
722.93	289.63
723.26	288.78
723.59	287.89
723.93	287.03
724.26	286.17
724.59	285.30
724.92	284.48
725.25	283.84
725.59	282.99
725.92	282.24
726.25	281.38
726.58	280.61
726.91	279.83
727.24	279.13
727.57	278.47
727.91	277.63
728.24	276.94
728.57	276.31
728.90	275.68
729.23	274.77
729.56	274.30
729.89	273.69
730.22	272.89
730.55	272.19
730.89	271.53
731.22	270.80
731.55	270.11
731.88	269.42
732.21	268.62
732.54	268.00
732.87	267.31
733.20	266.65
733.53	265.96
733.86	265.41
734.19	264.70
734.52	264.11
734.85	263.82
735.18	263.17
735.51	262.56
735.84	261.90
736.17	261.48
736.50	260.68
736.83	260.51
737.16	260.07
737.49	259.56
737.82	258.95
738.15	258.40
738.48	257.83
738.81	257.29
739.14	256.80
739.47	256.21
739.80	255.71
740.13	255.23
740.46	254.67
740.79	254.06
741.12	253.53
741.45	252.99
741.78	252.31
742.11	251.89
742.44	251.31
742.77	250.95
743.10	250.47
743.43	250.03
743.75	249.17
744.08	249.08
744.41	248.55
744.74	248.20
745.07	247.77
745.40	247.47
745.73	247.19
746.06	246.71
746.39	246.35
746.71	245.91
747.04	245.51
747.37	245.11
747.70	244.75
748.03	244.46
748.36	244.12
748.68	243.69
749.01	243.23
749.34	242.88
749.67	242.46
750.00	242.05
750.33	241.85
750.65	241.54
750.98	240.74
751.31	240.40
751.64	240.00
751.97	239.83
752.29	239.41
752.62	238.94
752.95	238.56
753.28	238.28
753.60	237.98
753.93	237.74
754.26	237.45
754.59	237.01
754.91	236.63
755.24	236.24
755.57	235.95
755.90	235.69
756.22	235.38
756.55	235.04
756.88	234.66
757.20	234.18
757.53	233.77
757.86	233.49
758.19	233.24
758.51	232.94
758.84	232.53
759.17	232.21
759.49	231.96
759.82	231.94
760.15	231.70
760.47	231.47
760.80	231.12
761.13	230.96
761.45	230.76
761.78	230.59
762.11	230.46
762.43	230.19
762.76	229.96
763.08	229.79
763.41	229.60
763.74	229.46
764.06	229.26
764.39	229.08
764.71	228.85
765.04	228.68
765.37	228.59
765.69	228.35
766.02	228.18
766.34	227.99
766.67	227.68
767.00	227.54
767.32	227.53
767.65	227.59
767.97	227.30
768.30	227.12
768.62	226.95
768.95	226.63
769.27	226.49
769.60	226.37
769.92	226.16
770.25	225.95
770.57	225.79
770.90	225.57
771.22	225.41
771.55	225.30
771.87	225.13
772.20	224.83
772.52	224.97
772.85	225.28
773.17	225.02
773.50	224.81
773.82	224.55
774.15	224.23
774.47	223.82
774.80	223.73
775.12	223.54
775.45	223.44
775.77	223.41
776.09	223.33
776.42	223.20
776.74	223.14
777.07	223.03
777.39	222.82
777.72	222.74
778.04	222.68
778.36	222.53
778.69	222.43
779.01	222.40
779.33	222.04
779.66	221.51
779.98	221.50
780.31	221.45
780.63	221.53
780.95	221.46
781.28	221.34
781.60	221.21
781.92	221.20
782.25	221.01
782.57	220.90
782.89	220.76
783.22	220.60
783.54	220.42
783.86	220.37
784.19	220.30
784.51	220.31
784.83	220.10
785.16	220.03
