SpectraSuite Data File
++++++++++++++++++++++++++++++++++++
Date: Mon Feb 25 17:18:07 EST 2013
User: group
Dark Spectrum Present: No
Reference Spectrum Present: No
Number of Sampled Component Spectra: 1
Spectrometers: USB2E7196
Integration Time (usec): 104000 (USB2E7196)
Spectra Averaged: 20 (USB2E7196)
Boxcar Smoothing: 10 (USB2E7196)
Correct for Electrical Dark: No (USB2E7196)
Strobe/Lamp Enabled: No (USB2E7196)
Correct for Detector Non-linearity: No (USB2E7196)
Correct for Stray Light: No (USB2E7196)
Number of Pixels in Processed Spectrum: 2048
>>>>>Begin Processed Spectral Data<<<<<
339.09	0.00
339.48	198.80
339.86	200.10
340.24	202.50
340.63	202.70
341.01	207.55
341.39	206.10
341.78	207.15
342.16	209.15
342.54	209.15
342.93	198.05
343.31	208.07
343.69	208.61
344.07	209.05
344.46	209.48
344.84	209.95
345.22	210.13
345.60	210.40
345.99	210.57
346.37	210.73
346.75	210.87
347.13	211.02
347.52	211.15
347.90	211.39
348.28	211.45
348.66	211.63
349.05	211.54
349.43	211.64
349.81	211.69
350.19	211.72
350.57	211.82
350.96	211.97
351.34	212.06
351.72	212.15
352.10	212.26
352.48	212.34
352.87	212.37
353.25	212.43
353.63	212.45
354.01	212.59
354.39	212.62
354.77	212.68
355.15	212.78
355.54	212.82
355.92	212.72
356.30	212.75
356.68	213.01
357.06	213.14
357.44	213.21
357.82	213.32
358.20	213.54
358.58	213.60
358.97	213.67
359.35	213.80
359.73	213.94
360.11	214.00
360.49	214.05
360.87	214.11
361.25	214.17
361.63	214.37
362.01	214.43
362.39	214.49
362.77	214.56
363.15	214.62
363.53	214.72
363.91	214.78
364.29	214.80
364.67	214.50
365.05	214.54
365.43	214.53
365.81	214.59
366.19	214.73
366.57	214.90
366.95	214.85
367.33	214.78
367.71	214.79
368.09	214.87
368.47	214.82
368.85	214.79
369.23	214.85
369.61	214.77
369.99	214.88
370.37	214.89
370.75	214.97
371.13	214.82
371.51	214.75
371.89	214.82
372.27	214.90
372.65	214.86
373.03	214.82
373.41	214.77
373.78	214.68
374.16	214.46
374.54	214.27
374.92	214.21
375.30	214.24
375.68	214.11
376.06	214.15
376.44	214.18
376.82	214.08
377.19	214.05
377.57	214.02
377.95	213.85
378.33	213.80
378.71	213.60
379.09	213.62
379.47	213.52
379.84	213.46
380.22	213.29
380.60	213.25
380.98	213.15
381.36	213.13
381.73	213.03
382.11	213.04
382.49	213.02
382.87	213.02
383.25	212.89
383.62	213.30
384.00	213.16
384.38	213.12
384.76	213.25
385.13	213.35
385.51	213.25
385.89	213.21
386.27	213.19
386.64	213.19
387.02	213.13
387.40	213.07
387.78	213.06
388.15	213.06
388.53	213.00
388.91	213.00
389.29	212.97
389.66	212.99
390.04	212.97
390.42	213.05
390.79	212.95
391.17	212.99
391.55	212.54
391.92	212.58
392.30	212.59
392.68	212.45
393.05	212.45
393.43	212.45
393.81	212.46
394.18	212.39
394.56	212.42
394.94	212.56
395.31	212.59
395.69	212.65
396.06	212.73
396.44	212.73
396.82	212.68
397.19	212.85
397.57	212.89
397.95	212.97
398.32	212.89
398.70	213.00
399.07	213.10
399.45	213.15
399.82	213.09
400.20	213.02
400.58	213.08
400.95	212.90
401.33	213.01
401.70	213.31
402.08	213.36
402.45	213.39
402.83	213.46
403.20	213.53
403.58	213.58
403.95	213.69
404.33	213.90
404.71	214.12
405.08	214.42
405.46	214.54
405.83	214.62
406.21	214.77
406.58	214.94
406.96	215.07
407.33	215.34
407.70	215.65
408.08	216.16
408.45	216.40
408.83	216.80
409.20	217.04
409.58	217.11
409.95	217.53
410.33	217.90
410.70	218.15
411.08	218.63
411.45	219.04
411.82	219.50
412.20	220.03
412.57	220.73
412.95	220.90
413.32	221.60
413.69	222.21
414.07	222.86
414.44	223.64
414.82	224.38
415.19	225.23
415.56	226.02
415.94	226.81
416.31	227.88
416.68	228.81
417.06	230.02
417.43	231.17
417.81	232.51
418.18	233.84
418.55	235.27
418.93	236.78
419.30	238.28
419.67	239.90
420.04	241.52
420.42	243.11
420.79	245.42
421.16	247.29
421.54	249.52
421.91	251.67
422.28	253.93
422.66	256.44
423.03	259.01
423.40	261.46
423.77	264.07
424.15	266.72
424.52	269.56
424.89	272.48
425.26	275.35
425.64	278.04
426.01	281.05
426.38	284.27
426.75	287.51
427.13	290.96
427.50	294.52
427.87	298.17
428.24	301.84
428.61	305.14
428.99	309.12
429.36	313.14
429.73	317.12
430.10	321.14
430.47	325.18
430.85	329.30
431.22	333.86
431.59	338.82
431.96	343.37
432.33	348.42
432.70	353.38
433.08	359.15
433.45	364.55
433.82	369.95
434.19	375.96
434.56	381.85
434.93	387.31
435.30	392.74
435.68	398.88
436.05	404.98
436.42	411.03
436.79	416.47
437.16	422.45
437.53	428.80
437.90	434.89
438.27	440.94
438.64	447.13
439.01	453.01
439.38	458.05
439.75	463.12
440.13	468.80
440.50	474.22
440.87	478.66
441.24	483.20
441.61	488.20
441.98	491.85
442.35	496.06
442.72	500.45
443.09	504.73
443.46	507.14
443.83	508.70
444.20	510.20
444.57	512.34
444.94	513.17
445.31	514.11
445.68	515.35
446.05	515.74
446.42	515.09
446.79	514.29
447.16	513.38
447.53	512.65
447.90	510.27
448.27	507.77
448.64	504.43
449.01	502.05
449.37	497.86
449.74	493.72
450.11	489.03
450.48	483.64
450.85	478.23
451.22	473.65
451.59	469.30
451.96	464.88
452.33	459.27
452.70	454.35
453.07	448.37
453.43	441.91
453.80	436.12
454.17	430.48
454.54	425.15
454.91	419.50
455.28	413.98
455.65	408.74
456.02	404.00
456.38	399.53
456.75	394.00
457.12	389.41
457.49	384.98
457.86	380.46
458.23	376.98
458.59	372.86
458.96	368.84
459.33	365.19
459.70	361.60
460.07	358.65
460.43	355.26
460.80	352.27
461.17	349.69
461.54	346.78
461.91	344.17
462.27	341.41
462.64	339.01
463.01	336.50
463.38	334.15
463.74	331.28
464.11	329.10
464.48	327.38
464.85	325.34
465.21	323.72
465.58	322.13
465.95	319.92
466.32	318.29
466.68	316.56
467.05	314.95
467.42	313.44
467.78	311.75
468.15	310.10
468.52	308.88
468.88	307.27
469.25	305.91
469.62	304.84
469.98	303.68
470.35	302.64
470.72	301.59
471.08	300.52
471.45	299.67
471.82	298.84
472.18	297.73
472.55	297.13
472.92	296.38
473.28	295.68
473.65	295.19
474.02	294.65
474.38	294.23
474.75	293.95
475.11	293.51
475.48	293.36
475.85	293.24
476.21	292.97
476.58	292.95
476.94	292.97
477.31	292.95
477.67	293.00
478.04	293.09
478.41	293.33
478.77	293.84
479.14	293.97
479.50	294.28
479.87	294.76
480.23	295.20
480.60	295.77
480.96	296.27
481.33	297.03
481.69	297.73
482.06	298.44
482.42	299.13
482.79	300.06
483.15	300.91
483.52	302.10
483.88	303.32
484.25	304.51
484.61	305.76
484.98	307.09
485.34	308.66
485.71	310.29
486.07	311.97
486.44	313.37
486.80	315.44
487.17	317.45
487.53	319.75
487.90	322.12
488.26	324.68
488.62	327.48
488.99	330.07
489.35	332.98
489.72	335.99
490.08	339.18
490.44	342.44
490.81	346.06
491.17	349.58
491.54	353.56
491.90	357.53
492.26	361.77
492.63	366.15
492.99	370.72
493.36	375.64
493.72	380.74
494.08	386.18
494.45	391.78
494.81	397.83
495.17	403.91
495.54	410.42
495.90	416.84
496.26	423.64
496.63	430.95
496.99	438.55
497.35	446.53
497.72	454.67
498.08	462.98
498.44	471.79
498.80	481.12
499.17	490.53
499.53	500.50
499.89	510.95
500.26	521.51
500.62	532.29
500.98	543.58
501.34	555.15
501.71	567.36
502.07	579.85
502.43	592.56
502.79	605.65
503.16	619.16
503.52	633.17
503.88	647.45
504.24	662.29
504.60	677.24
504.97	692.97
505.33	709.13
505.69	726.25
506.05	743.29
506.41	760.60
506.78	778.08
507.14	796.01
507.50	814.40
507.86	833.40
508.22	852.93
508.59	872.51
508.95	892.79
509.31	913.30
509.67	934.23
510.03	955.92
510.39	978.02
510.75	1000.44
511.12	1023.21
511.48	1046.23
511.84	1069.44
512.20	1092.93
512.56	1116.99
512.92	1141.24
513.28	1165.70
513.64	1190.33
514.00	1215.02
514.37	1240.49
514.73	1266.53
515.09	1292.30
515.45	1317.86
515.81	1343.76
516.17	1370.10
516.53	1396.51
516.89	1422.97
517.25	1449.45
517.61	1475.85
517.97	1502.08
518.33	1528.63
518.69	1555.10
519.05	1581.84
519.41	1608.91
519.77	1636.42
520.13	1663.13
520.49	1689.66
520.85	1716.58
521.21	1743.66
521.57	1771.26
521.93	1797.60
522.29	1824.77
522.65	1851.93
523.01	1879.12
523.37	1905.45
523.73	1932.24
524.09	1958.69
524.45	1985.33
524.81	2012.14
525.17	2038.84
525.53	2065.52
525.89	2091.76
526.25	2117.78
526.61	2143.15
526.97	2168.34
527.33	2193.32
527.68	2218.62
528.04	2243.33
528.40	2266.78
528.76	2290.97
529.12	2315.21
529.48	2340.65
529.84	2364.30
530.20	2387.74
530.56	2411.61
530.91	2436.36
531.27	2460.00
531.63	2483.39
531.99	2506.53
532.35	2528.46
532.71	2549.66
533.07	2572.00
533.42	2593.22
533.78	2614.97
534.14	2636.26
534.50	2655.90
534.86	2676.51
535.21	2695.26
535.57	2715.45
535.93	2735.26
536.29	2754.17
536.65	2772.70
537.00	2789.65
537.36	2806.41
537.72	2823.07
538.08	2839.17
538.44	2855.16
538.79	2871.14
539.15	2886.62
539.51	2902.00
539.87	2918.19
540.22	2933.61
540.58	2948.69
540.94	2963.34
541.29	2976.24
541.65	2988.66
542.01	3002.01
542.37	3014.36
542.72	3027.64
543.08	3038.99
543.44	3051.44
543.79	3061.94
544.15	3071.74
544.51	3083.02
544.87	3094.37
545.22	3104.10
545.58	3112.99
545.94	3120.46
546.29	3127.28
546.65	3134.32
547.01	3140.36
547.36	3146.29
547.72	3152.28
548.07	3156.23
548.43	3160.92
548.79	3165.60
549.14	3170.29
549.50	3174.73
549.86	3177.67
550.21	3180.31
550.57	3184.06
550.92	3185.42
551.28	3187.49
551.64	3189.81
551.99	3191.35
552.35	3191.76
552.70	3193.06
553.06	3194.36
553.41	3195.40
553.77	3196.63
554.13	3196.74
554.48	3197.38
554.84	3197.58
555.19	3196.91
555.55	3196.31
555.90	3194.56
556.26	3193.04
556.61	3191.35
556.97	3188.32
557.32	3186.41
557.68	3183.65
558.03	3180.45
558.39	3177.90
558.74	3176.36
559.10	3174.03
559.45	3170.78
559.81	3168.32
560.16	3164.40
560.52	3161.53
560.87	3157.96
561.23	3153.23
561.58	3149.93
561.94	3145.18
562.29	3139.70
562.64	3135.40
563.00	3131.65
563.35	3128.20
563.71	3124.81
564.06	3121.06
564.42	3118.17
564.77	3114.87
565.12	3111.33
565.48	3107.15
565.83	3103.23
566.19	3098.81
566.54	3093.15
566.89	3087.50
567.25	3081.86
567.60	3077.06
567.96	3071.25
568.31	3065.98
568.66	3060.31
569.02	3053.85
569.37	3047.18
569.72	3041.53
570.08	3034.96
570.43	3027.37
570.78	3019.89
571.14	3011.48
571.49	3003.35
571.84	2996.12
572.20	2987.09
572.55	2979.23
572.90	2970.51
573.26	2961.04
573.61	2951.22
573.96	2942.43
574.31	2932.51
574.67	2922.44
575.02	2912.02
575.37	2901.56
575.72	2890.82
576.08	2881.82
576.43	2871.40
576.78	2861.68
577.13	2851.95
577.49	2842.45
577.84	2832.60
578.19	2823.29
578.54	2815.10
578.90	2806.47
579.25	2795.72
579.60	2785.46
579.95	2774.98
580.30	2765.70
580.66	2756.91
581.01	2747.04
581.36	2736.48
581.71	2726.74
582.06	2717.25
582.42	2707.76
582.77	2697.43
583.12	2687.34
583.47	2677.51
583.82	2668.33
584.17	2658.49
584.53	2648.39
584.88	2638.02
585.23	2628.12
585.58	2617.99
585.93	2606.82
586.28	2596.40
586.63	2586.35
586.98	2576.83
587.34	2567.43
587.69	2556.81
588.04	2546.78
588.39	2537.35
588.74	2527.21
589.09	2518.14
589.44	2507.84
589.79	2498.23
590.14	2489.10
590.49	2479.59
590.84	2469.44
591.19	2460.31
591.54	2450.83
591.89	2439.65
592.25	2429.47
592.60	2419.02
592.95	2408.27
593.30	2397.25
593.65	2386.53
594.00	2376.44
594.35	2367.68
594.70	2357.26
595.05	2347.68
595.40	2337.61
595.75	2326.77
596.10	2317.77
596.45	2308.49
596.80	2299.92
597.15	2290.94
597.50	2281.26
597.85	2272.28
598.19	2262.67
598.54	2252.91
598.89	2243.82
599.24	2236.44
599.59	2227.74
599.94	2220.27
600.29	2212.06
600.64	2204.34
600.99	2195.20
601.34	2186.71
601.69	2176.65
602.04	2167.26
602.39	2158.18
602.74	2149.15
603.08	2141.71
603.43	2133.89
603.78	2125.06
604.13	2115.96
604.48	2107.30
604.83	2100.00
605.18	2092.44
605.53	2083.94
605.87	2075.14
606.22	2067.04
606.57	2058.22
606.92	2049.64
607.27	2039.96
607.62	2030.60
607.96	2022.18
608.31	2014.86
608.66	2005.66
609.01	1996.49
609.36	1987.86
609.70	1978.39
610.05	1968.87
610.40	1959.27
610.75	1949.11
611.10	1940.22
611.44	1929.81
611.79	1919.49
612.14	1908.65
612.49	1897.50
612.83	1887.89
613.18	1877.70
613.53	1867.32
613.88	1856.16
614.22	1846.08
614.57	1836.08
614.92	1826.16
615.27	1815.51
615.61	1804.37
615.96	1795.06
616.31	1786.15
616.65	1777.33
617.00	1768.31
617.35	1759.01
617.70	1748.92
618.04	1738.44
618.39	1727.40
618.74	1718.19
619.08	1708.17
619.43	1698.57
619.78	1689.20
620.12	1679.29
620.47	1670.12
620.82	1660.03
621.16	1650.50
621.51	1640.65
621.85	1631.12
622.20	1621.32
622.55	1611.84
622.89	1602.54
623.24	1592.47
623.59	1581.92
623.93	1571.82
624.28	1562.34
624.62	1552.90
624.97	1543.63
625.32	1534.89
625.66	1526.47
626.01	1517.13
626.35	1508.71
626.70	1499.82
627.04	1491.48
627.39	1482.94
627.73	1473.94
628.08	1465.70
628.43	1456.79
628.77	1447.83
629.12	1438.73
629.46	1430.95
629.81	1422.36
630.15	1413.76
630.50	1405.15
630.84	1396.78
631.19	1388.21
631.53	1379.56
631.88	1370.44
632.22	1361.52
632.57	1353.23
632.91	1344.44
633.26	1336.34
633.60	1328.07
633.95	1319.90
634.29	1311.21
634.64	1303.00
634.98	1294.35
635.32	1286.02
635.67	1278.50
636.01	1270.91
636.36	1262.95
636.70	1254.79
637.05	1246.95
637.39	1239.39
637.73	1232.37
638.08	1225.36
638.42	1218.17
638.77	1210.91
639.11	1203.55
639.45	1196.10
639.80	1188.17
640.14	1180.22
640.49	1172.38
640.83	1164.62
641.17	1157.03
641.52	1149.32
641.86	1141.50
642.20	1134.34
642.55	1126.25
642.89	1118.31
643.23	1110.48
643.58	1103.43
643.92	1095.46
644.26	1087.93
644.61	1080.31
644.95	1072.33
645.29	1064.69
645.64	1056.75
645.98	1049.01
646.32	1042.03
646.66	1034.74
647.01	1027.65
647.35	1020.87
647.69	1013.28
648.04	1005.99
648.38	998.55
648.72	991.29
649.06	983.92
649.41	976.63
649.75	969.75
650.09	962.89
650.43	955.75
650.78	948.16
651.12	941.03
651.46	934.03
651.80	927.21
652.14	920.24
652.49	913.20
652.83	906.27
653.17	898.97
653.51	891.72
653.85	885.06
654.20	878.31
654.54	871.15
654.88	864.78
655.22	857.89
655.56	851.02
655.90	844.23
656.25	837.65
656.59	830.97
656.93	824.58
657.27	818.40
657.61	811.73
657.95	805.74
658.29	799.68
658.64	793.80
658.98	787.44
659.32	781.10
659.66	774.95
660.00	768.80
660.34	762.90
660.68	756.88
661.02	750.67
661.36	744.71
661.70	739.17
662.05	733.48
662.39	728.31
662.73	723.06
663.07	717.99
663.41	712.76
663.75	707.50
664.09	701.89
664.43	696.22
664.77	691.40
665.11	686.01
665.45	680.96
665.79	675.64
666.13	670.39
666.47	665.51
666.81	660.51
667.15	655.68
667.49	651.14
667.83	646.64
668.17	642.10
668.51	637.70
668.85	633.28
669.19	628.97
669.53	624.24
669.87	619.54
670.21	614.98
670.55	610.59
670.89	606.51
671.23	602.65
671.57	598.54
671.91	594.33
672.25	590.34
672.58	586.12
672.92	582.14
673.26	578.35
673.60	574.65
673.94	570.76
674.28	566.93
674.62	563.28
674.96	559.57
675.30	555.99
675.64	552.23
675.97	548.48
676.31	544.92
676.65	541.51
676.99	538.40
677.33	534.92
677.67	531.42
678.01	527.85
678.34	524.50
678.68	521.11
679.02	517.58
679.36	514.38
679.70	511.23
680.04	507.85
680.37	504.63
680.71	501.25
681.05	498.22
681.39	495.23
681.73	491.86
682.06	489.01
682.40	486.02
682.74	482.94
683.08	480.02
683.42	476.83
683.75	473.82
684.09	470.55
684.43	467.54
684.77	464.53
685.10	461.53
685.44	458.42
685.78	455.44
686.12	452.92
686.45	450.17
686.79	447.47
687.13	444.90
687.46	442.36
687.80	439.70
688.14	437.00
688.48	434.34
688.81	431.72
689.15	428.93
689.49	426.14
689.82	423.77
690.16	420.98
690.50	418.43
690.83	415.91
691.17	413.41
691.51	410.95
691.84	408.64
692.18	406.31
692.52	404.12
692.85	402.13
693.19	399.82
693.52	397.34
693.86	394.97
694.20	392.71
694.53	390.48
694.87	388.26
695.21	386.05
695.54	383.85
695.88	381.66
696.21	379.50
696.55	377.60
696.88	375.38
697.22	373.32
697.56	371.47
697.89	369.44
698.23	367.58
698.56	365.65
698.90	363.85
699.23	361.92
699.57	359.94
699.90	357.90
700.24	356.00
700.58	354.30
700.91	352.56
701.25	351.02
701.58	349.20
701.92	347.57
702.25	345.90
702.59	344.22
702.92	342.72
703.26	340.96
703.59	339.28
703.93	337.93
704.26	336.59
704.60	335.03
704.93	333.54
705.26	331.98
705.60	330.66
705.93	329.13
706.27	327.82
706.60	326.58
706.94	325.38
707.27	323.90
707.61	322.56
707.94	321.16
708.27	319.49
708.61	318.10
708.94	316.84
709.28	315.57
709.61	314.22
709.94	313.00
710.28	311.91
710.61	310.82
710.95	309.22
711.28	308.13
711.61	306.90
711.95	305.84
712.28	304.74
712.61	303.56
712.95	302.58
713.28	301.51
713.61	300.42
713.95	299.30
714.28	298.33
714.61	297.25
714.95	296.25
715.28	295.34
715.61	294.28
715.95	293.23
716.28	292.20
716.61	291.34
716.95	290.22
717.28	289.17
717.61	288.22
717.94	287.53
718.28	286.55
718.61	285.73
718.94	284.76
719.27	283.82
719.61	282.95
719.94	282.03
720.27	281.04
720.60	280.12
720.94	279.27
721.27	278.48
721.60	277.74
721.93	276.98
722.27	276.23
722.60	275.69
722.93	274.96
723.26	274.26
723.59	273.43
723.93	272.90
724.26	272.41
724.59	271.70
724.92	271.01
725.25	270.32
725.59	269.62
725.92	269.13
726.25	268.52
726.58	267.95
726.91	267.34
727.24	266.78
727.57	266.23
727.91	265.62
728.24	265.12
728.57	264.51
728.90	264.02
729.23	263.36
729.56	262.97
729.89	262.41
730.22	261.85
730.55	261.38
730.89	260.79
731.22	260.10
731.55	259.61
731.88	259.16
732.21	258.63
732.54	258.06
732.87	257.44
733.20	256.92
733.53	256.46
733.86	256.08
734.19	255.57
734.52	255.18
734.85	254.99
735.18	254.48
735.51	254.06
735.84	253.60
736.17	253.20
736.50	252.55
736.83	252.56
737.16	252.11
737.49	251.63
737.82	251.17
738.15	250.85
738.48	250.27
738.81	249.83
739.14	249.31
739.47	248.85
739.80	248.45
740.13	248.06
740.46	247.47
740.79	246.95
741.12	246.58
741.45	246.05
741.78	245.41
742.11	245.12
742.44	244.71
742.77	244.37
743.10	244.03
743.43	243.56
743.75	242.79
744.08	242.88
744.41	242.54
744.74	242.19
745.07	241.82
745.40	241.57
745.73	241.37
746.06	241.14
746.39	240.83
746.71	240.43
747.04	240.03
747.37	239.77
747.70	239.55
748.03	239.17
748.36	238.95
748.68	238.60
749.01	238.12
749.34	237.80
749.67	237.48
750.00	237.28
750.33	237.25
750.65	236.92
750.98	236.23
751.31	235.90
751.64	235.54
751.97	235.37
752.29	235.18
752.62	234.69
752.95	234.33
753.28	234.06
753.60	233.78
753.93	233.71
754.26	233.50
754.59	233.11
754.91	232.87
755.24	232.53
755.57	232.29
755.90	232.06
756.22	231.82
756.55	231.56
756.88	231.29
757.20	230.82
757.53	230.53
757.86	230.21
758.19	230.05
758.51	229.94
758.84	229.59
759.17	229.30
759.49	229.15
759.82	229.15
760.15	228.95
760.47	228.80
760.80	228.48
761.13	228.23
761.45	227.96
761.78	227.74
762.11	227.62
762.43	227.34
762.76	227.13
763.08	226.98
763.41	226.80
763.74	226.58
764.06	226.42
764.39	226.24
764.71	226.12
765.04	225.93
765.37	225.69
765.69	225.51
766.02	225.29
766.34	225.07
766.67	224.74
767.00	224.63
767.32	224.64
767.65	224.67
767.97	224.52
768.30	224.42
768.62	224.27
768.95	224.09
769.27	224.10
769.60	224.05
769.92	223.85
770.25	223.61
770.57	223.38
770.90	223.18
771.22	223.02
771.55	222.96
771.87	222.81
772.20	222.81
772.52	222.95
772.85	223.33
773.17	223.20
773.50	223.09
773.82	222.99
774.15	222.70
774.47	222.33
774.80	222.22
775.12	222.16
775.45	222.13
775.77	221.92
776.09	221.74
776.42	221.66
776.74	221.59
777.07	221.53
777.39	221.48
777.72	221.40
778.04	221.39
778.36	221.21
778.69	221.08
779.01	220.88
779.33	220.50
779.66	219.93
779.98	219.80
780.31	219.67
780.63	219.70
780.95	219.66
781.28	219.60
781.60	219.47
781.92	219.40
782.25	219.25
782.57	219.20
782.89	219.15
783.22	219.01
783.54	218.92
783.86	218.88
784.19	218.73
784.51	218.78
784.83	218.67
785.16	218.62
785.48	218.64
785.80	218.61
