SpectraSuite Data File
++++++++++++++++++++++++++++++++++++
Date: Mon Feb 25 17:18:29 EST 2013
User: group
Dark Spectrum Present: No
Reference Spectrum Present: No
Number of Sampled Component Spectra: 1
Spectrometers: USB2E7196
Integration Time (usec): 104000 (USB2E7196)
Spectra Averaged: 20 (USB2E7196)
Boxcar Smoothing: 10 (USB2E7196)
Correct for Electrical Dark: No (USB2E7196)
Strobe/Lamp Enabled: No (USB2E7196)
Correct for Detector Non-linearity: No (USB2E7196)
Correct for Stray Light: No (USB2E7196)
Number of Pixels in Processed Spectrum: 2048
>>>>>Begin Processed Spectral Data<<<<<
339.09	0.00
339.48	199.25
339.86	199.45
340.24	201.50
340.63	201.70
341.01	209.50
341.39	204.35
341.78	207.35
342.16	208.35
342.54	208.75
342.93	197.87
343.31	207.82
343.69	208.36
344.07	208.85
344.46	209.36
344.84	209.88
345.22	210.00
345.60	210.37
345.99	210.57
346.37	210.72
346.75	210.84
347.13	210.98
347.52	211.10
347.90	211.25
348.28	211.26
348.66	211.45
349.05	211.37
349.43	211.52
349.81	211.70
350.19	211.78
350.57	211.93
350.96	212.10
351.34	212.29
351.72	212.46
352.10	212.60
352.48	212.64
352.87	212.75
353.25	212.88
353.63	212.97
354.01	213.06
354.39	213.18
354.77	213.26
355.15	213.47
355.54	213.57
355.92	213.54
356.30	213.70
356.68	213.94
357.06	214.13
357.44	214.17
357.82	214.21
358.20	214.34
358.58	214.40
358.97	214.50
359.35	214.70
359.73	214.77
360.11	214.88
360.49	215.01
360.87	215.00
361.25	215.06
361.63	215.23
362.01	215.30
362.39	215.25
362.77	215.38
363.15	215.37
363.53	215.45
363.91	215.53
364.29	215.59
364.67	215.36
365.05	215.36
365.43	215.41
365.81	215.46
366.19	215.68
366.57	215.85
366.95	215.83
367.33	215.73
367.71	215.74
368.09	215.74
368.47	215.73
368.85	215.72
369.23	215.81
369.61	215.60
369.99	215.72
370.37	215.81
370.75	215.94
371.13	215.86
371.51	215.80
371.89	215.84
372.27	215.79
372.65	215.77
373.03	215.77
373.41	215.63
373.78	215.53
374.16	215.30
374.54	215.10
374.92	215.04
375.30	215.07
375.68	214.90
376.06	214.87
376.44	214.79
376.82	214.76
377.19	214.62
377.57	214.59
377.95	214.41
378.33	214.33
378.71	214.04
379.09	214.10
379.47	214.06
379.84	213.91
380.22	213.84
380.60	213.76
380.98	213.70
381.36	213.70
381.73	213.61
382.11	213.59
382.49	213.55
382.87	213.45
383.25	213.22
383.62	213.61
384.00	213.52
384.38	213.44
384.76	213.44
385.13	213.50
385.51	213.48
385.89	213.38
386.27	213.42
386.64	213.42
387.02	213.30
387.40	213.28
387.78	213.32
388.15	213.26
388.53	213.18
388.91	213.15
389.29	213.08
389.66	213.15
390.04	213.03
390.42	213.15
390.79	213.16
391.17	213.24
391.55	212.85
391.92	212.89
392.30	212.89
392.68	212.87
393.05	212.78
393.43	212.80
393.81	212.85
394.18	212.76
394.56	212.76
394.94	212.84
395.31	212.76
395.69	212.87
396.06	212.88
396.44	212.93
396.82	212.90
397.19	213.09
397.57	213.08
397.95	213.14
398.32	212.99
398.70	213.07
399.07	213.16
399.45	213.19
399.82	213.12
400.20	213.15
400.58	213.17
400.95	213.09
401.33	213.19
401.70	213.53
402.08	213.60
402.45	213.65
402.83	213.80
403.20	213.89
403.58	213.85
403.95	214.01
404.33	214.11
404.71	214.30
405.08	214.63
405.46	214.77
405.83	214.97
406.21	215.13
406.58	215.32
406.96	215.50
407.33	215.72
407.70	216.02
408.08	216.52
408.45	216.76
408.83	217.12
409.20	217.34
409.58	217.43
409.95	217.89
410.33	218.35
410.70	218.63
411.08	219.12
411.45	219.56
411.82	220.00
412.20	220.66
412.57	221.40
412.95	221.68
413.32	222.37
413.69	222.94
414.07	223.65
414.44	224.33
414.82	225.10
415.19	225.95
415.56	226.92
415.94	227.79
416.31	228.96
416.68	230.06
417.06	231.34
417.43	232.54
417.81	233.88
418.18	235.22
418.55	236.68
418.93	238.15
419.30	239.81
419.67	241.55
420.04	243.23
420.42	244.92
420.79	247.21
421.16	249.24
421.54	251.59
421.91	253.93
422.28	256.33
422.66	258.79
423.03	261.42
423.40	263.89
423.77	266.44
424.15	269.14
424.52	272.04
424.89	275.17
425.26	278.16
425.64	280.99
426.01	284.10
426.38	287.41
426.75	290.82
427.13	294.27
427.50	297.88
427.87	301.55
428.24	305.39
428.61	308.79
428.99	312.83
429.36	317.05
429.73	321.26
430.10	325.48
430.47	329.88
430.85	334.19
431.22	338.93
431.59	344.06
431.96	348.75
432.33	354.07
432.70	359.04
433.08	364.99
433.45	370.58
433.82	376.27
434.19	382.46
434.56	388.54
434.93	394.30
435.30	400.08
435.68	406.54
436.05	412.81
436.42	419.08
436.79	424.78
437.16	430.86
437.53	437.23
437.90	443.71
438.27	450.00
438.64	456.54
439.01	462.56
439.38	467.79
439.75	473.08
440.13	478.98
440.50	484.65
440.87	489.21
441.24	493.97
441.61	499.10
441.98	502.95
442.35	507.30
442.72	511.91
443.09	516.25
443.46	518.87
443.83	520.52
444.20	522.00
444.57	524.20
444.94	525.33
445.31	526.49
445.68	527.58
446.05	527.89
446.42	527.18
446.79	526.49
447.16	525.73
447.53	525.09
447.90	522.47
448.27	519.94
448.64	516.51
449.01	513.94
449.37	509.63
449.74	505.33
450.11	500.54
450.48	494.90
450.85	489.30
451.22	484.45
451.59	479.90
451.96	475.57
452.33	469.66
452.70	464.22
453.07	457.95
453.43	451.36
453.80	445.28
454.17	439.47
454.54	433.81
454.91	427.84
455.28	422.12
455.65	416.82
456.02	411.75
456.38	407.24
456.75	401.61
457.12	396.84
457.49	392.11
457.86	387.44
458.23	383.83
458.59	379.56
458.96	375.23
459.33	371.42
459.70	367.67
460.07	364.72
460.43	361.26
460.80	357.93
461.17	355.17
461.54	352.27
461.91	349.50
462.27	346.65
462.64	344.18
463.01	341.46
463.38	339.00
463.74	336.08
464.11	333.76
464.48	331.75
464.85	329.62
465.21	328.16
465.58	326.46
465.95	324.25
466.32	322.66
466.68	321.00
467.05	319.31
467.42	317.66
467.78	315.90
468.15	314.39
468.52	313.24
468.88	311.61
469.25	310.14
469.62	309.02
469.98	307.93
470.35	306.92
470.72	305.80
471.08	304.60
471.45	303.78
471.82	302.87
472.18	301.90
472.55	301.21
472.92	300.37
473.28	299.71
473.65	298.98
474.02	298.40
474.38	298.02
474.75	297.70
475.11	297.17
475.48	296.94
475.85	296.73
476.21	296.55
476.58	296.50
476.94	296.59
477.31	296.46
477.67	296.39
478.04	296.40
478.41	296.73
478.77	297.24
479.14	297.46
479.50	297.85
479.87	298.36
480.23	298.87
480.60	299.26
480.96	299.85
481.33	300.79
481.69	301.37
482.06	302.14
482.42	302.95
482.79	303.90
483.15	304.96
483.52	306.17
483.88	307.34
484.25	308.56
484.61	309.82
484.98	311.27
485.34	312.98
485.71	314.88
486.07	316.60
486.44	318.20
486.80	320.15
487.17	322.23
487.53	324.53
487.90	326.93
488.26	329.50
488.62	332.23
488.99	334.99
489.35	337.99
489.72	341.10
490.08	344.37
490.44	347.80
490.81	351.56
491.17	355.24
491.54	359.30
491.90	363.53
492.26	368.01
492.63	372.79
492.99	377.70
493.36	382.65
493.72	388.05
494.08	393.70
494.45	399.77
494.81	406.04
495.17	412.36
495.54	419.16
495.90	426.24
496.26	433.43
496.63	440.91
496.99	448.79
497.35	457.03
497.72	465.49
498.08	474.45
498.44	483.55
498.80	493.49
499.17	503.60
499.53	513.94
499.89	524.63
500.26	535.60
500.62	546.79
500.98	558.78
501.34	570.88
501.71	583.61
502.07	596.48
502.43	609.79
502.79	623.39
503.16	637.62
503.52	652.12
503.88	667.20
504.24	682.76
504.60	698.68
504.97	715.24
505.33	732.14
505.69	749.87
506.05	767.90
506.41	785.98
506.78	804.31
507.14	823.20
507.50	842.54
507.86	862.31
508.22	882.68
508.59	903.30
508.95	924.63
509.31	946.06
509.67	968.04
510.03	990.61
510.39	1014.15
510.75	1037.58
511.12	1061.18
511.48	1085.23
511.84	1109.70
512.20	1134.25
512.56	1159.30
512.92	1185.13
513.28	1210.86
513.64	1236.88
514.00	1263.05
514.37	1289.59
514.73	1316.54
515.09	1343.58
515.45	1370.65
515.81	1397.79
516.17	1425.11
516.53	1452.56
516.89	1480.45
517.25	1508.36
517.61	1536.13
517.97	1563.51
518.33	1591.30
518.69	1619.19
519.05	1647.24
519.41	1675.28
519.77	1704.17
520.13	1731.97
520.49	1759.33
520.85	1787.35
521.21	1815.40
521.57	1843.85
521.93	1871.56
522.29	1900.20
522.65	1928.72
523.01	1956.75
523.37	1984.35
523.73	2012.50
524.09	2040.45
524.45	2068.22
524.81	2095.70
525.17	2123.69
525.53	2151.32
525.89	2178.80
526.25	2206.33
526.61	2232.71
526.97	2259.35
527.33	2285.58
527.68	2312.18
528.04	2337.97
528.40	2362.84
528.76	2387.71
529.12	2413.11
529.48	2439.18
529.84	2463.81
530.20	2488.18
530.56	2512.82
530.91	2538.44
531.27	2562.96
531.63	2586.81
531.99	2610.31
532.35	2633.44
532.71	2655.45
533.07	2678.57
533.42	2700.27
533.78	2722.10
534.14	2743.86
534.50	2764.24
534.86	2785.00
535.21	2804.60
535.57	2825.86
535.93	2845.65
536.29	2865.25
536.65	2884.48
537.00	2902.03
537.36	2919.61
537.72	2936.71
538.08	2953.76
538.44	2970.35
538.79	2986.75
539.15	3003.10
539.51	3018.97
539.87	3035.39
540.22	3051.42
540.58	3066.88
540.94	3082.36
541.29	3095.84
541.65	3108.79
542.01	3122.56
542.37	3135.07
542.72	3148.23
543.08	3159.65
543.44	3172.82
543.79	3183.89
544.15	3194.01
544.51	3205.43
544.87	3216.87
545.22	3226.83
545.58	3235.96
545.94	3243.74
546.29	3251.02
546.65	3258.13
547.01	3264.70
547.36	3270.82
547.72	3276.72
548.07	3281.31
548.43	3285.76
548.79	3290.40
549.14	3295.40
549.50	3299.73
549.86	3303.29
550.21	3306.44
550.57	3309.92
550.92	3311.03
551.28	3313.06
551.64	3314.81
551.99	3316.95
552.35	3317.49
552.70	3319.00
553.06	3320.40
553.41	3321.63
553.77	3322.47
554.13	3323.03
554.48	3324.17
554.84	3324.80
555.19	3324.04
555.55	3323.03
555.90	3321.45
556.26	3320.22
556.61	3318.22
556.97	3315.60
557.32	3313.59
557.68	3310.33
558.03	3307.65
558.39	3305.14
558.74	3303.25
559.10	3301.18
559.45	3297.61
559.81	3295.03
560.16	3290.88
560.52	3287.43
560.87	3283.41
561.23	3278.68
561.58	3274.81
561.94	3269.10
562.29	3263.30
562.64	3259.08
563.00	3255.11
563.35	3251.51
563.71	3248.27
564.06	3244.41
564.42	3240.78
564.77	3237.14
565.12	3234.00
565.48	3229.27
565.83	3225.30
566.19	3221.06
566.54	3214.96
566.89	3209.35
567.25	3203.58
567.60	3198.43
567.96	3192.80
568.31	3187.35
568.66	3181.32
569.02	3174.35
569.37	3167.80
569.72	3161.35
570.08	3154.22
570.43	3146.63
570.78	3138.63
571.14	3129.72
571.49	3121.12
571.84	3113.41
572.20	3104.22
572.55	3095.79
572.90	3086.63
573.26	3077.02
573.61	3066.99
573.96	3058.21
574.31	3047.72
574.67	3036.59
575.02	3025.90
575.37	3014.80
575.72	3003.40
576.08	2993.65
576.43	2982.78
576.78	2972.60
577.13	2962.82
577.49	2952.72
577.84	2942.32
578.19	2932.68
578.54	2924.00
578.90	2915.26
579.25	2904.69
579.60	2893.62
579.95	2882.06
580.30	2872.28
580.66	2862.74
581.01	2851.76
581.36	2840.35
581.71	2830.31
582.06	2820.50
582.42	2810.43
582.77	2799.71
583.12	2789.06
583.47	2779.18
583.82	2769.56
584.17	2759.09
584.53	2748.84
584.88	2738.47
585.23	2728.28
585.58	2717.37
585.93	2705.71
586.28	2695.47
586.63	2684.62
586.98	2675.05
587.34	2665.67
587.69	2654.99
588.04	2644.32
588.39	2634.40
588.74	2624.18
589.09	2614.39
589.44	2603.91
589.79	2594.26
590.14	2585.00
590.49	2575.29
590.84	2564.74
591.19	2555.43
591.54	2545.81
591.89	2534.20
592.25	2523.36
592.60	2512.21
592.95	2501.52
593.30	2490.18
593.65	2478.26
594.00	2467.72
594.35	2458.49
594.70	2447.94
595.05	2437.82
595.40	2427.34
595.75	2416.48
596.10	2406.94
596.45	2397.14
596.80	2387.91
597.15	2377.97
597.50	2367.30
597.85	2357.55
598.19	2347.41
598.54	2337.28
598.89	2327.94
599.24	2319.86
599.59	2311.13
599.94	2303.49
600.29	2294.59
600.64	2286.10
600.99	2276.42
601.34	2267.69
601.69	2257.07
602.04	2247.46
602.39	2238.08
602.74	2229.14
603.08	2221.14
603.43	2212.75
603.78	2203.61
604.13	2194.60
604.48	2185.60
604.83	2178.23
605.18	2170.65
605.53	2161.84
605.87	2152.28
606.22	2143.33
606.57	2134.15
606.92	2125.06
607.27	2115.07
607.62	2105.84
607.96	2097.56
608.31	2089.88
608.66	2080.46
609.01	2071.36
609.36	2062.06
609.70	2052.21
610.05	2042.10
610.40	2032.38
610.75	2022.33
611.10	2012.87
611.44	2001.96
611.79	1991.37
612.14	1980.11
612.49	1968.67
612.83	1958.60
613.18	1948.05
613.53	1937.26
613.88	1925.56
614.22	1914.97
614.57	1904.08
614.92	1893.74
615.27	1882.51
615.61	1871.72
615.96	1861.42
616.31	1851.34
616.65	1841.95
617.00	1832.47
617.35	1822.60
617.70	1812.08
618.04	1800.71
618.39	1789.70
618.74	1779.80
619.08	1769.62
619.43	1759.61
619.78	1749.83
620.12	1739.79
620.47	1730.14
620.82	1719.43
621.16	1709.67
621.51	1699.35
621.85	1689.67
622.20	1679.20
622.55	1669.21
622.89	1658.84
623.24	1648.36
623.59	1638.04
623.93	1627.67
624.28	1617.62
624.62	1607.79
624.97	1598.04
625.32	1589.13
625.66	1579.94
626.01	1570.50
626.35	1561.40
626.70	1551.90
627.04	1543.03
627.39	1533.93
627.73	1524.93
628.08	1516.72
628.43	1507.40
628.77	1498.25
629.12	1488.95
629.46	1480.54
629.81	1471.72
630.15	1463.14
630.50	1454.50
630.84	1445.55
631.19	1436.51
631.53	1427.45
631.88	1418.27
632.22	1409.07
632.57	1400.45
632.91	1391.12
633.26	1382.31
633.60	1373.53
633.95	1365.27
634.29	1356.20
634.64	1347.82
634.98	1338.67
635.32	1330.20
635.67	1322.45
636.01	1314.34
636.36	1305.75
636.70	1297.47
637.05	1289.15
637.39	1281.05
637.73	1273.61
638.08	1266.27
638.42	1258.86
638.77	1251.37
639.11	1243.71
639.45	1236.12
639.80	1227.87
640.14	1220.11
640.49	1212.20
640.83	1204.40
641.17	1196.34
641.52	1188.21
641.86	1179.74
642.20	1172.19
642.55	1163.63
642.89	1155.41
643.23	1147.12
643.58	1139.74
643.92	1131.35
644.26	1123.45
644.61	1115.34
644.95	1107.20
645.29	1099.10
645.64	1090.94
645.98	1082.96
646.32	1075.26
646.66	1067.50
647.01	1060.11
647.35	1052.68
647.69	1044.85
648.04	1037.24
648.38	1029.57
648.72	1022.21
649.06	1014.80
649.41	1007.37
649.75	1000.17
650.09	992.98
650.43	985.91
650.78	978.15
651.12	970.94
651.46	963.79
651.80	956.81
652.14	949.56
652.49	942.37
652.83	935.04
653.17	927.49
653.51	920.05
653.85	913.14
654.20	905.83
654.54	898.54
654.88	891.80
655.22	884.63
655.56	877.50
655.90	870.53
656.25	863.62
656.59	856.63
656.93	849.90
657.27	843.09
657.61	836.09
657.95	829.63
658.29	823.30
658.64	817.15
658.98	810.61
659.32	803.94
659.66	797.40
660.00	790.94
660.34	784.47
660.68	778.17
661.02	771.53
661.36	765.65
661.70	759.83
662.05	753.94
662.39	748.51
662.73	742.99
663.07	737.53
663.41	732.13
663.75	726.64
664.09	720.87
664.43	715.14
664.77	709.81
665.11	704.40
665.45	699.09
665.79	693.55
666.13	688.22
666.47	683.02
666.81	678.02
667.15	673.06
667.49	668.53
667.83	663.87
668.17	659.30
668.51	654.62
668.85	650.04
669.19	645.45
669.53	640.62
669.87	635.87
670.21	631.29
670.55	626.47
670.89	622.37
671.23	618.46
671.57	614.42
671.91	610.16
672.25	606.06
672.58	601.74
672.92	597.59
673.26	593.61
673.60	589.74
673.94	585.73
674.28	581.87
674.62	577.95
674.96	574.09
675.30	570.16
675.64	566.20
675.97	562.38
676.31	558.70
676.65	555.14
676.99	551.87
677.33	548.14
677.67	544.70
678.01	540.80
678.34	537.05
678.68	533.59
679.02	530.01
679.36	526.52
679.70	523.16
680.04	519.65
680.37	516.14
680.71	512.79
681.05	509.57
681.39	506.29
681.73	503.13
682.06	500.09
682.40	497.07
682.74	493.96
683.08	490.83
683.42	487.56
683.75	484.42
684.09	481.00
684.43	477.92
684.77	474.78
685.10	471.73
685.44	468.60
685.78	465.37
686.12	462.63
686.45	459.67
686.79	456.81
687.13	454.18
687.46	451.48
687.80	448.75
688.14	445.87
688.48	443.20
688.81	440.25
689.15	437.36
689.49	434.61
689.82	431.82
690.16	428.93
690.50	426.22
690.83	423.48
691.17	420.86
691.51	418.20
691.84	415.75
692.18	413.29
692.52	411.07
692.85	408.87
693.19	406.52
693.52	404.15
693.86	401.67
694.20	399.35
694.53	397.05
694.87	394.64
695.21	392.36
695.54	389.91
695.88	387.70
696.21	385.51
696.55	383.41
696.88	381.38
697.22	379.33
697.56	377.43
697.89	375.41
698.23	373.43
698.56	371.51
698.90	369.74
699.23	367.76
699.57	365.76
699.90	363.85
700.24	361.93
700.58	360.05
700.91	358.34
701.25	356.68
701.58	354.92
701.92	353.11
702.25	351.42
702.59	349.74
702.92	348.11
703.26	346.50
703.59	344.79
703.93	343.37
704.26	341.95
704.60	340.30
704.93	338.71
705.26	337.13
705.60	335.60
705.93	333.87
706.27	332.55
706.60	331.12
706.94	329.79
707.27	328.27
707.61	326.79
707.94	325.30
708.27	323.65
708.61	322.20
708.94	320.87
709.28	319.47
709.61	318.19
709.94	316.93
710.28	315.63
710.61	314.51
710.95	312.86
711.28	311.74
711.61	310.51
711.95	309.40
712.28	308.26
712.61	307.15
712.95	306.17
713.28	305.11
713.61	303.93
713.95	302.69
714.28	301.61
714.61	300.60
714.95	299.59
715.28	298.51
715.61	297.39
715.95	296.36
716.28	295.36
716.61	294.34
716.95	293.24
717.28	292.23
717.61	291.17
717.94	290.32
718.28	289.12
718.61	288.18
718.94	287.20
719.27	286.33
719.61	285.47
719.94	284.54
720.27	283.42
720.60	282.55
720.94	281.74
721.27	280.87
721.60	280.12
721.93	279.27
722.27	278.54
722.60	277.88
722.93	277.10
723.26	276.34
723.59	275.58
723.93	274.90
724.26	274.23
724.59	273.60
724.92	273.00
725.25	272.44
725.59	271.81
725.92	271.24
726.25	270.52
726.58	269.89
726.91	269.19
727.24	268.65
727.57	268.06
727.91	267.27
728.24	266.75
728.57	266.03
728.90	265.40
729.23	264.74
729.56	264.25
729.89	263.67
730.22	263.03
730.55	262.40
730.89	261.86
731.22	261.21
731.55	260.53
731.88	259.89
732.21	259.23
732.54	258.57
732.87	257.94
733.20	257.50
733.53	256.92
733.86	256.44
734.19	255.92
734.52	255.41
734.85	255.30
735.18	254.76
735.51	254.45
735.84	254.05
736.17	253.72
736.50	253.10
736.83	253.01
737.16	252.57
737.49	252.17
737.82	251.68
738.15	251.30
738.48	250.96
738.81	250.53
739.14	250.12
739.47	249.75
739.80	249.25
740.13	248.80
740.46	248.35
740.79	247.85
741.12	247.38
741.45	246.88
741.78	246.21
742.11	245.91
742.44	245.36
742.77	245.00
743.10	244.56
743.43	244.20
743.75	243.45
744.08	243.56
744.41	243.12
744.74	242.75
745.07	242.32
745.40	241.91
745.73	241.77
746.06	241.32
746.39	241.02
746.71	240.77
747.04	240.35
747.37	240.01
747.70	239.72
748.03	239.43
748.36	239.21
748.68	238.90
749.01	238.49
749.34	238.18
749.67	237.88
750.00	237.62
750.33	237.57
750.65	237.38
750.98	236.70
751.31	236.43
751.64	236.19
751.97	236.07
752.29	235.75
752.62	235.28
752.95	235.06
753.28	234.71
753.60	234.42
753.93	234.29
754.26	233.98
754.59	233.66
754.91	233.41
755.24	233.16
755.57	232.93
755.90	232.66
756.22	232.45
756.55	232.12
756.88	231.74
757.20	231.26
757.53	230.86
757.86	230.51
758.19	230.32
758.51	229.99
758.84	229.63
759.17	229.47
759.49	229.31
759.82	229.31
760.15	229.14
760.47	228.90
760.80	228.55
761.13	228.45
761.45	228.35
761.78	228.06
762.11	227.88
762.43	227.65
762.76	227.47
763.08	227.30
763.41	227.20
763.74	227.06
764.06	226.82
764.39	226.69
764.71	226.53
765.04	226.27
765.37	226.08
765.69	225.93
766.02	225.68
766.34	225.38
766.67	225.08
767.00	224.98
767.32	224.95
767.65	225.01
767.97	224.75
768.30	224.54
768.62	224.46
768.95	224.22
769.27	224.13
769.60	224.08
769.92	223.82
770.25	223.55
770.57	223.34
770.90	223.25
771.22	223.07
771.55	223.01
771.87	222.95
772.20	222.91
772.52	223.09
772.85	223.43
773.17	223.39
773.50	223.20
773.82	223.05
774.15	222.81
774.47	222.53
774.80	222.47
775.12	222.31
775.45	222.10
775.77	222.04
776.09	221.92
776.42	221.75
776.74	221.78
777.07	221.70
777.39	221.63
777.72	221.50
778.04	221.43
778.36	221.27
778.69	221.20
779.01	221.10
779.33	220.67
779.66	220.16
779.98	219.99
780.31	219.86
780.63	219.92
780.95	219.84
781.28	219.69
781.60	219.52
781.92	219.45
782.25	219.39
782.57	219.31
782.89	219.17
783.22	219.12
783.54	218.94
783.86	218.91
784.19	218.80
784.51	218.84
784.83	218.69
785.16	218.65
785.48	218.55
785.80	218.41
