SpectraSuite Data File
++++++++++++++++++++++++++++++++++++
Date: Mon Feb 25 17:06:10 EST 2013
User: group
Dark Spectrum Present: No
Reference Spectrum Present: No
Number of Sampled Component Spectra: 1
Spectrometers: USB2E7196
Integration Time (usec): 104000 (USB2E7196)
Spectra Averaged: 20 (USB2E7196)
Boxcar Smoothing: 10 (USB2E7196)
Correct for Electrical Dark: No (USB2E7196)
Strobe/Lamp Enabled: No (USB2E7196)
Correct for Detector Non-linearity: No (USB2E7196)
Correct for Stray Light: No (USB2E7196)
Number of Pixels in Processed Spectrum: 2048
>>>>>Begin Processed Spectral Data<<<<<
339.09	0.00
339.48	199.05
339.86	201.35
340.24	201.70
340.63	203.35
341.01	209.80
341.39	205.60
341.78	208.70
342.16	209.40
342.54	207.55
342.93	198.37
343.31	208.35
343.69	208.89
344.07	209.25
344.46	209.68
344.84	210.03
345.22	210.07
345.60	210.28
345.99	210.37
346.37	210.42
346.75	210.44
347.13	210.49
347.52	210.51
347.90	210.69
348.28	210.63
348.66	210.70
349.05	210.50
349.43	210.56
349.81	210.62
350.19	210.52
350.57	210.61
350.96	210.65
351.34	210.74
351.72	210.77
352.10	210.83
352.48	210.81
352.87	210.86
353.25	210.82
353.63	210.86
354.01	210.82
354.39	210.87
354.77	211.00
355.15	211.20
355.54	211.17
355.92	211.09
356.30	211.26
356.68	211.49
357.06	211.54
357.44	211.59
357.82	211.63
358.20	211.75
358.58	211.73
358.97	211.76
359.35	211.91
359.73	212.02
360.11	212.09
360.49	212.14
360.87	212.15
361.25	212.33
361.63	212.48
362.01	212.57
362.39	212.57
362.77	212.70
363.15	212.67
363.53	212.72
363.91	212.83
364.29	212.87
364.67	212.59
365.05	212.64
365.43	212.71
365.81	212.80
366.19	212.99
366.57	213.10
366.95	213.10
367.33	212.95
367.71	213.01
368.09	213.10
368.47	213.15
368.85	213.16
369.23	213.18
369.61	213.11
369.99	213.27
370.37	213.26
370.75	213.33
371.13	213.27
371.51	213.30
371.89	213.29
372.27	213.28
372.65	213.27
373.03	213.25
373.41	213.15
373.78	213.07
374.16	212.81
374.54	212.70
374.92	212.66
375.30	212.70
375.68	212.53
376.06	212.44
376.44	212.30
376.82	212.27
377.19	212.22
377.57	212.14
377.95	211.94
378.33	211.93
378.71	211.73
379.09	211.76
379.47	211.68
379.84	211.54
380.22	211.38
380.60	211.32
380.98	211.26
381.36	211.21
381.73	211.05
382.11	211.10
382.49	211.06
382.87	210.93
383.25	210.81
383.62	211.22
384.00	211.12
384.38	211.19
384.76	211.18
385.13	211.28
385.51	211.28
385.89	211.20
386.27	211.21
386.64	211.24
387.02	211.14
387.40	211.10
387.78	211.08
388.15	211.12
388.53	211.05
388.91	211.00
389.29	210.96
389.66	211.06
390.04	210.95
390.42	211.05
390.79	211.14
391.17	211.16
391.55	210.66
391.92	210.68
392.30	210.69
392.68	210.63
393.05	210.56
393.43	210.56
393.81	210.60
394.18	210.50
394.56	210.49
394.94	210.55
395.31	210.48
395.69	210.61
396.06	210.62
396.44	210.65
396.82	210.61
397.19	210.82
397.57	210.74
397.95	210.83
398.32	210.72
398.70	210.68
399.07	210.78
399.45	210.82
399.82	210.84
400.20	210.77
400.58	210.83
400.95	210.67
401.33	210.70
401.70	210.93
402.08	210.99
402.45	210.97
402.83	211.13
403.20	211.17
403.58	211.17
403.95	211.27
404.33	211.40
404.71	211.49
405.08	211.69
405.46	211.83
405.83	212.00
406.21	212.07
406.58	212.22
406.96	212.27
407.33	212.40
407.70	212.59
408.08	213.08
408.45	213.28
408.83	213.53
409.20	213.71
409.58	213.77
409.95	213.97
410.33	214.33
410.70	214.47
411.08	214.87
411.45	215.20
411.82	215.48
412.20	215.84
412.57	216.41
412.95	216.49
413.32	216.95
413.69	217.31
414.07	217.81
414.44	218.30
414.82	218.93
415.19	219.60
415.56	220.19
415.94	220.62
416.31	221.40
416.68	222.17
417.06	223.04
417.43	223.91
417.81	224.94
418.18	225.85
418.55	226.81
418.93	227.88
419.30	229.06
419.67	230.25
420.04	231.47
420.42	232.69
420.79	234.40
421.16	235.87
421.54	237.63
421.91	239.23
422.28	240.98
422.66	242.65
423.03	244.62
423.40	246.49
423.77	248.39
424.15	250.31
424.52	252.46
424.89	254.79
425.26	256.94
425.64	259.06
426.01	261.36
426.38	263.81
426.75	266.23
427.13	268.61
427.50	271.21
427.87	273.91
428.24	276.63
428.61	279.16
428.99	282.18
429.36	285.16
429.73	288.34
430.10	291.41
430.47	294.66
430.85	297.70
431.22	301.20
431.59	305.26
431.96	308.80
432.33	312.75
432.70	316.59
433.08	321.07
433.45	325.31
433.82	329.58
434.19	334.35
434.56	339.09
434.93	343.54
435.30	348.04
435.68	353.03
436.05	357.98
436.42	362.84
436.79	367.27
437.16	372.11
437.53	377.10
437.90	382.10
438.27	387.15
438.64	392.31
439.01	397.16
439.38	401.30
439.75	405.54
440.13	410.28
440.50	414.71
440.87	418.40
441.24	422.27
441.61	426.58
441.98	429.70
442.35	433.39
442.72	437.27
443.09	441.01
443.46	443.32
443.83	444.98
444.20	446.42
444.57	448.35
444.94	449.31
445.31	450.48
445.68	451.93
446.05	452.57
446.42	452.43
446.79	452.09
447.16	451.58
447.53	451.37
447.90	449.68
448.27	448.11
448.64	445.85
449.01	444.23
449.37	441.00
449.74	438.03
450.11	434.53
450.48	430.47
450.85	426.27
451.22	422.80
451.59	419.45
451.96	416.21
452.33	411.94
452.70	408.08
453.07	403.35
453.43	398.21
453.80	393.53
454.17	389.11
454.54	384.89
454.91	380.47
455.28	376.05
455.65	371.97
456.02	368.29
456.38	364.74
456.75	360.26
457.12	356.63
457.49	353.09
457.86	349.39
458.23	346.45
458.59	343.20
458.96	339.85
459.33	336.83
459.70	333.89
460.07	331.55
460.43	328.89
460.80	326.43
461.17	324.31
461.54	321.96
461.91	319.73
462.27	317.53
462.64	315.55
463.01	313.44
463.38	311.47
463.74	308.84
464.11	306.93
464.48	305.44
464.85	303.65
465.21	302.31
465.58	300.90
465.95	299.09
466.32	297.62
466.68	296.14
467.05	294.67
467.42	293.20
467.78	291.61
468.15	290.16
468.52	289.06
468.88	287.56
469.25	286.34
469.62	285.37
469.98	284.20
470.35	283.16
470.72	282.15
471.08	280.95
471.45	280.14
471.82	279.33
472.18	278.30
472.55	277.68
472.92	276.80
473.28	276.01
473.65	275.36
474.02	274.58
474.38	274.07
474.75	273.63
475.11	273.03
475.48	272.63
475.85	272.19
476.21	271.68
476.58	271.33
476.94	270.98
477.31	270.60
477.67	270.31
478.04	269.99
478.41	269.82
478.77	269.95
479.14	269.71
479.50	269.64
479.87	269.60
480.23	269.44
480.60	269.25
480.96	269.15
481.33	269.25
481.69	269.31
482.06	269.29
482.42	269.28
482.79	269.38
483.15	269.41
483.52	269.75
483.88	269.91
484.25	270.13
484.61	270.38
484.98	270.55
485.34	270.85
485.71	271.22
486.07	271.48
486.44	271.60
486.80	271.96
487.17	272.18
487.53	272.67
487.90	273.25
488.26	273.89
488.62	274.51
488.99	275.05
489.35	275.65
489.72	276.23
490.08	276.85
490.44	277.53
490.81	278.33
491.17	278.93
491.54	279.57
491.90	280.31
492.26	281.18
492.63	282.06
492.99	282.96
493.36	283.90
493.72	284.90
494.08	285.91
494.45	287.00
494.81	288.19
495.17	289.22
495.54	290.33
495.90	291.41
496.26	292.63
496.63	293.70
496.99	294.96
497.35	296.26
497.72	297.62
498.08	298.86
498.44	300.22
498.80	301.59
499.17	303.06
499.53	304.45
499.89	305.85
500.26	307.25
500.62	308.63
500.98	310.21
501.34	311.64
501.71	313.15
502.07	314.60
502.43	315.97
502.79	317.42
503.16	318.82
503.52	320.37
503.88	321.75
504.24	323.24
504.60	324.68
504.97	326.24
505.33	327.56
505.69	329.37
506.05	330.73
506.41	332.23
506.78	333.72
507.14	335.23
507.50	336.62
507.86	338.08
508.22	339.57
508.59	340.82
508.95	342.36
509.31	343.84
509.67	345.27
510.03	346.83
510.39	348.28
510.75	349.88
511.12	351.24
511.48	352.65
511.84	354.07
512.20	355.45
512.56	356.77
512.92	358.35
513.28	359.59
513.64	361.10
514.00	362.49
514.37	363.85
514.73	365.31
515.09	366.85
515.45	368.25
515.81	369.56
516.17	371.04
516.53	372.41
516.89	373.55
517.25	374.99
517.61	376.43
517.97	377.80
518.33	379.17
518.69	380.80
519.05	382.35
519.41	384.00
519.77	385.74
520.13	387.20
520.49	388.62
520.85	390.13
521.21	391.86
521.57	393.47
521.93	395.04
522.29	396.74
522.65	398.35
523.01	400.11
523.37	401.93
523.73	403.72
524.09	405.50
524.45	407.50
524.81	409.31
525.17	411.20
525.53	413.24
525.89	415.17
526.25	417.16
526.61	419.08
526.97	421.09
527.33	423.25
527.68	425.84
528.04	428.19
528.40	430.42
528.76	432.61
529.12	434.98
529.48	437.53
529.84	439.84
530.20	442.21
530.56	444.70
530.91	447.45
531.27	449.96
531.63	452.58
531.99	455.26
532.35	458.02
532.71	460.72
533.07	463.47
533.42	466.70
533.78	469.36
534.14	472.27
534.50	474.88
534.86	477.58
535.21	480.04
535.57	482.84
535.93	485.68
536.29	488.69
536.65	491.58
537.00	494.37
537.36	497.17
537.72	500.00
538.08	502.91
538.44	505.68
538.79	508.68
539.15	511.52
539.51	514.36
539.87	517.29
540.22	520.20
540.58	523.20
540.94	525.72
541.29	528.64
541.65	531.41
542.01	534.53
542.37	537.61
542.72	540.66
543.08	543.57
543.44	546.56
543.79	549.26
544.15	552.18
544.51	555.35
544.87	558.45
545.22	561.48
545.58	564.37
545.94	567.08
546.29	569.85
546.65	572.61
547.01	575.35
547.36	578.20
547.72	581.10
548.07	583.86
548.43	586.45
548.79	589.09
549.14	591.62
549.50	594.39
549.86	596.69
550.21	599.20
550.57	601.80
550.92	604.25
551.28	606.74
551.64	609.16
551.99	611.51
552.35	613.79
552.70	616.07
553.06	618.27
553.41	620.55
553.77	623.02
554.13	625.41
554.48	627.88
554.84	630.05
555.19	632.13
555.55	634.40
555.90	636.45
556.26	638.41
556.61	640.48
556.97	642.15
557.32	644.06
557.68	645.84
558.03	647.60
558.39	649.26
558.74	651.22
559.10	653.01
559.45	654.75
559.81	656.56
560.16	658.32
560.52	660.19
560.87	661.86
561.23	663.24
561.58	664.97
561.94	666.28
562.29	667.40
562.64	668.87
563.00	670.10
563.35	671.64
563.71	673.40
564.06	674.92
564.42	676.56
564.77	678.19
565.12	679.70
565.48	681.30
565.83	682.85
566.19	684.25
566.54	685.35
566.89	686.29
567.25	687.72
567.60	689.05
567.96	690.39
568.31	691.69
568.66	692.79
569.02	693.44
569.37	694.20
569.72	695.28
570.08	696.03
570.43	696.68
570.78	697.08
571.14	697.39
571.49	697.82
571.84	698.26
572.20	698.53
572.55	698.85
572.90	698.85
573.26	699.00
573.61	698.88
573.96	698.93
574.31	698.95
574.67	698.61
575.02	698.14
575.37	697.56
575.72	696.97
576.08	696.64
576.43	696.43
576.78	696.16
577.13	695.84
577.49	695.51
577.84	695.19
578.19	695.28
578.54	695.10
578.90	695.02
579.25	694.37
579.60	693.88
579.95	693.34
580.30	693.01
580.66	692.60
581.01	692.07
581.36	691.61
581.71	691.22
582.06	690.77
582.42	690.43
582.77	689.96
583.12	689.54
583.47	689.06
583.82	688.70
584.17	688.47
584.53	688.22
584.88	687.74
585.23	687.23
585.58	686.42
585.93	685.76
586.28	685.07
586.63	684.75
586.98	684.19
587.34	683.94
587.69	683.32
588.04	682.57
588.39	682.18
588.74	681.40
589.09	680.89
589.44	679.93
589.79	679.35
590.14	678.72
590.49	677.90
590.84	677.07
591.19	676.30
591.54	675.47
591.89	674.26
592.25	673.41
592.60	672.28
592.95	671.38
593.30	670.30
593.65	669.11
594.00	667.91
594.35	667.91
594.70	666.37
595.05	665.32
595.40	664.26
595.75	662.84
596.10	662.00
596.45	660.94
596.80	660.21
597.15	659.07
597.50	657.96
597.85	657.15
598.19	656.03
598.54	655.01
598.89	653.90
599.24	653.14
599.59	651.98
599.94	651.35
600.29	650.41
600.64	649.50
600.99	648.33
601.34	647.48
601.69	645.41
602.04	644.34
602.39	643.21
602.74	642.40
603.08	641.72
603.43	641.01
603.78	639.97
604.13	638.86
604.48	637.79
604.83	636.85
605.18	635.91
605.53	634.95
605.87	633.65
606.22	632.53
606.57	631.35
606.92	630.23
607.27	628.80
607.62	627.49
607.96	626.30
608.31	625.54
608.66	624.26
609.01	622.95
609.36	621.86
609.70	620.54
610.05	619.06
610.40	617.55
610.75	615.93
611.10	614.62
611.44	612.96
611.79	611.43
612.14	609.84
612.49	608.06
612.83	606.46
613.18	604.61
613.53	602.89
613.88	601.05
614.22	599.37
614.57	597.78
614.92	596.12
615.27	594.45
615.61	592.68
615.96	590.99
616.31	589.35
616.65	587.89
617.00	586.07
617.35	584.32
617.70	582.51
618.04	580.65
618.39	578.51
618.74	576.90
619.08	574.98
619.43	573.19
619.78	571.41
620.12	569.67
620.47	568.33
620.82	566.40
621.16	564.54
621.51	562.79
621.85	560.86
622.20	559.01
622.55	557.11
622.89	555.03
623.24	553.12
623.59	551.21
623.93	549.20
624.28	547.58
624.62	546.19
624.97	544.55
625.32	542.61
625.66	541.00
626.01	539.14
626.35	537.48
626.70	535.66
627.04	534.14
627.39	532.34
627.73	530.55
628.08	529.09
628.43	527.38
628.77	525.58
629.12	523.78
629.46	522.18
629.81	520.51
630.15	518.80
630.50	517.01
630.84	515.16
631.19	513.34
631.53	511.56
631.88	509.30
632.22	507.14
632.57	505.73
632.91	503.85
633.26	502.11
633.60	500.33
633.95	498.63
634.29	496.67
634.64	495.08
634.98	493.15
635.32	491.40
635.67	489.92
636.01	488.22
636.36	486.52
636.70	484.92
637.05	483.17
637.39	481.63
637.73	480.10
638.08	478.83
638.42	477.41
638.77	475.84
639.11	474.34
639.45	472.93
639.80	470.99
640.14	469.30
640.49	467.60
640.83	465.88
641.17	464.14
641.52	462.37
641.86	460.57
642.20	459.00
642.55	457.09
642.89	455.32
643.23	453.67
643.58	452.16
643.92	450.28
644.26	448.52
644.61	446.82
644.95	445.06
645.29	443.17
645.64	441.52
645.98	439.86
646.32	438.27
646.66	436.51
647.01	434.99
647.35	433.57
647.69	431.77
648.04	430.19
648.38	428.62
648.72	427.00
649.06	425.41
649.41	423.78
649.75	422.31
650.09	420.63
650.43	418.92
650.78	417.16
651.12	415.49
651.46	413.85
651.80	412.28
652.14	410.73
652.49	409.08
652.83	407.37
653.17	405.55
653.51	403.67
653.85	402.20
654.20	400.59
654.54	398.87
654.88	397.36
655.22	395.78
655.56	394.16
655.90	392.59
656.25	390.92
656.59	389.30
656.93	387.67
657.27	386.29
657.61	384.61
657.95	383.21
658.29	381.63
658.64	380.25
658.98	378.62
659.32	376.93
659.66	375.42
660.00	373.92
660.34	372.39
660.68	370.94
661.02	369.37
661.36	367.92
661.70	366.49
662.05	365.18
662.39	363.92
662.73	362.74
663.07	361.50
663.41	360.22
663.75	358.88
664.09	357.58
664.43	356.00
664.77	354.79
665.11	353.32
665.45	352.17
665.79	350.93
666.13	349.65
666.47	348.41
666.81	347.19
667.15	345.75
667.49	344.70
667.83	343.66
668.17	342.49
668.51	341.28
668.85	340.13
669.19	339.04
669.53	337.62
669.87	336.39
670.21	335.18
670.55	333.94
670.89	333.02
671.23	332.00
671.57	331.00
671.91	329.92
672.25	328.95
672.58	328.04
672.92	326.87
673.26	325.89
673.60	324.92
673.94	323.94
674.28	323.12
674.62	322.16
674.96	321.16
675.30	320.19
675.64	319.19
675.97	318.21
676.31	317.26
676.65	316.51
676.99	315.61
677.33	314.64
677.67	313.79
678.01	312.65
678.34	311.62
678.68	310.71
679.02	309.83
679.36	308.85
679.70	307.75
680.04	306.86
680.37	305.97
680.71	305.08
681.05	304.27
681.39	303.32
681.73	302.38
682.06	301.53
682.40	300.73
682.74	299.95
683.08	299.28
683.42	298.24
683.75	297.43
684.09	296.47
684.43	295.69
684.77	294.80
685.10	294.00
685.44	293.18
685.78	292.34
686.12	291.55
686.45	290.80
686.79	290.05
687.13	289.34
687.46	288.56
687.80	287.83
688.14	286.98
688.48	286.29
688.81	285.53
689.15	284.91
689.49	284.08
689.82	283.33
690.16	282.37
690.50	281.66
690.83	280.79
691.17	279.99
691.51	279.28
691.84	278.70
692.18	278.04
692.52	277.29
692.85	276.75
693.19	276.25
693.52	275.56
693.86	274.80
694.20	274.16
694.53	273.49
694.87	272.93
695.21	272.25
695.54	271.56
695.88	270.87
696.21	270.05
696.55	269.50
696.88	268.82
697.22	268.30
697.56	267.80
697.89	267.31
698.23	266.82
698.56	266.20
698.90	265.64
699.23	265.00
699.57	264.55
699.90	263.84
700.24	263.16
700.58	262.70
700.91	262.20
701.25	261.92
701.58	261.49
701.92	260.98
702.25	260.48
702.59	259.87
702.92	259.40
703.26	258.90
703.59	258.40
703.93	258.21
704.26	257.73
704.60	257.26
704.93	256.78
705.26	256.28
705.60	255.89
705.93	255.29
706.27	254.98
706.60	254.57
706.94	254.33
707.27	253.92
707.61	253.43
707.94	252.99
708.27	252.28
708.61	251.76
708.94	251.21
709.28	250.86
709.61	250.49
709.94	250.10
710.28	249.74
710.61	249.33
710.95	248.58
711.28	248.42
711.61	247.98
711.95	247.61
712.28	247.20
712.61	246.77
712.95	246.61
713.28	246.35
713.61	245.90
713.95	245.44
714.28	245.08
714.61	244.73
714.95	244.40
715.28	244.03
715.61	243.79
715.95	243.54
716.28	243.10
716.61	242.85
716.95	242.46
717.28	242.14
717.61	241.77
717.94	241.49
718.28	240.91
718.61	240.62
718.94	240.32
719.27	239.95
719.61	239.70
719.94	239.37
720.27	238.87
720.60	238.59
720.94	238.24
721.27	237.92
721.60	237.62
721.93	237.40
722.27	237.23
722.60	236.95
722.93	236.61
723.26	236.45
723.59	236.14
723.93	235.97
724.26	235.75
724.59	235.58
724.92	235.44
725.25	235.35
725.59	235.10
725.92	234.90
726.25	234.70
726.58	234.44
726.91	234.14
727.24	234.04
727.57	233.82
727.91	233.52
728.24	233.35
728.57	233.18
728.90	232.96
729.23	232.71
729.56	232.63
729.89	232.40
730.22	232.18
730.55	231.90
730.89	231.71
731.22	231.54
731.55	231.30
731.88	231.08
732.21	230.80
732.54	230.58
732.87	230.31
733.20	230.17
733.53	230.02
733.86	229.87
734.19	229.61
734.52	229.51
734.85	229.71
735.18	229.43
735.51	229.37
735.84	229.14
736.17	229.01
736.50	228.66
736.83	228.98
737.16	228.88
737.49	228.76
737.82	228.52
738.15	228.35
738.48	228.20
738.81	227.97
739.14	227.75
739.47	227.52
739.80	227.31
740.13	227.15
740.46	226.90
740.79	226.68
741.12	226.52
741.45	226.31
741.78	225.88
742.11	225.91
742.44	225.64
742.77	225.62
743.10	225.43
743.43	225.29
743.75	224.73
744.08	224.92
744.41	224.73
744.74	224.60
745.07	224.45
745.40	224.36
745.73	224.37
746.06	224.29
746.39	224.29
746.71	224.16
747.04	224.02
747.37	223.89
747.70	223.82
748.03	223.65
748.36	223.58
748.68	223.50
749.01	223.25
749.34	223.17
749.67	223.04
750.00	222.99
750.33	223.12
750.65	223.10
750.98	222.57
751.31	222.53
751.64	222.42
751.97	222.49
752.29	222.33
752.62	222.06
752.95	221.92
753.28	221.79
753.60	221.68
753.93	221.66
754.26	221.61
754.59	221.36
754.91	221.31
755.24	221.21
755.57	221.11
755.90	221.03
756.22	220.87
756.55	220.67
756.88	220.47
757.20	220.09
757.53	219.85
757.86	219.74
758.19	219.70
758.51	219.62
758.84	219.32
759.17	219.20
759.49	219.13
759.82	219.21
760.15	219.13
760.47	219.07
760.80	218.84
761.13	218.82
761.45	218.74
761.78	218.62
762.11	218.51
762.43	218.41
762.76	218.31
763.08	218.31
763.41	218.29
763.74	218.28
764.06	218.26
764.39	218.25
764.71	218.20
765.04	218.10
765.37	218.03
765.69	217.99
766.02	217.92
766.34	217.80
766.67	217.57
767.00	217.55
767.32	217.73
767.65	217.88
767.97	217.75
768.30	217.77
768.62	217.75
768.95	217.64
769.27	217.59
769.60	217.53
769.92	217.28
770.25	217.16
770.57	216.97
770.90	216.91
771.22	216.79
771.55	216.74
771.87	216.68
772.20	216.51
772.52	216.68
772.85	217.07
773.17	217.08
773.50	217.01
773.82	216.92
774.15	216.62
774.47	216.37
774.80	216.29
775.12	216.27
775.45	216.21
775.77	216.21
776.09	216.16
776.42	216.11
776.74	216.19
777.07	216.19
777.39	216.19
777.72	216.14
778.04	216.15
778.36	216.05
778.69	215.99
779.01	216.05
779.33	215.72
779.66	215.31
779.98	215.21
780.31	215.19
780.63	215.28
780.95	215.30
781.28	215.30
781.60	215.20
781.92	215.09
782.25	215.07
782.57	214.92
782.89	214.84
783.22	214.81
783.54	214.77
783.86	214.75
784.19	214.67
784.51	214.71
784.83	214.63
785.16	214.59
785.48	214.59
785.80	214.54
786.12	214.44
786.45	214.35
786.77	214.39
787.09	214.32
787.42	214.15
787.74	214.14
788.06	214.12
788.38	214.10
788.71	214.07
789.03	214.06
789.35	214.13
789.67	214.05
789.99	214.00
790.32	213.91
790.64	213.85
790.96	214.12
791.28	213.94
791.61	213.93
791.93	213.97
792.25	213.88
792.57	214.14
792.89	214.15
793.21	214.18
793.54	214.09
793.86	214.07
794.18	214.05
