SpectraSuite Data File
++++++++++++++++++++++++++++++++++++
Date: Mon Feb 25 17:01:45 EST 2013
User: group
Dark Spectrum Present: No
Reference Spectrum Present: No
Number of Sampled Component Spectra: 1
Spectrometers: USB2E7196
Integration Time (usec): 104000 (USB2E7196)
Spectra Averaged: 20 (USB2E7196)
Boxcar Smoothing: 10 (USB2E7196)
Correct for Electrical Dark: No (USB2E7196)
Strobe/Lamp Enabled: No (USB2E7196)
Correct for Detector Non-linearity: No (USB2E7196)
Correct for Stray Light: No (USB2E7196)
Number of Pixels in Processed Spectrum: 2048
>>>>>Begin Processed Spectral Data<<<<<
339.09	0.00
339.48	199.10
339.86	200.10
340.24	200.95
340.63	201.65
341.01	209.60
341.39	205.90
341.78	207.15
342.16	210.45
342.54	207.40
342.93	198.11
343.31	208.14
343.69	208.66
344.07	209.17
344.46	209.71
344.84	210.12
345.22	210.13
345.60	210.38
345.99	210.54
346.37	210.60
346.75	210.72
347.13	210.79
347.52	210.86
347.90	211.00
348.28	210.99
348.66	211.10
349.05	211.01
349.43	211.05
349.81	211.01
350.19	211.03
350.57	211.02
350.96	211.16
351.34	211.19
351.72	211.21
352.10	211.24
352.48	211.18
352.87	211.32
353.25	211.38
353.63	211.42
354.01	211.48
354.39	211.44
354.77	211.54
355.15	211.72
355.54	211.78
355.92	211.72
356.30	211.80
356.68	211.98
357.06	211.96
357.44	212.01
357.82	212.06
358.20	212.09
358.58	212.09
358.97	212.14
359.35	212.27
359.73	212.42
360.11	212.41
360.49	212.48
360.87	212.42
361.25	212.51
361.63	212.64
362.01	212.73
362.39	212.78
362.77	212.83
363.15	212.80
363.53	212.81
363.91	212.87
364.29	212.91
364.67	212.69
365.05	212.78
365.43	212.91
365.81	212.96
366.19	213.08
366.57	213.29
366.95	213.25
367.33	213.15
367.71	213.03
368.09	213.10
368.47	213.06
368.85	213.05
369.23	213.06
369.61	212.88
369.99	212.99
370.37	213.04
370.75	213.25
371.13	213.22
371.51	213.15
371.89	213.03
372.27	212.98
372.65	213.03
373.03	213.00
373.41	212.86
373.78	212.83
374.16	212.65
374.54	212.44
374.92	212.41
375.30	212.47
375.68	212.45
376.06	212.41
376.44	212.39
376.82	212.38
377.19	212.39
377.57	212.34
377.95	212.15
378.33	212.08
378.71	211.69
379.09	211.61
379.47	211.64
379.84	211.61
380.22	211.58
380.60	211.45
380.98	211.46
381.36	211.35
381.73	211.30
382.11	211.28
382.49	211.37
382.87	211.26
383.25	211.14
383.62	211.46
384.00	211.36
384.38	211.39
384.76	211.43
385.13	211.47
385.51	211.46
385.89	211.34
386.27	211.27
386.64	211.31
387.02	211.28
387.40	211.15
387.78	211.19
388.15	211.14
388.53	211.09
388.91	210.98
389.29	210.95
389.66	210.93
390.04	210.80
390.42	210.82
390.79	210.84
391.17	210.80
391.55	210.46
391.92	210.49
392.30	210.43
392.68	210.32
393.05	210.22
393.43	210.26
393.81	210.31
394.18	210.30
394.56	210.31
394.94	210.41
395.31	210.39
395.69	210.52
396.06	210.50
396.44	210.47
396.82	210.40
397.19	210.65
397.57	210.59
397.95	210.74
398.32	210.62
398.70	210.66
399.07	210.81
399.45	210.78
399.82	210.80
400.20	210.79
400.58	210.82
400.95	210.82
401.33	210.88
401.70	211.13
402.08	211.21
402.45	211.33
402.83	211.41
403.20	211.46
403.58	211.44
403.95	211.65
404.33	211.86
404.71	212.05
405.08	212.31
405.46	212.42
405.83	212.59
406.21	212.77
406.58	212.90
406.96	213.07
407.33	213.32
407.70	213.63
408.08	214.16
408.45	214.55
408.83	214.87
409.20	215.15
409.58	215.35
409.95	215.73
410.33	216.18
410.70	216.50
411.08	217.04
411.45	217.59
411.82	218.05
412.20	218.69
412.57	219.47
412.95	219.81
413.32	220.64
413.69	221.39
414.07	222.13
414.44	223.08
414.82	223.91
415.19	224.94
415.56	225.91
415.94	226.82
416.31	227.93
416.68	229.12
417.06	230.56
417.43	231.92
417.81	233.45
418.18	234.94
418.55	236.65
418.93	238.51
419.30	240.36
419.67	242.24
420.04	244.20
420.42	246.28
420.79	248.85
421.16	251.29
421.54	253.94
421.91	256.64
422.28	259.32
422.66	262.30
423.03	265.36
423.40	268.36
423.77	271.62
424.15	274.90
424.52	278.35
424.89	281.95
425.26	285.50
425.64	289.00
426.01	292.73
426.38	296.63
426.75	300.69
427.13	304.75
427.50	309.18
427.87	313.73
428.24	318.22
428.61	322.59
428.99	327.41
429.36	332.56
429.73	337.76
430.10	343.01
430.47	348.36
430.85	353.75
431.22	359.58
431.59	365.92
431.96	371.96
432.33	378.55
432.70	385.10
433.08	392.71
433.45	399.84
433.82	407.05
434.19	415.00
434.56	422.73
434.93	430.31
435.30	437.94
435.68	446.36
436.05	454.66
436.42	462.89
436.79	470.59
437.16	478.72
437.53	487.37
437.90	495.95
438.27	504.45
438.64	513.30
439.01	521.69
439.38	528.98
439.75	536.10
440.13	544.33
440.50	551.96
440.87	558.22
441.24	564.97
441.61	572.29
441.98	577.97
442.35	584.52
442.72	591.09
443.09	597.44
443.46	601.45
443.83	604.43
444.20	606.99
444.57	610.34
444.94	612.35
445.31	614.37
445.68	616.50
446.05	617.60
446.42	617.27
446.79	616.96
447.16	616.44
447.53	616.24
447.90	613.62
448.27	611.22
448.64	607.64
449.01	604.93
449.37	599.79
449.74	594.91
450.11	588.91
450.48	582.25
450.85	575.37
451.22	569.60
451.59	564.15
451.96	558.87
452.33	551.82
452.70	545.35
453.07	537.38
453.43	529.29
453.80	521.63
454.17	514.20
454.54	507.01
454.91	499.36
455.28	491.97
455.65	485.14
456.02	478.40
456.38	472.38
456.75	464.93
457.12	458.84
457.49	452.67
457.86	446.65
458.23	441.65
458.59	436.12
458.96	430.42
459.33	425.31
459.70	420.36
460.07	416.42
460.43	411.84
460.80	407.71
461.17	403.90
461.54	399.96
461.91	396.30
462.27	392.45
462.64	389.34
463.01	385.79
463.38	382.28
463.74	378.44
464.11	375.41
464.48	372.87
464.85	370.00
465.21	367.84
465.58	365.51
465.95	362.52
466.32	360.06
466.68	357.68
467.05	355.33
467.42	352.91
467.78	350.29
468.15	347.95
468.52	346.15
468.88	343.93
469.25	341.81
469.62	340.12
469.98	338.22
470.35	336.40
470.72	334.75
471.08	332.93
471.45	331.49
471.82	329.98
472.18	328.21
472.55	326.94
472.92	325.42
473.28	324.08
473.65	322.80
474.02	321.56
474.38	320.58
474.75	319.69
475.11	318.70
475.48	317.96
475.85	317.18
476.21	316.45
476.58	315.75
476.94	315.28
477.31	314.72
477.67	314.24
478.04	313.84
478.41	313.55
478.77	313.58
479.14	313.30
479.50	312.98
479.87	312.92
480.23	312.82
480.60	312.62
480.96	312.43
481.33	312.66
481.69	312.80
482.06	312.87
482.42	312.97
482.79	313.11
483.15	313.34
483.52	313.72
483.88	313.93
484.25	314.06
484.61	314.37
484.98	314.71
485.34	315.27
485.71	315.79
486.07	316.28
486.44	316.60
486.80	317.19
487.17	317.81
487.53	318.60
487.90	319.48
488.26	320.50
488.62	321.62
488.99	322.50
489.35	323.48
489.72	324.55
490.08	325.58
490.44	326.60
490.81	327.81
491.17	328.98
491.54	330.38
491.90	331.83
492.26	333.33
492.63	334.73
492.99	336.11
493.36	337.79
493.72	339.45
494.08	341.19
494.45	342.96
494.81	344.93
495.17	346.68
495.54	348.56
495.90	350.36
496.26	352.16
496.63	354.08
496.99	356.01
497.35	358.00
497.72	360.10
498.08	362.20
498.44	364.16
498.80	366.32
499.17	368.43
499.53	370.57
499.89	372.66
500.26	374.88
500.62	376.95
500.98	378.99
501.34	381.00
501.71	383.05
502.07	385.13
502.43	386.96
502.79	388.93
503.16	390.89
503.52	392.75
503.88	394.62
504.24	396.48
504.60	398.22
504.97	400.01
505.33	401.69
505.69	403.60
506.05	405.33
506.41	407.00
506.78	408.43
507.14	409.92
507.50	411.30
507.86	412.68
508.22	414.07
508.59	415.10
508.95	416.34
509.31	417.62
509.67	418.67
510.03	419.95
510.39	421.08
510.75	422.00
511.12	423.07
511.48	423.86
511.84	424.76
512.20	425.60
512.56	426.25
512.92	427.05
513.28	427.62
513.64	428.13
514.00	428.56
514.37	429.05
514.73	429.51
515.09	430.00
515.45	430.27
515.81	430.55
516.17	430.87
516.53	431.05
516.89	430.99
517.25	431.01
517.61	431.02
517.97	430.94
518.33	430.85
518.69	430.71
519.05	430.82
519.41	430.68
519.77	430.81
520.13	430.84
520.49	430.69
520.85	430.57
521.21	430.51
521.57	430.35
521.93	430.11
522.29	429.96
522.65	429.73
523.01	429.66
523.37	429.60
523.73	429.64
524.09	429.67
524.45	429.55
524.81	429.53
525.17	429.59
525.53	429.77
525.89	429.80
526.25	429.98
526.61	429.96
526.97	430.17
527.33	430.22
527.68	430.70
528.04	430.95
528.40	431.16
528.76	431.76
529.12	432.24
529.48	432.97
529.84	433.58
530.20	434.32
530.56	435.15
530.91	436.01
531.27	436.81
531.63	437.65
531.99	438.79
532.35	439.89
532.71	440.91
533.07	442.06
533.42	443.58
533.78	444.75
534.14	446.03
534.50	447.20
534.86	448.57
535.21	449.65
535.57	451.25
535.93	452.73
536.29	454.25
536.65	455.77
537.00	457.30
537.36	458.79
537.72	460.39
538.08	461.96
538.44	463.56
538.79	465.36
539.15	467.10
539.51	468.98
539.87	470.90
540.22	472.91
540.58	474.91
540.94	476.85
541.29	478.99
541.65	481.18
542.01	483.57
542.37	485.91
542.72	488.24
543.08	490.49
543.44	493.13
543.79	495.17
544.15	497.72
544.51	500.40
544.87	503.06
545.22	505.67
545.58	508.26
545.94	510.77
546.29	513.34
546.65	516.07
547.01	518.56
547.36	521.14
547.72	523.68
548.07	526.37
548.43	528.92
548.79	531.47
549.14	534.11
549.50	536.82
549.86	539.31
550.21	542.03
550.57	544.75
550.92	547.31
551.28	550.25
551.64	552.95
551.99	555.60
552.35	558.25
552.70	560.79
553.06	563.49
553.41	566.12
553.77	569.10
554.13	571.79
554.48	574.62
554.84	577.56
555.19	580.23
555.55	583.16
555.90	585.74
556.26	588.39
556.61	590.79
556.97	593.11
557.32	595.70
557.68	598.03
558.03	600.37
558.39	602.54
558.74	604.76
559.10	607.19
559.45	609.50
559.81	611.95
560.16	614.32
560.52	616.71
560.87	619.19
561.23	621.19
561.58	623.80
561.94	625.85
562.29	627.84
562.64	629.99
563.00	631.86
563.35	634.15
563.71	636.40
564.06	638.80
564.42	641.16
564.77	643.39
565.12	645.69
565.48	648.01
565.83	650.39
566.19	652.74
566.54	654.68
566.89	656.78
567.25	659.04
567.60	661.30
567.96	663.40
568.31	665.55
568.66	667.35
569.02	668.70
569.37	670.20
569.72	672.04
570.08	673.65
570.43	675.05
570.78	676.33
571.14	677.55
571.49	678.63
571.84	679.64
572.20	680.61
572.55	681.69
572.90	682.33
573.26	683.15
573.61	683.71
573.96	684.41
574.31	684.84
574.67	685.06
575.02	685.24
575.37	685.35
575.72	685.13
576.08	685.47
576.43	685.57
576.78	686.08
577.13	686.18
577.49	686.52
577.84	686.77
578.19	687.19
578.54	687.45
578.90	687.75
579.25	687.89
579.60	687.75
579.95	687.57
580.30	687.61
580.66	687.69
581.01	687.61
581.36	687.38
581.71	687.35
582.06	687.33
582.42	687.15
582.77	686.96
583.12	687.15
583.47	687.08
583.82	687.01
584.17	686.61
584.53	686.42
584.88	686.05
585.23	685.83
585.58	685.21
585.93	684.81
586.28	684.52
586.63	684.25
586.98	684.25
587.34	684.00
587.69	683.45
588.04	682.90
588.39	682.61
588.74	682.15
589.09	681.71
589.44	680.95
589.79	680.36
590.14	679.88
590.49	679.15
590.84	678.28
591.19	677.75
591.54	677.18
591.89	676.10
592.25	675.34
592.60	674.20
592.95	673.35
593.30	672.31
593.65	670.98
594.00	669.73
594.35	669.35
594.70	668.20
595.05	667.36
595.40	666.16
595.75	664.90
596.10	663.95
596.45	662.83
596.80	662.12
597.15	661.30
597.50	660.08
597.85	658.90
598.19	657.80
598.54	656.55
598.89	655.51
599.24	654.87
599.59	653.70
599.94	652.75
600.29	651.68
600.64	650.49
600.99	649.50
601.34	648.59
601.69	646.54
602.04	645.31
602.39	644.18
602.74	643.17
603.08	642.24
603.43	641.36
603.78	640.32
604.13	638.91
604.48	637.69
604.83	636.95
605.18	636.08
605.53	634.84
605.87	633.70
606.22	632.54
606.57	631.16
606.92	629.87
607.27	628.66
607.62	627.36
607.96	626.36
608.31	625.36
608.66	623.98
609.01	622.71
609.36	621.48
609.70	620.09
610.05	618.47
610.40	616.90
610.75	615.07
611.10	613.67
611.44	611.96
611.79	610.21
612.14	608.29
612.49	606.45
612.83	604.90
613.18	603.13
613.53	601.29
613.88	599.52
614.22	597.89
614.57	596.10
614.92	594.41
615.27	592.59
615.61	590.64
615.96	588.82
616.31	587.07
616.65	585.49
617.00	583.69
617.35	581.97
617.70	580.10
618.04	578.29
618.39	576.16
618.74	574.46
619.08	572.61
619.43	570.75
619.78	568.88
620.12	567.14
620.47	565.33
620.82	563.39
621.16	561.35
621.51	559.43
621.85	557.57
622.20	555.67
622.55	553.69
622.89	551.65
623.24	549.96
623.59	547.99
623.93	546.03
624.28	544.25
624.62	542.82
624.97	541.09
625.32	539.13
625.66	537.40
626.01	535.48
626.35	533.77
626.70	531.90
627.04	530.32
627.39	528.56
627.73	526.88
628.08	525.34
628.43	523.56
628.77	521.77
629.12	519.94
629.46	518.29
629.81	516.54
630.15	514.82
630.50	512.99
630.84	511.20
631.19	509.40
631.53	507.50
631.88	505.32
632.22	503.45
632.57	501.94
632.91	500.08
633.26	498.47
633.60	496.78
633.95	495.16
634.29	493.19
634.64	491.57
634.98	489.78
635.32	488.11
635.67	486.60
636.01	484.89
636.36	483.23
636.70	481.54
637.05	480.00
637.39	478.45
637.73	476.93
638.08	475.72
638.42	474.21
638.77	472.87
639.11	471.40
639.45	469.84
639.80	468.03
640.14	466.33
640.49	464.68
640.83	462.97
641.17	461.31
641.52	459.66
641.86	457.91
642.20	456.34
642.55	454.46
642.89	452.67
643.23	450.98
643.58	449.40
643.92	447.55
644.26	445.78
644.61	444.09
644.95	442.25
645.29	440.32
645.64	438.65
645.98	436.73
646.32	434.97
646.66	433.23
647.01	431.72
647.35	430.20
647.69	428.52
648.04	426.95
648.38	425.36
648.72	423.76
649.06	421.88
649.41	420.16
649.75	418.52
650.09	417.02
650.43	415.49
650.78	413.77
651.12	412.15
651.46	410.52
651.80	408.99
652.14	407.42
652.49	405.85
652.83	404.09
653.17	402.53
653.51	400.88
653.85	399.37
654.20	397.80
654.54	396.19
654.88	394.66
655.22	393.15
655.56	391.45
655.90	389.90
656.25	388.40
656.59	386.86
656.93	385.40
657.27	383.93
657.61	382.31
657.95	380.88
658.29	379.56
658.64	378.18
658.98	376.65
659.32	375.15
659.66	373.61
660.00	372.19
660.34	370.68
660.68	369.23
661.02	367.70
661.36	366.20
661.70	364.80
662.05	363.36
662.39	361.88
662.73	360.68
663.07	359.51
663.41	358.21
663.75	356.82
664.09	355.48
664.43	353.93
664.77	352.63
665.11	351.22
665.45	349.91
665.79	348.74
666.13	347.48
666.47	346.20
666.81	344.96
667.15	343.64
667.49	342.56
667.83	341.53
668.17	340.33
668.51	339.29
668.85	338.19
669.19	337.25
669.53	336.05
669.87	334.76
670.21	333.58
670.55	332.50
670.89	331.60
671.23	330.55
671.57	329.66
671.91	328.55
672.25	327.62
672.58	326.62
672.92	325.37
673.26	324.33
673.60	323.37
673.94	322.33
674.28	321.31
674.62	320.39
674.96	319.31
675.30	318.50
675.64	317.53
675.97	316.52
676.31	315.47
676.65	314.56
676.99	313.86
677.33	312.90
677.67	311.95
678.01	310.82
678.34	309.96
678.68	309.17
679.02	308.29
679.36	307.32
679.70	306.35
680.04	305.62
680.37	304.72
680.71	303.81
681.05	303.09
681.39	302.37
681.73	301.45
682.06	300.65
682.40	299.86
682.74	299.04
683.08	298.34
683.42	297.46
683.75	296.78
684.09	295.86
684.43	295.00
684.77	294.25
685.10	293.48
685.44	292.73
685.78	291.89
686.12	291.23
686.45	290.53
686.79	289.81
687.13	289.13
687.46	288.49
687.80	287.82
688.14	287.06
688.48	286.37
688.81	285.60
689.15	285.00
689.49	284.15
689.82	283.45
690.16	282.52
690.50	281.82
690.83	281.04
691.17	280.33
691.51	279.71
691.84	279.01
692.18	278.39
692.52	277.59
692.85	276.94
693.19	276.40
693.52	275.76
693.86	275.12
694.20	274.38
694.53	273.79
694.87	273.11
695.21	272.45
695.54	271.78
695.88	271.15
696.21	270.34
696.55	269.77
696.88	269.11
697.22	268.53
697.56	268.08
697.89	267.43
698.23	266.85
698.56	266.21
698.90	265.76
699.23	265.11
699.57	264.68
699.90	264.07
700.24	263.43
700.58	262.93
700.91	262.37
701.25	262.04
701.58	261.54
701.92	261.07
702.25	260.60
702.59	260.08
702.92	259.57
703.26	259.14
703.59	258.72
703.93	258.57
704.26	258.20
704.60	257.66
704.93	257.18
705.26	256.65
705.60	256.27
705.93	255.69
706.27	255.40
706.60	255.08
706.94	254.71
707.27	254.15
707.61	253.62
707.94	253.14
708.27	252.45
708.61	251.90
708.94	251.52
709.28	251.06
709.61	250.55
709.94	250.24
710.28	249.86
710.61	249.42
710.95	248.71
711.28	248.57
711.61	248.11
711.95	247.84
712.28	247.47
712.61	247.11
712.95	246.97
713.28	246.70
713.61	246.16
713.95	245.76
714.28	245.53
714.61	245.21
714.95	244.81
715.28	244.42
715.61	244.02
715.95	243.65
716.28	243.19
716.61	242.92
716.95	242.54
717.28	242.25
717.61	241.95
717.94	241.64
718.28	241.00
718.61	240.70
718.94	240.37
719.27	240.08
719.61	239.83
719.94	239.40
720.27	238.94
720.60	238.62
720.94	238.26
721.27	237.92
721.60	237.64
721.93	237.40
722.27	237.33
722.60	237.17
722.93	236.83
723.26	236.74
723.59	236.45
723.93	236.25
724.26	235.98
724.59	235.66
724.92	235.40
725.25	235.30
725.59	235.06
725.92	234.83
726.25	234.59
726.58	234.30
726.91	234.07
727.24	233.96
727.57	233.73
727.91	233.48
728.24	233.38
728.57	233.21
728.90	233.08
729.23	232.74
729.56	232.65
729.89	232.46
730.22	232.17
730.55	232.00
730.89	231.71
731.22	231.41
731.55	231.22
731.88	231.03
732.21	230.78
732.54	230.59
732.87	230.37
733.20	230.15
733.53	229.93
733.86	229.82
734.19	229.57
734.52	229.47
734.85	229.58
735.18	229.32
735.51	229.26
735.84	229.13
736.17	229.04
736.50	228.66
736.83	228.88
737.16	228.82
737.49	228.65
737.82	228.50
738.15	228.37
738.48	228.15
738.81	227.96
739.14	227.75
739.47	227.51
739.80	227.40
740.13	227.27
740.46	227.06
740.79	226.79
741.12	226.61
741.45	226.44
741.78	226.10
742.11	225.93
742.44	225.62
742.77	225.50
743.10	225.30
743.43	225.22
743.75	224.71
744.08	224.95
744.41	224.82
744.74	224.63
745.07	224.43
745.40	224.45
745.73	224.47
746.06	224.28
746.39	224.25
746.71	224.01
747.04	223.89
747.37	223.76
747.70	223.72
748.03	223.59
748.36	223.48
748.68	223.35
749.01	223.20
749.34	223.11
749.67	222.95
750.00	222.96
750.33	223.10
750.65	223.02
750.98	222.43
751.31	222.34
751.64	222.35
751.97	222.48
752.29	222.38
752.62	222.09
752.95	222.09
753.28	221.90
753.60	221.78
753.93	221.75
754.26	221.70
754.59	221.46
754.91	221.36
755.24	221.29
755.57	221.19
755.90	220.99
756.22	220.93
756.55	220.75
756.88	220.53
757.20	220.19
757.53	219.99
757.86	219.89
758.19	219.82
758.51	219.67
758.84	219.38
759.17	219.18
759.49	219.06
759.82	219.14
760.15	219.11
760.47	219.05
760.80	218.88
761.13	218.85
761.45	218.85
761.78	218.77
762.11	218.60
762.43	218.47
762.76	218.39
763.08	218.30
763.41	218.30
763.74	218.18
764.06	218.05
764.39	217.95
764.71	217.92
765.04	217.70
765.37	217.59
765.69	217.56
766.02	217.48
766.34	217.47
766.67	217.21
767.00	217.24
767.32	217.31
767.65	217.44
767.97	217.29
768.30	217.23
768.62	217.11
768.95	217.01
769.27	216.93
769.60	217.01
769.92	216.87
770.25	216.79
770.57	216.72
770.90	216.67
771.22	216.64
771.55	216.58
771.87	216.60
772.20	216.55
772.52	216.69
772.85	217.03
773.17	216.94
773.50	216.89
773.82	216.74
774.15	216.59
774.47	216.21
774.80	216.09
775.12	215.97
775.45	216.01
775.77	215.99
776.09	215.95
776.42	215.88
776.74	215.94
777.07	215.84
777.39	215.78
777.72	215.74
778.04	215.74
778.36	215.55
778.69	215.44
779.01	215.47
779.33	215.09
779.66	214.70
779.98	214.65
780.31	214.63
780.63	214.72
780.95	214.67
781.28	214.65
781.60	214.61
781.92	214.55
782.25	214.39
782.57	214.35
782.89	214.30
783.22	214.21
783.54	214.09
783.86	214.06
784.19	214.01
784.51	214.14
784.83	214.02
785.16	214.10
785.48	214.19
785.80	214.05
786.12	214.15
786.45	214.13
786.77	214.12
787.09	214.06
787.42	213.94
787.74	213.91
788.06	213.92
788.38	213.90
788.71	213.85
789.03	213.86
789.35	213.93
789.67	213.85
789.99	213.94
790.32	213.82
790.64	213.84
790.96	214.15
791.28	213.92
791.61	213.91
791.93	213.89
792.25	213.79
792.57	214.07
792.89	213.98
793.21	213.93
793.54	213.89
793.86	213.79
794.18	213.77
