SpectraSuite Data File
++++++++++++++++++++++++++++++++++++
Date: Mon Feb 25 17:03:32 EST 2013
User: group
Dark Spectrum Present: No
Reference Spectrum Present: No
Number of Sampled Component Spectra: 1
Spectrometers: USB2E7196
Integration Time (usec): 104000 (USB2E7196)
Spectra Averaged: 20 (USB2E7196)
Boxcar Smoothing: 10 (USB2E7196)
Correct for Electrical Dark: No (USB2E7196)
Strobe/Lamp Enabled: No (USB2E7196)
Correct for Detector Non-linearity: No (USB2E7196)
Correct for Stray Light: No (USB2E7196)
Number of Pixels in Processed Spectrum: 2048
>>>>>Begin Processed Spectral Data<<<<<
339.09	0.00
339.48	197.35
339.86	199.10
340.24	201.90
340.63	202.30
341.01	208.85
341.39	204.70
341.78	207.30
342.16	209.80
342.54	208.20
342.93	197.96
343.31	207.98
343.69	208.55
344.07	209.06
344.46	209.57
344.84	209.98
345.22	210.04
345.60	210.37
345.99	210.53
346.37	210.60
346.75	210.70
347.13	210.69
347.52	210.75
347.90	210.91
348.28	210.95
348.66	211.00
349.05	210.85
349.43	210.95
349.81	211.06
350.19	211.10
350.57	211.20
350.96	211.31
351.34	211.46
351.72	211.55
352.10	211.69
352.48	211.66
352.87	211.67
353.25	211.73
353.63	211.70
354.01	211.76
354.39	211.90
354.77	211.94
355.15	212.17
355.54	212.15
355.92	212.10
356.30	212.16
356.68	212.48
357.06	212.56
357.44	212.51
357.82	212.56
358.20	212.63
358.58	212.67
358.97	212.70
359.35	212.79
359.73	212.91
360.11	212.90
360.49	212.94
360.87	213.06
361.25	213.20
361.63	213.41
362.01	213.50
362.39	213.45
362.77	213.59
363.15	213.62
363.53	213.71
363.91	213.80
364.29	213.78
364.67	213.52
365.05	213.57
365.43	213.66
365.81	213.71
366.19	213.89
366.57	214.01
366.95	213.96
367.33	213.79
367.71	213.81
368.09	213.84
368.47	213.80
368.85	213.72
369.23	213.77
369.61	213.71
369.99	213.78
370.37	213.77
370.75	213.92
371.13	213.83
371.51	213.75
371.89	213.71
372.27	213.78
372.65	213.74
373.03	213.68
373.41	213.60
373.78	213.51
374.16	213.29
374.54	213.12
374.92	213.03
375.30	213.00
375.68	212.86
376.06	212.87
376.44	212.82
376.82	212.79
377.19	212.67
377.57	212.49
377.95	212.27
378.33	212.24
378.71	211.93
379.09	211.91
379.47	211.92
379.84	211.77
380.22	211.61
380.60	211.51
380.98	211.48
381.36	211.43
381.73	211.27
382.11	211.25
382.49	211.22
382.87	211.17
383.25	211.12
383.62	211.40
384.00	211.29
384.38	211.31
384.76	211.34
385.13	211.44
385.51	211.45
385.89	211.37
386.27	211.32
386.64	211.31
387.02	211.21
387.40	211.15
387.78	211.20
388.15	211.23
388.53	211.12
388.91	211.15
389.29	211.10
389.66	211.23
390.04	211.17
390.42	211.26
390.79	211.25
391.17	211.26
391.55	210.96
391.92	210.95
392.30	210.90
392.68	210.85
393.05	210.81
393.43	210.82
393.81	210.88
394.18	210.80
394.56	210.82
394.94	210.90
395.31	210.84
395.69	210.92
396.06	210.90
396.44	210.98
396.82	210.85
397.19	211.04
397.57	211.00
397.95	211.10
398.32	210.97
398.70	211.11
399.07	211.20
399.45	211.17
399.82	211.17
400.20	211.20
400.58	211.25
400.95	211.15
401.33	211.27
401.70	211.57
402.08	211.61
402.45	211.62
402.83	211.76
403.20	211.88
403.58	211.94
403.95	212.06
404.33	212.24
404.71	212.36
405.08	212.60
405.46	212.69
405.83	212.80
406.21	212.94
406.58	213.01
406.96	213.14
407.33	213.36
407.70	213.61
408.08	214.10
408.45	214.32
408.83	214.58
409.20	214.68
409.58	214.70
409.95	215.08
410.33	215.37
410.70	215.58
411.08	215.89
411.45	216.28
411.82	216.69
412.20	217.13
412.57	217.86
412.95	218.07
413.32	218.68
413.69	219.23
414.07	219.78
414.44	220.43
414.82	221.13
415.19	221.88
415.56	222.64
415.94	223.27
416.31	224.27
416.68	225.25
417.06	226.45
417.43	227.59
417.81	228.81
418.18	230.07
418.55	231.39
418.93	232.87
419.30	234.29
419.67	235.80
420.04	237.38
420.42	238.90
420.79	241.07
421.16	243.06
421.54	245.23
421.91	247.40
422.28	249.59
422.66	252.00
423.03	254.48
423.40	256.95
423.77	259.50
424.15	261.98
424.52	264.74
424.89	267.70
425.26	270.44
425.64	273.22
426.01	276.28
426.38	279.51
426.75	282.81
427.13	286.11
427.50	289.71
427.87	293.38
428.24	297.06
428.61	300.43
428.99	304.32
429.36	308.45
429.73	312.69
430.10	316.92
430.47	321.16
430.85	325.47
431.22	330.17
431.59	335.30
431.96	340.06
432.33	345.39
432.70	350.45
433.08	356.57
433.45	362.20
433.82	367.89
434.19	374.21
434.56	380.41
434.93	386.49
435.30	392.53
435.68	399.18
436.05	405.85
436.42	412.40
436.79	418.43
437.16	424.88
437.53	431.70
437.90	438.56
438.27	445.40
438.64	452.46
439.01	458.95
439.38	464.77
439.75	470.70
440.13	477.02
440.50	483.24
440.87	488.38
441.24	493.72
441.61	499.59
441.98	503.96
442.35	508.97
442.72	514.09
443.09	519.05
443.46	522.18
443.83	524.45
444.20	526.50
444.57	529.31
444.94	530.77
445.31	532.30
445.68	534.05
446.05	534.89
446.42	534.58
446.79	534.17
447.16	533.75
447.53	533.44
447.90	531.47
448.27	529.36
448.64	526.23
449.01	523.98
449.37	519.86
449.74	516.03
450.11	511.48
450.48	506.23
450.85	500.78
451.22	496.07
451.59	491.65
451.96	487.37
452.33	481.48
452.70	476.35
453.07	470.13
453.43	463.44
453.80	457.25
454.17	451.34
454.54	445.79
454.91	439.76
455.28	433.97
455.65	428.45
456.02	423.30
456.38	418.64
456.75	412.97
457.12	408.09
457.49	403.15
457.86	398.15
458.23	394.20
458.59	389.71
458.96	385.37
459.33	381.27
459.70	377.34
460.07	374.30
460.43	370.71
460.80	367.29
461.17	364.37
461.54	361.27
461.91	358.37
462.27	355.36
462.64	352.60
463.01	349.62
463.38	346.91
463.74	343.77
464.11	341.20
464.48	338.95
464.85	336.53
465.21	334.77
465.58	332.89
465.95	330.37
466.32	328.48
466.68	326.47
467.05	324.64
467.42	322.67
467.78	320.64
468.15	318.72
468.52	317.33
468.88	315.39
469.25	313.62
469.62	312.22
469.98	310.65
470.35	309.27
470.72	307.92
471.08	306.38
471.45	305.16
471.82	304.09
472.18	302.81
472.55	301.94
472.92	300.69
473.28	299.69
473.65	298.73
474.02	297.72
474.38	296.94
474.75	296.21
475.11	295.50
475.48	294.88
475.85	294.31
476.21	293.62
476.58	293.18
476.94	292.85
477.31	292.41
477.67	292.01
478.04	291.67
478.41	291.44
478.77	291.57
479.14	291.25
479.50	291.04
479.87	290.96
480.23	290.84
480.60	290.71
480.96	290.60
481.33	290.77
481.69	290.79
482.06	290.75
482.42	290.68
482.79	290.66
483.15	290.76
483.52	290.96
483.88	291.07
484.25	291.17
484.61	291.40
484.98	291.54
485.34	291.96
485.71	292.37
486.07	292.70
486.44	292.77
486.80	293.23
487.17	293.73
487.53	294.38
487.90	294.99
488.26	295.77
488.62	296.50
488.99	297.12
489.35	297.89
489.72	298.72
490.08	299.60
490.44	300.43
490.81	301.36
491.17	302.33
491.54	303.43
491.90	304.51
492.26	305.48
492.63	306.59
492.99	307.66
493.36	308.83
493.72	310.13
494.08	311.38
494.45	312.81
494.81	314.20
495.17	315.47
495.54	316.79
495.90	318.05
496.26	319.46
496.63	320.90
496.99	322.22
497.35	323.75
497.72	325.25
498.08	326.73
498.44	328.18
498.80	329.66
499.17	331.14
499.53	332.64
499.89	334.30
500.26	335.86
500.62	337.33
500.98	338.97
501.34	340.31
501.71	341.71
502.07	343.00
502.43	344.22
502.79	345.48
503.16	346.95
503.52	348.22
503.88	349.43
504.24	350.68
504.60	351.97
504.97	353.12
505.33	354.19
505.69	355.48
506.05	356.65
506.41	357.68
506.78	358.66
507.14	359.62
507.50	360.41
507.86	361.28
508.22	362.19
508.59	362.85
508.95	363.72
509.31	364.65
509.67	365.45
510.03	366.21
510.39	366.84
510.75	367.31
511.12	368.02
511.48	368.50
511.84	368.91
512.20	369.36
512.56	369.75
512.92	370.30
513.28	370.60
513.64	370.75
514.00	371.11
514.37	371.40
514.73	371.60
515.09	371.81
515.45	371.86
515.81	371.95
516.17	371.99
516.53	372.13
516.89	372.06
517.25	371.91
517.61	371.95
517.97	371.89
518.33	371.88
518.69	371.75
519.05	371.75
519.41	371.74
519.77	371.95
520.13	372.00
520.49	371.87
520.85	371.85
521.21	372.03
521.57	371.97
521.93	371.86
522.29	371.96
522.65	371.95
523.01	372.13
523.37	372.09
523.73	372.27
524.09	372.29
524.45	372.36
524.81	372.73
525.17	372.98
525.53	373.39
525.89	373.74
526.25	374.17
526.61	374.51
526.97	375.07
527.33	375.52
527.68	376.38
528.04	376.97
528.40	377.60
528.76	378.27
529.12	379.12
529.48	380.04
529.84	380.78
530.20	381.80
530.56	382.76
530.91	384.00
531.27	385.15
531.63	386.40
531.99	387.81
532.35	388.90
532.71	390.10
533.07	391.50
533.42	393.26
533.78	394.70
534.14	396.33
534.50	397.71
534.86	399.26
535.21	400.61
535.57	402.52
535.93	404.07
536.29	405.88
536.65	407.61
537.00	409.30
537.36	411.25
537.72	413.08
538.08	415.05
538.44	417.01
538.79	419.08
539.15	421.04
539.51	423.12
539.87	425.46
540.22	427.75
540.58	430.00
540.94	432.02
541.29	434.35
541.65	436.59
542.01	439.08
542.37	441.59
542.72	443.96
543.08	446.19
543.44	449.01
543.79	451.31
544.15	453.95
544.51	456.83
544.87	459.52
545.22	462.29
545.58	464.93
545.94	467.60
546.29	470.23
546.65	472.98
547.01	475.62
547.36	478.27
547.72	480.95
548.07	483.63
548.43	486.28
548.79	488.88
549.14	491.57
549.50	494.28
549.86	496.85
550.21	499.55
550.57	502.48
550.92	504.97
551.28	507.87
551.64	510.54
551.99	513.10
552.35	515.72
552.70	518.25
553.06	520.93
553.41	523.55
553.77	526.33
554.13	528.99
554.48	531.76
554.84	534.49
555.19	537.16
555.55	539.98
555.90	542.48
556.26	545.00
556.61	547.47
556.97	549.73
557.32	552.09
557.68	554.42
558.03	556.59
558.39	558.85
558.74	561.11
559.10	563.40
559.45	565.63
559.81	567.96
560.16	570.29
560.52	572.62
560.87	574.83
561.23	576.79
561.58	579.14
561.94	581.14
562.29	583.10
562.64	585.14
563.00	586.99
563.35	589.08
563.71	591.38
564.06	593.45
564.42	595.62
564.77	597.64
565.12	599.83
565.48	602.10
565.83	604.34
566.19	606.26
566.54	608.04
566.89	609.84
567.25	611.79
567.60	613.74
567.96	615.69
568.31	617.55
568.66	619.32
569.02	620.53
569.37	621.74
569.72	623.33
570.08	624.66
570.43	626.01
570.78	627.12
571.14	628.09
571.49	629.09
571.84	630.18
572.20	631.20
572.55	632.06
572.90	632.57
573.26	633.13
573.61	633.67
573.96	634.47
574.31	635.00
574.67	635.28
575.02	635.44
575.37	635.42
575.72	635.49
576.08	635.71
576.43	636.00
576.78	636.39
577.13	636.47
577.49	636.79
577.84	636.81
578.19	637.09
578.54	637.53
578.90	637.90
579.25	637.92
579.60	637.81
579.95	637.67
580.30	637.81
580.66	638.11
581.01	638.18
581.36	638.09
581.71	637.93
582.06	638.18
582.42	638.19
582.77	638.03
583.12	637.99
583.47	638.00
583.82	637.90
584.17	637.82
584.53	638.03
584.88	637.87
585.23	637.83
585.58	637.73
585.93	637.24
586.28	636.95
586.63	636.83
586.98	636.87
587.34	636.90
587.69	636.63
588.04	636.19
588.39	635.91
588.74	635.50
589.09	635.49
589.44	634.80
589.79	634.56
590.14	634.43
590.49	634.03
590.84	633.38
591.19	633.14
591.54	632.63
591.89	631.60
592.25	631.19
592.60	630.43
592.95	629.71
593.30	629.01
593.65	628.09
594.00	627.17
594.35	627.06
594.70	626.35
595.05	625.54
595.40	624.70
595.75	623.80
596.10	623.16
596.45	622.35
596.80	621.59
597.15	620.76
597.50	619.75
597.85	618.98
598.19	618.17
598.54	617.19
598.89	616.40
599.24	615.91
599.59	614.86
599.94	614.05
600.29	613.20
600.64	612.40
600.99	611.66
601.34	611.06
601.69	609.43
602.04	608.33
602.39	607.44
602.74	606.56
603.08	605.93
603.43	605.24
603.78	604.31
604.13	603.55
604.48	602.71
604.83	602.14
605.18	601.42
605.53	600.66
605.87	599.88
606.22	599.07
606.57	598.02
606.92	596.93
607.27	596.10
607.62	594.96
607.96	593.97
608.31	593.10
608.66	591.85
609.01	590.69
609.36	589.47
609.70	588.42
610.05	587.16
610.40	585.92
610.75	584.46
611.10	583.38
611.44	581.86
611.79	580.33
612.14	578.78
612.49	577.12
612.83	575.52
613.18	573.87
613.53	572.30
613.88	570.66
614.22	569.32
614.57	567.75
614.92	566.42
615.27	565.01
615.61	563.52
615.96	562.18
616.31	560.79
616.65	559.55
617.00	557.98
617.35	556.62
617.70	554.97
618.04	553.25
618.39	551.42
618.74	549.91
619.08	548.33
619.43	546.82
619.78	545.34
620.12	543.96
620.47	542.57
620.82	540.80
621.16	539.09
621.51	537.54
621.85	535.96
622.20	534.27
622.55	532.46
622.89	530.56
623.24	528.88
623.59	527.18
623.93	525.72
624.28	524.17
624.62	522.73
624.97	521.37
625.32	519.72
625.66	518.20
626.01	516.55
626.35	515.04
626.70	513.25
627.04	511.74
627.39	509.99
627.73	508.37
628.08	507.04
628.43	505.53
628.77	503.83
629.12	502.16
629.46	500.80
629.81	499.38
630.15	497.96
630.50	496.29
630.84	494.60
631.19	492.81
631.53	491.19
631.88	489.23
632.22	487.34
632.57	486.01
632.91	484.46
633.26	482.90
633.60	481.20
633.95	479.80
634.29	478.24
634.64	476.90
634.98	475.22
635.32	473.74
635.67	472.34
636.01	470.80
636.36	469.24
636.70	467.63
637.05	466.00
637.39	464.51
637.73	463.10
638.08	462.01
638.42	460.62
638.77	459.26
639.11	457.75
639.45	456.33
639.80	454.56
640.14	452.90
640.49	451.56
640.83	450.13
641.17	448.49
641.52	446.75
641.86	445.08
642.20	443.68
642.55	441.95
642.89	440.31
643.23	438.69
643.58	437.37
643.92	435.69
644.26	434.16
644.61	432.59
644.95	431.06
645.29	429.20
645.64	427.55
645.98	425.82
646.32	424.39
646.66	422.78
647.01	421.29
647.35	419.98
647.69	418.27
648.04	416.78
648.38	415.37
648.72	413.88
649.06	412.31
649.41	410.76
649.75	409.17
650.09	407.73
650.43	406.26
650.78	404.52
651.12	403.00
651.46	401.46
651.80	399.97
652.14	398.43
652.49	397.08
652.83	395.50
653.17	393.97
653.51	392.49
653.85	391.08
654.20	389.65
654.54	388.02
654.88	386.58
655.22	385.19
655.56	383.68
655.90	382.21
656.25	380.69
656.59	379.13
656.93	377.76
657.27	376.44
657.61	374.97
657.95	373.75
658.29	372.32
658.64	371.04
658.98	369.52
659.32	368.03
659.66	366.52
660.00	365.14
660.34	363.75
660.68	362.27
661.02	360.87
661.36	359.44
661.70	358.14
662.05	356.85
662.39	355.51
662.73	354.25
663.07	353.15
663.41	352.02
663.75	350.81
664.09	349.59
664.43	348.16
664.77	346.99
665.11	345.61
665.45	344.47
665.79	343.28
666.13	342.16
666.47	341.10
666.81	339.97
667.15	338.70
667.49	337.61
667.83	336.61
668.17	335.48
668.51	334.46
668.85	333.37
669.19	332.40
669.53	331.26
669.87	330.24
670.21	329.10
670.55	327.97
670.89	327.15
671.23	326.17
671.57	325.28
671.91	324.27
672.25	323.35
672.58	322.51
672.92	321.46
673.26	320.59
673.60	319.57
673.94	318.62
674.28	317.87
674.62	317.00
674.96	316.14
675.30	315.22
675.64	314.37
675.97	313.44
676.31	312.51
676.65	311.65
676.99	310.82
677.33	309.84
677.67	309.02
678.01	307.96
678.34	307.08
678.68	306.21
679.02	305.33
679.36	304.51
679.70	303.53
680.04	302.65
680.37	301.81
680.71	300.97
681.05	300.20
681.39	299.34
681.73	298.53
682.06	297.70
682.40	296.91
682.74	296.20
683.08	295.57
683.42	294.63
683.75	293.94
684.09	293.05
684.43	292.31
684.77	291.47
685.10	290.63
685.44	289.78
685.78	288.96
686.12	288.26
686.45	287.43
686.79	286.82
687.13	286.17
687.46	285.41
687.80	284.78
688.14	284.03
688.48	283.30
688.81	282.57
689.15	281.84
689.49	281.09
689.82	280.34
690.16	279.40
690.50	278.79
690.83	277.99
691.17	277.20
691.51	276.47
691.84	275.89
692.18	275.32
692.52	274.69
692.85	274.20
693.19	273.62
693.52	272.95
693.86	272.06
694.20	271.50
694.53	270.90
694.87	270.20
695.21	269.57
695.54	268.95
695.88	268.28
696.21	267.61
696.55	267.14
696.88	266.47
697.22	265.92
697.56	265.37
697.89	264.70
698.23	264.22
698.56	263.67
698.90	263.24
699.23	262.55
699.57	262.06
699.90	261.40
700.24	260.82
700.58	260.33
700.91	259.86
701.25	259.59
701.58	259.15
701.92	258.77
702.25	258.28
702.59	257.71
702.92	257.29
703.26	256.90
703.59	256.38
703.93	256.26
704.26	255.92
704.60	255.46
704.93	255.13
705.26	254.59
705.60	254.24
705.93	253.68
706.27	253.40
706.60	253.11
706.94	252.87
707.27	252.42
707.61	252.04
707.94	251.66
708.27	250.95
708.61	250.41
708.94	249.97
709.28	249.52
709.61	249.21
709.94	248.85
710.28	248.44
710.61	248.06
710.95	247.38
711.28	247.19
711.61	246.83
711.95	246.58
712.28	246.25
712.61	245.89
712.95	245.72
713.28	245.60
713.61	245.14
713.95	244.57
714.28	244.31
714.61	243.92
714.95	243.64
715.28	243.22
715.61	242.94
715.95	242.58
716.28	242.26
716.61	242.01
716.95	241.67
717.28	241.34
717.61	241.12
717.94	240.86
718.28	240.35
718.61	240.03
718.94	239.68
719.27	239.44
719.61	239.20
719.94	238.78
720.27	238.30
720.60	238.04
720.94	237.81
721.27	237.47
721.60	237.25
721.93	236.94
722.27	236.88
722.60	236.70
722.93	236.36
723.26	236.22
723.59	235.80
723.93	235.63
724.26	235.46
724.59	235.11
724.92	234.90
725.25	234.74
725.59	234.57
725.92	234.35
726.25	234.10
726.58	233.85
726.91	233.60
727.24	233.40
727.57	233.14
727.91	232.92
728.24	232.76
728.57	232.52
728.90	232.36
729.23	232.05
729.56	231.92
729.89	231.82
730.22	231.53
730.55	231.38
730.89	231.15
731.22	230.95
731.55	230.79
731.88	230.56
732.21	230.30
732.54	230.08
732.87	229.81
733.20	229.58
733.53	229.36
733.86	229.19
734.19	228.99
734.52	228.89
734.85	228.96
735.18	228.80
735.51	228.74
735.84	228.57
736.17	228.44
736.50	228.09
736.83	228.28
737.16	228.14
737.49	228.03
737.82	227.77
738.15	227.50
738.48	227.27
738.81	227.11
739.14	226.96
739.47	226.78
739.80	226.64
740.13	226.59
740.46	226.44
740.79	226.23
741.12	226.02
741.45	225.87
741.78	225.50
742.11	225.37
742.44	225.24
742.77	225.21
743.10	225.00
743.43	224.89
743.75	224.39
744.08	224.68
744.41	224.49
744.74	224.42
745.07	224.38
745.40	224.44
745.73	224.48
746.06	224.33
746.39	224.26
746.71	224.16
747.04	223.96
747.37	223.83
747.70	223.81
748.03	223.73
748.36	223.66
748.68	223.57
749.01	223.37
749.34	223.13
749.67	223.00
750.00	222.90
750.33	223.05
750.65	222.97
750.98	222.46
751.31	222.36
751.64	222.32
751.97	222.35
752.29	222.20
752.62	221.95
752.95	221.81
753.28	221.61
753.60	221.46
753.93	221.53
754.26	221.42
754.59	221.21
754.91	221.10
755.24	220.93
755.57	220.84
755.90	220.73
756.22	220.61
756.55	220.49
756.88	220.41
757.20	220.09
757.53	219.91
757.86	219.80
758.19	219.77
758.51	219.68
758.84	219.40
759.17	219.28
759.49	219.21
759.82	219.37
760.15	219.36
760.47	219.28
760.80	219.11
761.13	219.13
761.45	219.04
761.78	218.94
762.11	218.92
762.43	218.80
762.76	218.81
763.08	218.80
763.41	218.73
763.74	218.67
764.06	218.55
764.39	218.56
764.71	218.48
765.04	218.38
765.37	218.15
765.69	218.04
766.02	217.93
766.34	217.77
766.67	217.51
767.00	217.49
767.32	217.57
767.65	217.67
767.97	217.50
768.30	217.47
768.62	217.45
768.95	217.27
769.27	217.18
769.60	217.14
769.92	217.02
770.25	216.84
770.57	216.72
770.90	216.70
771.22	216.61
771.55	216.61
771.87	216.53
772.20	216.48
772.52	216.75
772.85	217.17
773.17	217.15
773.50	217.03
773.82	216.93
774.15	216.78
774.47	216.46
774.80	216.44
775.12	216.40
775.45	216.31
775.77	216.28
776.09	216.22
776.42	216.16
776.74	216.21
777.07	216.13
777.39	216.11
777.72	216.04
778.04	215.98
778.36	215.90
778.69	215.95
779.01	215.93
779.33	215.58
779.66	215.11
779.98	215.02
780.31	215.07
780.63	215.15
780.95	215.14
781.28	215.08
781.60	215.04
781.92	214.97
782.25	214.97
782.57	214.92
782.89	214.88
783.22	214.80
783.54	214.73
783.86	214.79
784.19	214.65
784.51	214.70
784.83	214.64
785.16	214.60
785.48	214.50
785.80	214.50
786.12	214.54
786.45	214.47
786.77	214.46
787.09	214.35
787.42	214.27
787.74	214.25
788.06	214.30
788.38	214.28
788.71	214.23
789.03	214.22
789.35	214.27
789.67	214.21
789.99	214.23
790.32	214.12
790.64	214.07
790.96	214.47
791.28	214.36
791.61	214.31
791.93	214.31
792.25	214.20
792.57	214.50
792.89	214.38
793.21	214.35
793.54	214.31
793.86	214.31
794.18	214.21
