SpectraSuite Data File
++++++++++++++++++++++++++++++++++++
Date: Mon Feb 25 16:59:31 EST 2013
User: group
Dark Spectrum Present: No
Reference Spectrum Present: No
Number of Sampled Component Spectra: 1
Spectrometers: USB2E7196
Integration Time (usec): 104000 (USB2E7196)
Spectra Averaged: 20 (USB2E7196)
Boxcar Smoothing: 10 (USB2E7196)
Correct for Electrical Dark: No (USB2E7196)
Strobe/Lamp Enabled: No (USB2E7196)
Correct for Detector Non-linearity: No (USB2E7196)
Correct for Stray Light: No (USB2E7196)
Number of Pixels in Processed Spectrum: 2048
>>>>>Begin Processed Spectral Data<<<<<
339.09	0.00
339.48	198.75
339.86	200.80
340.24	202.55
340.63	204.30
341.01	209.20
341.39	205.95
341.78	207.65
342.16	208.50
342.54	209.20
342.93	198.66
343.31	208.62
343.69	209.14
344.07	209.61
344.46	210.03
344.84	210.41
345.22	210.48
345.60	210.75
345.99	210.88
346.37	211.01
346.75	211.12
347.13	211.25
347.52	211.38
347.90	211.52
348.28	211.51
348.66	211.56
349.05	211.49
349.43	211.55
349.81	211.61
350.19	211.68
350.57	211.70
350.96	211.73
351.34	211.88
351.72	212.00
352.10	212.10
352.48	212.12
352.87	212.16
353.25	212.27
353.63	212.27
354.01	212.40
354.39	212.47
354.77	212.49
355.15	212.60
355.54	212.61
355.92	212.61
356.30	212.70
356.68	212.95
357.06	213.04
357.44	212.97
357.82	213.00
358.20	213.06
358.58	213.19
358.97	213.25
359.35	213.32
359.73	213.38
360.11	213.41
360.49	213.50
360.87	213.46
361.25	213.48
361.63	213.68
362.01	213.71
362.39	213.71
362.77	213.80
363.15	213.80
363.53	213.81
363.91	213.77
364.29	213.77
364.67	213.48
365.05	213.51
365.43	213.64
365.81	213.74
366.19	213.90
366.57	214.01
366.95	213.98
367.33	213.94
367.71	214.00
368.09	214.01
368.47	213.93
368.85	213.92
369.23	213.98
369.61	213.79
369.99	213.86
370.37	213.91
370.75	214.08
371.13	213.97
371.51	213.84
371.89	213.87
372.27	213.82
372.65	213.80
373.03	213.68
373.41	213.73
373.78	213.57
374.16	213.36
374.54	213.25
374.92	213.18
375.30	213.17
375.68	213.04
376.06	213.01
376.44	212.96
376.82	212.97
377.19	212.94
377.57	212.87
377.95	212.72
378.33	212.63
378.71	212.38
379.09	212.34
379.47	212.41
379.84	212.34
380.22	212.25
380.60	212.16
380.98	212.15
381.36	211.96
381.73	211.92
382.11	211.97
382.49	211.90
382.87	211.81
383.25	211.76
383.62	212.06
384.00	211.94
384.38	211.95
384.76	212.00
385.13	212.00
385.51	212.05
385.89	211.92
386.27	211.94
386.64	211.92
387.02	211.95
387.40	211.82
387.78	211.79
388.15	211.78
388.53	211.77
388.91	211.79
389.29	211.74
389.66	211.71
390.04	211.68
390.42	211.74
390.79	211.77
391.17	211.75
391.55	211.39
391.92	211.45
392.30	211.51
392.68	211.39
393.05	211.42
393.43	211.42
393.81	211.43
394.18	211.38
394.56	211.35
394.94	211.41
395.31	211.48
395.69	211.62
396.06	211.73
396.44	211.72
396.82	211.69
397.19	211.89
397.57	211.85
397.95	211.89
398.32	211.80
398.70	211.85
399.07	211.94
399.45	212.00
399.82	211.98
400.20	211.91
400.58	212.00
400.95	211.86
401.33	212.01
401.70	212.34
402.08	212.40
402.45	212.49
402.83	212.69
403.20	212.79
403.58	212.83
403.95	213.01
404.33	213.25
404.71	213.38
405.08	213.74
405.46	214.03
405.83	214.18
406.21	214.39
406.58	214.70
406.96	214.89
407.33	215.18
407.70	215.54
408.08	216.12
408.45	216.51
408.83	217.00
409.20	217.36
409.58	217.66
409.95	218.19
410.33	218.70
410.70	219.12
411.08	219.73
411.45	220.37
411.82	221.01
412.20	221.76
412.57	222.75
412.95	223.23
413.32	224.18
413.69	225.07
414.07	226.14
414.44	227.17
414.82	228.42
415.19	229.82
415.56	231.14
415.94	232.45
416.31	234.04
416.68	235.59
417.06	237.33
417.43	239.07
417.81	241.07
418.18	243.15
418.55	245.32
418.93	247.64
419.30	250.09
419.67	252.52
420.04	255.06
420.42	257.70
420.79	261.05
421.16	264.22
421.54	267.66
421.91	271.15
422.28	274.69
422.66	278.48
423.03	282.29
423.40	286.22
423.77	290.49
424.15	294.76
424.52	299.26
424.89	304.20
425.26	308.87
425.64	313.35
426.01	318.39
426.38	323.54
426.75	328.80
427.13	334.19
427.50	340.05
427.87	346.12
428.24	352.16
428.61	357.86
428.99	364.25
429.36	371.12
429.73	377.84
430.10	384.71
430.47	391.55
430.85	398.63
431.22	406.36
431.59	414.43
431.96	422.20
432.33	430.87
432.70	439.26
433.08	449.28
433.45	458.68
433.82	468.00
434.19	478.42
434.56	488.69
434.93	498.51
435.30	508.48
435.68	519.48
436.05	530.39
436.42	541.22
436.79	551.20
437.16	561.90
437.53	573.36
437.90	584.59
438.27	595.92
438.64	607.74
439.01	618.58
439.38	628.35
439.75	637.98
440.13	648.75
440.50	658.95
440.87	667.38
441.24	676.16
441.61	686.01
441.98	693.56
442.35	702.06
442.72	710.78
443.09	719.08
443.46	724.41
443.83	728.36
444.20	731.86
444.57	736.60
444.94	739.35
445.31	742.21
445.68	745.01
446.05	746.70
446.42	746.26
446.79	745.80
447.16	745.12
447.53	744.78
447.90	741.42
448.27	738.10
448.64	733.07
449.01	729.69
449.37	722.87
449.74	716.32
450.11	708.71
450.48	700.03
450.85	691.15
451.22	683.72
451.59	676.41
451.96	669.56
452.33	660.08
452.70	651.65
453.07	641.25
453.43	630.68
453.80	620.58
454.17	611.03
454.54	601.84
454.91	592.00
455.28	582.30
455.65	573.43
456.02	564.50
456.38	556.89
456.75	547.29
457.12	539.25
457.49	531.28
457.86	523.23
458.23	516.58
458.59	509.22
458.96	501.65
459.33	495.12
459.70	488.38
460.07	483.17
460.43	477.09
460.80	471.40
461.17	466.44
461.54	461.11
461.91	456.08
462.27	451.18
462.64	446.99
463.01	442.37
463.38	437.72
463.74	432.98
464.11	428.75
464.48	425.19
464.85	421.28
465.21	418.39
465.58	415.20
465.95	411.46
466.32	408.30
466.68	405.11
467.05	401.93
467.42	398.85
467.78	395.42
468.15	392.30
468.52	389.92
468.88	386.93
469.25	384.31
469.62	382.18
469.98	379.52
470.35	377.28
470.72	375.07
471.08	372.78
471.45	370.81
471.82	369.03
472.18	366.82
472.55	365.35
472.92	363.38
473.28	361.79
473.65	360.11
474.02	358.45
474.38	357.24
474.75	356.19
475.11	355.00
475.48	354.18
475.85	353.29
476.21	352.39
476.58	351.58
476.94	350.98
477.31	350.22
477.67	349.71
478.04	349.13
478.41	348.83
478.77	348.73
479.14	348.41
479.50	348.10
479.87	348.12
480.23	347.97
480.60	347.91
480.96	347.77
481.33	348.07
481.69	348.33
482.06	348.50
482.42	348.58
482.79	348.72
483.15	349.19
483.52	349.84
483.88	350.26
484.25	350.77
484.61	351.27
484.98	351.73
485.34	352.67
485.71	353.57
486.07	354.45
486.44	355.20
486.80	356.17
487.17	357.18
487.53	358.49
487.90	359.70
488.26	361.25
488.62	362.89
488.99	364.27
489.35	365.85
489.72	367.52
490.08	369.22
490.44	371.01
490.81	372.83
491.17	374.51
491.54	376.60
491.90	378.77
492.26	380.95
492.63	383.31
492.99	385.53
493.36	387.97
493.72	390.50
494.08	393.04
494.45	395.87
494.81	398.85
495.17	401.60
495.54	404.75
495.90	407.56
496.26	410.57
496.63	413.69
496.99	416.73
497.35	419.91
497.72	423.32
498.08	426.76
498.44	430.06
498.80	433.74
499.17	437.29
499.53	440.86
499.89	444.59
500.26	448.19
500.62	451.68
500.98	455.19
501.34	458.91
501.71	462.65
502.07	466.15
502.43	469.71
502.79	473.21
503.16	476.60
503.52	480.15
503.88	483.55
504.24	487.13
504.60	490.73
504.97	494.31
505.33	497.69
505.69	501.40
506.05	505.00
506.41	508.24
506.78	511.27
507.14	514.31
507.50	517.35
507.86	520.44
508.22	523.70
508.59	526.74
508.95	529.58
509.31	532.44
509.67	535.23
510.03	538.02
510.39	540.83
510.75	543.63
511.12	546.30
511.48	548.93
511.84	551.37
512.20	553.85
512.56	556.03
512.92	558.38
513.28	560.32
513.64	562.26
514.00	564.31
514.37	566.47
514.73	568.59
515.09	570.68
515.45	572.73
515.81	574.41
516.17	576.14
516.53	577.70
516.89	579.27
517.25	580.84
517.61	582.25
517.97	583.50
518.33	584.72
518.69	585.92
519.05	587.13
519.41	588.30
519.77	589.56
520.13	590.69
520.49	591.61
520.85	592.62
521.21	593.74
521.57	594.85
521.93	595.65
522.29	596.55
522.65	597.25
523.01	597.85
523.37	598.47
523.73	599.29
524.09	599.97
524.45	600.65
524.81	601.41
525.17	602.29
525.53	603.36
525.89	604.09
526.25	604.80
526.61	605.41
526.97	606.12
527.33	606.74
527.68	607.73
528.04	608.67
528.40	609.40
528.76	610.26
529.12	611.18
529.48	612.35
529.84	613.19
530.20	614.25
530.56	615.43
530.91	616.70
531.27	617.93
531.63	619.29
531.99	620.54
532.35	621.78
532.71	622.97
533.07	624.20
533.42	626.06
533.78	627.66
534.14	629.35
534.50	630.77
534.86	632.60
535.21	634.05
535.57	635.81
535.93	637.54
536.29	639.26
536.65	641.06
537.00	642.56
537.36	644.31
537.72	645.98
538.08	647.66
538.44	649.51
538.79	651.32
539.15	653.15
539.51	655.18
539.87	657.38
540.22	659.60
540.58	662.02
540.94	663.87
541.29	665.69
541.65	667.56
542.01	669.85
542.37	671.88
542.72	673.99
543.08	675.96
543.44	678.35
543.79	680.35
544.15	682.41
544.51	685.06
544.87	687.62
545.22	690.07
545.58	692.38
545.94	694.77
546.29	697.01
546.65	699.30
547.01	701.45
547.36	703.85
547.72	706.06
548.07	708.05
548.43	710.17
548.79	712.63
549.14	714.83
549.50	717.17
549.86	719.32
550.21	721.78
550.57	724.37
550.92	726.56
551.28	729.00
551.64	731.35
551.99	733.63
552.35	735.77
552.70	738.10
553.06	740.68
553.41	742.91
553.77	745.45
554.13	747.91
554.48	750.66
554.84	753.00
555.19	755.38
555.55	758.00
555.90	760.32
556.26	762.35
556.61	764.84
556.97	766.80
557.32	769.21
557.68	771.22
558.03	773.23
558.39	775.24
558.74	777.34
559.10	779.40
559.45	781.53
559.81	783.76
560.16	785.59
560.52	787.69
560.87	789.76
561.23	791.42
561.58	793.57
561.94	795.04
562.29	796.64
562.64	798.60
563.00	800.14
563.35	802.05
563.71	804.30
564.06	806.01
564.42	808.06
564.77	809.99
565.12	811.98
565.48	813.98
565.83	815.77
566.19	817.70
566.54	819.45
566.89	820.86
567.25	822.73
567.60	824.60
567.96	826.35
568.31	828.17
568.66	829.75
569.02	830.96
569.37	832.05
569.72	833.23
570.08	834.29
570.43	835.41
570.78	836.35
571.14	837.22
571.49	838.13
571.84	839.00
572.20	839.60
572.55	840.13
572.90	840.41
573.26	840.98
573.61	841.18
573.96	841.49
574.31	841.72
574.67	841.41
575.02	841.04
575.37	840.68
575.72	840.08
576.08	839.98
576.43	839.44
576.78	839.50
577.13	839.37
577.49	839.12
577.84	838.64
578.19	838.47
578.54	838.41
578.90	838.26
579.25	837.88
579.60	837.21
579.95	836.53
580.30	836.05
580.66	835.59
581.01	834.89
581.36	833.96
581.71	833.13
582.06	832.69
582.42	832.20
582.77	831.06
583.12	830.25
583.47	829.44
583.82	828.78
584.17	827.66
584.53	826.79
584.88	825.65
585.23	824.78
585.58	823.52
585.93	822.02
586.28	820.66
586.63	819.35
586.98	818.32
587.34	817.48
587.69	816.19
588.04	814.86
588.39	813.81
588.74	812.59
589.09	811.53
589.44	809.88
589.79	808.53
590.14	807.43
590.49	806.07
590.84	804.51
591.19	803.35
591.54	802.24
591.89	800.44
592.25	799.15
592.60	797.31
592.95	795.67
593.30	793.95
593.65	792.23
594.00	790.38
594.35	789.65
594.70	787.66
595.05	786.14
595.40	784.42
595.75	782.27
596.10	780.68
596.45	778.83
596.80	777.42
597.15	775.95
597.50	773.99
597.85	772.34
598.19	770.39
598.54	768.56
598.89	766.55
599.24	765.23
599.59	763.31
599.94	761.88
600.29	760.10
600.64	758.38
600.99	756.52
601.34	754.85
601.69	751.93
602.04	749.96
602.39	747.86
602.74	746.01
603.08	744.51
603.43	742.82
603.78	741.00
604.13	738.92
604.48	736.75
604.83	735.23
605.18	733.52
605.53	731.71
605.87	729.55
606.22	727.72
606.57	725.41
606.92	723.13
607.27	720.96
607.62	719.02
607.96	717.14
608.31	715.37
608.66	713.42
609.01	711.30
609.36	709.25
609.70	707.13
610.05	704.75
610.40	702.58
610.75	700.00
611.10	697.95
611.44	695.24
611.79	692.85
612.14	690.36
612.49	687.50
612.83	685.10
613.18	682.59
613.53	680.03
613.88	677.54
614.22	675.23
614.57	672.73
614.92	670.19
615.27	667.59
615.61	664.90
615.96	662.43
616.31	660.08
616.65	657.82
617.00	655.43
617.35	653.17
617.70	650.59
618.04	648.19
618.39	645.15
618.74	642.98
619.08	640.48
619.43	638.03
619.78	635.80
620.12	633.50
620.47	631.22
620.82	628.81
621.16	626.19
621.51	623.89
621.85	621.41
622.20	618.90
622.55	616.40
622.89	613.86
623.24	611.32
623.59	608.69
623.93	606.15
624.28	603.74
624.62	601.49
624.97	599.06
625.32	596.56
625.66	594.50
626.01	592.02
626.35	589.63
626.70	587.13
627.04	584.89
627.39	582.40
627.73	580.25
628.08	578.10
628.43	575.89
628.77	573.35
629.12	571.02
629.46	568.84
629.81	566.51
630.15	564.18
630.50	561.77
630.84	559.35
631.19	557.01
631.53	554.84
631.88	552.16
632.22	549.65
632.57	547.56
632.91	545.22
633.26	543.11
633.60	540.84
633.95	538.57
634.29	536.23
634.64	534.12
634.98	531.46
635.32	529.20
635.67	527.19
636.01	525.08
636.36	522.97
636.70	520.95
637.05	518.77
637.39	516.84
637.73	514.97
638.08	513.45
638.42	511.59
638.77	509.55
639.11	507.74
639.45	505.78
639.80	503.61
640.14	501.53
640.49	499.52
640.83	497.62
641.17	495.71
641.52	493.65
641.86	491.45
642.20	489.73
642.55	487.50
642.89	485.32
643.23	483.36
643.58	481.63
643.92	479.46
644.26	477.61
644.61	475.68
644.95	473.62
645.29	471.41
645.64	469.27
645.98	467.29
646.32	465.25
646.66	463.23
647.01	461.25
647.35	459.43
647.69	457.32
648.04	455.45
648.38	453.57
648.72	451.66
649.06	449.81
649.41	447.88
649.75	446.04
650.09	444.30
650.43	442.42
650.78	440.21
651.12	438.17
651.46	436.20
651.80	434.39
652.14	432.55
652.49	430.69
652.83	428.88
653.17	426.89
653.51	425.00
653.85	423.37
654.20	421.70
654.54	419.78
654.88	417.97
655.22	416.05
655.56	414.10
655.90	412.22
656.25	410.43
656.59	408.60
656.93	406.92
657.27	405.22
657.61	403.29
657.95	401.63
658.29	400.05
658.64	398.54
658.98	396.72
659.32	394.96
659.66	393.17
660.00	391.38
660.34	389.69
660.68	388.02
661.02	386.19
661.36	384.49
661.70	382.81
662.05	381.35
662.39	380.00
662.73	378.54
663.07	377.26
663.41	375.84
663.75	374.34
664.09	372.82
664.43	371.23
664.77	369.76
665.11	368.25
665.45	366.86
665.79	365.30
666.13	363.86
666.47	362.41
666.81	361.01
667.15	359.58
667.49	358.10
667.83	356.82
668.17	355.52
668.51	354.25
668.85	353.03
669.19	351.80
669.53	350.29
669.87	348.95
670.21	347.62
670.55	346.28
670.89	345.20
671.23	343.96
671.57	342.80
671.91	341.63
672.25	340.51
672.58	339.39
672.92	338.16
673.26	337.11
673.60	336.01
673.94	334.97
674.28	333.92
674.62	332.95
674.96	331.86
675.30	330.77
675.64	329.62
675.97	328.60
676.31	327.45
676.65	326.34
676.99	325.52
677.33	324.26
677.67	323.25
678.01	322.07
678.34	321.05
678.68	320.05
679.02	319.05
679.36	318.01
679.70	317.01
680.04	316.08
680.37	315.04
680.71	313.96
681.05	312.97
681.39	312.02
681.73	311.05
682.06	310.08
682.40	309.19
682.74	308.30
683.08	307.44
683.42	306.50
683.75	305.68
684.09	304.53
684.43	303.75
684.77	302.75
685.10	301.83
685.44	300.93
685.78	299.98
686.12	299.17
686.45	298.30
686.79	297.35
687.13	296.54
687.46	295.66
687.80	295.02
688.14	294.24
688.48	293.47
688.81	292.71
689.15	291.91
689.49	291.11
689.82	290.34
690.16	289.36
690.50	288.51
690.83	287.64
691.17	286.77
691.51	285.90
691.84	285.21
692.18	284.48
692.52	283.74
692.85	283.10
693.19	282.47
693.52	281.70
693.86	280.96
694.20	280.25
694.53	279.71
694.87	278.90
695.21	278.09
695.54	277.43
695.88	276.62
696.21	275.85
696.55	275.17
696.88	274.47
697.22	273.80
697.56	273.25
697.89	272.66
698.23	272.13
698.56	271.45
698.90	270.89
699.23	270.26
699.57	269.59
699.90	268.87
700.24	268.17
700.58	267.55
700.91	266.96
701.25	266.60
701.58	265.95
701.92	265.40
702.25	264.79
702.59	264.17
702.92	263.68
703.26	263.23
703.59	262.70
703.93	262.47
704.26	262.06
704.60	261.49
704.93	260.98
705.26	260.46
705.60	259.98
705.93	259.43
706.27	258.96
706.60	258.58
706.94	258.26
707.27	257.70
707.61	257.19
707.94	256.72
708.27	255.91
708.61	255.38
708.94	254.91
709.28	254.51
709.61	254.05
709.94	253.53
710.28	252.98
710.61	252.60
710.95	251.78
711.28	251.50
711.61	251.08
711.95	250.72
712.28	250.25
712.61	249.96
712.95	249.72
713.28	249.45
713.61	248.99
713.95	248.51
714.28	248.20
714.61	247.82
714.95	247.43
715.28	247.11
715.61	246.64
715.95	246.21
716.28	245.81
716.61	245.44
716.95	245.07
717.28	244.71
717.61	244.27
717.94	243.95
718.28	243.40
718.61	243.06
718.94	242.67
719.27	242.31
719.61	241.94
719.94	241.48
720.27	240.93
720.60	240.67
720.94	240.33
721.27	240.06
721.60	239.78
721.93	239.53
722.27	239.33
722.60	239.25
722.93	238.98
723.26	238.77
723.59	238.47
723.93	238.27
724.26	238.07
724.59	237.82
724.92	237.58
725.25	237.43
725.59	237.17
725.92	237.04
726.25	236.87
726.58	236.64
726.91	236.40
727.24	236.32
727.57	236.00
727.91	235.66
728.24	235.33
728.57	235.13
728.90	234.95
729.23	234.65
729.56	234.49
729.89	234.30
730.22	234.07
730.55	233.81
730.89	233.58
731.22	233.35
731.55	233.15
731.88	233.01
732.21	232.68
732.54	232.43
732.87	232.11
733.20	231.91
733.53	231.76
733.86	231.62
734.19	231.34
734.52	231.20
734.85	231.27
735.18	231.09
735.51	230.97
735.84	230.82
736.17	230.77
736.50	230.35
736.83	230.59
737.16	230.43
737.49	230.35
737.82	230.09
738.15	229.84
738.48	229.69
738.81	229.47
739.14	229.32
739.47	229.12
739.80	228.98
740.13	228.85
740.46	228.66
740.79	228.33
741.12	228.13
741.45	227.95
741.78	227.63
742.11	227.61
742.44	227.43
742.77	227.25
743.10	226.94
743.43	226.90
743.75	226.35
744.08	226.65
744.41	226.47
744.74	226.36
745.07	226.21
745.40	226.10
745.73	226.08
746.06	225.95
746.39	225.92
746.71	225.68
747.04	225.48
747.37	225.25
747.70	225.24
748.03	225.14
748.36	225.06
748.68	224.93
749.01	224.69
749.34	224.43
749.67	224.34
750.00	224.24
750.33	224.26
750.65	224.15
750.98	223.53
751.31	223.34
751.64	223.26
751.97	223.39
752.29	223.23
752.62	222.92
752.95	222.70
753.28	222.53
753.60	222.49
753.93	222.45
754.26	222.36
754.59	222.20
754.91	222.02
755.24	221.95
755.57	221.77
755.90	221.63
756.22	221.62
756.55	221.45
756.88	221.31
757.20	220.98
757.53	220.79
757.86	220.70
758.19	220.60
758.51	220.48
758.84	220.17
759.17	220.03
759.49	219.99
759.82	220.13
760.15	220.09
760.47	219.94
760.80	219.76
761.13	219.71
761.45	219.55
761.78	219.46
762.11	219.26
762.43	219.22
762.76	219.08
763.08	219.00
763.41	218.86
763.74	218.83
764.06	218.79
764.39	218.70
764.71	218.60
765.04	218.46
765.37	218.39
765.69	218.22
766.02	218.21
766.34	218.08
766.67	217.85
767.00	217.77
767.32	217.86
767.65	218.00
767.97	217.93
768.30	217.90
768.62	217.93
768.95	217.84
769.27	217.75
769.60	217.84
769.92	217.69
770.25	217.63
770.57	217.45
770.90	217.35
771.22	217.24
771.55	217.11
771.87	217.13
772.20	217.04
772.52	217.29
772.85	217.59
773.17	217.61
773.50	217.54
773.82	217.45
774.15	217.30
774.47	217.03
774.80	216.89
775.12	216.79
775.45	216.67
775.77	216.69
776.09	216.60
776.42	216.50
776.74	216.55
777.07	216.50
777.39	216.52
777.72	216.48
778.04	216.45
778.36	216.45
778.69	216.45
779.01	216.45
779.33	216.11
779.66	215.62
779.98	215.53
780.31	215.50
780.63	215.55
780.95	215.58
781.28	215.49
781.60	215.50
781.92	215.49
782.25	215.51
782.57	215.49
782.89	215.49
783.22	215.38
783.54	215.26
783.86	215.19
784.19	215.08
784.51	215.10
784.83	215.06
785.16	215.04
785.48	214.95
785.80	214.90
786.12	214.91
786.45	214.88
786.77	214.91
787.09	214.74
787.42	214.65
787.74	214.58
788.06	214.60
788.38	214.58
788.71	214.54
789.03	214.44
789.35	214.44
789.67	214.38
789.99	214.38
790.32	214.27
790.64	214.28
790.96	214.54
791.28	214.48
791.61	214.38
791.93	214.32
792.25	214.24
792.57	214.49
792.89	214.40
793.21	214.43
793.54	214.25
793.86	214.28
794.18	214.22
