SpectraSuite Data File
++++++++++++++++++++++++++++++++++++
Date: Mon Feb 25 17:19:57 EST 2013
User: group
Dark Spectrum Present: No
Reference Spectrum Present: No
Number of Sampled Component Spectra: 1
Spectrometers: USB2E7196
Integration Time (usec): 104000 (USB2E7196)
Spectra Averaged: 20 (USB2E7196)
Boxcar Smoothing: 10 (USB2E7196)
Correct for Electrical Dark: No (USB2E7196)
Strobe/Lamp Enabled: No (USB2E7196)
Correct for Detector Non-linearity: No (USB2E7196)
Correct for Stray Light: No (USB2E7196)
Number of Pixels in Processed Spectrum: 2048
>>>>>Begin Processed Spectral Data<<<<<
339.09	0.00
339.48	198.50
339.86	199.95
340.24	199.60
340.63	203.30
341.01	210.60
341.39	204.20
341.78	207.05
342.16	208.85
342.54	208.00
342.93	198.16
343.31	208.16
343.69	208.67
344.07	209.13
344.46	209.67
344.84	210.05
345.22	210.16
345.60	210.51
345.99	210.72
346.37	210.83
346.75	211.01
347.13	211.09
347.52	211.14
347.90	211.33
348.28	211.44
348.66	211.56
349.05	211.52
349.43	211.59
349.81	211.67
350.19	211.76
350.57	211.80
350.96	211.95
351.34	212.13
351.72	212.34
352.10	212.48
352.48	212.61
352.87	212.70
353.25	212.72
353.63	212.84
354.01	213.00
354.39	213.11
354.77	213.23
355.15	213.38
355.54	213.44
355.92	213.45
356.30	213.46
356.68	213.81
357.06	213.89
357.44	213.94
357.82	214.02
358.20	214.11
358.58	214.22
358.97	214.38
359.35	214.54
359.73	214.65
360.11	214.74
360.49	214.85
360.87	214.88
361.25	215.02
361.63	215.17
362.01	215.20
362.39	215.26
362.77	215.32
363.15	215.35
363.53	215.39
363.91	215.49
364.29	215.59
364.67	215.34
365.05	215.40
365.43	215.43
365.81	215.42
366.19	215.55
366.57	215.63
366.95	215.60
367.33	215.44
367.71	215.44
368.09	215.47
368.47	215.41
368.85	215.45
369.23	215.50
369.61	215.36
369.99	215.44
370.37	215.46
370.75	215.60
371.13	215.49
371.51	215.41
371.89	215.40
372.27	215.37
372.65	215.35
373.03	215.33
373.41	215.26
373.78	215.25
374.16	215.15
374.54	215.05
374.92	214.97
375.30	214.94
375.68	214.86
376.06	214.87
376.44	214.77
376.82	214.67
377.19	214.57
377.57	214.52
377.95	214.34
378.33	214.29
378.71	214.09
379.09	214.15
379.47	214.19
379.84	214.07
380.22	214.00
380.60	213.87
380.98	213.77
381.36	213.78
381.73	213.70
382.11	213.71
382.49	213.65
382.87	213.54
383.25	213.54
383.62	213.88
384.00	213.78
384.38	213.85
384.76	213.93
385.13	214.04
385.51	213.99
385.89	213.99
386.27	213.92
386.64	213.95
387.02	213.89
387.40	213.80
387.78	213.77
388.15	213.80
388.53	213.79
388.91	213.75
389.29	213.72
389.66	213.76
390.04	213.64
390.42	213.70
390.79	213.72
391.17	213.68
391.55	213.30
391.92	213.28
392.30	213.26
392.68	213.18
393.05	213.06
393.43	213.03
393.81	212.97
394.18	212.91
394.56	212.87
394.94	212.89
395.31	212.90
395.69	212.98
396.06	213.00
396.44	213.06
396.82	213.13
397.19	213.38
397.57	213.36
397.95	213.44
398.32	213.38
398.70	213.47
399.07	213.66
399.45	213.70
399.82	213.68
400.20	213.70
400.58	213.73
400.95	213.73
401.33	213.84
401.70	214.12
402.08	214.24
402.45	214.26
402.83	214.41
403.20	214.50
403.58	214.59
403.95	214.72
404.33	214.85
404.71	214.98
405.08	215.25
405.46	215.40
405.83	215.63
406.21	215.85
406.58	216.03
406.96	216.14
407.33	216.36
407.70	216.69
408.08	217.24
408.45	217.63
408.83	217.94
409.20	218.35
409.58	218.52
409.95	218.98
410.33	219.47
410.70	219.80
411.08	220.40
411.45	220.97
411.82	221.48
412.20	222.07
412.57	222.86
412.95	223.20
413.32	223.95
413.69	224.70
414.07	225.45
414.44	226.32
414.82	227.23
415.19	228.31
415.56	229.39
415.94	230.37
416.31	231.62
416.68	232.94
417.06	234.33
417.43	235.82
417.81	237.35
418.18	238.96
418.55	240.68
418.93	242.49
419.30	244.31
419.67	246.36
420.04	248.47
420.42	250.58
420.79	253.23
421.16	255.64
421.54	258.22
421.91	260.90
422.28	263.70
422.66	266.68
423.03	269.71
423.40	272.66
423.77	275.83
424.15	279.03
424.52	282.42
424.89	286.05
425.26	289.54
425.64	292.97
426.01	296.69
426.38	300.63
426.75	304.50
427.13	308.64
427.50	312.95
427.87	317.48
428.24	321.97
428.61	326.25
428.99	331.12
429.36	336.10
429.73	341.15
430.10	346.10
430.47	351.18
430.85	356.34
431.22	361.89
431.59	367.93
431.96	373.48
432.33	379.65
432.70	385.66
433.08	392.72
433.45	399.20
433.82	405.90
434.19	413.31
434.56	420.59
434.93	427.35
435.30	434.11
435.68	441.62
436.05	449.14
436.42	456.43
436.79	463.23
437.16	470.58
437.53	478.24
437.90	485.91
438.27	493.45
438.64	501.09
439.01	508.28
439.38	514.65
439.75	520.98
440.13	528.12
440.50	534.84
440.87	540.32
441.24	546.15
441.61	552.46
441.98	556.85
442.35	562.15
442.72	567.65
443.09	572.91
443.46	575.89
443.83	577.82
444.20	579.56
444.57	582.04
444.94	583.11
445.31	584.48
445.68	585.78
446.05	586.35
446.42	585.55
446.79	584.61
447.16	583.46
447.53	582.74
447.90	579.63
448.27	576.72
448.64	572.53
449.01	569.51
449.37	564.14
449.74	559.13
450.11	553.41
450.48	546.81
450.85	540.25
451.22	534.61
451.59	529.21
451.96	524.02
452.33	517.22
452.70	511.15
453.07	503.59
453.43	495.89
453.80	488.39
454.17	481.54
454.54	475.03
454.91	467.96
455.28	461.02
455.65	454.75
456.02	448.75
456.38	443.41
456.75	436.70
457.12	431.06
457.49	425.72
457.86	420.17
458.23	415.70
458.59	410.60
458.96	405.63
459.33	401.13
459.70	396.65
460.07	393.01
460.43	388.93
460.80	385.12
461.17	381.92
461.54	378.48
461.91	375.24
462.27	371.82
462.64	368.92
463.01	365.85
463.38	362.90
463.74	359.50
464.11	356.89
464.48	354.62
464.85	352.20
465.21	350.31
465.58	348.35
465.95	345.93
466.32	343.88
466.68	341.87
467.05	339.85
467.42	337.94
467.78	335.97
468.15	334.02
468.52	332.63
468.88	330.60
469.25	329.06
469.62	327.74
469.98	326.45
470.35	325.24
470.72	323.92
471.08	322.51
471.45	321.38
471.82	320.19
472.18	319.07
472.55	318.26
472.92	317.20
473.28	316.32
473.65	315.47
474.02	314.82
474.38	314.30
474.75	314.03
475.11	313.57
475.48	313.36
475.85	313.13
476.21	312.90
476.58	312.97
476.94	313.02
477.31	312.98
477.67	312.97
478.04	313.12
478.41	313.48
478.77	314.21
479.14	314.51
479.50	314.97
479.87	315.50
480.23	316.21
480.60	316.74
480.96	317.44
481.33	318.50
481.69	319.41
482.06	320.36
482.42	321.17
482.79	322.26
483.15	323.37
483.52	324.90
483.88	326.37
484.25	327.86
484.61	329.53
484.98	331.32
485.34	333.28
485.71	335.39
486.07	337.50
486.44	339.42
486.80	341.95
487.17	344.59
487.53	347.37
487.90	350.22
488.26	353.49
488.62	356.80
488.99	360.12
489.35	363.64
489.72	367.43
490.08	371.54
490.44	375.70
490.81	380.08
491.17	384.48
491.54	389.41
491.90	394.40
492.26	399.61
492.63	405.17
492.99	411.02
493.36	417.20
493.72	423.75
494.08	430.57
494.45	437.66
494.81	445.18
495.17	452.83
495.54	460.99
495.90	469.34
496.26	478.13
496.63	487.31
496.99	497.06
497.35	506.87
497.72	517.25
498.08	527.84
498.44	538.91
498.80	550.98
499.17	563.04
499.53	575.58
499.89	588.83
500.26	602.17
500.62	615.74
500.98	630.00
501.34	644.87
501.71	660.31
502.07	676.13
502.43	692.28
502.79	708.92
503.16	726.03
503.52	743.75
503.88	761.92
504.24	780.45
504.60	799.36
504.97	819.34
505.33	839.52
505.69	861.10
506.05	882.95
506.41	904.55
506.78	926.94
507.14	949.79
507.50	973.15
507.86	997.00
508.22	1021.74
508.59	1046.47
508.95	1071.91
509.31	1097.48
509.67	1123.87
510.03	1150.90
510.39	1178.70
510.75	1206.78
511.12	1235.40
511.48	1264.12
511.84	1293.47
512.20	1323.03
512.56	1353.27
512.92	1383.75
513.28	1414.07
513.64	1444.86
514.00	1475.91
514.37	1507.25
514.73	1539.47
515.09	1571.33
515.45	1603.58
515.81	1635.59
516.17	1668.02
516.53	1700.70
516.89	1733.49
517.25	1766.21
517.61	1798.89
517.97	1831.44
518.33	1863.99
518.69	1896.32
519.05	1929.38
519.41	1962.58
519.77	1996.16
520.13	2028.89
520.49	2061.41
520.85	2094.81
521.21	2128.04
521.57	2161.86
521.93	2194.37
522.29	2227.70
522.65	2261.13
523.01	2294.15
523.37	2326.90
523.73	2359.72
524.09	2391.95
524.45	2424.85
524.81	2457.37
525.17	2490.25
525.53	2522.55
525.89	2554.93
526.25	2587.05
526.61	2617.65
526.97	2648.84
527.33	2679.19
527.68	2710.05
528.04	2740.61
528.40	2769.39
528.76	2798.43
529.12	2827.62
529.48	2858.29
529.84	2887.03
530.20	2915.26
530.56	2943.86
530.91	2973.08
531.27	3001.94
531.63	3030.08
531.99	3057.72
532.35	3084.44
532.71	3110.36
533.07	3136.96
533.42	3162.37
533.78	3187.96
534.14	3213.44
534.50	3236.60
534.86	3261.22
535.21	3283.79
535.57	3307.72
535.93	3330.79
536.29	3353.18
536.65	3375.63
537.00	3396.13
537.36	3415.99
537.72	3436.13
538.08	3455.37
538.44	3474.52
538.79	3493.67
539.15	3512.45
539.51	3530.27
539.87	3549.53
540.22	3567.67
540.58	3585.76
540.94	3603.37
541.29	3619.12
541.65	3634.35
542.01	3650.42
542.37	3665.18
542.72	3680.95
543.08	3694.45
543.44	3709.41
543.79	3722.35
544.15	3734.00
544.51	3746.64
544.87	3759.60
545.22	3770.47
545.58	3780.85
545.94	3789.61
546.29	3797.39
546.65	3804.68
547.01	3812.31
547.36	3818.57
547.72	3825.22
548.07	3830.11
548.43	3834.64
548.79	3839.69
549.14	3844.62
549.50	3849.39
549.86	3852.65
550.21	3855.68
550.57	3859.32
550.92	3860.77
551.28	3862.53
551.64	3864.60
551.99	3866.85
552.35	3867.73
552.70	3869.24
553.06	3870.54
553.41	3872.05
553.77	3872.58
554.13	3873.25
554.48	3873.74
554.84	3874.60
555.19	3873.63
555.55	3872.55
555.90	3870.88
556.26	3868.92
556.61	3867.20
556.97	3864.34
557.32	3862.29
557.68	3858.60
558.03	3854.94
558.39	3851.65
558.74	3849.69
559.10	3847.11
559.45	3842.92
559.81	3839.57
560.16	3834.91
560.52	3831.20
560.87	3826.35
561.23	3820.78
561.58	3816.69
561.94	3810.86
562.29	3803.30
562.64	3798.13
563.00	3793.21
563.35	3789.11
563.71	3785.39
564.06	3780.18
564.42	3775.86
564.77	3771.10
565.12	3766.78
565.48	3761.44
565.83	3756.37
566.19	3751.49
566.54	3744.14
566.89	3737.49
567.25	3731.02
567.60	3725.07
567.96	3717.94
568.31	3711.75
568.66	3705.10
569.02	3696.85
569.37	3688.59
569.72	3681.70
570.08	3673.65
570.43	3664.47
570.78	3655.06
571.14	3644.78
571.49	3635.30
571.84	3625.75
572.20	3615.15
572.55	3605.56
572.90	3594.63
573.26	3583.21
573.61	3571.54
573.96	3560.95
574.31	3549.11
574.67	3536.21
575.02	3523.27
575.37	3510.81
575.72	3497.12
576.08	3486.01
576.43	3473.35
576.78	3461.72
577.13	3450.15
577.49	3437.82
577.84	3426.11
578.19	3414.77
578.54	3404.13
578.90	3393.64
579.25	3381.54
579.60	3368.59
579.95	3355.22
580.30	3344.05
580.66	3333.12
581.01	3320.15
581.36	3307.32
581.71	3294.63
582.06	3282.93
582.42	3271.25
582.77	3258.55
583.12	3246.47
583.47	3234.60
583.82	3223.35
584.17	3210.64
584.53	3198.61
584.88	3186.27
585.23	3174.28
585.58	3161.58
585.93	3148.44
586.28	3135.60
586.63	3122.67
586.98	3111.20
587.34	3099.97
587.69	3087.33
588.04	3074.70
588.39	3063.09
588.74	3050.51
589.09	3038.96
589.44	3026.55
589.79	3015.04
590.14	3003.85
590.49	2992.36
590.84	2979.97
591.19	2969.15
591.54	2957.71
591.89	2943.73
592.25	2931.30
592.60	2917.85
592.95	2904.92
593.30	2890.80
593.65	2877.13
594.00	2864.33
594.35	2853.34
594.70	2840.37
595.05	2828.52
595.40	2816.23
595.75	2803.18
596.10	2791.74
596.45	2780.31
596.80	2769.54
597.15	2758.32
597.50	2746.10
597.85	2734.77
598.19	2722.52
598.54	2710.15
598.89	2699.05
599.24	2689.96
599.59	2679.21
599.94	2669.90
600.29	2659.42
600.64	2649.64
600.99	2638.36
601.34	2628.42
601.69	2616.25
602.04	2605.08
602.39	2593.82
602.74	2583.01
603.08	2573.61
603.43	2563.96
603.78	2553.32
604.13	2542.36
604.48	2531.43
604.83	2522.38
605.18	2513.05
605.53	2502.86
605.87	2492.18
606.22	2482.00
606.57	2470.88
606.92	2460.07
607.27	2448.53
607.62	2437.84
607.96	2427.85
608.31	2418.81
608.66	2407.52
609.01	2396.49
609.36	2385.42
609.70	2373.73
610.05	2362.14
610.40	2350.50
610.75	2338.25
611.10	2327.29
611.44	2314.42
611.79	2301.87
612.14	2288.61
612.49	2274.75
612.83	2262.70
613.18	2249.98
613.53	2237.05
613.88	2223.57
614.22	2211.68
614.57	2199.39
614.92	2186.75
615.27	2173.55
615.61	2160.61
615.96	2148.55
616.31	2137.16
616.65	2126.23
617.00	2115.10
617.35	2103.79
617.70	2091.29
618.04	2078.60
618.39	2065.33
618.74	2053.76
619.08	2042.01
619.43	2030.19
619.78	2019.22
620.12	2007.48
620.47	1996.38
620.82	1984.15
621.16	1972.46
621.51	1960.31
621.85	1948.74
622.20	1936.90
622.55	1925.44
622.89	1913.54
623.24	1902.11
623.59	1889.48
623.93	1877.38
624.28	1865.78
624.62	1854.26
624.97	1842.99
625.32	1832.25
625.66	1821.91
626.01	1811.40
626.35	1800.65
626.70	1789.95
627.04	1779.47
627.39	1768.66
627.73	1757.66
628.08	1748.02
628.43	1737.08
628.77	1726.27
629.12	1715.37
629.46	1705.70
629.81	1695.93
630.15	1685.61
630.50	1674.91
630.84	1664.78
631.19	1654.57
631.53	1644.33
631.88	1633.20
632.22	1622.45
632.57	1612.56
632.91	1601.83
633.26	1591.24
633.60	1581.05
633.95	1571.04
634.29	1560.16
634.64	1550.54
634.98	1540.19
635.32	1530.08
635.67	1521.58
636.01	1512.33
636.36	1502.32
636.70	1492.60
637.05	1482.58
637.39	1473.26
637.73	1464.38
638.08	1456.05
638.42	1447.30
638.77	1438.21
639.11	1429.40
639.45	1420.54
639.80	1410.64
640.14	1401.08
640.49	1391.82
640.83	1382.30
641.17	1373.25
641.52	1364.07
641.86	1354.27
642.20	1345.17
642.55	1335.31
642.89	1325.05
643.23	1315.35
643.58	1306.86
643.92	1297.00
644.26	1287.68
644.61	1278.30
644.95	1268.88
645.29	1258.95
645.64	1249.05
645.98	1239.76
646.32	1231.05
646.66	1221.91
647.01	1213.19
647.35	1204.70
647.69	1195.41
648.04	1186.62
648.38	1177.28
648.72	1168.48
649.06	1159.70
649.41	1150.71
649.75	1142.23
650.09	1133.72
650.43	1125.23
650.78	1115.86
651.12	1107.18
651.46	1098.43
651.80	1090.09
652.14	1081.54
652.49	1073.08
652.83	1064.52
653.17	1055.38
653.51	1046.52
653.85	1038.03
654.20	1029.54
654.54	1020.75
654.88	1012.43
655.22	1004.11
655.56	995.87
655.90	987.55
656.25	979.18
656.59	971.13
656.93	963.01
657.27	955.23
657.61	946.78
657.95	939.31
658.29	931.78
658.64	924.19
658.98	916.30
659.32	908.26
659.66	900.77
660.00	893.24
660.34	885.78
660.68	878.19
661.02	870.70
661.36	863.69
661.70	856.76
662.05	850.06
662.39	843.38
662.73	836.75
663.07	830.23
663.41	823.78
663.75	817.10
664.09	810.36
664.43	803.47
664.77	797.27
665.11	790.67
665.45	784.42
665.79	778.15
666.13	772.00
666.47	766.00
666.81	759.79
667.15	753.81
667.49	748.35
667.83	742.76
668.17	737.24
668.51	731.66
668.85	726.23
669.19	720.85
669.53	715.25
669.87	709.69
670.21	704.22
670.55	698.57
670.89	693.65
671.23	688.71
671.57	683.80
671.91	678.68
672.25	673.54
672.58	668.25
672.92	663.50
673.26	658.83
673.60	654.11
673.94	649.36
674.28	644.57
674.62	639.84
674.96	635.23
675.30	630.78
675.64	625.85
675.97	621.30
676.31	616.92
676.65	612.74
676.99	608.71
677.33	604.38
677.67	600.40
678.01	595.84
678.34	591.80
678.68	587.47
679.02	583.26
679.36	579.33
679.70	575.51
680.04	571.35
680.37	567.02
680.71	563.06
681.05	559.30
681.39	555.46
681.73	551.81
682.06	548.19
682.40	544.43
682.74	540.94
683.08	537.24
683.42	533.43
683.75	529.70
684.09	525.82
684.43	522.23
684.77	518.45
685.10	514.99
685.44	511.16
685.78	507.77
686.12	504.61
686.45	501.21
686.79	497.77
687.13	494.62
687.46	491.56
687.80	488.41
688.14	485.03
688.48	482.11
688.81	478.79
689.15	475.55
689.49	472.37
689.82	469.28
690.16	465.90
690.50	462.72
690.83	459.58
691.17	456.54
691.51	453.46
691.84	450.64
692.18	447.75
692.52	445.02
692.85	442.46
693.19	439.73
693.52	436.88
693.86	433.96
694.20	431.21
694.53	428.50
694.87	425.67
695.21	423.02
695.54	420.08
695.88	417.19
696.21	414.55
696.55	412.05
696.88	409.53
697.22	407.15
697.56	404.75
697.89	402.28
698.23	399.92
698.56	397.56
698.90	395.30
699.23	392.87
699.57	390.46
699.90	388.03
700.24	385.60
700.58	383.46
700.91	381.49
701.25	379.42
701.58	377.39
701.92	375.29
702.25	373.21
702.59	371.24
702.92	369.45
703.26	367.43
703.59	365.45
703.93	363.84
704.26	362.03
704.60	360.13
704.93	358.25
705.26	356.30
705.60	354.57
705.93	352.70
706.27	351.06
706.60	349.57
706.94	348.06
707.27	346.36
707.61	344.67
707.94	342.97
708.27	341.10
708.61	339.41
708.94	337.81
709.28	336.34
709.61	334.85
709.94	333.35
710.28	331.89
710.61	330.47
710.95	328.67
711.28	327.44
711.61	326.04
711.95	324.70
712.28	323.32
712.61	322.02
712.95	320.86
713.28	319.73
713.61	318.31
713.95	316.90
714.28	315.74
714.61	314.42
714.95	313.04
715.28	311.90
715.61	310.57
715.95	309.44
716.28	308.16
716.61	306.95
716.95	305.68
717.28	304.51
717.61	303.40
717.94	302.25
718.28	300.95
718.61	299.87
718.94	298.83
719.27	297.80
719.61	296.68
719.94	295.58
720.27	294.36
720.60	293.34
720.94	292.23
721.27	291.18
721.60	290.32
721.93	289.48
722.27	288.61
722.60	287.79
722.93	286.83
723.26	286.09
723.59	285.22
723.93	284.47
724.26	283.73
724.59	282.79
724.92	282.12
725.25	281.45
725.59	280.74
725.92	279.98
726.25	279.20
726.58	278.46
726.91	277.73
727.24	277.11
727.57	276.40
727.91	275.74
728.24	275.17
728.57	274.43
728.90	273.81
729.23	273.07
729.56	272.51
729.89	271.84
730.22	271.08
730.55	270.32
730.89	269.58
731.22	268.83
731.55	268.26
731.88	267.54
732.21	266.77
732.54	266.02
732.87	265.39
733.20	264.78
733.53	264.20
733.86	263.65
734.19	262.99
734.52	262.46
734.85	262.14
735.18	261.48
735.51	260.97
735.84	260.43
736.17	259.94
736.50	259.29
736.83	259.19
737.16	258.65
737.49	258.21
737.82	257.69
738.15	257.26
738.48	256.71
738.81	256.28
739.14	255.78
739.47	255.24
739.80	254.72
740.13	254.27
740.46	253.72
740.79	253.16
741.12	252.55
741.45	251.96
741.78	251.20
742.11	250.85
742.44	250.35
742.77	249.99
743.10	249.48
743.43	249.01
743.75	248.22
744.08	248.22
744.41	247.74
744.74	247.28
745.07	246.78
745.40	246.42
745.73	246.07
746.06	245.64
746.39	245.30
746.71	244.90
747.04	244.54
747.37	244.17
747.70	243.89
748.03	243.62
748.36	243.38
748.68	243.11
749.01	242.55
749.34	242.20
749.67	241.79
750.00	241.55
750.33	241.41
750.65	241.04
750.98	240.19
751.31	239.85
751.64	239.55
751.97	239.40
752.29	239.04
752.62	238.57
752.95	238.19
753.28	237.88
753.60	237.51
753.93	237.31
754.26	237.00
754.59	236.56
754.91	236.25
755.24	235.91
755.57	235.58
755.90	235.32
756.22	234.91
756.55	234.59
756.88	234.18
757.20	233.69
757.53	233.33
757.86	233.09
758.19	232.90
758.51	232.56
758.84	232.08
759.17	231.82
759.49	231.64
759.82	231.66
760.15	231.43
760.47	231.20
760.80	230.78
761.13	230.61
761.45	230.37
761.78	230.08
762.11	229.92
762.43	229.71
762.76	229.50
763.08	229.36
763.41	229.19
763.74	229.02
764.06	228.83
764.39	228.62
764.71	228.42
765.04	228.14
765.37	228.05
765.69	227.90
766.02	227.64
766.34	227.40
766.67	227.03
767.00	226.92
767.32	226.93
767.65	227.01
767.97	226.82
768.30	226.70
768.62	226.50
768.95	226.24
769.27	226.03
769.60	225.87
769.92	225.71
770.25	225.46
770.57	225.24
770.90	225.01
771.22	224.87
771.55	224.71
771.87	224.62
772.20	224.41
772.52	224.48
772.85	224.86
773.17	224.69
773.50	224.55
773.82	224.34
774.15	224.03
774.47	223.67
774.80	223.50
775.12	223.38
775.45	223.27
775.77	223.20
776.09	223.10
776.42	223.09
776.74	223.07
777.07	222.88
777.39	222.83
777.72	222.68
778.04	222.53
778.36	222.50
778.69	222.42
779.01	222.46
779.33	222.06
779.66	221.45
779.98	221.34
780.31	221.26
780.63	221.32
780.95	221.31
781.28	221.20
781.60	221.09
781.92	220.94
782.25	220.89
782.57	220.67
782.89	220.50
783.22	220.30
783.54	220.10
783.86	220.07
784.19	219.94
784.51	220.03
784.83	219.91
785.16	219.77
