SpectraSuite Data File
++++++++++++++++++++++++++++++++++++
Date: Mon Feb 25 16:59:21 EST 2013
User: group
Dark Spectrum Present: No
Reference Spectrum Present: No
Number of Sampled Component Spectra: 1
Spectrometers: USB2E7196
Integration Time (usec): 104000 (USB2E7196)
Spectra Averaged: 20 (USB2E7196)
Boxcar Smoothing: 10 (USB2E7196)
Correct for Electrical Dark: No (USB2E7196)
Strobe/Lamp Enabled: No (USB2E7196)
Correct for Detector Non-linearity: No (USB2E7196)
Correct for Stray Light: No (USB2E7196)
Number of Pixels in Processed Spectrum: 2048
>>>>>Begin Processed Spectral Data<<<<<
339.09	0.00
339.48	198.50
339.86	200.55
340.24	200.60
340.63	202.90
341.01	209.65
341.39	205.25
341.78	207.90
342.16	209.35
342.54	208.65
342.93	198.45
343.31	208.47
343.69	209.04
344.07	209.53
344.46	210.04
344.84	210.41
345.22	210.41
345.60	210.69
345.99	210.82
346.37	210.90
346.75	210.99
347.13	211.12
347.52	211.18
347.90	211.37
348.28	211.39
348.66	211.45
349.05	211.34
349.43	211.42
349.81	211.42
350.19	211.47
350.57	211.50
350.96	211.51
351.34	211.58
351.72	211.61
352.10	211.68
352.48	211.72
352.87	211.81
353.25	211.91
353.63	211.99
354.01	212.09
354.39	212.17
354.77	212.27
355.15	212.39
355.54	212.41
355.92	212.31
356.30	212.44
356.68	212.77
357.06	212.90
357.44	212.86
357.82	212.94
358.20	213.08
358.58	213.19
358.97	213.25
359.35	213.48
359.73	213.65
360.11	213.65
360.49	213.74
360.87	213.74
361.25	213.83
361.63	213.95
362.01	213.94
362.39	214.01
362.77	214.07
363.15	214.00
363.53	214.00
363.91	214.06
364.29	213.99
364.67	213.64
365.05	213.58
365.43	213.63
365.81	213.63
366.19	213.67
366.57	213.77
366.95	213.77
367.33	213.64
367.71	213.66
368.09	213.74
368.47	213.70
368.85	213.72
369.23	213.75
369.61	213.56
369.99	213.69
370.37	213.71
370.75	213.80
371.13	213.71
371.51	213.66
371.89	213.65
372.27	213.65
372.65	213.63
373.03	213.62
373.41	213.57
373.78	213.55
374.16	213.33
374.54	213.14
374.92	213.00
375.30	212.90
375.68	212.68
376.06	212.65
376.44	212.61
376.82	212.52
377.19	212.45
377.57	212.41
377.95	212.31
378.33	212.20
378.71	211.99
379.09	212.07
379.47	212.09
379.84	212.10
380.22	212.00
380.60	211.86
380.98	211.85
381.36	211.78
381.73	211.64
382.11	211.72
382.49	211.71
382.87	211.67
383.25	211.70
383.62	212.10
384.00	211.96
384.38	211.89
384.76	211.97
385.13	212.05
385.51	212.04
385.89	211.92
386.27	211.85
386.64	211.88
387.02	211.77
387.40	211.70
387.78	211.65
388.15	211.57
388.53	211.53
388.91	211.41
389.29	211.39
389.66	211.44
390.04	211.42
390.42	211.49
390.79	211.52
391.17	211.44
391.55	211.11
391.92	211.12
392.30	211.12
392.68	210.98
393.05	210.90
393.43	210.86
393.81	210.93
394.18	210.90
394.56	210.91
394.94	211.00
395.31	211.01
395.69	211.07
396.06	211.26
396.44	211.37
396.82	211.40
397.19	211.66
397.57	211.67
397.95	211.71
398.32	211.64
398.70	211.69
399.07	211.80
399.45	211.77
399.82	211.81
400.20	211.80
400.58	211.91
400.95	211.86
401.33	212.05
401.70	212.29
402.08	212.44
402.45	212.47
402.83	212.64
403.20	212.73
403.58	212.81
403.95	212.96
404.33	213.17
404.71	213.38
405.08	213.63
405.46	213.80
405.83	214.00
406.21	214.22
406.58	214.49
406.96	214.68
407.33	214.94
407.70	215.25
408.08	215.94
408.45	216.39
408.83	216.86
409.20	217.28
409.58	217.55
409.95	218.12
410.33	218.69
410.70	219.14
411.08	219.77
411.45	220.42
411.82	221.07
412.20	221.74
412.57	222.69
412.95	223.27
413.32	224.17
413.69	225.07
414.07	226.07
414.44	227.22
414.82	228.37
415.19	229.82
415.56	231.16
415.94	232.43
416.31	233.92
416.68	235.53
417.06	237.27
417.43	239.02
417.81	240.96
418.18	243.07
418.55	245.30
418.93	247.64
419.30	250.17
419.67	252.79
420.04	255.54
420.42	258.27
420.79	261.67
421.16	265.00
421.54	268.54
421.91	272.12
422.28	275.78
422.66	279.76
423.03	283.70
423.40	287.75
423.77	292.08
424.15	296.49
424.52	301.06
424.89	305.98
425.26	310.81
425.64	315.40
426.01	320.51
426.38	325.89
426.75	331.35
427.13	336.81
427.50	342.75
427.87	348.83
428.24	354.97
428.61	360.80
428.99	367.24
429.36	374.22
429.73	381.22
430.10	388.14
430.47	395.25
430.85	402.57
431.22	410.38
431.59	418.68
431.96	426.67
432.33	435.68
432.70	444.44
433.08	454.64
433.45	464.30
433.82	473.81
434.19	484.42
434.56	494.95
434.93	505.26
435.30	515.33
435.68	526.63
436.05	537.79
436.42	549.04
436.79	559.42
437.16	570.60
437.53	582.23
437.90	593.99
438.27	605.49
438.64	617.55
439.01	628.84
439.38	639.00
439.75	648.83
440.13	659.82
440.50	670.34
440.87	679.21
441.24	688.18
441.61	698.31
441.98	705.99
442.35	714.72
442.72	723.39
443.09	731.90
443.46	737.57
443.83	741.52
444.20	745.03
444.57	749.81
444.94	752.47
445.31	755.36
445.68	758.05
446.05	759.79
446.42	759.57
446.79	759.18
447.16	758.57
447.53	758.38
447.90	754.96
448.27	751.60
448.64	746.20
449.01	742.83
449.37	735.91
449.74	729.32
450.11	721.22
450.48	712.39
450.85	703.44
451.22	695.61
451.59	688.42
451.96	681.34
452.33	671.62
452.70	662.86
453.07	652.12
453.43	641.30
453.80	631.00
454.17	620.87
454.54	611.23
454.91	601.02
455.28	590.98
455.65	581.82
456.02	572.54
456.38	564.70
456.75	554.80
457.12	546.65
457.49	538.46
457.86	530.54
458.23	523.79
458.59	516.20
458.96	508.50
459.33	501.72
459.70	495.03
460.07	489.73
460.43	483.50
460.80	477.86
461.17	472.74
461.54	467.32
461.91	462.36
462.27	457.23
462.64	452.76
463.01	447.87
463.38	443.18
463.74	438.28
464.11	434.18
464.48	430.55
464.85	426.45
465.21	423.41
465.58	420.20
465.95	416.25
466.32	413.06
466.68	409.95
467.05	406.69
467.42	403.44
467.78	400.05
468.15	396.97
468.52	394.52
468.88	391.41
469.25	388.60
469.62	386.15
469.98	383.69
470.35	381.42
470.72	379.30
471.08	376.87
471.45	374.85
471.82	372.85
472.18	370.57
472.55	368.88
472.92	366.96
473.28	365.21
473.65	363.56
474.02	361.77
474.38	360.40
474.75	359.30
475.11	358.04
475.48	356.99
475.85	356.03
476.21	355.10
476.58	354.35
476.94	353.76
477.31	353.13
477.67	352.52
478.04	351.95
478.41	351.58
478.77	351.53
479.14	351.25
479.50	351.04
479.87	351.00
480.23	350.98
480.60	350.84
480.96	350.74
481.33	351.14
481.69	351.47
482.06	351.52
482.42	351.51
482.79	351.59
483.15	352.08
483.52	352.80
483.88	353.27
484.25	353.82
484.61	354.36
484.98	355.01
485.34	355.89
485.71	356.78
486.07	357.70
486.44	358.30
486.80	359.36
487.17	360.50
487.53	361.82
487.90	363.25
488.26	364.75
488.62	366.40
488.99	367.76
489.35	369.31
489.72	371.16
490.08	373.07
490.44	375.05
490.81	377.09
491.17	378.91
491.54	381.08
491.90	383.28
492.26	385.68
492.63	388.10
492.99	390.51
493.36	393.12
493.72	395.93
494.08	398.65
494.45	401.53
494.81	404.56
495.17	407.51
495.54	410.57
495.90	413.62
496.26	416.77
496.63	420.01
496.99	423.30
497.35	426.69
497.72	430.11
498.08	433.62
498.44	436.97
498.80	440.75
499.17	444.42
499.53	448.09
499.89	451.85
500.26	455.56
500.62	459.19
500.98	463.07
501.34	466.71
501.71	470.79
502.07	474.58
502.43	478.29
502.79	481.98
503.16	485.72
503.52	489.49
503.88	493.01
504.24	496.78
504.60	500.58
504.97	504.20
505.33	507.80
505.69	511.83
506.05	515.65
506.41	519.21
506.78	522.65
507.14	525.98
507.50	529.23
507.86	532.68
508.22	535.99
508.59	539.00
508.95	542.07
509.31	545.15
509.67	548.16
510.03	551.09
510.39	554.16
510.75	556.96
511.12	559.85
511.48	562.77
511.84	565.57
512.20	568.34
512.56	570.96
512.92	573.50
513.28	575.63
513.64	577.90
514.00	580.06
514.37	582.37
514.73	584.78
515.09	587.01
515.45	588.90
515.81	590.93
516.17	592.90
516.53	594.88
516.89	596.46
517.25	597.99
517.61	599.67
517.97	601.06
518.33	602.49
518.69	603.79
519.05	605.22
519.41	606.46
519.77	607.78
520.13	608.93
520.49	609.95
520.85	611.02
521.21	612.15
521.57	613.38
521.93	614.12
522.29	615.18
522.65	616.16
523.01	617.13
523.37	617.78
523.73	618.68
524.09	619.49
524.45	620.37
524.81	621.35
525.17	622.31
525.53	623.33
525.89	624.39
526.25	625.36
526.61	625.92
526.97	626.69
527.33	627.47
527.68	628.80
528.04	629.85
528.40	630.78
528.76	631.67
529.12	632.70
529.48	633.97
529.84	634.84
530.20	635.96
530.56	637.17
530.91	638.77
531.27	640.12
531.63	641.50
531.99	642.84
532.35	644.24
532.71	645.51
533.07	646.97
533.42	648.65
533.78	650.23
534.14	652.10
534.50	653.65
534.86	655.39
535.21	656.70
535.57	658.66
535.93	660.33
536.29	662.17
536.65	663.95
537.00	665.71
537.36	667.47
537.72	669.02
538.08	670.75
538.44	672.39
538.79	674.42
539.15	676.36
539.51	678.47
539.87	680.50
540.22	682.58
540.58	684.87
540.94	686.87
541.29	688.94
541.65	690.78
542.01	693.10
542.37	695.31
542.72	697.53
543.08	699.57
543.44	702.16
543.79	704.15
544.15	706.29
544.51	708.83
544.87	711.47
545.22	714.01
545.58	716.25
545.94	718.65
546.29	720.75
546.65	722.92
547.01	725.16
547.36	727.53
547.72	729.77
548.07	732.00
548.43	734.12
548.79	736.16
549.14	738.48
549.50	740.78
549.86	742.95
550.21	745.16
550.57	747.59
550.92	749.49
551.28	751.96
551.64	754.17
551.99	756.37
552.35	758.37
552.70	760.56
553.06	763.06
553.41	765.22
553.77	767.65
554.13	769.91
554.48	772.32
554.84	774.87
555.19	777.26
555.55	779.59
555.90	781.75
556.26	783.98
556.61	786.13
556.97	787.95
557.32	789.94
557.68	792.13
558.03	793.89
558.39	795.97
558.74	797.83
559.10	799.92
559.45	801.84
559.81	803.90
560.16	805.87
560.52	807.64
560.87	809.79
561.23	811.36
561.58	813.45
561.94	814.96
562.29	816.30
562.64	818.14
563.00	819.74
563.35	821.70
563.71	823.90
564.06	825.81
564.42	827.93
564.77	829.98
565.12	831.88
565.48	834.03
565.83	835.79
566.19	837.74
566.54	839.29
566.89	840.91
567.25	842.94
567.60	844.79
567.96	846.78
568.31	848.53
568.66	850.12
569.02	851.26
569.37	852.57
569.72	854.05
570.08	855.12
570.43	856.18
570.78	856.97
571.14	857.50
571.49	858.36
571.84	859.10
572.20	859.35
572.55	859.94
572.90	860.15
573.26	860.39
573.61	860.61
573.96	860.96
574.31	861.10
574.67	860.57
575.02	860.09
575.37	859.36
575.72	858.58
576.08	858.49
576.43	858.10
576.78	857.92
577.13	857.45
577.49	857.07
577.84	856.62
578.19	856.34
578.54	856.32
578.90	856.06
579.25	855.38
579.60	854.91
579.95	854.07
580.30	853.46
580.66	852.87
581.01	851.91
581.36	850.82
581.71	849.78
582.06	849.18
582.42	848.42
582.77	847.60
583.12	846.40
583.47	845.28
583.82	844.22
584.17	842.88
584.53	842.11
584.88	840.84
585.23	839.75
585.58	838.40
585.93	836.74
586.28	835.28
586.63	834.19
586.98	832.95
587.34	831.75
587.69	830.47
588.04	828.97
588.39	827.80
588.74	826.39
589.09	825.19
589.44	823.45
589.79	822.20
590.14	820.97
590.49	819.91
590.84	818.38
591.19	817.33
591.54	816.04
591.89	814.00
592.25	812.61
592.60	810.92
592.95	809.32
593.30	807.56
593.65	805.55
594.00	803.66
594.35	802.81
594.70	800.74
595.05	798.98
595.40	797.27
595.75	795.08
596.10	793.53
596.45	791.70
596.80	790.25
597.15	788.44
597.50	786.43
597.85	784.79
598.19	783.00
598.54	780.92
598.89	779.20
599.24	777.95
599.59	775.98
599.94	774.13
600.29	772.18
600.64	770.38
600.99	768.61
601.34	766.79
601.69	763.76
602.04	761.73
602.39	759.52
602.74	757.80
603.08	756.35
603.43	754.53
603.78	752.48
604.13	750.32
604.48	748.32
604.83	746.62
605.18	744.87
605.53	742.83
605.87	740.81
606.22	738.74
606.57	736.21
606.92	733.93
607.27	731.65
607.62	729.63
607.96	727.72
608.31	725.86
608.66	723.73
609.01	721.51
609.36	719.39
609.70	717.23
610.05	714.72
610.40	712.26
610.75	709.73
611.10	707.80
611.44	705.21
611.79	702.47
612.14	699.91
612.49	697.01
612.83	694.57
613.18	691.96
613.53	689.29
613.88	686.69
614.22	684.43
614.57	681.84
614.92	679.27
615.27	676.63
615.61	673.93
615.96	671.19
616.31	668.94
616.65	666.80
617.00	664.31
617.35	661.92
617.70	659.42
618.04	656.65
618.39	653.56
618.74	651.18
619.08	648.67
619.43	646.01
619.78	643.68
620.12	641.18
620.47	638.77
620.82	636.12
621.16	633.26
621.51	630.70
621.85	628.35
622.20	625.68
622.55	623.00
622.89	620.37
623.24	617.80
623.59	615.08
623.93	612.24
624.28	609.85
624.62	607.53
624.97	605.01
625.32	602.58
625.66	600.23
626.01	597.72
626.35	595.40
626.70	592.88
627.04	590.44
627.39	587.97
627.73	585.61
628.08	583.35
628.43	581.16
628.77	578.73
629.12	576.08
629.46	573.84
629.81	571.50
630.15	569.04
630.50	566.65
630.84	564.34
631.19	562.08
631.53	559.62
631.88	556.90
632.22	554.50
632.57	552.52
632.91	550.26
633.26	548.03
633.60	545.56
633.95	543.35
634.29	540.98
634.64	538.89
634.98	536.38
635.32	534.29
635.67	532.25
636.01	530.06
636.36	528.04
636.70	525.98
637.05	523.80
637.39	521.86
637.73	519.95
638.08	518.11
638.42	516.16
638.77	514.13
639.11	512.26
639.45	510.21
639.80	507.97
640.14	505.87
640.49	503.76
640.83	501.82
641.17	499.79
641.52	497.67
641.86	495.33
642.20	493.41
642.55	491.05
642.89	488.90
643.23	486.68
643.58	484.92
643.92	482.72
644.26	480.74
644.61	478.67
644.95	476.57
645.29	474.26
645.64	472.12
645.98	470.04
646.32	468.06
646.66	465.98
647.01	463.97
647.35	462.09
647.69	459.97
648.04	458.11
648.38	456.18
648.72	454.13
649.06	452.10
649.41	450.14
649.75	448.29
650.09	446.46
650.43	444.56
650.78	442.41
651.12	440.39
651.46	438.42
651.80	436.63
652.14	434.77
652.49	433.03
652.83	431.11
653.17	429.10
653.51	427.11
653.85	425.34
654.20	423.55
654.54	421.60
654.88	419.74
655.22	417.91
655.56	415.95
655.90	414.09
656.25	412.30
656.59	410.47
656.93	408.76
657.27	407.06
657.61	405.17
657.95	403.43
658.29	401.81
658.64	400.13
658.98	398.22
659.32	396.40
659.66	394.60
660.00	392.84
660.34	391.19
660.68	389.36
661.02	387.60
661.36	385.91
661.70	384.26
662.05	382.70
662.39	381.19
662.73	379.73
663.07	378.47
663.41	377.02
663.75	375.41
664.09	373.79
664.43	372.12
664.77	370.87
665.11	369.35
665.45	367.86
665.79	366.55
666.13	365.16
666.47	363.69
666.81	362.23
667.15	360.85
667.49	359.55
667.83	358.37
668.17	357.13
668.51	355.82
668.85	354.55
669.19	353.47
669.53	351.89
669.87	350.53
670.21	349.16
670.55	347.95
670.89	346.95
671.23	345.80
671.57	344.56
671.91	343.20
672.25	342.02
672.58	340.82
672.92	339.46
673.26	338.37
673.60	337.08
673.94	335.95
674.28	334.86
674.62	333.80
674.96	332.64
675.30	331.43
675.64	330.33
675.97	329.18
676.31	327.95
676.65	326.97
676.99	326.10
677.33	324.91
677.67	323.79
678.01	322.56
678.34	321.49
678.68	320.50
679.02	319.43
679.36	318.40
679.70	317.44
680.04	316.44
680.37	315.34
680.71	314.46
681.05	313.60
681.39	312.56
681.73	311.55
682.06	310.66
682.40	309.81
682.74	308.87
683.08	308.14
683.42	307.15
683.75	306.29
684.09	305.28
684.43	304.35
684.77	303.40
685.10	302.62
685.44	301.63
685.78	300.72
686.12	299.91
686.45	299.00
686.79	298.06
687.13	297.34
687.46	296.53
687.80	295.90
688.14	295.00
688.48	294.30
688.81	293.49
689.15	292.79
689.49	291.96
689.82	291.13
690.16	290.13
690.50	289.31
690.83	288.50
691.17	287.66
691.51	286.85
691.84	286.14
692.18	285.22
692.52	284.61
692.85	283.92
693.19	283.32
693.52	282.64
693.86	281.85
694.20	281.15
694.53	280.39
694.87	279.55
695.21	278.79
695.54	277.96
695.88	277.23
696.21	276.32
696.55	275.56
696.88	274.89
697.22	274.20
697.56	273.60
697.89	272.82
698.23	272.18
698.56	271.59
698.90	270.95
699.23	270.35
699.57	269.63
699.90	269.02
700.24	268.36
700.58	267.69
700.91	267.21
701.25	266.83
701.58	266.30
701.92	265.84
702.25	265.33
702.59	264.76
702.92	264.15
703.26	263.63
703.59	263.07
703.93	262.84
704.26	262.30
704.60	261.74
704.93	261.26
705.26	260.73
705.60	260.28
705.93	259.70
706.27	259.32
706.60	258.91
706.94	258.54
707.27	257.88
707.61	257.45
707.94	256.95
708.27	256.17
708.61	255.69
708.94	255.17
709.28	254.69
709.61	254.22
709.94	253.81
710.28	253.42
710.61	253.09
710.95	252.24
711.28	252.06
711.61	251.66
711.95	251.43
712.28	250.95
712.61	250.45
712.95	250.29
713.28	249.98
713.61	249.60
713.95	248.99
714.28	248.70
714.61	248.24
714.95	247.81
715.28	247.39
715.61	247.02
715.95	246.70
716.28	246.23
716.61	245.90
716.95	245.50
717.28	245.22
717.61	244.83
717.94	244.57
718.28	244.01
718.61	243.66
718.94	243.18
719.27	242.87
719.61	242.56
719.94	242.08
720.27	241.52
720.60	241.15
720.94	240.98
721.27	240.71
721.60	240.54
721.93	240.24
722.27	240.10
722.60	239.91
722.93	239.49
723.26	239.30
723.59	239.01
723.93	238.87
724.26	238.45
724.59	238.15
724.92	238.01
725.25	237.83
725.59	237.64
725.92	237.49
726.25	237.27
726.58	237.02
726.91	236.81
727.24	236.68
727.57	236.48
727.91	236.11
728.24	235.85
728.57	235.54
728.90	235.39
729.23	235.05
729.56	234.88
729.89	234.70
730.22	234.50
730.55	234.24
730.89	233.95
731.22	233.80
731.55	233.62
731.88	233.27
732.21	232.97
732.54	232.68
732.87	232.35
733.20	232.09
733.53	231.86
733.86	231.70
734.19	231.41
734.52	231.25
734.85	231.33
735.18	231.14
735.51	231.07
735.84	230.89
736.17	230.78
736.50	230.42
736.83	230.66
737.16	230.42
737.49	230.27
737.82	230.00
738.15	229.85
738.48	229.60
738.81	229.42
739.14	229.18
739.47	229.00
739.80	228.88
740.13	228.75
740.46	228.55
740.79	228.24
741.12	228.11
741.45	227.86
741.78	227.43
742.11	227.32
742.44	227.00
742.77	226.86
743.10	226.61
743.43	226.46
743.75	225.95
744.08	226.30
744.41	226.11
744.74	225.95
745.07	225.68
745.40	225.65
745.73	225.67
746.06	225.55
746.39	225.40
746.71	225.24
747.04	225.05
747.37	224.97
747.70	224.93
748.03	224.74
748.36	224.67
748.68	224.57
749.01	224.29
749.34	224.23
749.67	224.08
750.00	224.03
750.33	224.15
750.65	223.95
750.98	223.35
751.31	223.29
751.64	223.22
751.97	223.26
752.29	223.05
752.62	222.75
752.95	222.58
753.28	222.44
753.60	222.38
753.93	222.36
754.26	222.30
754.59	222.05
754.91	221.94
755.24	221.82
755.57	221.65
755.90	221.54
756.22	221.36
756.55	221.22
756.88	221.00
757.20	220.69
757.53	220.47
757.86	220.33
758.19	220.24
758.51	220.15
758.84	219.87
759.17	219.86
759.49	219.73
759.82	219.86
760.15	219.88
760.47	219.66
760.80	219.41
761.13	219.29
761.45	219.23
761.78	219.16
762.11	219.07
762.43	218.98
762.76	219.00
763.08	218.90
763.41	218.79
763.74	218.71
764.06	218.60
764.39	218.51
764.71	218.45
765.04	218.34
765.37	218.17
765.69	218.14
766.02	217.92
766.34	217.88
766.67	217.65
767.00	217.57
767.32	217.69
767.65	217.89
767.97	217.76
768.30	217.74
768.62	217.66
768.95	217.52
769.27	217.52
769.60	217.42
769.92	217.39
770.25	217.32
770.57	217.16
770.90	217.05
771.22	217.02
771.55	216.95
771.87	216.88
772.20	216.92
772.52	217.10
772.85	217.51
773.17	217.39
773.50	217.31
773.82	217.20
774.15	216.99
774.47	216.71
774.80	216.65
775.12	216.53
775.45	216.41
775.77	216.43
776.09	216.36
776.42	216.31
776.74	216.31
777.07	216.19
777.39	216.21
777.72	216.16
778.04	216.12
778.36	216.10
778.69	216.00
779.01	215.95
779.33	215.61
779.66	215.18
779.98	215.17
780.31	215.16
780.63	215.16
780.95	215.23
781.28	215.08
781.60	215.06
781.92	215.01
782.25	215.00
782.57	214.93
782.89	214.79
783.22	214.70
783.54	214.56
783.86	214.62
784.19	214.59
784.51	214.65
784.83	214.52
785.16	214.41
785.48	214.35
785.80	214.33
786.12	214.40
786.45	214.35
786.77	214.26
787.09	214.16
787.42	214.06
787.74	213.94
788.06	213.99
788.38	213.91
788.71	213.89
789.03	213.88
789.35	213.85
789.67	213.85
789.99	213.86
790.32	213.79
790.64	213.80
790.96	214.15
791.28	214.02
791.61	214.00
791.93	214.04
792.25	214.06
792.57	214.23
792.89	214.04
793.21	214.03
793.54	214.04
793.86	214.04
794.18	214.04
