SpectraSuite Data File
++++++++++++++++++++++++++++++++++++
Date: Mon Feb 25 17:18:04 EST 2013
User: group
Dark Spectrum Present: No
Reference Spectrum Present: No
Number of Sampled Component Spectra: 1
Spectrometers: USB2E7196
Integration Time (usec): 104000 (USB2E7196)
Spectra Averaged: 20 (USB2E7196)
Boxcar Smoothing: 10 (USB2E7196)
Correct for Electrical Dark: No (USB2E7196)
Strobe/Lamp Enabled: No (USB2E7196)
Correct for Detector Non-linearity: No (USB2E7196)
Correct for Stray Light: No (USB2E7196)
Number of Pixels in Processed Spectrum: 2048
>>>>>Begin Processed Spectral Data<<<<<
339.09	0.00
339.48	197.60
339.86	199.05
340.24	201.20
340.63	202.35
341.01	209.40
341.39	205.25
341.78	208.10
342.16	209.35
342.54	209.55
342.93	197.84
343.31	207.84
343.69	208.41
344.07	208.93
344.46	209.39
344.84	209.78
345.22	209.82
345.60	210.14
345.99	210.24
346.37	210.31
346.75	210.38
347.13	210.43
347.52	210.50
347.90	210.67
348.28	210.70
348.66	210.77
349.05	210.76
349.43	210.79
349.81	210.85
350.19	210.95
350.57	211.13
350.96	211.26
351.34	211.33
351.72	211.43
352.10	211.56
352.48	211.67
352.87	211.73
353.25	211.79
353.63	211.87
354.01	211.85
354.39	211.91
354.77	211.89
355.15	212.06
355.54	212.13
355.92	212.05
356.30	212.10
356.68	212.38
357.06	212.44
357.44	212.51
357.82	212.56
358.20	212.68
358.58	212.77
358.97	212.83
359.35	212.94
359.73	213.09
360.11	213.13
360.49	213.16
360.87	213.18
361.25	213.30
361.63	213.44
362.01	213.69
362.39	213.80
362.77	213.94
363.15	214.01
363.53	214.07
363.91	214.12
364.29	214.18
364.67	213.90
365.05	213.94
365.43	214.09
365.81	214.17
366.19	214.38
366.57	214.49
366.95	214.59
367.33	214.56
367.71	214.54
368.09	214.65
368.47	214.63
368.85	214.71
369.23	214.72
369.61	214.52
369.99	214.65
370.37	214.69
370.75	214.91
371.13	214.80
371.51	214.74
371.89	214.83
372.27	214.85
372.65	214.83
373.03	214.90
373.41	214.78
373.78	214.78
374.16	214.57
374.54	214.47
374.92	214.34
375.30	214.35
375.68	214.30
376.06	214.27
376.44	214.31
376.82	214.31
377.19	214.29
377.57	214.28
377.95	214.09
378.33	213.97
378.71	213.64
379.09	213.64
379.47	213.73
379.84	213.60
380.22	213.49
380.60	213.43
380.98	213.28
381.36	213.26
381.73	213.24
382.11	213.23
382.49	213.22
382.87	213.17
383.25	213.10
383.62	213.46
384.00	213.32
384.38	213.22
384.76	213.25
385.13	213.39
385.51	213.41
385.89	213.32
386.27	213.37
386.64	213.38
387.02	213.35
387.40	213.24
387.78	213.25
388.15	213.32
388.53	213.31
388.91	213.30
389.29	213.23
389.66	213.23
390.04	213.26
390.42	213.23
390.79	213.21
391.17	213.23
391.55	212.87
391.92	212.84
392.30	212.88
392.68	212.77
393.05	212.72
393.43	212.75
393.81	212.81
394.18	212.77
394.56	212.84
394.94	212.93
395.31	212.92
395.69	213.01
396.06	213.03
396.44	213.14
396.82	213.10
397.19	213.27
397.57	213.25
397.95	213.16
398.32	213.13
398.70	213.24
399.07	213.31
399.45	213.22
399.82	213.28
400.20	213.24
400.58	213.32
400.95	213.20
401.33	213.22
401.70	213.45
402.08	213.49
402.45	213.51
402.83	213.60
403.20	213.67
403.58	213.67
403.95	213.76
404.33	213.82
404.71	214.01
405.08	214.37
405.46	214.50
405.83	214.68
406.21	214.85
406.58	215.05
406.96	215.14
407.33	215.45
407.70	215.68
408.08	216.23
408.45	216.47
408.83	216.87
409.20	217.09
409.58	217.28
409.95	217.68
410.33	218.06
410.70	218.28
411.08	218.74
411.45	219.19
411.82	219.57
412.20	220.07
412.57	220.74
412.95	220.96
413.32	221.62
413.69	222.24
414.07	222.92
414.44	223.61
414.82	224.45
415.19	225.26
415.56	226.10
415.94	226.82
416.31	227.84
416.68	228.86
417.06	230.11
417.43	231.14
417.81	232.44
418.18	233.69
418.55	235.20
418.93	236.65
419.30	238.13
419.67	239.82
420.04	241.51
420.42	243.21
420.79	245.42
421.16	247.47
421.54	249.66
421.91	251.83
422.28	253.99
422.66	256.31
423.03	258.88
423.40	261.37
423.77	263.91
424.15	266.51
424.52	269.22
424.89	272.26
425.26	275.19
425.64	277.86
426.01	280.91
426.38	284.02
426.75	287.20
427.13	290.46
427.50	293.90
427.87	297.49
428.24	301.05
428.61	304.33
428.99	308.11
429.36	312.15
429.73	316.10
430.10	320.23
430.47	324.37
430.85	328.55
431.22	333.08
431.59	337.96
431.96	342.54
432.33	347.57
432.70	352.46
433.08	358.06
433.45	363.41
433.82	368.78
434.19	374.71
434.56	380.57
434.93	386.15
435.30	391.75
435.68	397.83
436.05	403.94
436.42	409.90
436.79	415.40
437.16	421.33
437.53	427.66
437.90	433.80
438.27	439.90
438.64	446.09
439.01	451.82
439.38	456.93
439.75	461.90
440.13	467.56
440.50	472.84
440.87	477.25
441.24	481.80
441.61	486.90
441.98	490.58
442.35	494.82
442.72	499.08
443.09	503.30
443.46	505.80
443.83	507.48
444.20	508.99
444.57	511.01
444.94	511.97
445.31	512.91
445.68	514.15
446.05	514.57
446.42	513.76
446.79	513.06
447.16	512.15
447.53	511.63
447.90	509.17
448.27	506.63
448.64	503.33
449.01	500.85
449.37	496.60
449.74	492.51
450.11	488.02
450.48	482.78
450.85	477.32
451.22	472.66
451.59	468.19
451.96	463.98
452.33	458.33
452.70	453.19
453.07	447.18
453.43	440.77
453.80	434.88
454.17	429.41
454.54	424.10
454.91	418.38
455.28	412.79
455.65	407.73
456.02	403.14
456.38	398.82
456.75	393.53
457.12	389.02
457.49	384.49
457.86	379.90
458.23	376.33
458.59	372.30
458.96	368.30
459.33	364.63
459.70	360.94
460.07	358.20
460.43	354.87
460.80	351.79
461.17	349.17
461.54	346.35
461.91	343.59
462.27	340.87
462.64	338.61
463.01	336.09
463.38	333.66
463.74	330.77
464.11	328.57
464.48	326.63
464.85	324.59
465.21	323.14
465.58	321.42
465.95	319.40
466.32	317.73
466.68	316.10
467.05	314.53
467.42	313.01
467.78	311.29
468.15	309.77
468.52	308.60
468.88	306.96
469.25	305.51
469.62	304.46
469.98	303.33
470.35	302.29
470.72	301.24
471.08	300.06
471.45	299.20
471.82	298.33
472.18	297.41
472.55	296.82
472.92	296.00
473.28	295.33
473.65	294.64
474.02	294.03
474.38	293.64
474.75	293.34
475.11	292.84
475.48	292.67
475.85	292.52
476.21	292.30
476.58	292.27
476.94	292.39
477.31	292.40
477.67	292.34
478.04	292.41
478.41	292.66
478.77	293.33
479.14	293.59
479.50	294.00
479.87	294.45
480.23	294.88
480.60	295.36
480.96	295.86
481.33	296.71
481.69	297.46
482.06	298.20
482.42	298.94
482.79	299.87
483.15	300.77
483.52	301.87
483.88	302.97
484.25	304.07
484.61	305.23
484.98	306.52
485.34	308.12
485.71	309.83
486.07	311.44
486.44	312.85
486.80	314.69
487.17	316.66
487.53	318.94
487.90	321.27
488.26	323.89
488.62	326.54
488.99	329.06
489.35	331.85
489.72	334.85
490.08	337.98
490.44	341.27
490.81	344.77
491.17	348.30
491.54	352.13
491.90	356.17
492.26	360.39
492.63	364.98
492.99	369.56
493.36	374.33
493.72	379.58
494.08	384.89
494.45	390.60
494.81	396.44
495.17	402.33
495.54	408.68
495.90	415.18
496.26	422.00
496.63	429.23
496.99	436.80
497.35	444.59
497.72	452.66
498.08	461.11
498.44	469.84
498.80	479.18
499.17	488.75
499.53	498.63
499.89	508.95
500.26	519.21
500.62	529.90
500.98	541.18
501.34	552.71
501.71	564.87
502.07	576.99
502.43	589.69
502.79	602.77
503.16	616.46
503.52	630.33
503.88	644.78
504.24	659.52
504.60	674.65
504.97	690.12
505.33	705.96
505.69	722.74
506.05	739.67
506.41	756.67
506.78	774.13
507.14	792.17
507.50	810.47
507.86	829.48
508.22	848.80
508.59	868.14
508.95	888.34
509.31	908.80
509.67	929.87
510.03	951.37
510.39	973.33
510.75	995.45
511.12	1017.97
511.48	1040.82
511.84	1064.01
512.20	1087.26
512.56	1111.51
512.92	1135.80
513.28	1160.16
513.64	1184.69
514.00	1209.63
514.37	1234.63
514.73	1259.84
515.09	1285.62
515.45	1311.18
515.81	1337.04
516.17	1363.32
516.53	1389.41
516.89	1415.55
517.25	1441.74
517.61	1468.14
517.97	1494.75
518.33	1520.77
518.69	1547.38
519.05	1574.01
519.41	1601.06
519.77	1628.64
520.13	1654.81
520.49	1681.26
520.85	1708.10
521.21	1735.29
521.57	1762.45
521.93	1788.89
522.29	1816.36
522.65	1843.33
523.01	1870.10
523.37	1896.19
523.73	1922.61
524.09	1948.90
524.45	1975.47
524.81	2002.08
525.17	2028.58
525.53	2054.62
525.89	2081.27
526.25	2107.10
526.61	2132.40
526.97	2157.23
527.33	2182.00
527.68	2207.18
528.04	2231.43
528.40	2254.92
528.76	2278.81
529.12	2302.94
529.48	2328.06
529.84	2351.68
530.20	2375.15
530.56	2398.54
530.91	2423.08
531.27	2446.93
531.63	2470.08
531.99	2492.47
532.35	2514.27
532.71	2535.91
533.07	2558.18
533.42	2579.09
533.78	2600.09
534.14	2621.03
534.50	2640.42
534.86	2660.41
535.21	2679.55
535.57	2700.51
535.93	2719.73
536.29	2738.20
536.65	2756.69
537.00	2773.67
537.36	2790.48
537.72	2806.63
538.08	2823.12
538.44	2839.07
538.79	2854.87
539.15	2870.37
539.51	2886.12
539.87	2902.61
540.22	2917.29
540.58	2932.44
540.94	2946.78
541.29	2960.24
541.65	2972.77
542.01	2986.51
542.37	2998.88
542.72	3011.94
543.08	3022.54
543.44	3035.29
543.79	3046.00
544.15	3055.92
544.51	3067.25
544.87	3078.26
545.22	3087.87
545.58	3096.57
545.94	3104.06
546.29	3110.87
546.65	3117.77
547.01	3124.02
547.36	3129.73
547.72	3135.80
548.07	3139.91
548.43	3144.62
548.79	3148.98
549.14	3153.45
549.50	3157.76
549.86	3160.64
550.21	3163.30
550.57	3166.86
550.92	3167.87
551.28	3169.93
551.64	3172.16
551.99	3174.00
552.35	3174.46
552.70	3176.05
553.06	3177.42
553.41	3178.96
553.77	3180.03
554.13	3180.74
554.48	3181.60
554.84	3181.95
555.19	3181.18
555.55	3180.35
555.90	3178.78
556.26	3177.13
556.61	3175.40
556.97	3172.81
557.32	3171.59
557.68	3168.86
558.03	3165.99
558.39	3164.19
558.74	3163.16
559.10	3161.30
559.45	3158.02
559.81	3155.71
560.16	3151.82
560.52	3148.99
560.87	3144.89
561.23	3140.62
561.58	3136.81
561.94	3131.86
562.29	3126.33
562.64	3122.09
563.00	3118.15
563.35	3114.94
563.71	3112.21
564.06	3108.68
564.42	3105.34
564.77	3101.50
565.12	3097.68
565.48	3093.46
565.83	3089.11
566.19	3084.40
566.54	3078.22
566.89	3072.53
567.25	3067.05
567.60	3062.08
567.96	3055.97
568.31	3051.07
568.66	3045.25
569.02	3038.71
569.37	3032.07
569.72	3026.33
570.08	3019.92
570.43	3012.83
570.78	3004.84
571.14	2996.38
571.49	2987.92
571.84	2980.70
572.20	2971.86
572.55	2964.25
572.90	2955.42
573.26	2946.00
573.61	2936.32
573.96	2927.49
574.31	2917.74
574.67	2907.50
575.02	2896.99
575.37	2887.13
575.72	2875.92
576.08	2866.86
576.43	2856.61
576.78	2847.12
577.13	2837.63
577.49	2827.91
577.84	2817.86
578.19	2809.00
578.54	2800.31
578.90	2792.26
579.25	2781.78
579.60	2771.52
579.95	2760.57
580.30	2751.15
580.66	2742.44
581.01	2732.03
581.36	2721.47
581.71	2711.57
582.06	2702.36
582.42	2693.14
582.77	2682.44
583.12	2672.41
583.47	2662.43
583.82	2653.25
584.17	2642.98
584.53	2633.11
584.88	2623.08
585.23	2613.25
585.58	2602.68
585.93	2592.11
586.28	2581.93
586.63	2571.87
586.98	2562.31
587.34	2553.58
587.69	2543.58
588.04	2533.07
588.39	2523.89
588.74	2513.93
589.09	2504.66
589.44	2494.27
589.79	2485.05
590.14	2476.37
590.49	2467.23
590.84	2457.22
591.19	2448.41
591.54	2439.26
591.89	2428.08
592.25	2418.14
592.60	2407.88
592.95	2397.63
593.30	2386.81
593.65	2375.84
594.00	2365.66
594.35	2357.36
594.70	2347.09
595.05	2337.68
595.40	2327.81
595.75	2317.05
596.10	2307.69
596.45	2298.22
596.80	2289.43
597.15	2280.20
597.50	2270.28
597.85	2261.22
598.19	2251.88
598.54	2242.18
598.89	2233.36
599.24	2225.83
599.59	2217.48
599.94	2209.82
600.29	2201.52
600.64	2193.15
600.99	2184.24
601.34	2175.91
601.69	2165.53
602.04	2156.25
602.39	2147.01
602.74	2138.46
603.08	2131.53
603.43	2124.15
603.78	2115.69
604.13	2107.01
604.48	2098.59
604.83	2091.45
605.18	2084.24
605.53	2075.68
605.87	2066.88
606.22	2058.77
606.57	2050.00
606.92	2040.87
607.27	2031.65
607.62	2022.78
607.96	2014.77
608.31	2007.23
608.66	1998.33
609.01	1989.56
609.36	1980.61
609.70	1971.31
610.05	1962.00
610.40	1952.32
610.75	1942.29
611.10	1933.69
611.44	1923.04
611.79	1912.75
612.14	1902.00
612.49	1890.70
612.83	1880.89
613.18	1870.32
613.53	1859.67
613.88	1848.65
614.22	1838.90
614.57	1828.49
614.92	1818.26
615.27	1807.61
615.61	1796.97
615.96	1786.96
616.31	1777.59
616.65	1768.90
617.00	1759.70
617.35	1750.31
617.70	1740.11
618.04	1729.60
618.39	1718.35
618.74	1709.30
619.08	1699.32
619.43	1689.75
619.78	1680.68
620.12	1671.23
620.47	1662.22
620.82	1652.05
621.16	1642.33
621.51	1632.50
621.85	1623.12
622.20	1613.46
622.55	1604.02
622.89	1594.29
623.24	1584.81
623.59	1574.92
623.93	1564.82
624.28	1555.17
624.62	1545.68
624.97	1536.30
625.32	1527.91
625.66	1519.45
626.01	1510.37
626.35	1501.67
626.70	1492.59
627.04	1483.95
627.39	1475.33
627.73	1466.49
628.08	1458.48
628.43	1449.69
628.77	1440.74
629.12	1431.85
629.46	1424.08
629.81	1415.74
630.15	1407.15
630.50	1398.63
630.84	1389.81
631.19	1381.16
631.53	1372.82
631.88	1363.78
632.22	1355.02
632.57	1346.55
632.91	1338.05
633.26	1329.66
633.60	1321.42
633.95	1313.84
634.29	1305.15
634.64	1297.02
634.98	1288.77
635.32	1280.59
635.67	1273.34
636.01	1265.66
636.36	1257.60
636.70	1249.64
637.05	1241.52
637.39	1233.89
637.73	1226.66
638.08	1220.17
638.42	1213.10
638.77	1205.77
639.11	1198.58
639.45	1191.25
639.80	1183.20
640.14	1175.32
640.49	1167.67
640.83	1160.04
641.17	1152.27
641.52	1144.78
641.86	1136.88
642.20	1129.34
642.55	1121.33
642.89	1113.23
643.23	1105.25
643.58	1098.20
643.92	1089.96
644.26	1082.59
644.61	1075.05
644.95	1067.05
645.29	1059.01
645.64	1051.24
645.98	1043.82
646.32	1036.60
646.66	1029.33
647.01	1022.27
647.35	1015.23
647.69	1007.71
648.04	1000.70
648.38	993.33
648.72	986.25
649.06	978.85
649.41	971.79
649.75	965.01
650.09	958.24
650.43	951.51
650.78	944.20
651.12	937.44
651.46	930.54
651.80	923.76
652.14	917.16
652.49	910.17
652.83	903.16
653.17	895.78
653.51	888.77
653.85	882.04
654.20	875.42
654.54	868.66
654.88	862.21
655.22	855.40
655.56	848.57
655.90	841.78
656.25	835.18
656.59	828.56
656.93	822.17
657.27	815.93
657.61	809.24
657.95	803.00
658.29	796.94
658.64	790.85
658.98	784.50
659.32	777.90
659.66	771.94
660.00	765.76
660.34	759.78
660.68	753.61
661.02	747.58
661.36	741.74
661.70	736.05
662.05	730.41
662.39	725.10
662.73	719.76
663.07	714.53
663.41	709.40
663.75	704.09
664.09	698.65
664.43	692.93
664.77	687.91
665.11	682.76
665.45	677.61
665.79	672.46
666.13	667.65
666.47	662.81
666.81	657.83
667.15	653.05
667.49	648.60
667.83	644.28
668.17	639.77
668.51	635.42
668.85	630.99
669.19	626.89
669.53	622.22
669.87	617.76
670.21	613.46
670.55	609.20
670.89	605.31
671.23	601.38
671.57	597.36
671.91	593.32
672.25	589.05
672.58	584.92
672.92	580.90
673.26	576.88
673.60	573.17
673.94	569.32
674.28	565.69
674.62	561.99
674.96	558.25
675.30	554.58
675.64	550.77
675.97	547.12
676.31	543.45
676.65	540.06
676.99	536.84
677.33	533.15
677.67	529.58
678.01	525.83
678.34	522.38
678.68	519.14
679.02	515.72
679.36	512.62
679.70	509.52
680.04	506.32
680.37	503.11
680.71	499.87
681.05	496.90
681.39	493.78
681.73	490.65
682.06	487.72
682.40	484.77
682.74	481.77
683.08	478.74
683.42	475.57
683.75	472.56
684.09	469.41
684.43	466.54
684.77	463.57
685.10	460.80
685.44	457.77
685.78	454.87
686.12	452.22
686.45	449.52
686.79	446.70
687.13	444.13
687.46	441.52
687.80	438.84
688.14	436.00
688.48	433.52
688.81	430.87
689.15	428.13
689.49	425.40
689.82	422.82
690.16	420.10
690.50	417.57
690.83	415.11
691.17	412.49
691.51	410.05
691.84	407.81
692.18	405.44
692.52	403.30
692.85	401.27
693.19	399.02
693.52	396.73
693.86	394.39
694.20	392.17
694.53	390.07
694.87	387.95
695.21	385.86
695.54	383.53
695.88	381.33
696.21	379.25
696.55	377.29
696.88	375.31
697.22	373.32
697.56	371.51
697.89	369.49
698.23	367.64
698.56	365.65
698.90	363.82
699.23	361.88
699.57	359.92
699.90	357.88
700.24	356.02
700.58	354.10
700.91	352.38
701.25	350.93
701.58	349.16
701.92	347.45
702.25	345.84
702.59	344.18
702.92	342.62
703.26	341.10
703.59	339.58
703.93	338.28
704.26	336.88
704.60	335.26
704.93	333.67
705.26	332.12
705.60	330.70
705.93	329.18
706.27	327.74
706.60	326.34
706.94	325.10
707.27	323.61
707.61	322.25
707.94	320.99
708.27	319.20
708.61	317.74
708.94	316.47
709.28	315.14
709.61	313.87
709.94	312.64
710.28	311.30
710.61	310.05
710.95	308.54
711.28	307.54
711.61	306.45
711.95	305.41
712.28	304.32
712.61	303.27
712.95	302.33
713.28	301.37
713.61	300.33
713.95	299.18
714.28	298.13
714.61	297.15
714.95	296.02
715.28	294.94
715.61	293.92
715.95	292.90
716.28	291.80
716.61	290.88
716.95	289.90
717.28	289.04
717.61	288.09
717.94	287.24
718.28	286.02
718.61	285.04
718.94	284.13
719.27	283.25
719.61	282.36
719.94	281.43
720.27	280.43
720.60	279.52
720.94	278.70
721.27	277.95
721.60	277.18
721.93	276.44
722.27	275.82
722.60	275.14
722.93	274.40
723.26	273.74
723.59	272.99
723.93	272.21
724.26	271.54
724.59	270.84
724.92	270.17
725.25	269.69
725.59	269.00
725.92	268.44
726.25	267.88
726.58	267.25
726.91	266.58
727.24	266.07
727.57	265.45
727.91	264.77
728.24	264.26
728.57	263.60
728.90	263.10
729.23	262.49
729.56	262.16
729.89	261.58
730.22	261.02
730.55	260.44
730.89	259.93
731.22	259.28
731.55	258.77
731.88	258.27
732.21	257.65
732.54	257.09
732.87	256.48
733.20	255.97
733.53	255.52
733.86	255.06
734.19	254.45
734.52	254.01
734.85	253.85
735.18	253.32
735.51	252.96
735.84	252.51
736.17	252.19
736.50	251.63
736.83	251.57
737.16	251.15
737.49	250.81
737.82	250.34
738.15	249.94
738.48	249.55
738.81	249.08
739.14	248.66
739.47	248.31
739.80	247.92
740.13	247.53
740.46	247.03
740.79	246.56
741.12	246.22
741.45	245.77
741.78	245.16
742.11	244.92
742.44	244.46
742.77	244.09
743.10	243.72
743.43	243.26
743.75	242.56
744.08	242.60
744.41	242.14
744.74	241.85
745.07	241.53
745.40	241.17
745.73	241.04
746.06	240.61
746.39	240.31
746.71	239.95
747.04	239.55
747.37	239.28
747.70	239.04
748.03	238.74
748.36	238.54
748.68	238.30
749.01	237.90
749.34	237.67
749.67	237.45
750.00	237.18
750.33	237.10
750.65	236.88
750.98	236.27
751.31	236.02
751.64	235.71
751.97	235.58
752.29	235.36
752.62	234.80
752.95	234.55
753.28	234.27
753.60	234.02
753.93	233.93
754.26	233.66
754.59	233.34
754.91	233.09
755.24	232.85
755.57	232.60
755.90	232.27
756.22	232.02
756.55	231.70
756.88	231.39
757.20	230.91
757.53	230.57
757.86	230.32
758.19	230.16
758.51	229.98
758.84	229.57
759.17	229.28
759.49	229.15
759.82	229.15
760.15	229.02
760.47	228.81
760.80	228.42
761.13	228.26
761.45	228.03
761.78	227.80
762.11	227.58
762.43	227.25
762.76	227.03
763.08	226.91
763.41	226.75
763.74	226.57
764.06	226.39
764.39	226.26
764.71	226.00
765.04	225.80
765.37	225.55
765.69	225.48
766.02	225.28
766.34	225.07
766.67	224.81
767.00	224.67
767.32	224.68
767.65	224.70
767.97	224.43
768.30	224.27
768.62	224.15
768.95	223.97
769.27	223.95
769.60	223.90
769.92	223.69
770.25	223.49
770.57	223.20
770.90	223.14
771.22	222.92
771.55	222.82
771.87	222.66
772.20	222.59
772.52	222.69
772.85	223.03
773.17	222.95
773.50	222.73
773.82	222.50
774.15	222.28
774.47	222.03
774.80	221.95
775.12	221.83
775.45	221.75
775.77	221.68
776.09	221.56
776.42	221.46
776.74	221.36
777.07	221.23
777.39	221.21
777.72	221.02
778.04	220.98
778.36	220.95
778.69	220.86
779.01	220.74
779.33	220.36
779.66	219.82
779.98	219.70
780.31	219.73
780.63	219.80
780.95	219.74
781.28	219.65
781.60	219.58
781.92	219.54
782.25	219.42
782.57	219.34
782.89	219.31
783.22	219.25
783.54	219.16
783.86	219.17
784.19	219.01
784.51	219.13
784.83	219.02
785.16	218.86
785.48	218.88
785.80	218.89
