SpectraSuite Data File
++++++++++++++++++++++++++++++++++++
Date: Mon Feb 25 17:17:49 EST 2013
User: group
Dark Spectrum Present: No
Reference Spectrum Present: No
Number of Sampled Component Spectra: 1
Spectrometers: USB2E7196
Integration Time (usec): 104000 (USB2E7196)
Spectra Averaged: 20 (USB2E7196)
Boxcar Smoothing: 10 (USB2E7196)
Correct for Electrical Dark: No (USB2E7196)
Strobe/Lamp Enabled: No (USB2E7196)
Correct for Detector Non-linearity: No (USB2E7196)
Correct for Stray Light: No (USB2E7196)
Number of Pixels in Processed Spectrum: 2048
>>>>>Begin Processed Spectral Data<<<<<
339.09	0.00
339.48	199.60
339.86	199.55
340.24	201.45
340.63	202.40
341.01	210.35
341.39	206.00
341.78	206.85
342.16	208.70
342.54	209.55
342.93	198.21
343.31	208.18
343.69	208.66
344.07	209.13
344.46	209.66
344.84	210.13
345.22	210.16
345.60	210.43
345.99	210.61
346.37	210.74
346.75	210.82
347.13	210.95
347.52	211.07
347.90	211.27
348.28	211.23
348.66	211.38
349.05	211.27
349.43	211.42
349.81	211.46
350.19	211.49
350.57	211.49
350.96	211.57
351.34	211.72
351.72	211.87
352.10	212.00
352.48	211.96
352.87	211.95
353.25	212.04
353.63	212.08
354.01	212.11
354.39	212.24
354.77	212.30
355.15	212.44
355.54	212.44
355.92	212.39
356.30	212.55
356.68	212.80
357.06	212.95
357.44	212.94
357.82	212.98
358.20	213.11
358.58	213.22
358.97	213.36
359.35	213.47
359.73	213.52
360.11	213.59
360.49	213.69
360.87	213.76
361.25	213.84
361.63	213.96
362.01	214.09
362.39	214.06
362.77	214.17
363.15	214.18
363.53	214.27
363.91	214.39
364.29	214.43
364.67	214.13
365.05	214.14
365.43	214.19
365.81	214.32
366.19	214.47
366.57	214.63
366.95	214.58
367.33	214.52
367.71	214.57
368.09	214.63
368.47	214.63
368.85	214.61
369.23	214.68
369.61	214.66
369.99	214.79
370.37	214.82
370.75	214.95
371.13	214.91
371.51	214.88
371.89	214.91
372.27	214.89
372.65	214.95
373.03	214.91
373.41	214.87
373.78	214.83
374.16	214.59
374.54	214.41
374.92	214.41
375.30	214.43
375.68	214.39
376.06	214.33
376.44	214.35
376.82	214.33
377.19	214.26
377.57	214.18
377.95	214.02
378.33	214.00
378.71	213.76
379.09	213.73
379.47	213.64
379.84	213.56
380.22	213.50
380.60	213.45
380.98	213.47
381.36	213.46
381.73	213.31
382.11	213.45
382.49	213.49
382.87	213.37
383.25	213.34
383.62	213.60
384.00	213.58
384.38	213.47
384.76	213.49
385.13	213.62
385.51	213.53
385.89	213.44
386.27	213.37
386.64	213.45
387.02	213.33
387.40	213.27
387.78	213.28
388.15	213.30
388.53	213.18
388.91	213.08
389.29	213.05
389.66	213.09
390.04	212.96
390.42	212.97
390.79	213.00
391.17	212.94
391.55	212.62
391.92	212.59
392.30	212.61
392.68	212.57
393.05	212.51
393.43	212.51
393.81	212.52
394.18	212.49
394.56	212.44
394.94	212.61
395.31	212.62
395.69	212.66
396.06	212.65
396.44	212.66
396.82	212.71
397.19	212.86
397.57	212.81
397.95	212.86
398.32	212.86
398.70	212.90
399.07	212.96
399.45	212.94
399.82	212.88
400.20	212.81
400.58	212.80
400.95	212.67
401.33	212.85
401.70	213.19
402.08	213.20
402.45	213.19
402.83	213.34
403.20	213.44
403.58	213.48
403.95	213.60
404.33	213.82
404.71	213.88
405.08	214.19
405.46	214.30
405.83	214.48
406.21	214.63
406.58	214.76
406.96	214.93
407.33	215.11
407.70	215.44
408.08	216.06
408.45	216.40
408.83	216.71
409.20	216.91
409.58	216.99
409.95	217.37
410.33	217.82
410.70	217.99
411.08	218.38
411.45	218.76
411.82	219.14
412.20	219.63
412.57	220.40
412.95	220.63
413.32	221.30
413.69	221.89
414.07	222.36
414.44	223.01
414.82	223.86
415.19	224.73
415.56	225.54
415.94	226.19
416.31	227.23
416.68	228.26
417.06	229.40
417.43	230.54
417.81	231.87
418.18	233.06
418.55	234.45
418.93	236.00
419.30	237.53
419.67	239.13
420.04	240.69
420.42	242.22
420.79	244.37
421.16	246.32
421.54	248.46
421.91	250.69
422.28	252.87
422.66	255.06
423.03	257.54
423.40	259.92
423.77	262.37
424.15	264.87
424.52	267.53
424.89	270.40
425.26	273.15
425.64	275.76
426.01	278.75
426.38	281.82
426.75	284.86
427.13	288.09
427.50	291.48
427.87	295.06
428.24	298.58
428.61	301.70
428.99	305.45
429.36	309.35
429.73	313.21
430.10	317.15
430.47	321.12
430.85	325.04
431.22	329.44
431.59	334.36
431.96	338.76
432.33	343.65
432.70	348.44
433.08	353.88
433.45	359.11
433.82	364.24
434.19	370.14
434.56	375.84
434.93	381.16
435.30	386.55
435.68	392.46
436.05	398.20
436.42	404.00
436.79	409.27
437.16	414.94
437.53	421.00
437.90	427.05
438.27	433.13
438.64	439.22
439.01	444.84
439.38	449.62
439.75	454.47
440.13	460.02
440.50	465.24
440.87	469.57
441.24	474.10
441.61	479.05
441.98	482.50
442.35	486.58
442.72	490.74
443.09	494.98
443.46	497.30
443.83	499.03
444.20	500.50
444.57	502.53
444.94	503.46
445.31	504.45
445.68	505.55
446.05	505.72
446.42	504.97
446.79	504.20
447.16	503.31
447.53	502.80
447.90	500.47
448.27	498.11
448.64	494.94
449.01	492.46
449.37	488.28
449.74	484.31
450.11	479.75
450.48	474.69
450.85	469.31
451.22	464.79
451.59	460.59
451.96	456.55
452.33	451.19
452.70	446.33
453.07	440.49
453.43	434.40
453.80	428.84
454.17	423.56
454.54	418.35
454.91	412.87
455.28	407.41
455.65	402.35
456.02	397.63
456.38	393.32
456.75	388.07
457.12	383.72
457.49	379.48
457.86	375.17
458.23	371.68
458.59	367.74
458.96	363.85
459.33	360.28
459.70	356.72
460.07	353.85
460.43	350.58
460.80	347.63
461.17	344.92
461.54	342.01
461.91	339.33
462.27	336.79
462.64	334.53
463.01	332.04
463.38	329.78
463.74	327.03
464.11	324.91
464.48	323.09
464.85	321.07
465.21	319.49
465.58	317.89
465.95	315.85
466.32	314.24
466.68	312.63
467.05	311.07
467.42	309.44
467.78	307.78
468.15	306.25
468.52	305.14
468.88	303.72
469.25	302.39
469.62	301.47
469.98	300.31
470.35	299.30
470.72	298.31
471.08	297.21
471.45	296.42
471.82	295.67
472.18	294.68
472.55	294.06
472.92	293.22
473.28	292.58
473.65	291.96
474.02	291.40
474.38	291.04
474.75	290.77
475.11	290.47
475.48	290.27
475.85	290.06
476.21	289.84
476.58	289.77
476.94	289.89
477.31	289.83
477.67	289.79
478.04	289.81
478.41	290.07
478.77	290.54
479.14	290.77
479.50	291.07
479.87	291.45
480.23	291.88
480.60	292.36
480.96	292.93
481.33	293.76
481.69	294.36
482.06	295.06
482.42	295.76
482.79	296.65
483.15	297.61
483.52	298.80
483.88	299.86
484.25	300.99
484.61	302.18
484.98	303.43
485.34	305.02
485.71	306.70
486.07	308.24
486.44	309.75
486.80	311.52
487.17	313.54
487.53	315.85
487.90	318.05
488.26	320.53
488.62	323.04
488.99	325.48
489.35	328.23
489.72	331.06
490.08	334.12
490.44	337.24
490.81	340.56
491.17	344.03
491.54	347.69
491.90	351.49
492.26	355.53
492.63	359.78
492.99	364.10
493.36	368.70
493.72	373.68
494.08	378.73
494.45	384.25
494.81	389.91
495.17	395.55
495.54	401.76
495.90	407.96
496.26	414.40
496.63	421.31
496.99	428.52
497.35	436.12
497.72	443.85
498.08	451.95
498.44	460.41
498.80	469.30
499.17	478.52
499.53	488.09
499.89	497.94
500.26	508.08
500.62	518.52
500.98	529.45
501.34	540.55
501.71	552.20
502.07	564.02
502.43	576.08
502.79	588.79
503.16	601.84
503.52	615.25
503.88	629.13
504.24	643.34
504.60	657.79
504.97	672.83
505.33	688.15
505.69	704.42
506.05	720.80
506.41	737.34
506.78	754.20
507.14	771.40
507.50	789.15
507.86	807.24
508.22	825.94
508.59	844.75
508.95	864.29
509.31	884.00
509.67	904.05
510.03	924.65
510.39	945.71
510.75	966.96
511.12	988.85
511.48	1010.96
511.84	1033.31
512.20	1055.94
512.56	1079.01
512.92	1102.48
513.28	1126.00
513.64	1149.66
514.00	1173.39
514.37	1197.64
514.73	1222.49
515.09	1247.42
515.45	1272.22
515.81	1297.28
516.17	1322.64
516.53	1347.86
516.89	1373.12
517.25	1398.59
517.61	1424.19
517.97	1449.60
518.33	1475.01
518.69	1500.56
519.05	1526.39
519.41	1552.50
519.77	1579.03
520.13	1604.79
520.49	1630.34
520.85	1656.03
521.21	1682.18
521.57	1708.76
521.93	1734.33
522.29	1760.82
522.65	1787.07
523.01	1813.16
523.37	1838.10
523.73	1863.57
524.09	1889.22
524.45	1914.90
524.81	1940.70
525.17	1966.40
525.53	1992.05
525.89	2018.15
526.25	2043.46
526.61	2067.91
526.97	2092.03
527.33	2116.05
527.68	2140.68
528.04	2164.62
528.40	2187.69
528.76	2210.71
529.12	2234.29
529.48	2258.59
529.84	2281.50
530.20	2303.82
530.56	2326.55
530.91	2350.63
531.27	2373.59
531.63	2395.84
531.99	2418.12
532.35	2439.29
532.71	2460.19
533.07	2481.90
533.42	2501.98
533.78	2522.70
534.14	2543.10
534.50	2562.32
534.86	2582.09
535.21	2600.25
535.57	2620.23
535.93	2638.81
536.29	2657.17
536.65	2674.82
537.00	2691.52
537.36	2707.42
537.72	2723.62
538.08	2739.67
538.44	2755.26
538.79	2770.93
539.15	2785.67
539.51	2800.58
539.87	2816.47
540.22	2831.38
540.58	2845.92
540.94	2860.28
541.29	2873.19
541.65	2885.46
542.01	2898.36
542.37	2910.51
542.72	2923.00
543.08	2933.16
543.44	2945.40
543.79	2955.89
544.15	2965.74
544.51	2976.10
544.87	2986.80
545.22	2996.28
545.58	3005.09
545.94	3012.32
546.29	3019.26
546.65	3026.42
547.01	3032.80
547.36	3038.61
547.72	3044.43
548.07	3048.71
548.43	3052.97
548.79	3056.93
549.14	3061.14
549.50	3065.33
549.86	3068.21
550.21	3071.04
550.57	3074.70
550.92	3076.19
551.28	3077.64
551.64	3079.82
551.99	3081.92
552.35	3083.12
552.70	3084.21
553.06	3085.39
553.41	3086.08
553.77	3086.93
554.13	3087.62
554.48	3088.39
554.84	3088.50
555.19	3088.15
555.55	3086.96
555.90	3085.21
556.26	3083.97
556.61	3082.43
556.97	3080.00
557.32	3078.52
557.68	3075.75
558.03	3072.94
558.39	3070.78
558.74	3069.70
559.10	3067.48
559.45	3064.26
559.81	3061.49
560.16	3057.95
560.52	3054.90
560.87	3051.66
561.23	3047.30
561.58	3043.97
561.94	3038.99
562.29	3033.72
562.64	3029.39
563.00	3025.70
563.35	3022.72
563.71	3019.90
564.06	3016.16
564.42	3012.75
564.77	3009.24
565.12	3006.25
565.48	3002.13
565.83	2998.02
566.19	2994.14
566.54	2988.36
566.89	2982.94
567.25	2978.05
567.60	2973.45
567.96	2967.76
568.31	2963.15
568.66	2957.60
569.02	2951.14
569.37	2944.65
569.72	2938.95
570.08	2932.41
570.43	2925.97
570.78	2918.45
571.14	2910.24
571.49	2902.71
571.84	2895.76
572.20	2887.13
572.55	2879.22
572.90	2870.65
573.26	2861.75
573.61	2852.42
573.96	2844.09
574.31	2834.75
574.67	2824.39
575.02	2814.29
575.37	2804.43
575.72	2793.58
576.08	2784.94
576.43	2774.82
576.78	2765.75
577.13	2756.75
577.49	2747.42
577.84	2737.41
578.19	2728.91
578.54	2720.51
578.90	2712.16
579.25	2702.11
579.60	2692.21
579.95	2681.97
580.30	2673.43
580.66	2664.64
581.01	2654.61
581.36	2644.34
581.71	2635.05
582.06	2625.66
582.42	2616.45
582.77	2606.28
583.12	2596.62
583.47	2586.80
583.82	2577.92
584.17	2568.17
584.53	2558.73
584.88	2549.21
585.23	2539.68
585.58	2529.57
585.93	2519.32
586.28	2509.45
586.63	2499.94
586.98	2490.58
587.34	2481.77
587.69	2471.80
588.04	2462.14
588.39	2452.84
588.74	2443.16
589.09	2434.24
589.44	2424.90
589.79	2415.87
590.14	2407.44
590.49	2398.45
590.84	2388.97
591.19	2380.53
591.54	2371.61
591.89	2360.88
592.25	2350.87
592.60	2340.89
592.95	2330.58
593.30	2319.79
593.65	2309.28
594.00	2299.47
594.35	2291.48
594.70	2281.40
595.05	2271.99
595.40	2262.23
595.75	2252.11
596.10	2243.50
596.45	2234.34
596.80	2225.56
597.15	2216.66
597.50	2207.15
597.85	2198.71
598.19	2189.20
598.54	2179.44
598.89	2170.93
599.24	2163.54
599.59	2155.19
599.94	2147.97
600.29	2140.03
600.64	2132.44
600.99	2123.50
601.34	2115.39
601.69	2105.44
602.04	2096.47
602.39	2087.78
602.74	2079.55
603.08	2072.35
603.43	2064.73
603.78	2056.45
604.13	2048.19
604.48	2040.06
604.83	2033.20
605.18	2025.67
605.53	2017.83
605.87	2009.54
606.22	2001.46
606.57	1992.61
606.92	1984.71
607.27	1975.53
607.62	1966.99
607.96	1958.78
608.31	1952.00
608.66	1943.17
609.01	1934.63
609.36	1926.15
609.70	1917.09
610.05	1908.03
610.40	1899.13
610.75	1889.88
611.10	1881.34
611.44	1871.15
611.79	1861.29
612.14	1850.89
612.49	1840.37
612.83	1830.97
613.18	1820.93
613.53	1810.71
613.88	1800.55
614.22	1790.67
614.57	1781.11
614.92	1771.38
615.27	1761.45
615.61	1750.96
615.96	1741.75
616.31	1732.82
616.65	1724.47
617.00	1715.47
617.35	1706.37
617.70	1696.23
618.04	1686.02
618.39	1675.41
618.74	1666.49
619.08	1656.88
619.43	1647.42
619.78	1638.27
620.12	1628.76
620.47	1620.14
620.82	1610.55
621.16	1600.93
621.51	1591.11
621.85	1581.60
622.20	1572.02
622.55	1562.52
622.89	1553.12
623.24	1543.66
623.59	1533.72
623.93	1523.97
624.28	1514.68
624.62	1505.59
624.97	1496.82
625.32	1488.12
625.66	1479.65
626.01	1471.14
626.35	1462.88
626.70	1454.07
627.04	1445.77
627.39	1437.36
627.73	1428.68
628.08	1420.71
628.43	1412.37
628.77	1403.97
629.12	1395.52
629.46	1387.91
629.81	1379.85
630.15	1371.91
630.50	1363.51
630.84	1355.30
631.19	1347.00
631.53	1338.90
631.88	1330.11
632.22	1321.46
632.57	1313.36
632.91	1304.91
633.26	1296.88
633.60	1288.69
633.95	1281.05
634.29	1272.70
634.64	1265.17
634.98	1257.00
635.32	1248.97
635.67	1241.82
636.01	1234.25
636.36	1226.39
636.70	1218.70
637.05	1211.22
637.39	1203.47
637.73	1196.53
638.08	1189.69
638.42	1182.93
638.77	1175.81
639.11	1168.64
639.45	1161.53
639.80	1154.00
640.14	1146.61
640.49	1138.77
640.83	1131.18
641.17	1123.58
641.52	1116.29
641.86	1108.42
642.20	1101.40
642.55	1093.84
642.89	1085.84
643.23	1078.43
643.58	1071.46
643.92	1063.65
644.26	1056.14
644.61	1049.09
644.95	1041.52
645.29	1034.00
645.64	1026.21
645.98	1018.79
646.32	1012.11
646.66	1004.87
647.01	997.78
647.35	991.21
647.69	983.90
648.04	977.22
648.38	970.42
648.72	963.40
649.06	956.47
649.41	949.25
649.75	942.37
650.09	935.96
650.43	929.03
650.78	921.81
651.12	915.01
651.46	908.35
651.80	901.58
652.14	894.81
652.49	888.13
652.83	881.37
653.17	874.50
653.51	867.52
653.85	861.37
654.20	855.15
654.54	848.25
654.88	842.13
655.22	835.35
655.56	828.59
655.90	822.15
656.25	815.68
656.59	809.52
656.93	803.50
657.27	797.24
657.61	790.77
657.95	784.94
658.29	779.20
658.64	773.44
658.98	767.44
659.32	761.37
659.66	755.59
660.00	749.67
660.34	743.75
660.68	737.88
661.02	731.85
661.36	726.21
661.70	720.80
662.05	715.39
662.39	710.61
662.73	705.45
663.07	700.33
663.41	695.23
663.75	690.13
664.09	684.80
664.43	679.44
664.77	674.63
665.11	669.50
665.45	664.60
665.79	659.60
666.13	654.73
666.47	650.09
666.81	645.17
667.15	640.52
667.49	636.25
667.83	631.88
668.17	627.53
668.51	623.05
668.85	618.74
669.19	614.60
669.53	609.84
669.87	605.61
670.21	601.40
670.55	597.24
670.89	593.41
671.23	589.67
671.57	585.93
671.91	581.96
672.25	577.90
672.58	573.87
672.92	570.02
673.26	566.38
673.60	562.75
673.94	559.06
674.28	555.40
674.62	551.76
674.96	548.10
675.30	544.49
675.64	541.03
675.97	537.55
676.31	534.22
676.65	530.99
676.99	527.80
677.33	524.44
677.67	521.23
678.01	517.51
678.34	514.11
678.68	510.78
679.02	507.58
679.36	504.58
679.70	501.36
680.04	498.11
680.37	494.79
680.71	491.60
681.05	488.74
681.39	485.82
681.73	482.86
682.06	480.07
682.40	477.25
682.74	474.31
683.08	471.34
683.42	468.11
683.75	465.18
684.09	462.22
684.43	459.34
684.77	456.33
685.10	453.65
685.44	450.65
685.78	447.75
686.12	445.20
686.45	442.53
686.79	439.97
687.13	437.51
687.46	434.98
687.80	432.42
688.14	429.79
688.48	427.28
688.81	424.60
689.15	422.04
689.49	419.40
689.82	416.88
690.16	414.19
690.50	411.72
690.83	409.28
691.17	406.82
691.51	404.39
691.84	402.16
692.18	399.74
692.52	397.69
692.85	395.77
693.19	393.57
693.52	391.36
693.86	389.05
694.20	386.96
694.53	384.97
694.87	382.81
695.21	380.64
695.54	378.42
695.88	376.22
696.21	374.08
696.55	372.11
696.88	370.21
697.22	368.42
697.56	366.67
697.89	364.72
698.23	362.80
698.56	360.96
698.90	359.21
699.23	357.36
699.57	355.52
699.90	353.63
700.24	351.77
700.58	350.03
700.91	348.40
701.25	346.85
701.58	345.18
701.92	343.60
702.25	342.00
702.59	340.36
702.92	338.89
703.26	337.45
703.59	336.02
703.93	334.74
704.26	333.30
704.60	331.75
704.93	330.25
705.26	328.84
705.60	327.48
705.93	326.01
706.27	324.74
706.60	323.45
706.94	322.19
707.27	320.83
707.61	319.47
707.94	318.08
708.27	316.46
708.61	315.00
708.94	313.62
709.28	312.36
709.61	311.18
709.94	310.02
710.28	308.75
710.61	307.60
710.95	306.08
711.28	304.98
711.61	303.84
711.95	302.90
712.28	301.77
712.61	300.70
712.95	299.71
713.28	298.73
713.61	297.59
713.95	296.54
714.28	295.58
714.61	294.59
714.95	293.65
715.28	292.71
715.61	291.78
715.95	290.88
716.28	289.87
716.61	288.98
716.95	288.01
717.28	287.13
717.61	286.16
717.94	285.32
718.28	284.30
718.61	283.41
718.94	282.42
719.27	281.50
719.61	280.64
719.94	279.70
720.27	278.82
720.60	278.02
720.94	277.10
721.27	276.24
721.60	275.57
721.93	274.88
722.27	274.25
722.60	273.57
722.93	272.88
723.26	272.23
723.59	271.39
723.93	270.74
724.26	270.00
724.59	269.33
724.92	268.59
725.25	268.02
725.59	267.45
725.92	266.96
726.25	266.40
726.58	265.79
726.91	265.29
727.24	264.70
727.57	264.10
727.91	263.52
728.24	263.03
728.57	262.30
728.90	261.77
729.23	261.09
729.56	260.65
729.89	260.09
730.22	259.50
730.55	259.05
730.89	258.56
731.22	258.11
731.55	257.50
731.88	257.12
732.21	256.54
732.54	255.89
732.87	255.35
733.20	254.94
733.53	254.45
733.86	253.96
734.19	253.41
734.52	253.05
734.85	252.92
735.18	252.44
735.51	252.18
735.84	251.70
736.17	251.40
736.50	250.82
736.83	250.83
737.16	250.43
737.49	250.00
737.82	249.49
738.15	249.04
738.48	248.70
738.81	248.26
739.14	247.83
739.47	247.47
739.80	247.05
740.13	246.64
740.46	246.17
740.79	245.74
741.12	245.35
741.45	244.79
741.78	244.14
742.11	243.90
742.44	243.44
742.77	243.20
743.10	242.71
743.43	242.27
743.75	241.58
744.08	241.70
744.41	241.36
744.74	241.04
745.07	240.71
745.40	240.40
745.73	240.25
746.06	239.92
746.39	239.67
746.71	239.35
747.04	238.95
747.37	238.66
747.70	238.34
748.03	238.08
748.36	237.97
748.68	237.70
749.01	237.28
749.34	236.95
749.67	236.53
750.00	236.35
750.33	236.39
750.65	236.04
750.98	235.27
751.31	234.95
751.64	234.74
751.97	234.68
752.29	234.42
752.62	234.02
752.95	233.73
753.28	233.43
753.60	233.11
753.93	233.03
754.26	232.86
754.59	232.51
754.91	232.30
755.24	231.95
755.57	231.70
755.90	231.43
756.22	231.18
756.55	231.00
756.88	230.65
757.20	230.15
757.53	229.91
757.86	229.69
758.19	229.58
758.51	229.34
758.84	228.93
759.17	228.68
759.49	228.43
759.82	228.33
760.15	228.16
760.47	227.97
760.80	227.63
761.13	227.44
761.45	227.26
761.78	227.04
762.11	226.88
762.43	226.68
762.76	226.44
763.08	226.35
763.41	226.17
763.74	226.08
764.06	225.91
764.39	225.69
764.71	225.51
765.04	225.22
765.37	225.04
765.69	224.84
766.02	224.72
766.34	224.56
766.67	224.35
767.00	224.30
767.32	224.40
767.65	224.47
767.97	224.26
768.30	224.25
768.62	224.07
768.95	223.90
769.27	223.80
769.60	223.76
769.92	223.55
770.25	223.33
770.57	223.08
770.90	222.90
771.22	222.78
771.55	222.70
771.87	222.62
772.20	222.46
772.52	222.59
772.85	222.86
773.17	222.73
773.50	222.62
773.82	222.37
774.15	222.05
774.47	221.66
774.80	221.55
775.12	221.38
775.45	221.31
775.77	221.25
776.09	221.11
776.42	221.02
776.74	220.98
777.07	220.94
777.39	220.92
777.72	220.85
778.04	220.79
778.36	220.65
778.69	220.64
779.01	220.60
779.33	220.25
779.66	219.70
779.98	219.55
780.31	219.49
780.63	219.59
780.95	219.56
781.28	219.57
781.60	219.45
781.92	219.38
782.25	219.20
782.57	219.13
782.89	219.05
783.22	218.94
783.54	218.87
783.86	218.81
784.19	218.69
784.51	218.72
784.83	218.54
785.16	218.46
785.48	218.39
785.80	218.31
786.12	218.29
