SpectraSuite Data File
++++++++++++++++++++++++++++++++++++
Date: Mon Feb 25 17:13:35 EST 2013
User: group
Dark Spectrum Present: No
Reference Spectrum Present: No
Number of Sampled Component Spectra: 1
Spectrometers: USB2E7196
Integration Time (usec): 104000 (USB2E7196)
Spectra Averaged: 20 (USB2E7196)
Boxcar Smoothing: 10 (USB2E7196)
Correct for Electrical Dark: No (USB2E7196)
Strobe/Lamp Enabled: No (USB2E7196)
Correct for Detector Non-linearity: No (USB2E7196)
Correct for Stray Light: No (USB2E7196)
Number of Pixels in Processed Spectrum: 2048
>>>>>Begin Processed Spectral Data<<<<<
339.09	0.00
339.48	198.25
339.86	199.70
340.24	200.80
340.63	202.80
341.01	209.40
341.39	206.05
341.78	208.60
342.16	208.00
342.54	209.10
342.93	198.18
343.31	208.18
343.69	208.75
344.07	209.22
344.46	209.69
344.84	210.14
345.22	210.22
345.60	210.45
345.99	210.61
346.37	210.72
346.75	210.80
347.13	210.86
347.52	210.88
347.90	211.04
348.28	210.98
348.66	211.13
349.05	211.04
349.43	211.13
349.81	211.16
350.19	211.22
350.57	211.30
350.96	211.40
351.34	211.49
351.72	211.53
352.10	211.68
352.48	211.75
352.87	211.67
353.25	211.74
353.63	211.81
354.01	211.85
354.39	211.95
354.77	211.98
355.15	212.14
355.54	212.23
355.92	212.11
356.30	212.17
356.68	212.43
357.06	212.49
357.44	212.58
357.82	212.59
358.20	212.66
358.58	212.75
358.97	212.82
359.35	213.00
359.73	213.12
360.11	213.15
360.49	213.20
360.87	213.32
361.25	213.40
361.63	213.61
362.01	213.68
362.39	213.71
362.77	213.85
363.15	213.90
363.53	213.88
363.91	214.00
364.29	214.09
364.67	213.86
365.05	213.90
365.43	213.94
365.81	214.08
366.19	214.25
366.57	214.33
366.95	214.35
367.33	214.16
367.71	214.20
368.09	214.27
368.47	214.24
368.85	214.25
369.23	214.34
369.61	214.15
369.99	214.31
370.37	214.32
370.75	214.47
371.13	214.43
371.51	214.36
371.89	214.35
372.27	214.32
372.65	214.38
373.03	214.36
373.41	214.31
373.78	214.22
374.16	214.05
374.54	213.93
374.92	213.87
375.30	213.92
375.68	213.83
376.06	213.75
376.44	213.67
376.82	213.60
377.19	213.45
377.57	213.42
377.95	213.13
378.33	213.12
378.71	212.82
379.09	212.77
379.47	212.78
379.84	212.68
380.22	212.63
380.60	212.44
380.98	212.33
381.36	212.26
381.73	212.18
382.11	212.13
382.49	212.13
382.87	211.99
383.25	211.95
383.62	212.28
384.00	212.17
384.38	212.23
384.76	212.25
385.13	212.34
385.51	212.25
385.89	212.21
386.27	212.16
386.64	212.16
387.02	212.13
387.40	212.03
387.78	211.91
388.15	211.82
388.53	211.77
388.91	211.76
389.29	211.69
389.66	211.71
390.04	211.67
390.42	211.62
390.79	211.62
391.17	211.59
391.55	211.17
391.92	211.18
392.30	211.10
392.68	211.02
393.05	210.97
393.43	211.01
393.81	211.01
394.18	211.01
394.56	211.02
394.94	211.06
395.31	211.02
395.69	211.24
396.06	211.27
396.44	211.26
396.82	211.26
397.19	211.44
397.57	211.39
397.95	211.41
398.32	211.35
398.70	211.42
399.07	211.47
399.45	211.49
399.82	211.49
400.20	211.48
400.58	211.49
400.95	211.34
401.33	211.38
401.70	211.69
402.08	211.72
402.45	211.74
402.83	211.88
403.20	212.00
403.58	211.94
403.95	212.03
404.33	212.16
404.71	212.25
405.08	212.45
405.46	212.54
405.83	212.68
406.21	212.80
406.58	212.90
406.96	212.96
407.33	213.08
407.70	213.28
408.08	213.73
408.45	214.00
408.83	214.26
409.20	214.43
409.58	214.42
409.95	214.66
410.33	214.90
410.70	215.02
411.08	215.25
411.45	215.56
411.82	215.85
412.20	216.28
412.57	216.77
412.95	216.85
413.32	217.29
413.69	217.64
414.07	218.05
414.44	218.55
414.82	219.03
415.19	219.63
415.56	220.17
415.94	220.56
416.31	221.20
416.68	221.78
417.06	222.55
417.43	223.33
417.81	224.13
418.18	225.06
418.55	225.93
418.93	226.99
419.30	228.00
419.67	229.08
420.04	230.17
420.42	231.26
420.79	232.86
421.16	234.18
421.54	235.72
421.91	237.21
422.28	238.63
422.66	240.25
423.03	241.96
423.40	243.55
423.77	245.21
424.15	246.96
424.52	248.94
424.89	250.93
425.26	252.71
425.64	254.52
426.01	256.41
426.38	258.47
426.75	260.59
427.13	262.74
427.50	265.00
427.87	267.33
428.24	269.71
428.61	271.75
428.99	274.38
429.36	276.95
429.73	279.59
430.10	282.23
430.47	284.97
430.85	287.65
431.22	290.64
431.59	294.01
431.96	296.91
432.33	300.20
432.70	303.32
433.08	307.09
433.45	310.65
433.82	314.27
434.19	318.11
434.56	321.97
434.93	325.58
435.30	329.27
435.68	333.27
436.05	337.13
436.42	341.03
436.79	344.72
437.16	348.69
437.53	352.79
437.90	356.81
438.27	360.85
438.64	364.90
439.01	368.77
439.38	372.03
439.75	375.37
440.13	379.06
440.50	382.71
440.87	385.67
441.24	388.65
441.61	391.79
441.98	394.31
442.35	397.11
442.72	400.05
443.09	402.91
443.46	404.53
443.83	405.66
444.20	406.75
444.57	408.03
444.94	408.60
445.31	409.33
445.68	410.52
446.05	410.67
446.42	410.25
446.79	409.83
447.16	409.23
447.53	408.86
447.90	407.39
448.27	405.73
448.64	403.60
449.01	402.03
449.37	399.45
449.74	396.71
450.11	393.76
450.48	390.31
450.85	386.56
451.22	383.60
451.59	380.82
451.96	377.99
452.33	374.25
452.70	370.89
453.07	366.83
453.43	362.38
453.80	358.60
454.17	354.91
454.54	351.35
454.91	347.60
455.28	344.01
455.65	340.50
456.02	337.58
456.38	334.61
456.75	331.10
457.12	327.99
457.49	325.16
457.86	322.04
458.23	319.66
458.59	317.08
458.96	314.34
459.33	311.83
459.70	309.46
460.07	307.66
460.43	305.58
460.80	303.62
461.17	301.86
461.54	299.94
461.91	298.12
462.27	296.29
462.64	294.75
463.01	292.91
463.38	291.42
463.74	289.38
464.11	287.81
464.48	286.49
464.85	285.22
465.21	284.16
465.58	283.11
465.95	281.73
466.32	280.58
466.68	279.46
467.05	278.41
467.42	277.37
467.78	276.14
468.15	274.99
468.52	274.21
468.88	273.15
469.25	272.22
469.62	271.59
469.98	270.74
470.35	269.96
470.72	269.33
471.08	268.43
471.45	267.78
471.82	267.33
472.18	266.71
472.55	266.20
472.92	265.56
473.28	265.05
473.65	264.59
474.02	264.15
474.38	263.88
474.75	263.73
475.11	263.29
475.48	263.09
475.85	262.95
476.21	262.69
476.58	262.54
476.94	262.48
477.31	262.35
477.67	262.25
478.04	262.28
478.41	262.38
478.77	262.80
479.14	262.85
479.50	262.94
479.87	263.03
480.23	263.15
480.60	263.32
480.96	263.47
481.33	263.86
481.69	264.20
482.06	264.53
482.42	264.77
482.79	265.29
483.15	265.74
483.52	266.30
483.88	266.78
484.25	267.29
484.61	267.94
484.98	268.58
485.34	269.51
485.71	270.33
486.07	271.10
486.44	271.65
486.80	272.59
487.17	273.58
487.53	274.79
487.90	276.05
488.26	277.51
488.62	278.93
488.99	280.24
489.35	281.74
489.72	283.16
490.08	284.72
490.44	286.29
490.81	288.15
491.17	289.91
491.54	291.83
491.90	293.97
492.26	296.06
492.63	298.28
492.99	300.57
493.36	303.00
493.72	305.68
494.08	308.42
494.45	311.33
494.81	314.38
495.17	317.41
495.54	320.73
495.90	323.94
496.26	327.39
496.63	331.05
496.99	334.80
497.35	338.84
497.72	342.87
498.08	347.09
498.44	351.49
498.80	356.24
499.17	361.15
499.53	366.08
499.89	371.35
500.26	376.67
500.62	382.12
500.98	387.87
501.34	393.83
501.71	399.95
502.07	406.17
502.43	412.45
502.79	418.95
503.16	425.67
503.52	432.71
503.88	439.85
504.24	447.25
504.60	454.87
504.97	462.75
505.33	470.82
505.69	479.40
506.05	487.84
506.41	496.24
506.78	504.83
507.14	513.60
507.50	522.62
507.86	532.00
508.22	541.39
508.59	550.94
508.95	560.78
509.31	570.89
509.67	581.18
510.03	591.80
510.39	602.85
510.75	613.83
511.12	624.87
511.48	636.24
511.84	647.61
512.20	659.01
512.56	670.83
512.92	683.15
513.28	695.25
513.64	707.60
514.00	720.05
514.37	732.72
514.73	745.67
515.09	758.68
515.45	771.66
515.81	784.94
516.17	798.17
516.53	811.41
516.89	824.87
517.25	838.29
517.61	851.95
517.97	865.35
518.33	878.90
518.69	892.57
519.05	906.32
519.41	920.35
519.77	934.93
520.13	948.89
520.49	962.47
520.85	976.28
521.21	990.47
521.57	1004.92
521.93	1018.77
522.29	1033.29
522.65	1047.42
523.01	1061.52
523.37	1075.33
523.73	1089.74
524.09	1103.82
524.45	1117.95
524.81	1132.17
525.17	1146.25
525.53	1160.21
525.89	1174.38
526.25	1188.44
526.61	1202.07
526.97	1215.82
527.33	1229.19
527.68	1243.03
528.04	1256.63
528.40	1269.68
528.76	1282.68
529.12	1295.85
529.48	1309.89
529.84	1322.72
530.20	1335.67
530.56	1348.73
530.91	1362.19
531.27	1375.42
531.63	1388.29
531.99	1400.96
532.35	1413.28
532.71	1425.22
533.07	1437.77
533.42	1450.26
533.78	1462.44
534.14	1474.43
534.50	1485.34
534.86	1496.87
535.21	1507.46
535.57	1518.86
535.93	1529.97
536.29	1540.80
536.65	1551.35
537.00	1561.22
537.36	1571.20
537.72	1580.97
538.08	1590.72
538.44	1600.10
538.79	1609.23
539.15	1618.40
539.51	1627.50
539.87	1637.15
540.22	1646.21
540.58	1655.20
540.94	1663.43
541.29	1671.55
541.65	1679.26
542.01	1687.35
542.37	1694.94
542.72	1702.96
543.08	1709.83
543.44	1717.46
543.79	1723.80
544.15	1730.20
544.51	1736.82
544.87	1743.51
545.22	1749.55
545.58	1755.22
545.94	1760.28
546.29	1764.80
546.65	1769.26
547.01	1773.82
547.36	1777.72
547.72	1782.13
548.07	1785.27
548.43	1788.66
548.79	1791.68
549.14	1794.54
549.50	1797.82
549.86	1800.05
550.21	1802.25
550.57	1804.93
550.92	1806.36
551.28	1808.65
551.64	1810.45
551.99	1812.28
552.35	1813.63
552.70	1815.19
553.06	1816.56
553.41	1817.97
553.77	1819.20
554.13	1820.33
554.48	1821.17
554.84	1822.17
555.19	1822.37
555.55	1822.85
555.90	1822.69
556.26	1822.54
556.61	1822.51
556.97	1821.59
557.32	1821.33
557.68	1820.35
558.03	1819.29
558.39	1818.95
558.74	1818.71
559.10	1818.28
559.45	1817.17
559.81	1816.24
560.16	1814.84
560.52	1813.53
560.87	1812.30
561.23	1810.44
561.58	1809.39
561.94	1807.21
562.29	1804.68
562.64	1802.91
563.00	1800.83
563.35	1799.31
563.71	1798.17
564.06	1796.60
564.42	1795.39
564.77	1794.14
565.12	1792.97
565.48	1791.64
565.83	1789.79
566.19	1787.87
566.54	1784.92
566.89	1782.52
567.25	1780.03
567.60	1777.87
567.96	1775.60
568.31	1773.18
568.66	1770.88
569.02	1767.50
569.37	1764.43
569.72	1761.63
570.08	1758.35
570.43	1755.03
570.78	1751.42
571.14	1747.21
571.49	1743.14
571.84	1739.56
572.20	1734.96
572.55	1731.05
572.90	1726.05
573.26	1721.25
573.61	1716.25
573.96	1712.12
574.31	1706.98
574.67	1701.89
575.02	1696.44
575.37	1691.28
575.72	1685.51
576.08	1680.54
576.43	1675.45
576.78	1670.45
577.13	1665.81
577.49	1660.77
577.84	1655.99
578.19	1651.18
578.54	1646.94
578.90	1643.01
579.25	1637.94
579.60	1632.65
579.95	1626.83
580.30	1622.44
580.66	1617.94
581.01	1612.70
581.36	1607.28
581.71	1602.24
582.06	1597.35
582.42	1592.61
582.77	1586.94
583.12	1582.13
583.47	1577.22
583.82	1572.49
584.17	1567.48
584.53	1562.36
584.88	1557.35
585.23	1552.29
585.58	1547.11
585.93	1541.68
586.28	1536.30
586.63	1531.03
586.98	1526.48
587.34	1522.12
587.69	1516.67
588.04	1511.53
588.39	1506.86
588.74	1501.64
589.09	1497.10
589.44	1491.92
589.79	1486.90
590.14	1482.31
590.49	1477.06
590.84	1471.90
591.19	1467.17
591.54	1462.42
591.89	1456.73
592.25	1451.57
592.60	1446.03
592.95	1440.54
593.30	1434.60
593.65	1428.97
594.00	1423.55
594.35	1419.52
594.70	1414.10
595.05	1409.27
595.40	1404.14
595.75	1398.54
596.10	1393.95
596.45	1388.97
596.80	1384.28
597.15	1379.68
597.50	1374.49
597.85	1369.70
598.19	1364.52
598.54	1359.49
598.89	1354.69
599.24	1350.57
599.59	1345.98
599.94	1342.11
600.29	1337.48
600.64	1333.09
600.99	1327.98
601.34	1323.51
601.69	1317.47
602.04	1312.47
602.39	1307.54
602.74	1302.71
603.08	1298.85
603.43	1294.52
603.78	1289.68
604.13	1285.13
604.48	1280.40
604.83	1276.73
605.18	1273.32
605.53	1269.19
605.87	1264.28
606.22	1260.07
606.57	1255.45
606.92	1250.48
607.27	1245.43
607.62	1241.02
607.96	1236.93
608.31	1233.10
608.66	1228.23
609.01	1223.35
609.36	1218.71
609.70	1213.75
610.05	1209.03
610.40	1203.72
610.75	1198.30
611.10	1193.58
611.44	1187.83
611.79	1182.43
612.14	1176.52
612.49	1170.14
612.83	1164.53
613.18	1159.17
613.53	1153.36
613.88	1147.34
614.22	1142.31
614.57	1136.56
614.92	1130.86
615.27	1124.78
615.61	1119.08
615.96	1113.92
616.31	1108.92
616.65	1103.98
617.00	1098.76
617.35	1093.25
617.70	1087.60
618.04	1081.92
618.39	1076.02
618.74	1070.79
619.08	1065.28
619.43	1059.78
619.78	1054.50
620.12	1049.17
620.47	1043.92
620.82	1038.23
621.16	1032.78
621.51	1027.21
621.85	1022.10
622.20	1016.72
622.55	1011.43
622.89	1005.95
623.24	1000.40
623.59	994.72
623.93	989.32
624.28	984.10
624.62	979.03
624.97	974.11
625.32	969.31
625.66	964.40
626.01	959.28
626.35	954.33
626.70	949.42
627.04	944.78
627.39	940.05
627.73	935.20
628.08	930.47
628.43	925.39
628.77	920.46
629.12	915.26
629.46	910.95
629.81	906.36
630.15	901.68
630.50	896.80
630.84	891.85
631.19	886.76
631.53	881.98
631.88	876.73
632.22	871.37
632.57	866.63
632.91	861.82
633.26	857.30
633.60	852.70
633.95	848.25
634.29	843.33
634.64	838.72
634.98	833.93
635.32	829.49
635.67	825.50
636.01	821.20
636.36	816.65
636.70	812.08
637.05	807.49
637.39	803.15
637.73	799.16
638.08	795.24
638.42	791.46
638.77	787.45
639.11	783.42
639.45	779.56
639.80	775.21
640.14	770.91
640.49	766.58
640.83	762.34
641.17	758.07
641.52	753.80
641.86	749.42
642.20	745.21
642.55	740.67
642.89	736.17
643.23	731.72
643.58	727.86
643.92	723.28
644.26	719.21
644.61	715.10
644.95	710.74
645.29	706.57
645.64	701.92
645.98	697.45
646.32	693.44
646.66	689.22
647.01	685.08
647.35	681.26
647.69	676.95
648.04	672.88
648.38	668.69
648.72	664.78
649.06	660.69
649.41	656.73
649.75	653.03
650.09	649.20
650.43	645.21
650.78	641.11
651.12	637.22
651.46	633.37
651.80	629.45
652.14	625.67
652.49	621.81
652.83	618.08
653.17	614.08
653.51	610.04
653.85	606.36
654.20	602.65
654.54	598.47
654.88	594.74
655.22	591.02
655.56	587.23
655.90	583.40
656.25	579.61
656.59	575.83
656.93	572.10
657.27	568.59
657.61	564.79
657.95	561.33
658.29	557.84
658.64	554.37
658.98	550.79
659.32	547.10
659.66	543.60
660.00	540.20
660.34	536.75
660.68	533.35
661.02	529.84
661.36	526.53
661.70	523.34
662.05	520.30
662.39	517.25
662.73	514.27
663.07	511.47
663.41	508.55
663.75	505.41
664.09	502.37
664.43	499.15
664.77	496.42
665.11	493.47
665.45	490.55
665.79	487.63
666.13	484.75
666.47	482.03
666.81	479.31
667.15	476.58
667.49	474.11
667.83	471.52
668.17	469.09
668.51	466.42
668.85	463.89
669.19	461.40
669.53	458.68
669.87	456.02
670.21	453.40
670.55	450.78
670.89	448.67
671.23	446.32
671.57	444.06
671.91	441.74
672.25	439.28
672.58	436.95
672.92	434.62
673.26	432.48
673.60	430.30
673.94	427.98
674.28	425.73
674.62	423.56
674.96	421.53
675.30	419.28
675.64	417.27
675.97	415.25
676.31	413.20
676.65	411.24
676.99	409.50
677.33	407.41
677.67	405.53
678.01	403.40
678.34	401.48
678.68	399.60
679.02	397.60
679.36	395.78
679.70	393.90
680.04	391.96
680.37	389.85
680.71	387.96
681.05	386.31
681.39	384.43
681.73	382.73
682.06	380.91
682.40	379.19
682.74	377.45
683.08	375.76
683.42	373.90
683.75	372.12
684.09	370.15
684.43	368.47
684.77	366.71
685.10	364.92
685.44	363.19
685.78	361.46
686.12	359.86
686.45	358.21
686.79	356.65
687.13	355.20
687.46	353.79
687.80	352.22
688.14	350.50
688.48	349.09
688.81	347.43
689.15	345.87
689.49	344.25
689.82	342.65
690.16	340.92
690.50	339.33
690.83	337.81
691.17	336.32
691.51	334.84
691.84	333.41
692.18	332.14
692.52	330.84
692.85	329.55
693.19	328.32
693.52	326.98
693.86	325.58
694.20	324.24
694.53	322.92
694.87	321.57
695.21	320.28
695.54	318.88
695.88	317.53
696.21	316.28
696.55	315.12
696.88	313.95
697.22	312.74
697.56	311.66
697.89	310.51
698.23	309.47
698.56	308.31
698.90	307.36
699.23	306.12
699.57	304.96
699.90	303.71
700.24	302.50
700.58	301.34
700.91	300.33
701.25	299.46
701.58	298.48
701.92	297.49
702.25	296.49
702.59	295.39
702.92	294.51
703.26	293.44
703.59	292.52
703.93	291.88
704.26	291.09
704.60	290.28
704.93	289.33
705.26	288.26
705.60	287.33
705.93	286.17
706.27	285.42
706.60	284.64
706.94	284.08
707.27	283.20
707.61	282.45
707.94	281.54
708.27	280.48
708.61	279.56
708.94	278.76
709.28	277.96
709.61	277.26
709.94	276.44
710.28	275.81
710.61	275.03
710.95	274.02
711.28	273.48
711.61	272.71
711.95	272.13
712.28	271.45
712.61	270.82
712.95	270.45
713.28	269.89
713.61	269.05
713.95	268.20
714.28	267.55
714.61	266.85
714.95	266.25
715.28	265.61
715.61	264.90
715.95	264.36
716.28	263.77
716.61	263.22
716.95	262.58
717.28	261.96
717.61	261.29
717.94	260.67
718.28	259.88
718.61	259.29
718.94	258.65
719.27	258.23
719.61	257.76
719.94	257.20
720.27	256.43
720.60	255.89
720.94	255.37
721.27	254.89
721.60	254.41
721.93	253.86
722.27	253.55
722.60	253.16
722.93	252.64
723.26	252.24
723.59	251.75
723.93	251.31
724.26	250.89
724.59	250.56
724.92	250.21
725.25	249.90
725.59	249.48
725.92	249.13
726.25	248.69
726.58	248.24
726.91	247.78
727.24	247.49
727.57	247.15
727.91	246.79
728.24	246.48
728.57	246.16
728.90	245.96
729.23	245.45
729.56	245.35
729.89	244.97
730.22	244.49
730.55	244.11
730.89	243.78
731.22	243.43
731.55	243.08
731.88	242.70
732.21	242.24
732.54	241.83
732.87	241.41
733.20	241.10
733.53	240.79
733.86	240.50
734.19	240.16
734.52	239.99
734.85	239.90
735.18	239.51
735.51	239.29
735.84	238.99
736.17	238.79
736.50	238.26
736.83	238.39
737.16	238.13
737.49	237.91
737.82	237.65
738.15	237.40
738.48	237.08
738.81	236.81
739.14	236.49
739.47	236.26
739.80	235.98
740.13	235.67
740.46	235.32
740.79	234.97
741.12	234.73
741.45	234.27
741.78	233.75
742.11	233.67
742.44	233.32
742.77	233.13
743.10	232.79
743.43	232.51
743.75	231.89
744.08	232.08
744.41	231.81
744.74	231.50
745.07	231.20
745.40	231.14
745.73	231.03
746.06	230.84
746.39	230.68
746.71	230.52
747.04	230.29
747.37	230.10
747.70	230.01
748.03	229.83
748.36	229.73
748.68	229.56
749.01	229.19
749.34	228.94
749.67	228.69
750.00	228.55
750.33	228.64
750.65	228.43
750.98	227.84
751.31	227.57
751.64	227.44
751.97	227.42
752.29	227.12
752.62	226.83
752.95	226.62
753.28	226.45
753.60	226.30
753.93	226.24
754.26	226.12
754.59	225.73
754.91	225.50
755.24	225.37
755.57	225.19
755.90	225.07
756.22	225.01
756.55	224.86
756.88	224.63
757.20	224.19
757.53	223.94
757.86	223.81
758.19	223.76
758.51	223.57
758.84	223.26
759.17	223.14
759.49	222.98
759.82	223.05
760.15	222.89
760.47	222.72
760.80	222.48
761.13	222.39
761.45	222.35
761.78	222.24
762.11	222.07
762.43	222.00
762.76	221.85
763.08	221.72
763.41	221.67
763.74	221.65
764.06	221.60
764.39	221.49
764.71	221.38
765.04	221.21
765.37	221.07
765.69	220.96
766.02	220.79
766.34	220.67
766.67	220.45
767.00	220.47
767.32	220.59
767.65	220.70
767.97	220.55
768.30	220.46
768.62	220.34
768.95	220.28
769.27	220.25
769.60	220.30
769.92	220.14
770.25	219.96
770.57	219.82
770.90	219.70
771.22	219.65
771.55	219.69
771.87	219.61
772.20	219.63
772.52	219.89
772.85	220.32
773.17	220.27
773.50	220.17
773.82	219.99
774.15	219.71
774.47	219.44
774.80	219.37
775.12	219.32
775.45	219.30
775.77	219.24
776.09	219.09
776.42	218.93
776.74	219.03
777.07	218.93
777.39	218.86
777.72	218.86
778.04	218.83
778.36	218.65
778.69	218.70
779.01	218.60
779.33	218.23
779.66	217.73
779.98	217.59
780.31	217.58
780.63	217.68
780.95	217.70
781.28	217.62
781.60	217.51
781.92	217.42
782.25	217.43
782.57	217.36
782.89	217.31
783.22	217.25
783.54	217.09
783.86	217.02
784.19	216.93
784.51	216.95
784.83	216.86
785.16	216.81
785.48	216.68
785.80	216.70
786.12	216.77
786.45	216.71
786.77	216.77
787.09	216.70
787.42	216.50
787.74	216.43
788.06	216.40
