SpectraSuite Data File
++++++++++++++++++++++++++++++++++++
Date: Mon Feb 25 17:04:53 EST 2013
User: group
Dark Spectrum Present: No
Reference Spectrum Present: No
Number of Sampled Component Spectra: 1
Spectrometers: USB2E7196
Integration Time (usec): 104000 (USB2E7196)
Spectra Averaged: 20 (USB2E7196)
Boxcar Smoothing: 10 (USB2E7196)
Correct for Electrical Dark: No (USB2E7196)
Strobe/Lamp Enabled: No (USB2E7196)
Correct for Detector Non-linearity: No (USB2E7196)
Correct for Stray Light: No (USB2E7196)
Number of Pixels in Processed Spectrum: 2048
>>>>>Begin Processed Spectral Data<<<<<
339.09	0.00
339.48	198.40
339.86	199.35
340.24	200.80
340.63	203.35
341.01	209.80
341.39	205.30
341.78	207.60
342.16	208.45
342.54	208.45
342.93	197.89
343.31	207.91
343.69	208.45
344.07	208.95
344.46	209.45
344.84	209.80
345.22	209.82
345.60	210.08
345.99	210.18
346.37	210.27
346.75	210.39
347.13	210.49
347.52	210.60
347.90	210.72
348.28	210.71
348.66	210.79
349.05	210.74
349.43	210.79
349.81	210.86
350.19	210.87
350.57	210.98
350.96	211.08
351.34	211.11
351.72	211.25
352.10	211.27
352.48	211.27
352.87	211.29
353.25	211.35
353.63	211.36
354.01	211.43
354.39	211.50
354.77	211.55
355.15	211.70
355.54	211.70
355.92	211.72
356.30	211.87
356.68	212.16
357.06	212.30
357.44	212.29
357.82	212.31
358.20	212.42
358.58	212.42
358.97	212.50
359.35	212.71
359.73	212.81
360.11	212.93
360.49	213.03
360.87	213.14
361.25	213.24
361.63	213.46
362.01	213.59
362.39	213.59
362.77	213.61
363.15	213.67
363.53	213.66
363.91	213.71
364.29	213.65
364.67	213.38
365.05	213.41
365.43	213.45
365.81	213.53
366.19	213.66
366.57	213.88
366.95	213.80
367.33	213.69
367.71	213.69
368.09	213.74
368.47	213.70
368.85	213.61
369.23	213.60
369.61	213.42
369.99	213.51
370.37	213.60
370.75	213.71
371.13	213.61
371.51	213.54
371.89	213.50
372.27	213.47
372.65	213.40
373.03	213.32
373.41	213.31
373.78	213.27
374.16	213.03
374.54	212.79
374.92	212.77
375.30	212.66
375.68	212.45
376.06	212.38
376.44	212.34
376.82	212.38
377.19	212.39
377.57	212.37
377.95	212.28
378.33	212.25
378.71	212.13
379.09	212.07
379.47	212.08
379.84	211.98
380.22	211.98
380.60	211.93
380.98	211.82
381.36	211.75
381.73	211.65
382.11	211.71
382.49	211.72
382.87	211.62
383.25	211.64
383.62	212.00
384.00	211.92
384.38	211.82
384.76	211.81
385.13	211.88
385.51	211.82
385.89	211.64
386.27	211.54
386.64	211.49
387.02	211.41
387.40	211.39
387.78	211.41
388.15	211.37
388.53	211.25
388.91	211.29
389.29	211.24
389.66	211.23
390.04	211.14
390.42	211.16
390.79	211.08
391.17	211.05
391.55	210.69
391.92	210.73
392.30	210.77
392.68	210.66
393.05	210.59
393.43	210.63
393.81	210.61
394.18	210.54
394.56	210.54
394.94	210.63
395.31	210.55
395.69	210.66
396.06	210.60
396.44	210.69
396.82	210.65
397.19	210.76
397.57	210.70
397.95	210.75
398.32	210.66
398.70	210.74
399.07	210.77
399.45	210.73
399.82	210.66
400.20	210.66
400.58	210.67
400.95	210.51
401.33	210.53
401.70	210.82
402.08	210.92
402.45	210.88
402.83	210.97
403.20	211.01
403.58	210.92
403.95	211.07
404.33	211.13
404.71	211.25
405.08	211.57
405.46	211.70
405.83	211.75
406.21	211.85
406.58	212.05
406.96	212.15
407.33	212.30
407.70	212.50
408.08	212.93
408.45	213.16
408.83	213.44
409.20	213.59
409.58	213.52
409.95	213.73
410.33	214.14
410.70	214.34
411.08	214.72
411.45	215.11
411.82	215.46
412.20	215.94
412.57	216.51
412.95	216.68
413.32	217.17
413.69	217.68
414.07	218.27
414.44	218.78
414.82	219.36
415.19	220.13
415.56	220.86
415.94	221.41
416.31	222.25
416.68	223.15
417.06	224.10
417.43	225.20
417.81	226.28
418.18	227.28
418.55	228.40
418.93	229.63
419.30	230.87
419.67	232.21
420.04	233.56
420.42	234.86
420.79	236.72
421.16	238.43
421.54	240.36
421.91	242.15
422.28	244.04
422.66	246.11
423.03	248.29
423.40	250.38
423.77	252.58
424.15	254.75
424.52	257.05
424.89	259.62
425.26	262.05
425.64	264.42
426.01	267.08
426.38	269.80
426.75	272.66
427.13	275.51
427.50	278.55
427.87	281.66
428.24	284.88
428.61	287.73
428.99	291.19
429.36	294.60
429.73	298.12
430.10	301.67
430.47	305.23
430.85	308.82
431.22	312.73
431.59	317.03
431.96	321.11
432.33	325.53
432.70	329.88
433.08	334.92
433.45	339.75
433.82	344.42
434.19	349.83
434.56	355.14
434.93	360.26
435.30	365.36
435.68	370.99
436.05	376.54
436.42	382.08
436.79	387.11
437.16	392.71
437.53	398.60
437.90	404.40
438.27	410.34
438.64	416.19
439.01	421.77
439.38	426.64
439.75	431.54
440.13	437.00
440.50	442.26
440.87	446.62
441.24	451.12
441.61	456.20
441.98	459.89
442.35	464.07
442.72	468.44
443.09	472.63
443.46	475.21
443.83	477.09
444.20	478.69
444.57	480.91
444.94	482.06
445.31	483.27
445.68	484.82
446.05	485.34
446.42	485.08
446.79	484.77
447.16	484.40
447.53	484.21
447.90	482.50
448.27	480.56
448.64	477.84
449.01	475.95
449.37	472.28
449.74	468.82
450.11	464.85
450.48	460.22
450.85	455.46
451.22	451.58
451.59	447.80
451.96	444.20
452.33	439.27
452.70	434.99
453.07	429.65
453.43	423.84
453.80	418.60
454.17	413.68
454.54	408.85
454.91	403.70
455.28	398.57
455.65	393.93
456.02	389.80
456.38	385.90
456.75	380.94
457.12	376.86
457.49	372.84
457.86	368.62
458.23	365.20
458.59	361.53
458.96	357.85
459.33	354.47
459.70	351.22
460.07	348.64
460.43	345.44
460.80	342.62
461.17	340.14
461.54	337.54
461.91	335.01
462.27	332.37
462.64	330.11
463.01	327.79
463.38	325.43
463.74	322.61
464.11	320.43
464.48	318.68
464.85	316.72
465.21	315.20
465.58	313.68
465.95	311.75
466.32	310.22
466.68	308.52
467.05	306.86
467.42	305.12
467.78	303.35
468.15	301.78
468.52	300.53
468.88	298.99
469.25	297.48
469.62	296.39
469.98	295.23
470.35	294.01
470.72	292.87
471.08	291.55
471.45	290.60
471.82	289.60
472.18	288.33
472.55	287.60
472.92	286.56
473.28	285.60
473.65	284.72
474.02	283.83
474.38	283.19
474.75	282.63
475.11	281.99
475.48	281.55
475.85	281.00
476.21	280.47
476.58	280.06
476.94	279.79
477.31	279.29
477.67	278.92
478.04	278.72
478.41	278.52
478.77	278.65
479.14	278.34
479.50	278.16
479.87	278.20
480.23	277.98
480.60	277.78
480.96	277.76
481.33	277.95
481.69	277.91
482.06	277.85
482.42	277.87
482.79	277.97
483.15	278.01
483.52	278.23
483.88	278.37
484.25	278.43
484.61	278.54
484.98	278.76
485.34	279.02
485.71	279.32
486.07	279.51
486.44	279.52
486.80	279.94
487.17	280.38
487.53	280.87
487.90	281.39
488.26	282.05
488.62	282.65
488.99	283.10
489.35	283.72
489.72	284.40
490.08	285.07
490.44	285.71
490.81	286.54
491.17	287.29
491.54	288.22
491.90	289.11
492.26	290.01
492.63	290.92
492.99	291.95
493.36	292.93
493.72	294.07
494.08	295.15
494.45	296.30
494.81	297.45
495.17	298.45
495.54	299.61
495.90	300.71
496.26	301.87
496.63	303.11
496.99	304.35
497.35	305.64
497.72	306.93
498.08	308.27
498.44	309.52
498.80	310.94
499.17	312.24
499.53	313.64
499.89	315.08
500.26	316.45
500.62	317.73
500.98	319.18
501.34	320.45
501.71	321.86
502.07	323.08
502.43	324.35
502.79	325.60
503.16	326.86
503.52	328.18
503.88	329.37
504.24	330.66
504.60	331.91
504.97	333.16
505.33	334.32
505.69	335.61
506.05	336.77
506.41	337.81
506.78	338.75
507.14	339.71
507.50	340.75
507.86	341.79
508.22	342.78
508.59	343.59
508.95	344.65
509.31	345.70
509.67	346.70
510.03	347.67
510.39	348.66
510.75	349.60
511.12	350.46
511.48	351.32
511.84	352.03
512.20	352.73
512.56	353.42
512.92	354.19
513.28	354.83
513.64	355.43
514.00	356.09
514.37	356.83
514.73	357.57
515.09	358.25
515.45	358.85
515.81	359.47
516.17	360.07
516.53	360.55
516.89	360.89
517.25	361.34
517.61	361.93
517.97	362.40
518.33	362.81
518.69	363.42
519.05	364.12
519.41	364.79
519.77	365.59
520.13	366.19
520.49	366.73
520.85	367.35
521.21	368.16
521.57	368.90
521.93	369.60
522.29	370.35
522.65	370.99
523.01	371.85
523.37	372.61
523.73	373.60
524.09	374.46
524.45	375.42
524.81	376.37
525.17	377.27
525.53	378.44
525.89	379.55
526.25	380.63
526.61	381.66
526.97	382.79
527.33	383.88
527.68	385.51
528.04	386.91
528.40	388.31
528.76	389.61
529.12	391.20
529.48	392.82
529.84	394.27
530.20	395.97
530.56	397.50
530.91	399.32
531.27	400.97
531.63	402.87
531.99	404.77
532.35	406.67
532.71	408.51
533.07	410.43
533.42	412.90
533.78	414.83
534.14	416.87
534.50	418.81
534.86	421.00
535.21	422.81
535.57	424.98
535.93	427.14
536.29	429.57
536.65	431.65
537.00	433.83
537.36	436.18
537.72	438.43
538.08	440.84
538.44	443.13
538.79	445.65
539.15	447.95
539.51	450.33
539.87	452.80
540.22	455.48
540.58	458.07
540.94	460.35
541.29	462.89
541.65	465.30
542.01	468.14
542.37	470.85
542.72	473.51
543.08	476.09
543.44	478.93
543.79	481.40
544.15	484.25
544.51	487.03
544.87	489.88
545.22	492.69
545.58	495.55
545.94	498.30
546.29	500.90
546.65	503.57
547.01	506.30
547.36	509.08
547.72	511.83
548.07	514.51
548.43	517.14
548.79	519.79
549.14	522.59
549.50	525.25
549.86	527.67
550.21	530.31
550.57	533.08
550.92	535.47
551.28	537.98
551.64	540.38
551.99	543.06
552.35	545.37
552.70	547.66
553.06	550.02
553.41	552.44
553.77	555.14
554.13	557.64
554.48	560.22
554.84	562.80
555.19	565.17
555.55	567.72
555.90	569.95
556.26	572.18
556.61	574.35
556.97	576.40
557.32	578.71
557.68	580.68
558.03	582.68
558.39	584.74
558.74	587.05
559.10	589.32
559.45	591.27
559.81	593.42
560.16	595.40
560.52	597.35
560.87	599.43
561.23	601.05
561.58	603.33
561.94	605.06
562.29	606.59
562.64	608.29
563.00	609.90
563.35	611.87
563.71	613.96
564.06	615.88
564.42	617.79
564.77	619.60
565.12	621.60
565.48	623.61
565.83	625.33
566.19	627.02
566.54	628.35
566.89	629.88
567.25	631.55
567.60	633.40
567.96	635.10
568.31	636.63
568.66	638.17
569.02	639.12
569.37	640.20
569.72	641.54
570.08	642.69
570.43	643.75
570.78	644.44
571.14	645.11
571.49	645.73
571.84	646.38
572.20	646.88
572.55	647.44
572.90	647.68
573.26	648.21
573.61	648.40
573.96	648.90
574.31	649.11
574.67	649.22
575.02	649.02
575.37	648.99
575.72	648.80
576.08	648.85
576.43	648.92
576.78	648.95
577.13	649.03
577.49	649.03
577.84	648.93
578.19	649.09
578.54	649.22
578.90	649.43
579.25	649.35
579.60	649.33
579.95	649.14
580.30	649.18
580.66	649.10
581.01	649.05
581.36	648.88
581.71	648.56
582.06	648.58
582.42	648.60
582.77	648.22
583.12	648.10
583.47	647.94
583.82	647.85
584.17	647.75
584.53	647.67
584.88	647.43
585.23	647.21
585.58	646.93
585.93	646.54
586.28	646.26
586.63	646.17
586.98	645.84
587.34	645.75
587.69	645.37
588.04	644.98
588.39	644.61
588.74	644.02
589.09	644.00
589.44	643.22
589.79	642.85
590.14	642.58
590.49	641.90
590.84	641.15
591.19	640.56
591.54	640.08
591.89	638.94
592.25	638.54
592.60	637.71
592.95	636.76
593.30	635.84
593.65	634.92
594.00	633.89
594.35	633.97
594.70	632.85
595.05	632.01
595.40	631.02
595.75	630.03
596.10	629.35
596.45	628.47
596.80	627.75
597.15	626.82
597.50	625.74
597.85	625.13
598.19	624.32
598.54	623.48
598.89	622.54
599.24	622.12
599.59	620.97
599.94	620.16
600.29	619.44
600.64	618.65
600.99	617.70
601.34	616.96
601.69	615.21
602.04	614.22
602.39	613.21
602.74	612.64
603.08	612.02
603.43	611.44
603.78	610.50
604.13	609.73
604.48	608.82
604.83	608.20
605.18	607.32
605.53	606.35
605.87	605.36
606.22	604.62
606.57	603.52
606.92	602.56
607.27	601.57
607.62	600.57
607.96	599.79
608.31	598.94
608.66	597.90
609.01	596.73
609.36	595.68
609.70	594.80
610.05	593.35
610.40	592.23
610.75	590.84
611.10	589.77
611.44	588.29
611.79	586.92
612.14	585.40
612.49	583.84
612.83	582.63
613.18	581.02
613.53	579.27
613.88	577.66
614.22	576.29
614.57	574.74
614.92	573.32
615.27	571.76
615.61	570.19
615.96	568.78
616.31	567.35
616.65	566.15
617.00	564.46
617.35	563.03
617.70	561.14
618.04	559.27
618.39	557.25
618.74	555.90
619.08	554.28
619.43	552.67
619.78	551.20
620.12	549.45
620.47	547.92
620.82	546.23
621.16	544.42
621.51	542.75
621.85	541.16
622.20	539.38
622.55	537.48
622.89	535.67
623.24	533.84
623.59	532.01
623.93	530.15
624.28	528.42
624.62	527.03
624.97	525.49
625.32	523.98
625.66	522.50
626.01	520.67
626.35	519.02
626.70	517.35
627.04	515.92
627.39	514.22
627.73	512.75
628.08	511.29
628.43	509.77
628.77	508.00
629.12	506.41
629.46	504.93
629.81	503.40
630.15	501.81
630.50	500.15
630.84	498.55
631.19	496.87
631.53	495.38
631.88	493.33
632.22	491.52
632.57	490.05
632.91	488.35
633.26	486.65
633.60	485.02
633.95	483.61
634.29	481.69
634.64	480.30
634.98	478.40
635.32	476.97
635.67	475.44
636.01	474.03
636.36	472.30
636.70	470.73
637.05	469.27
637.39	467.85
637.73	466.40
638.08	465.10
638.42	463.61
638.77	462.11
639.11	460.72
639.45	459.38
639.80	457.72
640.14	456.13
640.49	454.63
640.83	453.05
641.17	451.41
641.52	449.79
641.86	448.13
642.20	446.72
642.55	444.91
642.89	443.41
643.23	441.71
643.58	440.34
643.92	438.64
644.26	436.95
644.61	435.46
644.95	433.82
645.29	432.07
645.64	430.55
645.98	428.94
646.32	427.38
646.66	425.78
647.01	424.22
647.35	422.84
647.69	421.22
648.04	419.81
648.38	418.32
648.72	416.90
649.06	415.31
649.41	413.80
649.75	412.30
650.09	410.74
650.43	409.26
650.78	407.55
651.12	406.07
651.46	404.55
651.80	403.00
652.14	401.48
652.49	400.04
652.83	398.41
653.17	396.77
653.51	395.16
653.85	393.67
654.20	392.09
654.54	390.50
654.88	389.12
655.22	387.69
655.56	385.97
655.90	384.45
656.25	382.90
656.59	381.35
656.93	379.88
657.27	378.64
657.61	377.03
657.95	375.76
658.29	374.32
658.64	372.98
658.98	371.41
659.32	369.87
659.66	368.49
660.00	367.08
660.34	365.65
660.68	364.31
661.02	362.90
661.36	361.52
661.70	360.18
662.05	358.80
662.39	357.49
662.73	356.42
663.07	355.27
663.41	354.10
663.75	352.84
664.09	351.56
664.43	350.10
664.77	348.89
665.11	347.54
665.45	346.27
665.79	345.00
666.13	343.81
666.47	342.62
666.81	341.44
667.15	340.23
667.49	339.12
667.83	338.08
668.17	336.93
668.51	335.90
668.85	334.78
669.19	333.83
669.53	332.55
669.87	331.31
670.21	330.08
670.55	329.04
670.89	328.20
671.23	327.18
671.57	326.21
671.91	325.22
672.25	324.30
672.58	323.38
672.92	322.39
673.26	321.45
673.60	320.48
673.94	319.49
674.28	318.57
674.62	317.81
674.96	316.78
675.30	315.90
675.64	314.83
675.97	314.03
676.31	313.05
676.65	312.23
676.99	311.51
677.33	310.70
677.67	309.76
678.01	308.67
678.34	307.85
678.68	307.00
679.02	306.14
679.36	305.22
679.70	304.39
680.04	303.52
680.37	302.71
680.71	301.93
681.05	301.13
681.39	300.35
681.73	299.39
682.06	298.59
682.40	297.76
682.74	297.11
683.08	296.34
683.42	295.50
683.75	294.72
684.09	293.72
684.43	292.93
684.77	292.09
685.10	291.29
685.44	290.39
685.78	289.49
686.12	288.73
686.45	287.95
686.79	287.09
687.13	286.41
687.46	285.66
687.80	285.01
688.14	284.21
688.48	283.50
688.81	282.73
689.15	282.15
689.49	281.42
689.82	280.67
690.16	279.76
690.50	279.06
690.83	278.33
691.17	277.63
691.51	276.85
691.84	276.23
692.18	275.55
692.52	274.96
692.85	274.32
693.19	273.75
693.52	273.10
693.86	272.42
694.20	271.73
694.53	271.13
694.87	270.33
695.21	269.71
695.54	269.11
695.88	268.49
696.21	267.73
696.55	267.17
696.88	266.53
697.22	265.94
697.56	265.44
697.89	264.80
698.23	264.32
698.56	263.79
698.90	263.31
699.23	262.79
699.57	262.19
699.90	261.62
700.24	260.91
700.58	260.43
700.91	259.98
701.25	259.73
701.58	259.27
701.92	258.95
702.25	258.41
702.59	257.83
702.92	257.41
703.26	256.96
703.59	256.46
703.93	256.31
704.26	255.87
704.60	255.40
704.93	254.89
705.26	254.31
705.60	253.91
705.93	253.36
706.27	253.00
706.60	252.67
706.94	252.42
707.27	252.05
707.61	251.60
707.94	251.20
708.27	250.53
708.61	249.90
708.94	249.37
709.28	249.00
709.61	248.62
709.94	248.23
710.28	247.77
710.61	247.32
710.95	246.58
711.28	246.41
711.61	245.98
711.95	245.79
712.28	245.47
712.61	245.12
712.95	244.95
713.28	244.69
713.61	244.33
713.95	243.90
714.28	243.61
714.61	243.32
714.95	242.98
715.28	242.65
715.61	242.38
715.95	242.11
716.28	241.80
716.61	241.54
716.95	241.19
717.28	240.87
717.61	240.61
717.94	240.38
718.28	239.85
718.61	239.54
718.94	239.17
719.27	238.91
719.61	238.64
719.94	238.23
720.27	237.83
720.60	237.43
720.94	237.18
721.27	236.89
721.60	236.68
721.93	236.44
722.27	236.29
722.60	236.09
722.93	235.84
723.26	235.60
723.59	235.29
723.93	235.10
724.26	234.95
724.59	234.69
724.92	234.50
725.25	234.48
725.59	234.32
725.92	234.14
726.25	233.92
726.58	233.69
726.91	233.54
727.24	233.39
727.57	233.22
727.91	232.91
728.24	232.76
728.57	232.50
728.90	232.34
729.23	232.02
729.56	232.04
729.89	231.80
730.22	231.57
730.55	231.38
730.89	231.16
731.22	230.86
731.55	230.63
731.88	230.44
732.21	230.08
732.54	229.81
732.87	229.65
733.20	229.48
733.53	229.27
733.86	229.09
734.19	228.77
734.52	228.67
734.85	228.78
735.18	228.47
735.51	228.36
735.84	228.15
736.17	228.03
736.50	227.60
736.83	227.81
737.16	227.67
737.49	227.56
737.82	227.37
738.15	227.27
738.48	227.14
738.81	226.93
739.14	226.72
739.47	226.52
739.80	226.38
740.13	226.23
740.46	226.11
740.79	225.89
741.12	225.82
741.45	225.60
741.78	225.23
742.11	225.27
742.44	225.08
742.77	225.00
743.10	224.81
743.43	224.73
743.75	224.25
744.08	224.60
744.41	224.44
744.74	224.27
745.07	224.14
745.40	224.10
745.73	224.17
746.06	224.10
746.39	224.03
746.71	223.86
747.04	223.80
747.37	223.65
747.70	223.60
748.03	223.42
748.36	223.40
748.68	223.33
749.01	223.15
749.34	223.04
749.67	222.93
750.00	222.87
750.33	222.97
750.65	222.95
750.98	222.39
751.31	222.29
751.64	222.24
751.97	222.23
752.29	222.05
752.62	221.71
752.95	221.55
753.28	221.42
753.60	221.30
753.93	221.21
754.26	221.06
754.59	220.86
754.91	220.79
755.24	220.63
755.57	220.49
755.90	220.40
756.22	220.26
756.55	220.11
756.88	220.02
757.20	219.70
757.53	219.46
757.86	219.38
758.19	219.28
758.51	219.14
758.84	218.97
759.17	218.94
759.49	218.90
759.82	219.06
760.15	218.96
760.47	218.85
760.80	218.64
761.13	218.59
761.45	218.52
761.78	218.46
762.11	218.37
762.43	218.27
762.76	218.08
763.08	218.08
763.41	218.06
763.74	217.94
764.06	217.88
764.39	217.84
764.71	217.75
765.04	217.65
765.37	217.57
765.69	217.40
766.02	217.37
766.34	217.35
766.67	217.06
767.00	217.13
767.32	217.28
767.65	217.40
767.97	217.35
768.30	217.34
768.62	217.29
768.95	217.21
769.27	217.22
769.60	217.28
769.92	217.14
770.25	216.95
770.57	216.84
770.90	216.76
771.22	216.62
771.55	216.54
771.87	216.52
772.20	216.45
772.52	216.80
772.85	217.14
773.17	217.05
773.50	217.01
773.82	216.87
774.15	216.64
774.47	216.42
774.80	216.35
775.12	216.22
775.45	216.16
775.77	216.15
776.09	216.08
776.42	216.01
776.74	216.11
777.07	216.06
777.39	215.96
777.72	215.87
778.04	215.94
778.36	215.90
778.69	215.86
779.01	215.88
779.33	215.49
779.66	215.08
779.98	215.02
780.31	214.97
780.63	215.08
780.95	215.12
781.28	215.08
781.60	215.06
781.92	215.10
782.25	215.12
782.57	215.15
782.89	215.05
783.22	214.97
783.54	214.83
783.86	214.84
784.19	214.84
784.51	214.98
784.83	214.88
785.16	214.85
785.48	214.85
785.80	214.90
786.12	214.86
786.45	214.82
786.77	214.82
787.09	214.81
787.42	214.70
787.74	214.71
788.06	214.74
788.38	214.70
788.71	214.62
789.03	214.60
789.35	214.53
789.67	214.52
789.99	214.55
790.32	214.47
790.64	214.52
790.96	214.81
791.28	214.62
791.61	214.57
791.93	214.54
792.25	214.47
792.57	214.64
792.89	214.54
793.21	214.48
793.54	214.42
793.86	214.39
794.18	214.30
