SpectraSuite Data File
++++++++++++++++++++++++++++++++++++
Date: Mon Feb 25 17:04:39 EST 2013
User: group
Dark Spectrum Present: No
Reference Spectrum Present: No
Number of Sampled Component Spectra: 1
Spectrometers: USB2E7196
Integration Time (usec): 104000 (USB2E7196)
Spectra Averaged: 20 (USB2E7196)
Boxcar Smoothing: 10 (USB2E7196)
Correct for Electrical Dark: No (USB2E7196)
Strobe/Lamp Enabled: No (USB2E7196)
Correct for Detector Non-linearity: No (USB2E7196)
Correct for Stray Light: No (USB2E7196)
Number of Pixels in Processed Spectrum: 2048
>>>>>Begin Processed Spectral Data<<<<<
339.09	0.00
339.48	198.70
339.86	198.95
340.24	201.35
340.63	202.75
341.01	210.65
341.39	205.50
341.78	208.10
342.16	209.20
342.54	208.15
342.93	198.38
343.31	208.36
343.69	208.88
344.07	209.40
344.46	209.90
344.84	210.31
345.22	210.29
345.60	210.54
345.99	210.68
346.37	210.79
346.75	210.95
347.13	210.93
347.52	210.97
347.90	211.10
348.28	211.14
348.66	211.20
349.05	211.05
349.43	211.17
349.81	211.18
350.19	211.25
350.57	211.25
350.96	211.33
351.34	211.48
351.72	211.53
352.10	211.58
352.48	211.54
352.87	211.58
353.25	211.67
353.63	211.79
354.01	211.82
354.39	211.78
354.77	211.83
355.15	212.03
355.54	212.06
355.92	211.98
356.30	212.01
356.68	212.33
357.06	212.40
357.44	212.31
357.82	212.29
358.20	212.31
358.58	212.38
358.97	212.42
359.35	212.41
359.73	212.58
360.11	212.68
360.49	212.82
360.87	212.83
361.25	212.90
361.63	212.99
362.01	213.04
362.39	213.11
362.77	213.23
363.15	213.18
363.53	213.21
363.91	213.28
364.29	213.37
364.67	212.97
365.05	212.98
365.43	213.06
365.81	213.16
366.19	213.31
366.57	213.39
366.95	213.37
367.33	213.40
367.71	213.37
368.09	213.36
368.47	213.25
368.85	213.25
369.23	213.28
369.61	213.11
369.99	213.22
370.37	213.20
370.75	213.23
371.13	213.09
371.51	213.03
371.89	213.01
372.27	212.97
372.65	213.04
373.03	213.07
373.41	213.04
373.78	212.96
374.16	212.75
374.54	212.67
374.92	212.62
375.30	212.55
375.68	212.40
376.06	212.38
376.44	212.37
376.82	212.34
377.19	212.21
377.57	212.20
377.95	212.01
378.33	211.99
378.71	211.75
379.09	211.85
379.47	211.80
379.84	211.70
380.22	211.63
380.60	211.50
380.98	211.34
381.36	211.24
381.73	211.13
382.11	211.08
382.49	211.00
382.87	210.93
383.25	210.90
383.62	211.27
384.00	211.20
384.38	211.18
384.76	211.22
385.13	211.38
385.51	211.29
385.89	211.21
386.27	211.21
386.64	211.24
387.02	211.10
387.40	211.05
387.78	211.04
388.15	211.03
388.53	211.02
388.91	211.04
389.29	211.06
389.66	211.12
390.04	211.11
390.42	211.16
390.79	211.20
391.17	211.18
391.55	210.77
391.92	210.73
392.30	210.75
392.68	210.64
393.05	210.56
393.43	210.63
393.81	210.61
394.18	210.51
394.56	210.46
394.94	210.53
395.31	210.52
395.69	210.65
396.06	210.68
396.44	210.68
396.82	210.60
397.19	210.73
397.57	210.65
397.95	210.67
398.32	210.60
398.70	210.59
399.07	210.65
399.45	210.60
399.82	210.61
400.20	210.57
400.58	210.57
400.95	210.46
401.33	210.49
401.70	210.77
402.08	210.86
402.45	210.93
402.83	211.07
403.20	211.05
403.58	210.99
403.95	211.08
404.33	211.21
404.71	211.42
405.08	211.63
405.46	211.74
405.83	211.91
406.21	211.99
406.58	212.17
406.96	212.28
407.33	212.58
407.70	212.78
408.08	213.21
408.45	213.40
408.83	213.64
409.20	213.82
409.58	213.90
409.95	214.20
410.33	214.49
410.70	214.63
411.08	215.08
411.45	215.45
411.82	215.76
412.20	216.18
412.57	216.75
412.95	216.90
413.32	217.45
413.69	217.91
414.07	218.49
414.44	219.01
414.82	219.62
415.19	220.27
415.56	220.95
415.94	221.55
416.31	222.45
416.68	223.33
417.06	224.36
417.43	225.36
417.81	226.42
418.18	227.57
418.55	228.72
418.93	229.91
419.30	231.18
419.67	232.50
420.04	233.86
420.42	235.22
420.79	237.16
421.16	238.85
421.54	240.81
421.91	242.67
422.28	244.62
422.66	246.65
423.03	248.86
423.40	250.99
423.77	253.20
424.15	255.45
424.52	257.81
424.89	260.36
425.26	262.93
425.64	265.35
426.01	267.89
426.38	270.63
426.75	273.56
427.13	276.49
427.50	279.64
427.87	282.86
428.24	286.00
428.61	288.91
428.99	292.42
429.36	295.97
429.73	299.66
430.10	303.19
430.47	307.00
430.85	310.59
431.22	314.68
431.59	319.19
431.96	323.30
432.33	328.01
432.70	332.46
433.08	337.58
433.45	342.56
433.82	347.61
434.19	353.17
434.56	358.48
434.93	363.70
435.30	368.80
435.68	374.55
436.05	380.33
436.42	385.97
436.79	391.09
437.16	396.83
437.53	402.76
437.90	408.80
438.27	414.56
438.64	420.79
439.01	426.50
439.38	431.41
439.75	436.36
440.13	441.81
440.50	447.06
440.87	451.36
441.24	455.85
441.61	460.81
441.98	464.56
442.35	469.04
442.72	473.45
443.09	477.93
443.46	480.78
443.83	482.64
444.20	484.40
444.57	486.77
444.94	487.93
445.31	489.21
445.68	490.80
446.05	491.63
446.42	491.30
446.79	490.95
447.16	490.56
447.53	490.45
447.90	488.60
448.27	486.92
448.64	484.37
449.01	482.45
449.37	478.88
449.74	475.45
450.11	471.39
450.48	466.81
450.85	462.01
451.22	457.81
451.59	454.12
451.96	450.42
452.33	445.48
452.70	441.02
453.07	435.61
453.43	429.73
453.80	424.35
454.17	419.26
454.54	414.30
454.91	409.11
455.28	403.93
455.65	399.20
456.02	394.75
456.38	390.62
456.75	385.65
457.12	381.33
457.49	377.09
457.86	372.86
458.23	369.35
458.59	365.45
458.96	361.57
459.33	358.08
459.70	354.66
460.07	351.88
460.43	348.73
460.80	345.77
461.17	343.24
461.54	340.55
461.91	337.94
462.27	335.32
462.64	332.94
463.01	330.46
463.38	328.23
463.74	325.36
464.11	323.17
464.48	321.33
464.85	319.38
465.21	317.98
465.58	316.29
465.95	314.23
466.32	312.58
466.68	310.93
467.05	309.23
467.42	307.48
467.78	305.73
468.15	303.87
468.52	302.67
468.88	300.88
469.25	299.41
469.62	298.26
469.98	296.98
470.35	295.88
470.72	294.76
471.08	293.47
471.45	292.45
471.82	291.48
472.18	290.22
472.55	289.40
472.92	288.27
473.28	287.38
473.65	286.58
474.02	285.68
474.38	285.09
474.75	284.50
475.11	283.90
475.48	283.40
475.85	283.08
476.21	282.50
476.58	282.19
476.94	281.80
477.31	281.37
477.67	280.99
478.04	280.54
478.41	280.24
478.77	280.16
479.14	279.83
479.50	279.68
479.87	279.57
480.23	279.42
480.60	279.33
480.96	279.16
481.33	279.24
481.69	279.37
482.06	279.28
482.42	279.24
482.79	279.35
483.15	279.36
483.52	279.50
483.88	279.60
484.25	279.72
484.61	279.88
484.98	280.12
485.34	280.55
485.71	281.00
486.07	281.30
486.44	281.42
486.80	281.88
487.17	282.28
487.53	282.90
487.90	283.44
488.26	284.07
488.62	284.84
488.99	285.43
489.35	285.97
489.72	286.64
490.08	287.31
490.44	287.96
490.81	288.83
491.17	289.59
491.54	290.53
491.90	291.48
492.26	292.38
492.63	293.25
492.99	294.12
493.36	295.15
493.72	296.33
494.08	297.44
494.45	298.61
494.81	299.87
495.17	300.87
495.54	302.08
495.90	303.21
496.26	304.40
496.63	305.54
496.99	306.85
497.35	308.12
497.72	309.51
498.08	310.86
498.44	312.13
498.80	313.56
499.17	314.91
499.53	316.23
499.89	317.64
500.26	319.04
500.62	320.39
500.98	321.69
501.34	322.99
501.71	324.35
502.07	325.58
502.43	326.74
502.79	328.05
503.16	329.16
503.52	330.50
503.88	331.61
504.24	332.85
504.60	333.95
504.97	335.22
505.33	336.25
505.69	337.59
506.05	338.73
506.41	339.77
506.78	340.83
507.14	341.79
507.50	342.85
507.86	343.85
508.22	344.79
508.59	345.72
508.95	346.63
509.31	347.67
509.67	348.64
510.03	349.53
510.39	350.29
510.75	351.19
511.12	351.86
511.48	352.63
511.84	353.26
512.20	353.96
512.56	354.62
512.92	355.40
513.28	355.88
513.64	356.48
514.00	357.15
514.37	357.63
514.73	358.19
515.09	358.73
515.45	359.19
515.81	359.71
516.17	360.04
516.53	360.48
516.89	360.75
517.25	361.06
517.61	361.60
517.97	362.10
518.33	362.68
518.69	363.10
519.05	363.66
519.41	364.20
519.77	364.88
520.13	365.34
520.49	365.73
520.85	366.22
521.21	366.78
521.57	367.19
521.93	367.60
522.29	368.23
522.65	368.63
523.01	369.21
523.37	369.81
523.73	370.69
524.09	371.44
524.45	372.15
524.81	372.97
525.17	373.85
525.53	374.78
525.89	375.58
526.25	376.69
526.61	377.56
526.97	378.60
527.33	379.64
527.68	381.18
528.04	382.45
528.40	383.64
528.76	384.95
529.12	386.35
529.48	387.98
529.84	389.30
530.20	390.94
530.56	392.62
530.91	394.38
531.27	395.98
531.63	397.54
531.99	399.37
532.35	401.09
532.71	402.76
533.07	404.57
533.42	406.89
533.78	408.70
534.14	410.73
534.50	412.65
534.86	414.66
535.21	416.28
535.57	418.39
535.93	420.53
536.29	422.86
536.65	425.10
537.00	427.14
537.36	429.41
537.72	431.63
538.08	433.93
538.44	436.05
538.79	438.44
539.15	440.85
539.51	443.20
539.87	445.72
540.22	448.32
540.58	450.87
540.94	452.93
541.29	455.50
541.65	458.01
542.01	460.70
542.37	463.32
542.72	466.04
543.08	468.71
543.44	471.57
543.79	473.95
544.15	476.81
544.51	479.86
544.87	482.81
545.22	485.60
545.58	488.38
545.94	491.17
546.29	493.84
546.65	496.72
547.01	499.40
547.36	502.15
547.72	504.81
548.07	507.63
548.43	510.30
548.79	512.92
549.14	515.44
549.50	518.25
549.86	520.82
550.21	523.43
550.57	526.05
550.92	528.40
551.28	531.04
551.64	533.38
551.99	535.71
552.35	537.93
552.70	540.24
553.06	542.72
553.41	545.18
553.77	547.63
554.13	549.96
554.48	552.50
554.84	555.01
555.19	557.47
555.55	559.93
555.90	562.40
556.26	564.56
556.61	566.95
556.97	568.89
557.32	571.10
557.68	573.15
558.03	575.21
558.39	577.23
558.74	579.41
559.10	581.63
559.45	583.74
559.81	586.02
560.16	588.21
560.52	590.25
560.87	592.30
561.23	594.21
561.58	596.42
561.94	598.36
562.29	600.07
562.64	601.99
563.00	603.68
563.35	605.51
563.71	607.61
564.06	609.36
564.42	611.31
564.77	613.29
565.12	615.18
565.48	617.28
565.83	619.19
566.19	620.89
566.54	622.37
566.89	624.01
567.25	625.85
567.60	627.52
567.96	629.32
568.31	630.97
568.66	632.41
569.02	633.50
569.37	634.59
569.72	636.00
570.08	637.10
570.43	638.15
570.78	639.05
571.14	639.83
571.49	640.77
571.84	641.65
572.20	642.17
572.55	643.04
572.90	643.37
573.26	643.70
573.61	644.15
573.96	644.57
574.31	644.71
574.67	644.76
575.02	644.92
575.37	644.73
575.72	644.49
576.08	644.72
576.43	644.73
576.78	644.84
577.13	644.76
577.49	644.75
577.84	644.87
578.19	645.18
578.54	645.45
578.90	645.75
579.25	645.70
579.60	645.71
579.95	645.40
580.30	645.30
580.66	645.47
581.01	645.30
581.36	645.11
581.71	645.05
582.06	645.10
582.42	645.01
582.77	644.82
583.12	644.81
583.47	644.70
583.82	644.65
584.17	644.60
584.53	644.56
584.88	644.25
585.23	643.86
585.58	643.41
585.93	642.95
586.28	642.56
586.63	642.35
586.98	641.98
587.34	641.90
587.69	641.66
588.04	641.24
588.39	640.97
588.74	640.63
589.09	640.36
589.44	639.70
589.79	639.25
590.14	638.63
590.49	638.15
590.84	637.58
591.19	637.25
591.54	636.55
591.89	635.58
592.25	635.30
592.60	634.61
592.95	633.86
593.30	633.09
593.65	632.01
594.00	631.11
594.35	631.27
594.70	630.24
595.05	629.24
595.40	628.44
595.75	627.36
596.10	626.64
596.45	625.76
596.80	625.02
597.15	624.22
597.50	623.59
597.85	622.78
598.19	621.70
598.54	620.72
598.89	619.85
599.24	619.43
599.59	618.30
599.94	617.73
600.29	616.82
600.64	615.92
600.99	615.13
601.34	614.42
601.69	612.69
602.04	611.80
602.39	611.00
602.74	610.26
603.08	609.71
603.43	609.11
603.78	608.40
604.13	607.45
604.48	606.45
604.83	605.65
605.18	605.01
605.53	604.26
605.87	603.28
606.22	602.51
606.57	601.44
606.92	600.28
607.27	598.98
607.62	598.12
607.96	597.26
608.31	596.60
608.66	595.41
609.01	594.34
609.36	593.17
609.70	592.05
610.05	590.71
610.40	589.46
610.75	588.00
611.10	586.72
611.44	585.35
611.79	584.04
612.14	582.61
612.49	580.78
612.83	579.44
613.18	577.97
613.53	576.51
613.88	574.92
614.22	573.66
614.57	572.22
614.92	570.68
615.27	569.21
615.61	567.53
615.96	566.16
616.31	564.76
616.65	563.48
617.00	562.01
617.35	560.61
617.70	559.08
618.04	557.43
618.39	555.53
618.74	554.02
619.08	552.45
619.43	550.79
619.78	549.26
620.12	547.66
620.47	546.12
620.82	544.25
621.16	542.57
621.51	540.85
621.85	539.23
622.20	537.64
622.55	535.76
622.89	533.98
623.24	532.25
623.59	530.44
623.93	528.62
624.28	526.95
624.62	525.52
624.97	523.97
625.32	522.22
625.66	520.77
626.01	519.11
626.35	517.53
626.70	515.88
627.04	514.56
627.39	512.85
627.73	511.32
628.08	509.99
628.43	508.36
628.77	506.67
629.12	505.04
629.46	503.55
629.81	502.07
630.15	500.41
630.50	498.66
630.84	497.05
631.19	495.56
631.53	493.94
631.88	491.93
632.22	490.10
632.57	488.85
632.91	487.32
633.26	485.71
633.60	484.07
633.95	482.53
634.29	480.73
634.64	479.24
634.98	477.51
635.32	475.93
635.67	474.48
636.01	472.99
636.36	471.45
636.70	469.90
637.05	468.45
637.39	467.01
637.73	465.63
638.08	464.23
638.42	462.84
638.77	461.47
639.11	460.05
639.45	458.51
639.80	456.60
640.14	454.90
640.49	453.35
640.83	451.75
641.17	450.31
641.52	448.77
641.86	447.23
642.20	445.83
642.55	444.14
642.89	442.47
643.23	440.95
643.58	439.67
643.92	437.96
644.26	436.34
644.61	434.85
644.95	433.19
645.29	431.61
645.64	429.96
645.98	428.23
646.32	426.73
646.66	425.09
647.01	423.67
647.35	422.18
647.69	420.55
648.04	419.03
648.38	417.35
648.72	415.90
649.06	414.26
649.41	412.57
649.75	411.03
650.09	409.63
650.43	408.15
650.78	406.39
651.12	404.75
651.46	403.13
651.80	401.56
652.14	400.11
652.49	398.71
652.83	397.13
653.17	395.61
653.51	394.00
653.85	392.68
654.20	391.20
654.54	389.69
654.88	388.14
655.22	386.75
655.56	385.23
655.90	383.59
656.25	382.05
656.59	380.68
656.93	379.24
657.27	377.83
657.61	376.31
657.95	374.88
658.29	373.51
658.64	372.26
658.98	370.81
659.32	369.22
659.66	367.67
660.00	366.18
660.34	364.81
660.68	363.34
661.02	361.78
661.36	360.33
661.70	359.10
662.05	357.93
662.39	356.73
662.73	355.67
663.07	354.65
663.41	353.43
663.75	352.10
664.09	350.84
664.43	349.51
664.77	348.26
665.11	347.00
665.45	345.82
665.79	344.56
666.13	343.39
666.47	342.32
666.81	341.13
667.15	339.87
667.49	338.74
667.83	337.74
668.17	336.67
668.51	335.69
668.85	334.67
669.19	333.67
669.53	332.32
669.87	331.15
670.21	329.85
670.55	328.74
670.89	327.88
671.23	326.89
671.57	325.89
671.91	324.94
672.25	323.95
672.58	323.09
672.92	322.05
673.26	321.06
673.60	320.02
673.94	319.06
674.28	318.22
674.62	317.30
674.96	316.35
675.30	315.40
675.64	314.46
675.97	313.45
676.31	312.53
676.65	311.73
676.99	310.94
677.33	310.13
677.67	309.26
678.01	308.23
678.34	307.30
678.68	306.28
679.02	305.33
679.36	304.50
679.70	303.56
680.04	302.79
680.37	301.96
680.71	301.15
681.05	300.37
681.39	299.63
681.73	298.75
682.06	298.02
682.40	297.27
682.74	296.53
683.08	295.79
683.42	294.84
683.75	294.13
684.09	293.24
684.43	292.42
684.77	291.71
685.10	290.90
685.44	290.10
685.78	289.46
686.12	288.81
686.45	288.00
686.79	287.21
687.13	286.58
687.46	285.83
687.80	285.28
688.14	284.57
688.48	283.79
688.81	283.15
689.15	282.45
689.49	281.74
689.82	280.97
690.16	280.08
690.50	279.48
690.83	278.66
691.17	277.93
691.51	277.33
691.84	276.66
692.18	276.01
692.52	275.45
692.85	274.86
693.19	274.21
693.52	273.64
693.86	272.98
694.20	272.27
694.53	271.68
694.87	270.98
695.21	270.21
695.54	269.62
695.88	269.04
696.21	268.31
696.55	267.72
696.88	267.18
697.22	266.63
697.56	266.14
697.89	265.55
698.23	265.03
698.56	264.46
698.90	264.01
699.23	263.48
699.57	262.97
699.90	262.33
700.24	261.75
700.58	261.26
700.91	260.81
701.25	260.47
701.58	260.07
701.92	259.56
702.25	259.20
702.59	258.65
702.92	258.10
703.26	257.60
703.59	257.22
703.93	257.02
704.26	256.63
704.60	256.11
704.93	255.63
705.26	255.08
705.60	254.64
705.93	254.10
706.27	253.70
706.60	253.39
706.94	253.10
707.27	252.65
707.61	252.21
707.94	251.70
708.27	251.00
708.61	250.45
708.94	249.98
709.28	249.51
709.61	249.13
709.94	248.74
710.28	248.38
710.61	247.91
710.95	247.18
711.28	247.05
711.61	246.61
711.95	246.40
712.28	246.09
712.61	245.65
712.95	245.43
713.28	245.30
713.61	244.73
713.95	244.30
714.28	243.99
714.61	243.56
714.95	243.21
715.28	242.91
715.61	242.54
715.95	242.32
716.28	241.93
716.61	241.67
716.95	241.35
717.28	241.03
717.61	240.70
717.94	240.43
718.28	239.84
718.61	239.54
718.94	239.17
719.27	238.81
719.61	238.50
719.94	238.14
720.27	237.58
720.60	237.30
720.94	237.04
721.27	236.75
721.60	236.58
721.93	236.35
722.27	236.15
722.60	235.98
722.93	235.64
723.26	235.50
723.59	235.18
723.93	234.99
724.26	234.73
724.59	234.66
724.92	234.47
725.25	234.35
725.59	234.22
725.92	234.11
726.25	233.91
726.58	233.82
726.91	233.58
727.24	233.46
727.57	233.19
727.91	232.92
728.24	232.72
728.57	232.45
728.90	232.28
729.23	232.03
729.56	231.94
729.89	231.77
730.22	231.55
730.55	231.35
730.89	231.13
731.22	230.93
731.55	230.60
731.88	230.34
732.21	230.02
732.54	229.69
732.87	229.38
733.20	229.26
733.53	228.97
733.86	228.82
734.19	228.51
734.52	228.44
734.85	228.51
735.18	228.32
735.51	228.24
735.84	228.07
736.17	227.94
736.50	227.62
736.83	227.80
737.16	227.67
737.49	227.60
737.82	227.40
738.15	227.35
738.48	227.13
738.81	226.99
739.14	226.82
739.47	226.73
739.80	226.65
740.13	226.56
740.46	226.39
740.79	226.12
741.12	226.06
741.45	225.88
741.78	225.55
742.11	225.54
742.44	225.36
742.77	225.33
743.10	225.16
743.43	225.09
743.75	224.61
744.08	224.94
744.41	224.66
744.74	224.53
745.07	224.29
745.40	224.25
745.73	224.23
746.06	224.13
746.39	224.02
746.71	223.77
747.04	223.61
747.37	223.48
747.70	223.48
748.03	223.29
748.36	223.22
748.68	223.09
749.01	222.81
749.34	222.72
749.67	222.50
750.00	222.45
750.33	222.60
750.65	222.59
750.98	221.94
751.31	221.84
751.64	221.74
751.97	221.91
752.29	221.80
752.62	221.58
752.95	221.52
753.28	221.35
753.60	221.28
753.93	221.24
754.26	221.21
754.59	221.01
754.91	220.91
755.24	220.78
755.57	220.66
755.90	220.65
756.22	220.40
756.55	220.31
756.88	220.12
757.20	219.71
757.53	219.38
757.86	219.42
758.19	219.42
758.51	219.44
758.84	219.11
759.17	218.98
759.49	218.93
759.82	218.95
760.15	218.93
760.47	218.86
760.80	218.65
761.13	218.59
761.45	218.49
761.78	218.41
762.11	218.42
762.43	218.30
762.76	218.16
763.08	218.14
763.41	218.10
763.74	217.99
764.06	217.92
764.39	218.00
764.71	217.83
765.04	217.74
765.37	217.51
765.69	217.42
766.02	217.37
766.34	217.27
766.67	217.09
767.00	217.06
767.32	217.15
767.65	217.24
767.97	217.14
768.30	217.09
768.62	217.03
768.95	216.87
769.27	216.84
769.60	216.80
769.92	216.75
770.25	216.58
770.57	216.55
770.90	216.53
771.22	216.39
771.55	216.37
771.87	216.29
772.20	216.28
772.52	216.51
772.85	216.85
773.17	216.81
773.50	216.77
773.82	216.66
774.15	216.43
774.47	216.23
774.80	216.10
775.12	216.03
775.45	216.06
775.77	216.06
776.09	216.04
776.42	216.06
776.74	216.09
777.07	216.04
777.39	215.97
777.72	215.86
778.04	215.81
778.36	215.72
778.69	215.66
779.01	215.65
779.33	215.26
779.66	214.81
779.98	214.69
780.31	214.69
780.63	214.85
780.95	214.85
781.28	214.79
781.60	214.72
781.92	214.65
782.25	214.58
782.57	214.55
782.89	214.45
783.22	214.39
783.54	214.27
783.86	214.35
784.19	214.31
784.51	214.41
784.83	214.40
785.16	214.35
785.48	214.38
785.80	214.30
786.12	214.38
786.45	214.41
786.77	214.36
787.09	214.31
787.42	214.13
787.74	214.13
788.06	214.12
788.38	214.13
788.71	214.12
789.03	214.04
789.35	214.03
789.67	214.10
789.99	214.07
790.32	214.01
790.64	213.98
790.96	214.30
791.28	214.19
791.61	214.08
791.93	214.09
792.25	214.03
792.57	214.27
792.89	214.12
793.21	214.07
793.54	214.12
793.86	214.04
794.18	213.99
