SpectraSuite Data File
++++++++++++++++++++++++++++++++++++
Date: Mon Feb 25 17:14:14 EST 2013
User: group
Dark Spectrum Present: No
Reference Spectrum Present: No
Number of Sampled Component Spectra: 1
Spectrometers: USB2E7196
Integration Time (usec): 104000 (USB2E7196)
Spectra Averaged: 20 (USB2E7196)
Boxcar Smoothing: 10 (USB2E7196)
Correct for Electrical Dark: No (USB2E7196)
Strobe/Lamp Enabled: No (USB2E7196)
Correct for Detector Non-linearity: No (USB2E7196)
Correct for Stray Light: No (USB2E7196)
Number of Pixels in Processed Spectrum: 2048
>>>>>Begin Processed Spectral Data<<<<<
339.09	0.00
339.48	198.30
339.86	199.30
340.24	201.70
340.63	202.75
341.01	209.00
341.39	204.95
341.78	207.10
342.16	209.40
342.54	207.85
342.93	198.07
343.31	208.07
343.69	208.58
344.07	209.08
344.46	209.55
344.84	209.88
345.22	209.92
345.60	210.23
345.99	210.44
346.37	210.52
346.75	210.68
347.13	210.73
347.52	210.73
347.90	210.88
348.28	210.99
348.66	210.95
349.05	210.91
349.43	210.96
349.81	211.10
350.19	211.15
350.57	211.20
350.96	211.26
351.34	211.37
351.72	211.52
352.10	211.65
352.48	211.66
352.87	211.78
353.25	211.87
353.63	211.86
354.01	211.87
354.39	212.00
354.77	212.12
355.15	212.26
355.54	212.34
355.92	212.38
356.30	212.43
356.68	212.77
357.06	212.83
357.44	212.88
357.82	212.98
358.20	213.11
358.58	213.24
358.97	213.25
359.35	213.42
359.73	213.53
360.11	213.58
360.49	213.61
360.87	213.69
361.25	213.74
361.63	214.00
362.01	214.18
362.39	214.17
362.77	214.22
363.15	214.25
363.53	214.21
363.91	214.18
364.29	214.14
364.67	213.85
365.05	213.92
365.43	213.93
365.81	213.94
366.19	214.11
366.57	214.21
366.95	214.20
367.33	214.13
367.71	214.19
368.09	214.20
368.47	214.23
368.85	214.19
369.23	214.29
369.61	214.07
369.99	214.05
370.37	214.08
370.75	214.22
371.13	214.10
371.51	214.08
371.89	214.06
372.27	214.15
372.65	214.21
373.03	214.13
373.41	214.15
373.78	214.09
374.16	213.83
374.54	213.65
374.92	213.56
375.30	213.49
375.68	213.30
376.06	213.27
376.44	213.16
376.82	213.18
377.19	213.12
377.57	213.06
377.95	212.95
378.33	212.86
378.71	212.55
379.09	212.57
379.47	212.65
379.84	212.56
380.22	212.48
380.60	212.38
380.98	212.30
381.36	212.25
381.73	212.12
382.11	212.20
382.49	212.19
382.87	212.15
383.25	212.12
383.62	212.47
384.00	212.40
384.38	212.51
384.76	212.50
385.13	212.55
385.51	212.49
385.89	212.37
386.27	212.35
386.64	212.32
387.02	212.29
387.40	212.23
387.78	212.21
388.15	212.17
388.53	212.05
388.91	212.06
389.29	211.96
389.66	212.00
390.04	211.91
390.42	211.91
390.79	211.93
391.17	211.86
391.55	211.53
391.92	211.48
392.30	211.41
392.68	211.31
393.05	211.27
393.43	211.33
393.81	211.39
394.18	211.31
394.56	211.37
394.94	211.46
395.31	211.33
395.69	211.46
396.06	211.56
396.44	211.71
396.82	211.71
397.19	211.87
397.57	211.88
397.95	211.98
398.32	211.95
398.70	212.01
399.07	212.10
399.45	212.09
399.82	212.11
400.20	212.10
400.58	212.15
400.95	211.99
401.33	212.16
401.70	212.44
402.08	212.50
402.45	212.53
402.83	212.59
403.20	212.64
403.58	212.60
403.95	212.71
404.33	212.75
404.71	212.85
405.08	213.11
405.46	213.21
405.83	213.27
406.21	213.39
406.58	213.46
406.96	213.58
407.33	213.72
407.70	213.97
408.08	214.42
408.45	214.57
408.83	214.93
409.20	215.01
409.58	214.98
409.95	215.27
410.33	215.50
410.70	215.63
411.08	215.98
411.45	216.34
411.82	216.51
412.20	216.87
412.57	217.38
412.95	217.50
413.32	217.89
413.69	218.28
414.07	218.70
414.44	219.23
414.82	219.73
415.19	220.25
415.56	220.77
415.94	221.15
416.31	221.90
416.68	222.61
417.06	223.41
417.43	224.28
417.81	225.18
418.18	226.14
418.55	227.10
418.93	228.14
419.30	229.16
419.67	230.30
420.04	231.47
420.42	232.61
420.79	234.23
421.16	235.62
421.54	237.25
421.91	238.77
422.28	240.27
422.66	241.86
423.03	243.80
423.40	245.49
423.77	247.27
424.15	249.01
424.52	250.85
424.89	252.96
425.26	254.90
425.64	256.78
426.01	258.70
426.38	260.80
426.75	263.02
427.13	265.37
427.50	267.75
427.87	270.24
428.24	272.63
428.61	274.75
428.99	277.51
429.36	280.20
429.73	282.93
430.10	285.77
430.47	288.74
430.85	291.44
431.22	294.56
431.59	298.14
431.96	301.29
432.33	304.79
432.70	308.07
433.08	311.99
433.45	315.61
433.82	319.39
434.19	323.59
434.56	327.63
434.93	331.33
435.30	335.18
435.68	339.30
436.05	343.45
436.42	347.63
436.79	351.35
437.16	355.35
437.53	359.70
437.90	364.05
438.27	368.12
438.64	372.39
439.01	376.39
439.38	379.58
439.75	382.95
440.13	386.82
440.50	390.52
440.87	393.46
441.24	396.61
441.61	400.00
441.98	402.50
442.35	405.35
442.72	408.28
443.09	411.20
443.46	412.87
443.83	413.96
444.20	414.98
444.57	416.36
444.94	417.11
445.31	417.78
445.68	418.63
446.05	418.87
446.42	418.45
446.79	417.91
447.16	417.33
447.53	417.22
447.90	415.63
448.27	413.91
448.64	411.75
449.01	410.18
449.37	407.34
449.74	404.52
450.11	401.41
450.48	397.87
450.85	394.14
451.22	391.04
451.59	388.25
451.96	385.31
452.33	381.50
452.70	378.04
453.07	373.94
453.43	369.40
453.80	365.47
454.17	361.55
454.54	357.87
454.91	354.07
455.28	350.07
455.65	346.45
456.02	343.42
456.38	340.37
456.75	336.60
457.12	333.49
457.49	330.45
457.86	327.27
458.23	324.87
458.59	322.06
458.96	319.28
459.33	316.65
459.70	314.15
460.07	312.11
460.43	309.75
460.80	307.65
461.17	305.96
461.54	303.88
461.91	302.11
462.27	300.14
462.64	298.49
463.01	296.73
463.38	295.19
463.74	293.03
464.11	291.48
464.48	290.15
464.85	288.73
465.21	287.69
465.58	286.60
465.95	285.15
466.32	284.09
466.68	282.85
467.05	281.77
467.42	280.69
467.78	279.57
468.15	278.43
468.52	277.62
468.88	276.31
469.25	275.45
469.62	274.67
469.98	273.93
470.35	273.17
470.72	272.33
471.08	271.51
471.45	270.92
471.82	270.33
472.18	269.68
472.55	269.25
472.92	268.60
473.28	268.05
473.65	267.52
474.02	266.98
474.38	266.77
474.75	266.56
475.11	266.20
475.48	265.96
475.85	265.87
476.21	265.63
476.58	265.58
476.94	265.43
477.31	265.39
477.67	265.36
478.04	265.42
478.41	265.54
478.77	265.87
479.14	265.88
479.50	266.02
479.87	266.23
480.23	266.44
480.60	266.55
480.96	266.79
481.33	267.26
481.69	267.63
482.06	267.94
482.42	268.29
482.79	268.76
483.15	269.27
483.52	269.87
483.88	270.43
484.25	271.04
484.61	271.76
484.98	272.39
485.34	273.29
485.71	274.24
486.07	275.20
486.44	275.82
486.80	276.87
487.17	277.92
487.53	279.16
487.90	280.41
488.26	281.98
488.62	283.47
488.99	284.84
489.35	286.36
489.72	288.05
490.08	289.82
490.44	291.56
490.81	293.62
491.17	295.61
491.54	297.89
491.90	300.13
492.26	302.51
492.63	305.08
492.99	307.65
493.36	310.26
493.72	313.23
494.08	316.29
494.45	319.52
494.81	322.97
495.17	326.29
495.54	329.85
495.90	333.45
496.26	337.34
496.63	341.33
496.99	345.51
497.35	349.85
497.72	354.41
498.08	359.20
498.44	363.98
498.80	369.15
499.17	374.47
499.53	380.09
499.89	385.81
500.26	391.55
500.62	397.56
500.98	403.99
501.34	410.45
501.71	417.21
502.07	424.00
502.43	430.93
502.79	438.17
503.16	445.62
503.52	453.42
503.88	461.27
504.24	469.56
504.60	477.95
504.97	486.68
505.33	495.29
505.69	504.69
506.05	514.13
506.41	523.76
506.78	533.33
507.14	543.14
507.50	553.28
507.86	563.92
508.22	574.60
508.59	585.20
508.95	596.21
509.31	607.67
509.67	619.24
510.03	631.25
510.39	643.38
510.75	655.75
511.12	668.12
511.48	680.87
511.84	693.67
512.20	706.79
512.56	720.05
512.92	733.61
513.28	747.11
513.64	760.73
514.00	774.41
514.37	788.54
514.73	802.90
515.09	817.46
515.45	831.71
515.81	846.12
516.17	860.84
516.53	875.73
516.89	890.47
517.25	905.25
517.61	920.14
517.97	935.29
518.33	950.33
518.69	965.59
519.05	980.94
519.41	996.61
519.77	1012.35
520.13	1027.77
520.49	1043.20
520.85	1058.85
521.21	1074.79
521.57	1090.74
521.93	1106.19
522.29	1122.09
522.65	1137.91
523.01	1153.75
523.37	1169.43
523.73	1185.33
524.09	1200.75
524.45	1216.45
524.81	1232.31
525.17	1248.20
525.53	1263.79
525.89	1279.47
526.25	1295.04
526.61	1310.01
526.97	1325.17
527.33	1340.20
527.68	1355.71
528.04	1370.58
528.40	1384.65
528.76	1398.98
529.12	1413.80
529.48	1428.96
529.84	1443.04
530.20	1457.35
530.56	1471.60
530.91	1486.56
531.27	1500.78
531.63	1515.23
531.99	1529.27
532.35	1542.80
532.71	1555.95
533.07	1569.48
533.42	1582.50
533.78	1595.70
534.14	1608.80
534.50	1620.77
534.86	1633.10
535.21	1644.62
535.57	1657.06
535.93	1669.20
536.29	1680.87
536.65	1692.31
537.00	1703.07
537.36	1714.19
537.72	1724.61
538.08	1735.13
538.44	1745.02
538.79	1755.29
539.15	1764.96
539.51	1774.70
539.87	1785.10
540.22	1794.96
540.58	1804.77
540.94	1814.23
541.29	1822.82
541.65	1831.11
542.01	1839.80
542.37	1847.96
542.72	1856.10
543.08	1863.43
543.44	1871.62
543.79	1878.93
544.15	1885.69
544.51	1892.94
544.87	1900.21
545.22	1906.63
545.58	1912.47
545.94	1917.79
546.29	1922.59
546.65	1927.49
547.01	1931.76
547.36	1935.85
547.72	1939.89
548.07	1943.25
548.43	1946.55
548.79	1949.69
549.14	1953.20
549.50	1956.51
549.86	1958.78
550.21	1961.40
550.57	1964.38
550.92	1965.78
551.28	1967.43
551.64	1969.24
551.99	1970.81
552.35	1971.47
552.70	1972.68
553.06	1974.12
553.41	1975.34
553.77	1976.65
554.13	1977.55
554.48	1978.76
554.84	1979.58
555.19	1979.79
555.55	1979.93
555.90	1979.70
556.26	1979.73
556.61	1978.93
556.97	1977.83
557.32	1977.72
557.68	1976.58
558.03	1975.02
558.39	1974.13
558.74	1973.92
559.10	1973.05
559.45	1971.82
559.81	1970.98
560.16	1969.47
560.52	1968.12
560.87	1966.61
561.23	1964.13
561.58	1962.82
561.94	1959.98
562.29	1957.11
562.64	1954.92
563.00	1952.90
563.35	1951.14
563.71	1949.20
564.06	1947.55
564.42	1946.21
564.77	1944.43
565.12	1943.01
565.48	1941.18
565.83	1939.32
566.19	1936.99
566.54	1933.94
566.89	1931.03
567.25	1928.46
567.60	1925.90
567.96	1922.98
568.31	1920.31
568.66	1917.75
569.02	1913.94
569.37	1910.65
569.72	1907.85
570.08	1904.18
570.43	1899.96
570.78	1895.83
571.14	1891.34
571.49	1886.59
571.84	1882.28
572.20	1877.35
572.55	1872.42
572.90	1867.31
573.26	1861.95
573.61	1856.39
573.96	1851.62
574.31	1846.13
574.67	1840.12
575.02	1834.19
575.37	1828.52
575.72	1821.99
576.08	1816.50
576.43	1810.48
576.78	1805.24
577.13	1799.57
577.49	1794.24
577.84	1788.84
578.19	1783.73
578.54	1779.05
578.90	1774.39
579.25	1768.64
579.60	1762.77
579.95	1756.81
580.30	1751.47
580.66	1746.35
581.01	1740.75
581.36	1734.66
581.71	1728.86
582.06	1723.35
582.42	1717.85
582.77	1711.78
583.12	1706.37
583.47	1700.75
583.82	1695.46
584.17	1690.00
584.53	1684.57
584.88	1678.95
585.23	1673.27
585.58	1667.45
585.93	1661.08
586.28	1655.65
586.63	1649.77
586.98	1644.34
587.34	1639.13
587.69	1633.67
588.04	1628.03
588.39	1622.60
588.74	1616.85
589.09	1611.53
589.44	1605.73
589.79	1600.25
590.14	1595.15
590.49	1589.83
590.84	1584.28
591.19	1579.53
591.54	1573.99
591.89	1567.39
592.25	1561.65
592.60	1555.62
592.95	1549.49
593.30	1543.39
593.65	1536.73
594.00	1530.79
594.35	1526.40
594.70	1520.60
595.05	1514.65
595.40	1508.97
595.75	1502.71
596.10	1497.61
596.45	1492.50
596.80	1487.71
597.15	1482.72
597.50	1476.94
597.85	1471.47
598.19	1465.78
598.54	1460.04
598.89	1454.77
599.24	1450.57
599.59	1445.56
599.94	1441.27
600.29	1436.44
600.64	1431.80
600.99	1426.45
601.34	1421.59
601.69	1415.06
602.04	1409.47
602.39	1404.27
602.74	1399.16
603.08	1394.86
603.43	1390.17
603.78	1385.07
604.13	1379.63
604.48	1374.26
604.83	1370.04
605.18	1365.93
605.53	1361.03
605.87	1355.62
606.22	1350.75
606.57	1345.49
606.92	1340.32
607.27	1334.90
607.62	1329.72
607.96	1324.85
608.31	1320.60
608.66	1315.10
609.01	1309.89
609.36	1304.85
609.70	1299.50
610.05	1293.59
610.40	1288.20
610.75	1282.01
611.10	1276.86
611.44	1270.68
611.79	1264.79
612.14	1258.28
612.49	1251.26
612.83	1245.39
613.18	1239.17
613.53	1232.83
613.88	1226.23
614.22	1220.18
614.57	1213.99
614.92	1207.77
615.27	1201.31
615.61	1194.81
615.96	1189.28
616.31	1183.52
616.65	1178.00
617.00	1172.41
617.35	1166.92
617.70	1160.47
618.04	1154.35
618.39	1147.47
618.74	1141.92
619.08	1135.81
619.43	1129.99
619.78	1124.38
620.12	1118.49
620.47	1113.01
620.82	1106.70
621.16	1100.60
621.51	1094.42
621.85	1088.53
622.20	1082.60
622.55	1076.72
622.89	1070.93
623.24	1064.81
623.59	1058.57
623.93	1052.55
624.28	1046.66
624.62	1041.10
624.97	1035.61
625.32	1030.32
625.66	1025.20
626.01	1019.70
626.35	1014.55
626.70	1009.06
627.04	1003.95
627.39	998.59
627.73	993.43
628.08	988.66
628.43	983.39
628.77	978.10
629.12	972.81
629.46	968.08
629.81	962.98
630.15	957.72
630.50	952.45
630.84	947.28
631.19	942.09
631.53	936.96
631.88	931.27
632.22	925.85
632.57	920.81
632.91	915.43
633.26	910.28
633.60	905.07
633.95	900.26
634.29	895.00
634.64	890.25
634.98	884.73
635.32	879.78
635.67	875.42
636.01	870.89
636.36	865.83
636.70	861.01
637.05	856.22
637.39	851.43
637.73	847.16
638.08	843.00
638.42	838.69
638.77	834.16
639.11	829.68
639.45	825.16
639.80	820.39
640.14	815.62
640.49	810.90
640.83	806.35
641.17	801.69
641.52	797.09
641.86	792.02
642.20	787.77
642.55	782.74
642.89	777.67
643.23	772.80
643.58	768.51
643.92	763.51
644.26	758.96
644.61	754.43
644.95	749.55
645.29	744.83
645.64	739.99
645.98	735.38
646.32	731.11
646.66	726.72
647.01	722.15
647.35	718.00
647.69	713.54
648.04	709.11
648.38	704.52
648.72	700.10
649.06	695.77
649.41	691.43
649.75	687.30
650.09	683.31
650.43	679.15
650.78	674.68
651.12	670.48
651.46	666.17
651.80	662.05
652.14	658.02
652.49	653.79
652.83	649.73
653.17	645.20
653.51	640.77
653.85	636.63
654.20	632.54
654.54	628.04
654.88	624.00
655.22	619.91
655.56	615.74
655.90	611.61
656.25	607.59
656.59	603.44
656.93	599.52
657.27	595.56
657.61	591.35
657.95	587.53
658.29	583.67
658.64	579.93
658.98	576.12
659.32	571.97
659.66	568.21
660.00	564.24
660.34	560.68
660.68	556.95
661.02	553.18
661.36	549.56
661.70	546.20
662.05	542.71
662.39	539.42
662.73	536.28
663.07	533.18
663.41	529.88
663.75	526.64
664.09	523.15
664.43	519.61
664.77	516.55
665.11	513.36
665.45	510.28
665.79	507.13
666.13	504.10
666.47	501.20
666.81	498.08
667.15	495.18
667.49	492.41
667.83	489.69
668.17	486.80
668.51	484.14
668.85	481.53
669.19	478.95
669.53	476.09
669.87	473.22
670.21	470.33
670.55	467.66
670.89	465.26
671.23	462.97
671.57	460.58
671.91	457.98
672.25	455.36
672.58	452.97
672.92	450.54
673.26	448.14
673.60	445.85
673.94	443.45
674.28	441.07
674.62	438.76
674.96	436.44
675.30	434.18
675.64	431.79
675.97	429.47
676.31	427.15
676.65	425.00
676.99	422.98
677.33	420.82
677.67	418.74
678.01	416.32
678.34	414.09
678.68	412.05
679.02	409.90
679.36	407.90
679.70	405.79
680.04	403.70
680.37	401.47
680.71	399.35
681.05	397.60
681.39	395.69
681.73	393.68
682.06	391.81
682.40	390.06
682.74	388.25
683.08	386.41
683.42	384.53
683.75	382.69
684.09	380.80
684.43	378.97
684.77	377.10
685.10	375.34
685.44	373.41
685.78	371.52
686.12	369.92
686.45	368.22
686.79	366.49
687.13	364.90
687.46	363.23
687.80	361.66
688.14	359.83
688.48	358.17
688.81	356.47
689.15	354.81
689.49	353.05
689.82	351.41
690.16	349.61
690.50	347.97
690.83	346.31
691.17	344.62
691.51	343.01
691.84	341.56
692.18	340.06
692.52	338.75
692.85	337.42
693.19	336.10
693.52	334.64
693.86	333.09
694.20	331.64
694.53	330.34
694.87	328.91
695.21	327.54
695.54	326.12
695.88	324.72
696.21	323.32
696.55	322.04
696.88	320.65
697.22	319.34
697.56	318.24
697.89	316.95
698.23	315.76
698.56	314.53
698.90	313.45
699.23	312.22
699.57	311.02
699.90	309.73
700.24	308.40
700.58	307.17
700.91	306.10
701.25	305.19
701.58	304.08
701.92	302.98
702.25	301.87
702.59	300.73
702.92	299.66
703.26	298.59
703.59	297.57
703.93	296.94
704.26	295.99
704.60	294.92
704.93	293.91
705.26	292.89
705.60	292.09
705.93	290.95
706.27	290.10
706.60	289.27
706.94	288.53
707.27	287.55
707.61	286.73
707.94	285.77
708.27	284.69
708.61	283.75
708.94	282.95
709.28	282.18
709.61	281.38
709.94	280.59
710.28	279.81
710.61	279.00
710.95	277.90
711.28	277.40
711.61	276.53
711.95	275.93
712.28	275.13
712.61	274.25
712.95	273.73
713.28	273.09
713.61	272.32
713.95	271.51
714.28	270.88
714.61	270.13
714.95	269.57
715.28	268.86
715.61	268.21
715.95	267.50
716.28	266.77
716.61	266.22
716.95	265.62
717.28	265.05
717.61	264.52
717.94	264.01
718.28	263.18
718.61	262.64
718.94	262.03
719.27	261.49
719.61	261.07
719.94	260.35
720.27	259.71
720.60	259.09
720.94	258.55
721.27	258.01
721.60	257.59
721.93	256.97
722.27	256.63
722.60	256.23
722.93	255.80
723.26	255.37
723.59	254.85
723.93	254.36
724.26	253.86
724.59	253.33
724.92	252.84
725.25	252.43
725.59	252.00
725.92	251.57
726.25	251.17
726.58	250.70
726.91	250.29
727.24	249.88
727.57	249.49
727.91	249.01
728.24	248.59
728.57	248.11
728.90	247.79
729.23	247.23
729.56	246.94
729.89	246.55
730.22	246.17
730.55	245.76
730.89	245.44
731.22	244.97
731.55	244.64
731.88	244.25
732.21	243.81
732.54	243.42
732.87	243.06
733.20	242.70
733.53	242.40
733.86	242.15
734.19	241.78
734.52	241.54
734.85	241.50
735.18	241.16
735.51	241.05
735.84	240.66
736.17	240.44
736.50	239.98
736.83	240.00
737.16	239.70
737.49	239.47
737.82	239.02
738.15	238.80
738.48	238.50
738.81	238.14
739.14	237.83
739.47	237.48
739.80	237.19
740.13	236.92
740.46	236.55
740.79	236.26
741.12	235.95
741.45	235.64
741.78	235.13
742.11	234.90
742.44	234.46
742.77	234.38
743.10	234.12
743.43	233.84
743.75	233.23
744.08	233.45
744.41	233.10
744.74	232.95
745.07	232.64
745.40	232.53
745.73	232.56
746.06	232.42
746.39	232.26
746.71	232.01
747.04	231.79
747.37	231.52
747.70	231.31
748.03	231.05
748.36	230.82
748.68	230.62
749.01	230.35
749.34	230.19
749.67	229.90
750.00	229.81
750.33	229.89
750.65	229.71
750.98	229.11
751.31	229.00
751.64	228.82
751.97	228.92
752.29	228.64
752.62	228.26
752.95	228.03
753.28	227.85
753.60	227.67
753.93	227.56
754.26	227.45
754.59	227.23
754.91	227.00
755.24	226.86
755.57	226.72
755.90	226.57
756.22	226.38
756.55	226.20
756.88	225.90
757.20	225.50
757.53	225.20
757.86	224.91
758.19	224.74
758.51	224.60
758.84	224.16
759.17	223.94
759.49	223.81
759.82	223.82
760.15	223.65
760.47	223.45
760.80	223.20
761.13	223.14
761.45	222.95
761.78	222.94
762.11	222.87
762.43	222.71
762.76	222.57
763.08	222.48
763.41	222.34
763.74	222.25
764.06	222.11
764.39	222.08
764.71	222.01
765.04	221.88
765.37	221.69
765.69	221.61
766.02	221.51
766.34	221.37
766.67	221.19
767.00	221.16
767.32	221.27
767.65	221.41
767.97	221.21
768.30	221.16
768.62	221.05
768.95	220.84
769.27	220.73
769.60	220.72
769.92	220.53
770.25	220.37
770.57	220.10
770.90	220.02
771.22	219.81
771.55	219.72
771.87	219.60
772.20	219.53
772.52	219.73
772.85	220.03
773.17	219.95
773.50	219.77
773.82	219.64
774.15	219.32
774.47	219.01
774.80	218.94
775.12	218.81
775.45	218.67
775.77	218.62
776.09	218.61
776.42	218.51
776.74	218.55
777.07	218.51
777.39	218.55
777.72	218.48
778.04	218.48
778.36	218.42
778.69	218.36
779.01	218.31
779.33	217.99
779.66	217.52
779.98	217.41
780.31	217.36
780.63	217.41
780.95	217.51
781.28	217.42
781.60	217.30
781.92	217.27
782.25	217.29
782.57	217.27
782.89	217.16
783.22	217.09
783.54	216.97
783.86	216.93
784.19	216.80
784.51	216.85
784.83	216.72
785.16	216.72
785.48	216.72
785.80	216.66
786.12	216.69
786.45	216.68
786.77	216.65
787.09	216.59
787.42	216.39
787.74	216.37
