SpectraSuite Data File
++++++++++++++++++++++++++++++++++++
Date: Mon Feb 25 17:08:31 EST 2013
User: group
Dark Spectrum Present: No
Reference Spectrum Present: No
Number of Sampled Component Spectra: 1
Spectrometers: USB2E7196
Integration Time (usec): 104000 (USB2E7196)
Spectra Averaged: 20 (USB2E7196)
Boxcar Smoothing: 10 (USB2E7196)
Correct for Electrical Dark: No (USB2E7196)
Strobe/Lamp Enabled: No (USB2E7196)
Correct for Detector Non-linearity: No (USB2E7196)
Correct for Stray Light: No (USB2E7196)
Number of Pixels in Processed Spectrum: 2048
>>>>>Begin Processed Spectral Data<<<<<
339.09	0.00
339.48	198.50
339.86	199.70
340.24	201.10
340.63	202.05
341.01	209.65
341.39	205.50
341.78	207.70
342.16	208.95
342.54	207.50
342.93	198.15
343.31	208.16
343.69	208.74
344.07	209.21
344.46	209.68
344.84	210.06
345.22	210.10
345.60	210.34
345.99	210.49
346.37	210.57
346.75	210.73
347.13	210.84
347.52	210.91
347.90	211.12
348.28	211.11
348.66	211.19
349.05	211.13
349.43	211.24
349.81	211.29
350.19	211.31
350.57	211.35
350.96	211.39
351.34	211.46
351.72	211.47
352.10	211.62
352.48	211.66
352.87	211.75
353.25	211.81
353.63	211.84
354.01	211.84
354.39	211.91
354.77	211.93
355.15	212.03
355.54	212.08
355.92	212.01
356.30	212.05
356.68	212.34
357.06	212.33
357.44	212.25
357.82	212.33
358.20	212.37
358.58	212.35
358.97	212.39
359.35	212.53
359.73	212.68
360.11	212.67
360.49	212.70
360.87	212.76
361.25	212.86
361.63	213.00
362.01	213.12
362.39	213.16
362.77	213.21
363.15	213.22
363.53	213.22
363.91	213.28
364.29	213.35
364.67	212.97
365.05	213.05
365.43	213.15
365.81	213.15
366.19	213.32
366.57	213.48
366.95	213.43
367.33	213.32
367.71	213.22
368.09	213.25
368.47	213.25
368.85	213.19
369.23	213.20
369.61	213.07
369.99	213.12
370.37	213.16
370.75	213.33
371.13	213.18
371.51	213.09
371.89	213.10
372.27	213.05
372.65	213.10
373.03	213.08
373.41	212.99
373.78	212.98
374.16	212.77
374.54	212.65
374.92	212.60
375.30	212.53
375.68	212.43
376.06	212.40
376.44	212.35
376.82	212.37
377.19	212.26
377.57	212.22
377.95	212.02
378.33	211.91
378.71	211.75
379.09	211.86
379.47	211.88
379.84	211.76
380.22	211.66
380.60	211.54
380.98	211.45
381.36	211.39
381.73	211.30
382.11	211.31
382.49	211.30
382.87	211.19
383.25	211.22
383.62	211.65
384.00	211.54
384.38	211.47
384.76	211.42
385.13	211.53
385.51	211.50
385.89	211.46
386.27	211.38
386.64	211.37
387.02	211.22
387.40	211.20
387.78	211.21
388.15	211.18
388.53	211.09
388.91	211.12
389.29	211.06
389.66	211.02
390.04	210.90
390.42	210.92
390.79	210.96
391.17	210.87
391.55	210.38
391.92	210.41
392.30	210.43
392.68	210.37
393.05	210.26
393.43	210.25
393.81	210.27
394.18	210.22
394.56	210.15
394.94	210.24
395.31	210.10
395.69	210.10
396.06	210.25
396.44	210.40
396.82	210.31
397.19	210.44
397.57	210.39
397.95	210.51
398.32	210.38
398.70	210.44
399.07	210.53
399.45	210.54
399.82	210.53
400.20	210.53
400.58	210.52
400.95	210.49
401.33	210.54
401.70	210.78
402.08	210.76
402.45	210.83
402.83	210.90
403.20	211.03
403.58	211.06
403.95	211.06
404.33	211.04
404.71	211.12
405.08	211.32
405.46	211.47
405.83	211.55
406.21	211.61
406.58	211.70
406.96	211.74
407.33	211.93
407.70	212.06
408.08	212.46
408.45	212.65
408.83	212.88
409.20	213.03
409.58	213.04
409.95	213.36
410.33	213.55
410.70	213.64
411.08	213.87
411.45	214.14
411.82	214.40
412.20	214.82
412.57	215.33
412.95	215.34
413.32	215.65
413.69	215.95
414.07	216.45
414.44	216.86
414.82	217.30
415.19	217.80
415.56	218.36
415.94	218.70
416.31	219.40
416.68	219.96
417.06	220.71
417.43	221.54
417.81	222.39
418.18	223.19
418.55	224.10
418.93	225.05
419.30	225.96
419.67	226.99
420.04	228.02
420.42	228.95
420.79	230.54
421.16	231.93
421.54	233.49
421.91	234.82
422.28	236.24
422.66	237.79
423.03	239.49
423.40	241.02
423.77	242.67
424.15	244.25
424.52	246.06
424.89	247.93
425.26	249.57
425.64	251.26
426.01	253.21
426.38	255.28
426.75	257.50
427.13	259.64
427.50	261.82
427.87	264.02
428.24	266.38
428.61	268.42
428.99	270.91
429.36	273.38
429.73	275.95
430.10	278.63
430.47	281.40
430.85	284.08
431.22	287.05
431.59	290.37
431.96	293.30
432.33	296.62
432.70	299.85
433.08	303.71
433.45	307.28
433.82	310.80
434.19	314.75
434.56	318.61
434.93	322.32
435.30	326.01
435.68	330.19
436.05	334.33
436.42	338.31
436.79	342.01
437.16	346.02
437.53	350.29
437.90	354.44
438.27	358.47
438.64	362.57
439.01	366.56
439.38	369.89
439.75	373.44
440.13	377.26
440.50	380.98
440.87	384.01
441.24	387.12
441.61	390.57
441.98	393.13
442.35	396.08
442.72	399.15
443.09	402.16
443.46	403.96
443.83	405.17
444.20	406.33
444.57	407.90
444.94	408.74
445.31	409.62
445.68	410.82
446.05	411.26
446.42	411.00
446.79	410.59
447.16	410.20
447.53	410.02
447.90	408.66
448.27	407.14
448.64	405.16
449.01	403.82
449.37	401.31
449.74	398.78
450.11	395.94
450.48	392.58
450.85	389.04
451.22	386.14
451.59	383.38
451.96	380.70
452.33	376.99
452.70	373.62
453.07	369.63
453.43	365.28
453.80	361.36
454.17	357.79
454.54	354.28
454.91	350.54
455.28	346.71
455.65	343.29
456.02	340.36
456.38	337.45
456.75	333.79
457.12	330.65
457.49	327.66
457.86	324.47
458.23	322.03
458.59	319.40
458.96	316.66
459.33	314.18
459.70	311.72
460.07	309.77
460.43	307.58
460.80	305.54
461.17	303.66
461.54	301.81
461.91	299.98
462.27	298.04
462.64	296.40
463.01	294.70
463.38	293.10
463.74	290.92
464.11	289.32
464.48	288.01
464.85	286.60
465.21	285.50
465.58	284.32
465.95	282.82
466.32	281.55
466.68	280.33
467.05	279.14
467.42	277.92
467.78	276.71
468.15	275.51
468.52	274.60
468.88	273.46
469.25	272.46
469.62	271.65
469.98	270.87
470.35	270.13
470.72	269.41
471.08	268.45
471.45	267.85
471.82	267.20
472.18	266.40
472.55	265.84
472.92	265.08
473.28	264.46
473.65	263.85
474.02	263.36
474.38	262.93
474.75	262.55
475.11	262.12
475.48	261.84
475.85	261.56
476.21	261.18
476.58	260.98
476.94	260.70
477.31	260.41
477.67	260.05
478.04	259.83
478.41	259.69
478.77	259.94
479.14	259.75
479.50	259.66
479.87	259.61
480.23	259.55
480.60	259.59
480.96	259.51
481.33	259.77
481.69	259.75
482.06	259.79
482.42	259.93
482.79	260.10
483.15	260.23
483.52	260.50
483.88	260.68
484.25	260.83
484.61	261.03
484.98	261.26
485.34	261.79
485.71	262.22
486.07	262.54
486.44	262.58
486.80	262.94
487.17	263.38
487.53	264.08
487.90	264.73
488.26	265.39
488.62	266.12
488.99	266.65
489.35	267.32
489.72	267.92
490.08	268.58
490.44	269.32
490.81	270.08
491.17	270.82
491.54	271.80
491.90	272.73
492.26	273.64
492.63	274.70
492.99	275.66
493.36	276.70
493.72	277.93
494.08	279.14
494.45	280.42
494.81	281.78
495.17	282.97
495.54	284.29
495.90	285.56
496.26	287.05
496.63	288.55
496.99	290.10
497.35	291.77
497.72	293.44
498.08	295.16
498.44	296.95
498.80	298.89
499.17	300.73
499.53	302.65
499.89	304.74
500.26	306.73
500.62	308.71
500.98	310.82
501.34	312.96
501.71	315.25
502.07	317.46
502.43	319.68
502.79	321.88
503.16	324.28
503.52	326.65
503.88	329.02
504.24	331.53
504.60	334.06
504.97	336.82
505.33	339.37
505.69	342.24
506.05	344.99
506.41	347.72
506.78	350.50
507.14	353.37
507.50	356.28
507.86	359.25
508.22	362.43
508.59	365.38
508.95	368.45
509.31	371.67
509.67	374.93
510.03	378.10
510.39	381.39
510.75	384.66
511.12	388.08
511.48	391.45
511.84	394.82
512.20	398.28
512.56	401.75
512.92	405.44
513.28	408.98
513.64	412.55
514.00	416.25
514.37	419.80
514.73	423.51
515.09	427.32
515.45	431.07
515.81	434.73
516.17	438.66
516.53	442.43
516.89	446.05
517.25	449.90
517.61	454.00
517.97	458.03
518.33	462.07
518.69	466.08
519.05	470.13
519.41	474.22
519.77	478.56
520.13	482.62
520.49	486.60
520.85	490.72
521.21	494.96
521.57	499.21
521.93	503.38
522.29	507.77
522.65	512.06
523.01	516.40
523.37	520.58
523.73	524.92
524.09	529.27
524.45	533.80
524.81	538.21
525.17	542.55
525.53	546.98
525.89	551.37
526.25	556.01
526.61	560.45
526.97	564.84
527.33	569.29
527.68	574.05
528.04	578.47
528.40	582.80
528.76	587.45
529.12	591.94
529.48	596.85
529.84	601.45
530.20	606.11
530.56	610.80
530.91	615.77
531.27	620.57
531.63	625.40
531.99	630.01
532.35	634.70
532.71	639.20
533.07	644.15
533.42	649.28
533.78	653.95
534.14	658.79
534.50	663.42
534.86	668.11
535.21	672.40
535.57	677.32
535.93	681.94
536.29	686.38
536.65	690.95
537.00	695.28
537.36	699.51
537.72	703.65
538.08	707.96
538.44	712.14
538.79	716.37
539.15	720.47
539.51	724.80
539.87	729.04
540.22	733.39
540.58	737.40
540.94	741.26
541.29	745.16
541.65	748.80
542.01	752.86
542.37	756.72
542.72	760.67
543.08	764.22
543.44	768.41
543.79	772.03
544.15	775.54
544.51	779.42
544.87	783.26
545.22	786.77
545.58	790.16
545.94	793.46
546.29	796.47
546.65	799.73
547.01	802.64
547.36	805.78
547.72	808.87
548.07	811.73
548.43	814.33
548.79	816.91
549.14	819.66
549.50	822.25
549.86	824.65
550.21	826.91
550.57	829.45
550.92	831.15
551.28	833.40
551.64	835.68
551.99	837.59
552.35	839.37
552.70	841.40
553.06	843.32
553.41	845.19
553.77	847.38
554.13	849.24
554.48	851.37
554.84	853.32
555.19	854.82
555.55	856.51
555.90	858.01
556.26	859.35
556.61	860.81
556.97	862.00
557.32	863.26
557.68	864.52
558.03	865.78
558.39	867.19
558.74	868.76
559.10	869.97
559.45	871.23
559.81	872.61
560.16	873.59
560.52	874.74
560.87	875.74
561.23	876.38
561.58	877.56
561.94	878.10
562.29	878.48
562.64	879.33
563.00	879.89
563.35	880.69
563.71	881.75
564.06	882.45
564.42	883.37
564.77	884.14
565.12	885.00
565.48	885.85
565.83	886.44
566.19	886.83
566.54	887.23
566.89	887.45
567.25	887.75
567.60	888.37
567.96	888.74
568.31	889.07
568.66	889.36
569.02	888.90
569.37	888.53
569.72	888.50
570.08	888.18
570.43	887.77
570.78	887.29
571.14	886.76
571.49	886.16
571.84	885.55
572.20	884.77
572.55	884.05
572.90	882.82
573.26	881.84
573.61	880.45
573.96	879.50
574.31	878.30
574.67	877.05
575.02	875.47
575.37	874.01
575.72	872.50
576.08	871.25
576.43	869.87
576.78	868.95
577.13	867.68
577.49	866.41
577.84	865.41
578.19	864.26
578.54	863.16
578.90	862.27
579.25	861.10
579.60	859.70
579.95	858.31
580.30	857.20
580.66	856.07
581.01	854.85
581.36	853.37
581.71	852.02
582.06	850.68
582.42	849.38
582.77	847.79
583.12	846.33
583.47	845.01
583.82	843.86
584.17	842.44
584.53	841.22
584.88	839.83
585.23	838.25
585.58	836.84
585.93	835.20
586.28	833.64
586.63	832.08
586.98	830.65
587.34	829.32
587.69	827.82
588.04	826.27
588.39	824.91
588.74	823.02
589.09	821.74
589.44	819.91
589.79	818.59
590.14	817.22
590.49	815.73
590.84	814.00
591.19	812.55
591.54	810.87
591.89	808.68
592.25	807.14
592.60	805.12
592.95	803.25
593.30	801.38
593.65	799.22
594.00	797.14
594.35	796.50
594.70	794.58
595.05	792.68
595.40	790.85
595.75	788.84
596.10	787.40
596.45	785.55
596.80	784.23
597.15	782.66
597.50	780.76
597.85	779.21
598.19	777.40
598.54	775.64
598.89	773.99
599.24	772.83
599.59	771.13
599.94	769.93
600.29	768.22
600.64	766.61
600.99	765.06
601.34	763.67
601.69	761.06
602.04	759.12
602.39	757.38
602.74	755.83
603.08	754.42
603.43	753.12
603.78	751.50
604.13	749.73
604.48	748.00
604.83	746.70
605.18	745.41
605.53	743.94
605.87	742.08
606.22	740.64
606.57	738.92
606.92	737.01
607.27	735.30
607.62	733.65
607.96	732.29
608.31	730.75
608.66	729.05
609.01	727.07
609.36	725.52
609.70	723.66
610.05	721.59
610.40	719.68
610.75	717.40
611.10	715.56
611.44	713.17
611.79	710.72
612.14	708.26
612.49	705.52
612.83	703.30
613.18	701.02
613.53	698.46
613.88	695.91
614.22	693.70
614.57	691.05
614.92	688.62
615.27	686.03
615.61	683.60
615.96	681.12
616.31	678.92
616.65	676.73
617.00	674.47
617.35	672.14
617.70	669.60
618.04	667.10
618.39	664.27
618.74	662.10
619.08	659.71
619.43	657.34
619.78	655.07
620.12	652.61
620.47	650.28
620.82	647.78
621.16	645.18
621.51	642.91
621.85	640.67
622.20	638.11
622.55	635.53
622.89	633.03
623.24	630.51
623.59	627.87
623.93	625.25
624.28	622.80
624.62	620.75
624.97	618.55
625.32	616.26
625.66	614.13
626.01	611.70
626.35	609.57
626.70	607.32
627.04	605.18
627.39	602.95
627.73	600.69
628.08	598.58
628.43	596.35
628.77	593.79
629.12	591.31
629.46	589.38
629.81	587.24
630.15	584.97
630.50	582.77
630.84	580.44
631.19	578.28
631.53	576.11
631.88	573.49
632.22	570.94
632.57	568.77
632.91	566.48
633.26	564.27
633.60	562.00
633.95	559.77
634.29	557.29
634.64	555.02
634.98	552.67
635.32	550.54
635.67	548.54
636.01	546.47
636.36	544.32
636.70	542.19
637.05	539.99
637.39	537.90
637.73	535.87
638.08	534.07
638.42	532.06
638.77	530.00
639.11	527.90
639.45	525.93
639.80	523.57
640.14	521.35
640.49	519.14
640.83	517.02
641.17	514.96
641.52	512.88
641.86	510.69
642.20	508.79
642.55	506.34
642.89	504.15
643.23	501.95
643.58	500.10
643.92	497.80
644.26	495.61
644.61	493.54
644.95	491.26
645.29	488.97
645.64	486.68
645.98	484.60
646.32	482.55
646.66	480.26
647.01	478.16
647.35	476.22
647.69	474.19
648.04	472.10
648.38	470.00
648.72	468.05
649.06	465.88
649.41	463.72
649.75	461.75
650.09	459.59
650.43	457.65
650.78	455.40
651.12	453.34
651.46	451.48
651.80	449.56
652.14	447.65
652.49	445.65
652.83	443.65
653.17	441.37
653.51	439.28
653.85	437.40
654.20	435.58
654.54	433.53
654.88	431.51
655.22	429.57
655.56	427.52
655.90	425.54
656.25	423.60
656.59	421.60
656.93	419.86
657.27	418.20
657.61	416.14
657.95	414.26
658.29	412.44
658.64	410.57
658.98	408.43
659.32	406.54
659.66	404.68
660.00	402.89
660.34	401.04
660.68	399.22
661.02	397.37
661.36	395.46
661.70	393.65
662.05	392.01
662.39	390.32
662.73	388.91
663.07	387.34
663.41	385.69
663.75	384.04
664.09	382.25
664.43	380.43
664.77	378.96
665.11	377.34
665.45	375.74
665.79	374.27
666.13	372.80
666.47	371.27
666.81	369.75
667.15	368.26
667.49	366.99
667.83	365.65
668.17	364.25
668.51	363.00
668.85	361.69
669.19	360.43
669.53	358.82
669.87	357.26
670.21	355.83
670.55	354.60
670.89	353.44
671.23	352.23
671.57	350.99
671.91	349.61
672.25	348.36
672.58	347.17
672.92	345.76
673.26	344.62
673.60	343.39
673.94	342.13
674.28	340.86
674.62	339.73
674.96	338.53
675.30	337.41
675.64	336.29
675.97	335.14
676.31	333.93
676.65	332.95
676.99	331.95
677.33	330.70
677.67	329.57
678.01	328.29
678.34	327.11
678.68	326.03
679.02	324.92
679.36	323.83
679.70	322.71
680.04	321.61
680.37	320.39
680.71	319.37
681.05	318.46
681.39	317.47
681.73	316.40
682.06	315.42
682.40	314.45
682.74	313.40
683.08	312.51
683.42	311.39
683.75	310.54
684.09	309.46
684.43	308.46
684.77	307.37
685.10	306.40
685.44	305.41
685.78	304.43
686.12	303.56
686.45	302.60
686.79	301.58
687.13	300.75
687.46	299.87
687.80	299.04
688.14	298.17
688.48	297.34
688.81	296.34
689.15	295.47
689.49	294.50
689.82	293.56
690.16	292.58
690.50	291.70
690.83	290.65
691.17	289.65
691.51	288.82
691.84	288.14
692.18	287.31
692.52	286.60
692.85	285.91
693.19	285.25
693.52	284.51
693.86	283.75
694.20	282.87
694.53	282.14
694.87	281.38
695.21	280.47
695.54	279.67
695.88	278.90
696.21	278.05
696.55	277.44
696.88	276.69
697.22	275.85
697.56	275.29
697.89	274.56
698.23	274.00
698.56	273.40
698.90	272.78
699.23	272.13
699.57	271.45
699.90	270.65
700.24	269.90
700.58	269.20
700.91	268.65
701.25	268.31
701.58	267.80
701.92	267.14
702.25	266.57
702.59	265.81
702.92	265.32
703.26	264.74
703.59	264.11
703.93	263.85
704.26	263.43
704.60	262.83
704.93	262.25
705.26	261.62
705.60	261.07
705.93	260.51
706.27	260.12
706.60	259.70
706.94	259.34
707.27	258.81
707.61	258.34
707.94	257.78
708.27	257.10
708.61	256.46
708.94	255.99
709.28	255.53
709.61	255.06
709.94	254.60
710.28	254.12
710.61	253.73
710.95	252.94
711.28	252.66
711.61	252.14
711.95	251.88
712.28	251.45
712.61	250.98
712.95	250.56
713.28	250.20
713.61	249.70
713.95	249.18
714.28	248.77
714.61	248.42
714.95	248.02
715.28	247.54
715.61	247.22
715.95	246.79
716.28	246.37
716.61	246.14
716.95	245.63
717.28	245.32
717.61	244.94
717.94	244.65
718.28	244.07
718.61	243.72
718.94	243.30
719.27	242.93
719.61	242.59
719.94	242.29
720.27	241.79
720.60	241.40
720.94	241.14
721.27	240.80
721.60	240.52
721.93	240.20
722.27	240.06
722.60	239.75
722.93	239.44
723.26	239.25
723.59	238.93
723.93	238.72
724.26	238.40
724.59	238.10
724.92	237.86
725.25	237.72
725.59	237.53
725.92	237.35
726.25	237.09
726.58	236.91
726.91	236.57
727.24	236.36
727.57	236.10
727.91	235.76
728.24	235.63
728.57	235.33
728.90	235.16
729.23	234.76
729.56	234.70
729.89	234.50
730.22	234.18
730.55	233.89
730.89	233.66
731.22	233.48
731.55	233.23
731.88	232.97
732.21	232.68
732.54	232.44
732.87	232.13
733.20	231.90
733.53	231.68
733.86	231.48
734.19	231.18
734.52	231.11
734.85	231.16
735.18	230.83
735.51	230.73
735.84	230.59
736.17	230.51
736.50	230.18
736.83	230.43
737.16	230.25
737.49	230.07
737.82	229.80
738.15	229.63
738.48	229.39
738.81	229.24
739.14	229.00
739.47	228.74
739.80	228.59
740.13	228.51
740.46	228.27
740.79	227.96
741.12	227.84
741.45	227.49
741.78	227.15
742.11	227.16
742.44	226.94
742.77	226.77
743.10	226.57
743.43	226.41
743.75	225.83
744.08	226.13
744.41	226.00
744.74	225.93
745.07	225.70
745.40	225.63
745.73	225.52
746.06	225.41
746.39	225.31
746.71	225.13
747.04	224.99
747.37	224.82
747.70	224.88
748.03	224.70
748.36	224.67
748.68	224.48
749.01	224.16
749.34	223.97
749.67	223.83
750.00	223.69
750.33	223.79
750.65	223.72
750.98	223.16
751.31	222.99
751.64	222.82
751.97	222.90
752.29	222.78
752.62	222.60
752.95	222.44
753.28	222.32
753.60	222.17
753.93	222.14
754.26	222.06
754.59	221.85
754.91	221.70
755.24	221.66
755.57	221.57
755.90	221.49
756.22	221.39
756.55	221.26
756.88	221.09
757.20	220.71
757.53	220.44
757.86	220.36
758.19	220.34
758.51	220.23
758.84	219.88
759.17	219.72
759.49	219.63
759.82	219.67
760.15	219.56
760.47	219.53
760.80	219.35
761.13	219.32
761.45	219.19
761.78	219.18
762.11	219.03
762.43	218.85
762.76	218.76
763.08	218.67
763.41	218.61
763.74	218.61
764.06	218.53
764.39	218.53
764.71	218.34
765.04	218.15
765.37	218.14
765.69	218.17
766.02	218.04
766.34	217.91
766.67	217.72
767.00	217.77
767.32	217.88
767.65	217.99
767.97	217.89
768.30	217.81
768.62	217.71
768.95	217.59
769.27	217.60
769.60	217.57
769.92	217.48
770.25	217.33
770.57	217.19
770.90	217.17
771.22	217.05
771.55	217.06
771.87	217.03
772.20	216.92
772.52	217.16
772.85	217.55
773.17	217.59
773.50	217.51
773.82	217.35
774.15	217.01
774.47	216.71
774.80	216.62
775.12	216.61
775.45	216.44
775.77	216.37
776.09	216.40
776.42	216.36
776.74	216.38
777.07	216.32
777.39	216.28
777.72	216.21
778.04	216.23
778.36	216.13
778.69	216.15
779.01	216.08
779.33	215.72
779.66	215.30
779.98	215.18
780.31	215.22
780.63	215.31
780.95	215.39
781.28	215.43
781.60	215.35
781.92	215.30
782.25	215.35
782.57	215.31
782.89	215.17
783.22	215.08
783.54	214.99
783.86	215.00
784.19	215.00
784.51	214.99
784.83	214.88
785.16	214.81
785.48	214.80
785.80	214.83
786.12	214.84
786.45	214.80
786.77	214.73
787.09	214.70
787.42	214.55
787.74	214.53
788.06	214.44
788.38	214.34
788.71	214.21
789.03	214.20
789.35	214.23
789.67	214.18
789.99	214.26
790.32	214.21
790.64	214.25
790.96	214.45
791.28	214.31
791.61	214.29
791.93	214.32
792.25	214.24
792.57	214.40
792.89	214.25
793.21	214.30
793.54	214.27
793.86	214.13
794.18	214.15
