SpectraSuite Data File
++++++++++++++++++++++++++++++++++++
Date: Mon Feb 25 16:56:18 EST 2013
User: group
Dark Spectrum Present: No
Reference Spectrum Present: No
Number of Sampled Component Spectra: 1
Spectrometers: USB2E7196
Integration Time (usec): 104000 (USB2E7196)
Spectra Averaged: 20 (USB2E7196)
Boxcar Smoothing: 10 (USB2E7196)
Correct for Electrical Dark: No (USB2E7196)
Strobe/Lamp Enabled: No (USB2E7196)
Correct for Detector Non-linearity: No (USB2E7196)
Correct for Stray Light: No (USB2E7196)
Number of Pixels in Processed Spectrum: 2048
>>>>>Begin Processed Spectral Data<<<<<
339.09	0.00
339.48	198.75
339.86	200.65
340.24	201.30
340.63	203.10
341.01	210.10
341.39	205.20
341.78	206.20
342.16	209.75
342.54	207.65
342.93	198.46
343.31	208.51
343.69	209.01
344.07	209.48
344.46	209.95
344.84	210.39
345.22	210.47
345.60	210.76
345.99	211.03
346.37	211.10
346.75	211.25
347.13	211.15
347.52	211.18
347.90	211.35
348.28	211.35
348.66	211.48
349.05	211.34
349.43	211.41
349.81	211.49
350.19	211.58
350.57	211.68
350.96	211.81
351.34	211.90
351.72	212.03
352.10	212.10
352.48	212.22
352.87	212.24
353.25	212.26
353.63	212.32
354.01	212.36
354.39	212.45
354.77	212.50
355.15	212.75
355.54	212.77
355.92	212.77
356.30	212.82
356.68	213.09
357.06	213.23
357.44	213.29
357.82	213.34
358.20	213.44
358.58	213.43
358.97	213.47
359.35	213.59
359.73	213.72
360.11	213.79
360.49	213.79
360.87	213.80
361.25	213.89
361.63	214.03
362.01	214.12
362.39	214.16
362.77	214.28
363.15	214.29
363.53	214.32
363.91	214.38
364.29	214.42
364.67	214.11
365.05	214.17
365.43	214.22
365.81	214.28
366.19	214.41
366.57	214.59
366.95	214.58
367.33	214.45
367.71	214.49
368.09	214.59
368.47	214.62
368.85	214.61
369.23	214.62
369.61	214.49
369.99	214.57
370.37	214.62
370.75	214.79
371.13	214.68
371.51	214.57
371.89	214.50
372.27	214.54
372.65	214.56
373.03	214.50
373.41	214.43
373.78	214.34
374.16	214.15
374.54	214.05
374.92	213.93
375.30	213.99
375.68	213.77
376.06	213.70
376.44	213.63
376.82	213.63
377.19	213.62
377.57	213.57
377.95	213.41
378.33	213.29
378.71	213.01
379.09	213.06
379.47	213.18
379.84	213.12
380.22	213.05
380.60	212.94
380.98	212.90
381.36	212.85
381.73	212.81
382.11	212.83
382.49	212.84
382.87	212.87
383.25	212.80
383.62	213.17
384.00	213.03
384.38	213.02
384.76	213.01
385.13	213.11
385.51	213.06
385.89	212.95
386.27	212.95
386.64	212.99
387.02	212.82
387.40	212.64
387.78	212.65
388.15	212.62
388.53	212.65
388.91	212.66
389.29	212.62
389.66	212.59
390.04	212.52
390.42	212.44
390.79	212.37
391.17	212.39
391.55	212.10
391.92	212.13
392.30	212.11
392.68	212.13
393.05	212.06
393.43	212.07
393.81	212.19
394.18	212.09
394.56	212.08
394.94	212.23
395.31	212.35
395.69	212.47
396.06	212.52
396.44	212.55
396.82	212.53
397.19	212.74
397.57	212.69
397.95	212.79
398.32	212.76
398.70	212.85
399.07	212.93
399.45	212.93
399.82	212.99
400.20	213.07
400.58	213.13
400.95	213.15
401.33	213.30
401.70	213.56
402.08	213.78
402.45	213.90
402.83	214.07
403.20	214.30
403.58	214.41
403.95	214.66
404.33	214.91
404.71	215.10
405.08	215.51
405.46	215.82
405.83	216.16
406.21	216.49
406.58	216.83
406.96	217.29
407.33	217.75
407.70	218.26
408.08	218.97
408.45	219.55
408.83	220.24
409.20	220.84
409.58	221.28
409.95	222.04
410.33	222.89
410.70	223.70
411.08	224.51
411.45	225.47
411.82	226.38
412.20	227.54
412.57	228.98
412.95	229.97
413.32	231.43
413.69	232.83
414.07	234.36
414.44	236.08
414.82	237.82
415.19	239.75
415.56	241.73
415.94	243.72
416.31	246.13
416.68	248.48
417.06	251.37
417.43	254.14
417.81	257.20
418.18	260.33
418.55	263.64
418.93	267.36
419.30	271.11
419.67	275.04
420.04	279.10
420.42	283.28
420.79	288.22
421.16	293.09
421.54	298.29
421.91	303.63
422.28	309.19
422.66	314.96
423.03	320.91
423.40	327.07
423.77	333.68
424.15	340.23
424.52	347.12
424.89	354.60
425.26	361.84
425.64	368.79
426.01	376.48
426.38	384.57
426.75	392.63
427.13	401.12
427.50	410.02
427.87	419.34
428.24	428.71
428.61	437.74
428.99	447.64
429.36	458.24
429.73	468.68
430.10	479.15
430.47	490.03
430.85	501.22
431.22	512.93
431.59	525.32
431.96	537.39
432.33	550.88
432.70	563.81
433.08	579.21
433.45	593.62
433.82	608.11
434.19	624.13
434.56	639.92
434.93	655.20
435.30	670.66
435.68	687.57
436.05	704.64
436.42	721.64
436.79	737.10
437.16	753.95
437.53	771.78
437.90	789.45
438.27	806.81
438.64	825.13
439.01	842.34
439.38	857.86
439.75	872.97
440.13	889.81
440.50	905.78
440.87	919.16
441.24	933.10
441.61	948.48
441.98	960.15
442.35	973.72
442.72	987.13
443.09	1000.18
443.46	1008.78
443.83	1014.78
444.20	1020.23
444.57	1027.82
444.94	1031.92
445.31	1036.19
445.68	1040.20
446.05	1042.90
446.42	1042.45
446.79	1041.66
447.16	1040.76
447.53	1040.36
447.90	1035.35
448.27	1030.39
448.64	1022.43
449.01	1017.26
449.37	1006.70
449.74	996.75
450.11	984.34
450.48	971.01
450.85	957.15
451.22	945.35
451.59	934.05
451.96	923.11
452.33	908.46
452.70	895.35
453.07	879.42
453.43	863.24
453.80	847.43
454.17	832.42
454.54	818.11
454.91	802.53
455.28	787.44
455.65	773.42
456.02	759.19
456.38	747.42
456.75	732.27
457.12	719.80
457.49	707.40
457.86	695.48
458.23	685.10
458.59	673.81
458.96	662.40
459.33	652.19
459.70	642.00
460.07	633.81
460.43	624.41
460.80	615.62
461.17	607.97
461.54	600.09
461.91	592.30
462.27	584.59
462.64	578.20
463.01	570.78
463.38	563.57
463.74	556.58
464.11	550.29
464.48	544.94
464.85	539.10
465.21	534.61
465.58	529.80
465.95	524.13
466.32	519.32
466.68	514.41
467.05	509.77
467.42	505.06
467.78	500.00
468.15	495.22
468.52	491.68
468.88	487.00
469.25	482.70
469.62	479.31
469.98	475.63
470.35	472.11
470.72	469.00
471.08	465.55
471.45	462.51
471.82	459.45
472.18	456.13
472.55	453.62
472.92	450.82
473.28	448.25
473.65	445.72
474.02	443.31
474.38	441.39
474.75	439.63
475.11	437.80
475.48	436.52
475.85	435.43
476.21	434.21
476.58	433.19
476.94	432.59
477.31	431.72
477.67	430.81
478.04	430.28
478.41	429.86
478.77	429.85
479.14	429.51
479.50	429.51
479.87	429.60
480.23	429.80
480.60	429.70
480.96	429.80
481.33	430.43
481.69	431.08
482.06	431.53
482.42	431.79
482.79	432.32
483.15	433.18
483.52	434.40
483.88	435.43
484.25	436.64
484.61	437.82
484.98	439.15
485.34	441.00
485.71	442.71
486.07	444.68
486.44	446.38
486.80	448.42
487.17	450.74
487.53	453.39
487.90	455.95
488.26	458.92
488.62	461.99
488.99	464.94
489.35	467.95
489.72	471.38
490.08	475.15
490.44	478.82
490.81	482.49
491.17	486.22
491.54	490.35
491.90	494.50
492.26	498.90
492.63	503.50
492.99	508.22
493.36	513.08
493.72	518.28
494.08	523.62
494.45	529.27
494.81	535.04
495.17	540.60
495.54	546.65
495.90	552.72
496.26	558.98
496.63	565.50
496.99	572.21
497.35	579.05
497.72	586.15
498.08	593.37
498.44	600.79
498.80	608.53
499.17	616.32
499.53	624.32
499.89	632.49
500.26	640.50
500.62	648.38
500.98	656.93
501.34	665.17
501.71	673.77
502.07	682.27
502.43	690.80
502.79	699.71
503.16	708.77
503.52	717.78
503.88	726.69
504.24	735.85
504.60	744.83
504.97	754.21
505.33	763.40
505.69	773.26
506.05	782.88
506.41	792.20
506.78	801.37
507.14	810.54
507.50	820.00
507.86	829.40
508.22	838.96
508.59	848.04
508.95	857.57
509.31	866.88
509.67	876.31
510.03	885.62
510.39	895.01
510.75	904.28
511.12	913.62
511.48	922.83
511.84	931.91
512.20	941.09
512.56	950.41
512.92	959.47
513.28	968.31
513.64	976.96
514.00	985.75
514.37	994.63
514.73	1003.45
515.09	1011.96
515.45	1020.33
515.81	1028.87
516.17	1037.06
516.53	1044.94
516.89	1052.86
517.25	1060.74
517.61	1068.31
517.97	1075.49
518.33	1082.46
518.69	1089.31
519.05	1096.56
519.41	1103.54
519.77	1110.84
520.13	1117.18
520.49	1123.70
520.85	1130.00
521.21	1136.50
521.57	1142.79
521.93	1148.52
522.29	1154.95
522.65	1160.90
523.01	1167.09
523.37	1172.46
523.73	1178.28
524.09	1183.45
524.45	1188.77
524.81	1194.16
525.17	1199.86
525.53	1205.71
525.89	1211.29
526.25	1216.54
526.61	1221.08
526.97	1225.71
527.33	1230.11
527.68	1234.77
528.04	1239.15
528.40	1243.11
528.76	1247.24
529.12	1251.52
529.48	1256.15
529.84	1259.85
530.20	1263.72
530.56	1267.71
530.91	1272.03
531.27	1276.08
531.63	1280.20
531.99	1284.29
532.35	1287.78
532.71	1291.00
533.07	1294.52
533.42	1297.75
533.78	1301.31
534.14	1304.97
534.50	1307.96
534.86	1311.46
535.21	1314.25
535.57	1317.58
535.93	1320.71
536.29	1323.74
536.65	1326.61
537.00	1328.80
537.36	1331.24
537.72	1333.41
538.08	1335.65
538.44	1337.83
538.79	1340.33
539.15	1342.78
539.51	1345.16
539.87	1347.47
540.22	1349.95
540.58	1352.52
540.94	1355.05
541.29	1356.91
541.65	1358.30
542.01	1360.51
542.37	1362.07
542.72	1364.15
543.08	1365.66
543.44	1367.67
543.79	1368.80
544.15	1370.14
544.51	1372.25
544.87	1374.03
545.22	1375.80
545.58	1376.90
545.94	1377.77
546.29	1377.97
546.65	1378.50
547.01	1378.68
547.36	1379.40
547.72	1379.94
548.07	1379.80
548.43	1379.44
548.79	1379.33
549.14	1379.93
549.50	1379.89
549.86	1379.87
550.21	1379.82
550.57	1380.22
550.92	1379.81
551.28	1379.66
551.64	1379.38
551.99	1379.27
552.35	1378.92
552.70	1378.30
553.06	1378.27
553.41	1378.18
553.77	1378.59
554.13	1378.77
554.48	1378.87
554.84	1378.99
555.19	1378.70
555.55	1378.75
555.90	1378.53
556.26	1378.32
556.61	1377.75
556.97	1377.18
557.32	1376.84
557.68	1376.08
558.03	1375.22
558.39	1374.29
558.74	1373.98
559.10	1373.41
559.45	1372.56
559.81	1371.96
560.16	1371.01
560.52	1370.21
560.87	1369.64
561.23	1368.11
561.58	1367.21
561.94	1366.08
562.29	1364.70
562.64	1363.78
563.00	1362.45
563.35	1361.57
563.71	1361.10
564.06	1360.25
564.42	1360.09
564.77	1359.39
565.12	1358.61
565.48	1358.15
565.83	1358.00
566.19	1357.75
566.54	1356.82
566.89	1355.69
567.25	1355.24
567.60	1354.80
567.96	1354.35
568.31	1353.67
568.66	1352.96
569.02	1351.64
569.37	1350.22
569.72	1349.01
570.08	1347.47
570.43	1346.02
570.78	1344.47
571.14	1342.44
571.49	1340.70
571.84	1338.74
572.20	1336.61
572.55	1335.04
572.90	1332.37
573.26	1329.61
573.61	1326.63
573.96	1324.12
574.31	1321.45
574.67	1318.05
575.02	1315.03
575.37	1311.42
575.72	1307.74
576.08	1304.84
576.43	1301.40
576.78	1298.63
577.13	1295.61
577.49	1292.70
577.84	1289.61
578.19	1286.70
578.54	1284.15
578.90	1281.68
579.25	1278.15
579.60	1274.51
579.95	1270.92
580.30	1267.78
580.66	1264.96
581.01	1261.44
581.36	1257.92
581.71	1254.51
582.06	1251.22
582.42	1247.73
582.77	1243.92
583.12	1240.26
583.47	1236.78
583.82	1233.20
584.17	1229.34
584.53	1225.66
584.88	1221.75
585.23	1217.94
585.58	1214.08
585.93	1210.00
586.28	1205.95
586.63	1202.40
586.98	1199.11
587.34	1195.62
587.69	1191.80
588.04	1187.76
588.39	1184.26
588.74	1180.26
589.09	1176.78
589.44	1172.61
589.79	1168.89
590.14	1165.39
590.49	1161.94
590.84	1157.77
591.19	1154.59
591.54	1150.96
591.89	1146.30
592.25	1142.77
592.60	1138.70
592.95	1134.43
593.30	1130.01
593.65	1125.52
594.00	1121.02
594.35	1117.75
594.70	1113.24
595.05	1109.19
595.40	1104.95
595.75	1100.54
596.10	1096.79
596.45	1092.50
596.80	1088.85
597.15	1085.01
597.50	1080.92
597.85	1076.78
598.19	1072.64
598.54	1068.64
598.89	1064.63
599.24	1061.53
599.59	1057.14
599.94	1053.25
600.29	1049.25
600.64	1045.25
600.99	1041.18
601.34	1037.40
601.69	1032.21
602.04	1028.06
602.39	1023.79
602.74	1019.94
603.08	1016.35
603.43	1012.49
603.78	1008.30
604.13	1004.16
604.48	1000.04
604.83	996.59
605.18	992.92
605.53	988.97
605.87	984.40
606.22	980.34
606.57	975.78
606.92	971.51
607.27	967.21
607.62	963.42
607.96	959.55
608.31	955.90
608.66	951.70
609.01	947.56
609.36	943.30
609.70	938.99
610.05	934.48
610.40	929.88
610.75	925.21
611.10	921.30
611.44	916.51
611.79	911.80
612.14	906.87
612.49	902.00
612.83	897.64
613.18	893.06
613.53	888.25
613.88	883.53
614.22	879.11
614.57	874.50
614.92	869.78
615.27	865.10
615.61	860.22
615.96	855.95
616.31	851.75
616.65	847.81
617.00	843.47
617.35	839.18
617.70	834.65
618.04	830.05
618.39	825.29
618.74	821.03
619.08	816.86
619.43	812.60
619.78	808.55
620.12	804.52
620.47	800.76
620.82	796.35
621.16	792.08
621.51	787.91
621.85	783.88
622.20	779.74
622.55	775.75
622.89	771.58
623.24	767.26
623.59	762.90
623.93	758.65
624.28	754.78
624.62	751.09
624.97	747.19
625.32	743.37
625.66	739.64
626.01	735.77
626.35	731.86
626.70	727.86
627.04	723.81
627.39	719.97
627.73	715.97
628.08	712.75
628.43	709.02
628.77	705.35
629.12	701.57
629.46	698.09
629.81	694.41
630.15	690.84
630.50	687.21
630.84	683.54
631.19	679.93
631.53	676.40
631.88	672.44
632.22	668.92
632.57	665.60
632.91	662.06
633.26	658.61
633.60	654.98
633.95	651.71
634.29	648.35
634.64	644.82
634.98	641.39
635.32	637.93
635.67	634.97
636.01	631.59
636.36	628.24
636.70	625.10
637.05	621.86
637.39	618.88
637.73	615.93
638.08	613.34
638.42	610.37
638.77	607.22
639.11	604.28
639.45	601.30
639.80	598.05
640.14	594.81
640.49	591.82
640.83	588.91
641.17	585.80
641.52	582.84
641.86	579.74
642.20	576.80
642.55	573.61
642.89	570.56
643.23	567.64
643.58	565.01
643.92	561.75
644.26	558.79
644.61	555.94
644.95	553.04
645.29	549.89
645.64	546.96
645.98	544.16
646.32	541.39
646.66	538.36
647.01	535.75
647.35	533.09
647.69	530.24
648.04	527.70
648.38	525.06
648.72	522.27
649.06	519.58
649.41	516.85
649.75	514.19
650.09	511.71
650.43	509.14
650.78	506.30
651.12	503.67
651.46	500.99
651.80	498.25
652.14	495.70
652.49	493.22
652.83	490.65
653.17	487.89
653.51	485.25
653.85	482.97
654.20	480.44
654.54	477.89
654.88	475.45
655.22	472.88
655.56	470.30
655.90	467.79
656.25	465.27
656.59	462.82
656.93	460.57
657.27	458.14
657.61	455.47
657.95	453.08
658.29	450.85
658.64	448.72
658.98	446.42
659.32	443.85
659.66	441.53
660.00	439.11
660.34	436.94
660.68	434.60
661.02	432.12
661.36	429.91
661.70	427.79
662.05	425.78
662.39	423.70
662.73	421.78
663.07	419.98
663.41	418.00
663.75	415.85
664.09	413.77
664.43	411.68
664.77	409.90
665.11	408.04
665.45	406.03
665.79	404.01
666.13	402.04
666.47	400.21
666.81	398.25
667.15	396.38
667.49	394.60
667.83	393.03
668.17	391.39
668.51	389.61
668.85	388.07
669.19	386.47
669.53	384.68
669.87	382.89
670.21	381.15
670.55	379.51
670.89	378.26
671.23	376.80
671.57	375.22
671.91	373.62
672.25	372.04
672.58	370.53
672.92	369.09
673.26	367.68
673.60	366.29
673.94	364.77
674.28	363.42
674.62	362.03
674.96	360.56
675.30	359.23
675.64	357.87
675.97	356.25
676.31	354.82
676.65	353.47
676.99	352.34
677.33	350.87
677.67	349.57
678.01	348.07
678.34	346.68
678.68	345.45
679.02	344.14
679.36	342.80
679.70	341.56
680.04	340.28
680.37	338.99
680.71	337.85
681.05	336.70
681.39	335.47
681.73	334.32
682.06	333.06
682.40	331.85
682.74	330.63
683.08	329.57
683.42	328.28
683.75	327.22
684.09	325.95
684.43	324.88
684.77	323.57
685.10	322.34
685.44	321.12
685.78	319.90
686.12	318.79
686.45	317.77
686.79	316.62
687.13	315.68
687.46	314.55
687.80	313.47
688.14	312.38
688.48	311.38
688.81	310.23
689.15	309.35
689.49	308.28
689.82	307.41
690.16	306.29
690.50	305.30
690.83	304.25
691.17	303.12
691.51	302.13
691.84	301.35
692.18	300.36
692.52	299.57
692.85	298.65
693.19	297.86
693.52	296.94
693.86	296.03
694.20	295.04
694.53	294.23
694.87	293.17
695.21	292.35
695.54	291.45
695.88	290.52
696.21	289.41
696.55	288.51
696.88	287.60
697.22	286.66
697.56	285.96
697.89	285.10
698.23	284.36
698.56	283.49
698.90	282.77
699.23	282.06
699.57	281.19
699.90	280.40
700.24	279.49
700.58	278.72
700.91	278.01
701.25	277.55
701.58	276.90
701.92	276.25
702.25	275.49
702.59	274.76
702.92	274.15
703.26	273.50
703.59	272.88
703.93	272.47
704.26	271.83
704.60	271.14
704.93	270.47
705.26	269.81
705.60	269.18
705.93	268.33
706.27	267.74
706.60	267.30
706.94	266.93
707.27	266.29
707.61	265.74
707.94	265.16
708.27	264.30
708.61	263.59
708.94	262.98
709.28	262.47
709.61	261.90
709.94	261.31
710.28	260.78
710.61	260.31
710.95	259.41
711.28	259.23
711.61	258.66
711.95	258.32
712.28	257.79
712.61	257.32
712.95	257.16
713.28	256.89
713.61	256.28
713.95	255.73
714.28	255.40
714.61	254.91
714.95	254.40
715.28	253.87
715.61	253.42
715.95	253.09
716.28	252.57
716.61	252.17
716.95	251.73
717.28	251.33
717.61	250.90
717.94	250.67
718.28	249.95
718.61	249.57
718.94	249.07
719.27	248.75
719.61	248.36
719.94	247.84
720.27	247.24
720.60	246.85
720.94	246.39
721.27	245.97
721.60	245.68
721.93	245.39
722.27	245.23
722.60	245.04
722.93	244.64
723.26	244.43
723.59	244.13
723.93	243.86
724.26	243.62
724.59	243.29
724.92	242.86
725.25	242.69
725.59	242.37
725.92	242.12
726.25	241.79
726.58	241.56
726.91	241.29
727.24	241.07
727.57	240.84
727.91	240.50
728.24	240.26
728.57	240.00
728.90	239.78
729.23	239.35
729.56	239.15
729.89	238.94
730.22	238.54
730.55	238.29
730.89	238.02
731.22	237.72
731.55	237.49
731.88	237.25
732.21	236.91
732.54	236.58
732.87	236.22
733.20	235.95
733.53	235.62
733.86	235.33
734.19	234.99
734.52	234.75
734.85	234.76
735.18	234.46
735.51	234.26
735.84	234.04
736.17	233.90
736.50	233.53
736.83	233.60
737.16	233.50
737.49	233.19
737.82	232.92
738.15	232.75
738.48	232.49
738.81	232.31
739.14	232.12
739.47	231.94
739.80	231.82
740.13	231.65
740.46	231.42
740.79	231.16
741.12	231.03
741.45	230.78
741.78	230.42
742.11	230.32
742.44	230.03
742.77	229.82
743.10	229.63
743.43	229.37
743.75	228.85
744.08	228.98
744.41	228.83
744.74	228.64
745.07	228.31
745.40	228.20
745.73	228.18
746.06	228.05
746.39	227.92
746.71	227.67
747.04	227.49
747.37	227.24
747.70	227.20
748.03	227.04
748.36	226.95
748.68	226.74
749.01	226.49
749.34	226.30
749.67	226.12
750.00	226.03
750.33	226.19
750.65	226.05
750.98	225.55
751.31	225.41
751.64	225.29
751.97	225.41
752.29	225.26
752.62	224.95
752.95	224.84
753.28	224.63
753.60	224.58
753.93	224.46
754.26	224.47
754.59	224.21
754.91	224.10
755.24	223.94
755.57	223.85
755.90	223.76
756.22	223.70
756.55	223.48
756.88	223.28
757.20	222.91
757.53	222.68
757.86	222.48
758.19	222.41
758.51	222.31
758.84	221.98
759.17	221.78
759.49	221.74
759.82	221.77
760.15	221.76
760.47	221.61
760.80	221.45
761.13	221.40
761.45	221.30
761.78	221.06
762.11	220.95
762.43	220.71
762.76	220.60
763.08	220.45
763.41	220.43
763.74	220.29
764.06	220.16
764.39	220.16
764.71	220.14
765.04	220.00
765.37	219.89
765.69	219.85
766.02	219.80
766.34	219.64
766.67	219.38
767.00	219.30
767.32	219.35
767.65	219.50
767.97	219.32
768.30	219.27
768.62	219.23
768.95	219.17
769.27	219.17
769.60	219.10
769.92	219.01
770.25	218.86
770.57	218.73
770.90	218.72
771.22	218.57
771.55	218.46
771.87	218.43
772.20	218.32
772.52	218.49
772.85	218.91
773.17	218.78
773.50	218.69
773.82	218.56
774.15	218.30
774.47	217.99
774.80	217.91
775.12	217.83
775.45	217.81
775.77	217.68
776.09	217.63
776.42	217.59
776.74	217.60
777.07	217.57
777.39	217.46
777.72	217.39
778.04	217.31
778.36	217.30
778.69	217.22
779.01	217.20
779.33	216.88
779.66	216.29
779.98	216.27
780.31	216.24
780.63	216.28
780.95	216.34
781.28	216.28
781.60	216.20
781.92	216.11
782.25	216.05
782.57	216.04
782.89	216.00
783.22	215.92
783.54	215.86
783.86	215.83
784.19	215.86
784.51	215.89
784.83	215.78
785.16	215.66
785.48	215.60
785.80	215.56
786.12	215.50
786.45	215.49
786.77	215.48
787.09	215.48
787.42	215.44
787.74	215.42
788.06	215.45
788.38	215.38
