SpectraSuite Data File
++++++++++++++++++++++++++++++++++++
Date: Mon Feb 25 16:57:09 EST 2013
User: group
Dark Spectrum Present: No
Reference Spectrum Present: No
Number of Sampled Component Spectra: 1
Spectrometers: USB2E7196
Integration Time (usec): 104000 (USB2E7196)
Spectra Averaged: 20 (USB2E7196)
Boxcar Smoothing: 10 (USB2E7196)
Correct for Electrical Dark: No (USB2E7196)
Strobe/Lamp Enabled: No (USB2E7196)
Correct for Detector Non-linearity: No (USB2E7196)
Correct for Stray Light: No (USB2E7196)
Number of Pixels in Processed Spectrum: 2048
>>>>>Begin Processed Spectral Data<<<<<
339.09	0.00
339.48	197.40
339.86	198.55
340.24	200.55
340.63	202.30
341.01	208.90
341.39	205.55
341.78	206.60
342.16	208.25
342.54	207.30
342.93	197.84
343.31	207.81
343.69	208.40
344.07	208.93
344.46	209.43
344.84	209.84
345.22	209.92
345.60	210.17
345.99	210.41
346.37	210.58
346.75	210.74
347.13	210.82
347.52	210.98
347.90	211.14
348.28	211.17
348.66	211.21
349.05	211.10
349.43	211.21
349.81	211.33
350.19	211.39
350.57	211.49
350.96	211.60
351.34	211.66
351.72	211.84
352.10	211.94
352.48	212.03
352.87	212.19
353.25	212.23
353.63	212.33
354.01	212.39
354.39	212.55
354.77	212.68
355.15	212.82
355.54	212.80
355.92	212.78
356.30	212.91
356.68	213.23
357.06	213.33
357.44	213.34
357.82	213.35
358.20	213.52
358.58	213.55
358.97	213.62
359.35	213.86
359.73	213.92
360.11	214.03
360.49	214.00
360.87	213.97
361.25	214.10
361.63	214.25
362.01	214.31
362.39	214.28
362.77	214.36
363.15	214.36
363.53	214.44
363.91	214.49
364.29	214.48
364.67	214.17
365.05	214.19
365.43	214.23
365.81	214.30
366.19	214.40
366.57	214.59
366.95	214.64
367.33	214.52
367.71	214.53
368.09	214.54
368.47	214.60
368.85	214.59
369.23	214.65
369.61	214.50
369.99	214.62
370.37	214.54
370.75	214.64
371.13	214.57
371.51	214.48
371.89	214.43
372.27	214.43
372.65	214.39
373.03	214.38
373.41	214.29
373.78	214.20
374.16	214.00
374.54	213.83
374.92	213.67
375.30	213.60
375.68	213.44
376.06	213.38
376.44	213.32
376.82	213.27
377.19	213.15
377.57	213.07
377.95	212.83
378.33	212.78
378.71	212.52
379.09	212.50
379.47	212.50
379.84	212.48
380.22	212.40
380.60	212.29
380.98	212.16
381.36	212.17
381.73	212.04
382.11	212.06
382.49	212.04
382.87	211.99
383.25	211.93
383.62	212.29
384.00	212.21
384.38	212.14
384.76	212.19
385.13	212.34
385.51	212.28
385.89	212.24
386.27	212.29
386.64	212.29
387.02	212.23
387.40	212.25
387.78	212.19
388.15	212.14
388.53	212.09
388.91	212.06
389.29	211.95
389.66	211.97
390.04	211.93
390.42	211.95
390.79	211.97
391.17	212.04
391.55	211.66
391.92	211.68
392.30	211.78
392.68	211.66
393.05	211.57
393.43	211.59
393.81	211.63
394.18	211.52
394.56	211.58
394.94	211.62
395.31	211.50
395.69	211.60
396.06	211.66
396.44	211.80
396.82	211.85
397.19	212.07
397.57	212.10
397.95	212.14
398.32	212.07
398.70	212.09
399.07	212.19
399.45	212.20
399.82	212.25
400.20	212.25
400.58	212.35
400.95	212.33
401.33	212.48
401.70	212.82
402.08	213.00
402.45	213.02
402.83	213.27
403.20	213.47
403.58	213.56
403.95	213.81
404.33	213.97
404.71	214.21
405.08	214.66
405.46	214.95
405.83	215.29
406.21	215.58
406.58	216.02
406.96	216.34
407.33	216.75
407.70	217.19
408.08	217.87
408.45	218.43
408.83	219.05
409.20	219.57
409.58	219.91
409.95	220.65
410.33	221.40
410.70	222.00
411.08	222.86
411.45	223.85
411.82	224.71
412.20	225.84
412.57	227.04
412.95	227.84
413.32	229.12
413.69	230.36
414.07	231.73
414.44	233.22
414.82	234.88
415.19	236.74
415.56	238.61
415.94	240.48
416.31	242.78
416.68	244.93
417.06	247.42
417.43	249.90
417.81	252.51
418.18	255.30
418.55	258.30
418.93	261.49
419.30	264.75
419.67	268.33
420.04	271.96
420.42	275.85
420.79	280.42
421.16	284.89
421.54	289.59
421.91	294.38
422.28	299.32
422.66	304.55
423.03	309.87
423.40	315.33
423.77	321.08
424.15	326.89
424.52	333.16
424.89	340.03
425.26	346.63
425.64	352.97
426.01	359.93
426.38	367.23
426.75	374.64
427.13	382.34
427.50	390.24
427.87	398.49
428.24	406.84
428.61	414.79
428.99	423.60
429.36	433.07
429.73	442.65
430.10	452.14
430.47	461.81
430.85	471.85
431.22	482.53
431.59	493.96
431.96	504.66
432.33	516.69
432.70	528.44
433.08	542.33
433.45	555.32
433.82	568.25
434.19	582.74
434.56	596.90
434.93	610.66
435.30	624.56
435.68	639.97
436.05	655.22
436.42	670.49
436.79	684.52
437.16	699.71
437.53	715.50
437.90	731.31
438.27	746.93
438.64	763.38
439.01	778.69
439.38	792.48
439.75	806.14
440.13	821.38
440.50	835.85
440.87	847.75
441.24	860.46
441.61	874.25
441.98	884.81
442.35	897.06
442.72	909.15
443.09	920.95
443.46	928.67
443.83	934.20
444.20	939.15
444.57	945.82
444.94	949.61
445.31	953.61
445.68	957.35
446.05	959.75
446.42	959.61
446.79	959.03
447.16	958.22
447.53	957.90
447.90	953.25
448.27	948.44
448.64	941.42
449.01	936.53
449.37	927.18
449.74	918.21
450.11	906.96
450.48	894.92
450.85	882.41
451.22	871.66
451.59	861.46
451.96	851.80
452.33	838.41
452.70	826.49
453.07	812.07
453.43	797.46
453.80	783.42
454.17	769.56
454.54	756.74
454.91	742.86
455.28	729.24
455.65	716.60
456.02	703.90
456.38	693.30
456.75	679.76
457.12	668.63
457.49	657.45
457.86	646.78
458.23	637.43
458.59	627.26
458.96	617.02
459.33	607.90
459.70	598.70
460.07	591.54
460.43	583.20
460.80	575.35
461.17	568.42
461.54	561.11
461.91	554.31
462.27	547.24
462.64	541.29
463.01	534.81
463.38	528.55
463.74	522.16
464.11	516.43
464.48	511.57
464.85	506.18
465.21	502.08
465.58	497.68
465.95	492.35
466.32	488.07
466.68	483.71
467.05	479.38
467.42	475.07
467.78	470.56
468.15	466.28
468.52	463.14
468.88	459.09
469.25	455.44
469.62	452.25
469.98	448.98
470.35	445.81
470.72	443.00
471.08	439.81
471.45	437.20
471.82	434.41
472.18	431.36
472.55	429.25
472.92	426.59
473.28	424.41
473.65	422.32
474.02	420.18
474.38	418.47
474.75	417.03
475.11	415.37
475.48	414.07
475.85	412.95
476.21	411.82
476.58	410.68
476.94	409.89
477.31	409.21
477.67	408.39
478.04	407.82
478.41	407.28
478.77	407.23
479.14	406.74
479.50	406.83
479.87	406.96
480.23	407.13
480.60	407.08
480.96	407.06
481.33	407.65
481.69	408.10
482.06	408.43
482.42	408.67
482.79	409.08
483.15	409.84
483.52	410.87
483.88	411.59
484.25	412.44
484.61	413.55
484.98	414.51
485.34	415.98
485.71	417.50
486.07	419.04
486.44	420.27
486.80	422.15
487.17	423.92
487.53	426.10
487.90	428.30
488.26	430.78
488.62	433.38
488.99	435.75
489.35	438.35
489.72	441.25
490.08	444.35
490.44	447.46
490.81	450.71
491.17	453.74
491.54	457.51
491.90	461.13
492.26	464.82
492.63	468.93
492.99	472.90
493.36	477.06
493.72	481.53
494.08	486.16
494.45	490.98
494.81	495.85
495.17	500.72
495.54	505.71
495.90	510.90
496.26	516.08
496.63	521.63
496.99	527.36
497.35	533.06
497.72	539.01
498.08	545.09
498.44	551.19
498.80	557.84
499.17	564.22
499.53	571.00
499.89	577.94
500.26	584.45
500.62	591.05
500.98	598.04
501.34	604.92
501.71	612.07
502.07	619.21
502.43	626.28
502.79	633.38
503.16	640.64
503.52	647.95
503.88	655.35
504.24	662.84
504.60	670.02
504.97	677.46
505.33	684.82
505.69	692.78
506.05	700.60
506.41	707.95
506.78	715.14
507.14	722.38
507.50	729.80
507.86	737.23
508.22	744.78
508.59	751.86
508.95	759.22
509.31	766.51
509.67	773.57
510.03	780.96
510.39	788.45
510.75	795.72
511.12	802.83
511.48	810.03
511.84	816.91
512.20	823.84
512.56	831.04
512.92	838.04
513.28	844.63
513.64	850.89
514.00	857.37
514.37	864.06
514.73	870.84
515.09	877.02
515.45	883.51
515.81	889.75
516.17	895.98
516.53	901.84
516.89	907.51
517.25	913.13
517.61	918.56
517.97	923.80
518.33	928.91
518.69	934.17
519.05	939.26
519.41	944.27
519.77	949.70
520.13	954.30
520.49	958.73
520.85	963.20
521.21	968.08
521.57	972.88
521.93	976.87
522.29	981.44
522.65	985.58
523.01	989.88
523.37	993.60
523.73	997.81
524.09	1001.72
524.45	1005.64
524.81	1009.62
525.17	1013.75
525.53	1017.52
525.89	1021.29
526.25	1024.81
526.61	1027.95
526.97	1031.19
527.33	1034.30
527.68	1037.91
528.04	1041.41
528.40	1044.32
528.76	1047.12
529.12	1050.26
529.48	1054.00
529.84	1056.54
530.20	1059.58
530.56	1062.15
530.91	1065.61
531.27	1068.53
531.63	1071.58
531.99	1074.51
532.35	1077.10
532.71	1079.57
533.07	1082.68
533.42	1085.73
533.78	1088.73
534.14	1091.68
534.50	1094.17
534.86	1096.84
535.21	1098.99
535.57	1101.67
535.93	1104.24
536.29	1106.67
536.65	1108.90
537.00	1110.84
537.36	1113.01
537.72	1115.09
538.08	1117.40
538.44	1119.37
538.79	1121.63
539.15	1123.77
539.51	1125.99
539.87	1128.45
540.22	1130.48
540.58	1132.85
540.94	1134.93
541.29	1136.53
541.65	1138.02
542.01	1140.01
542.37	1141.83
542.72	1143.66
543.08	1145.14
543.44	1147.35
543.79	1148.92
544.15	1150.41
544.51	1152.52
544.87	1154.53
545.22	1156.32
545.58	1157.95
545.94	1159.20
546.29	1160.05
546.65	1161.11
547.01	1162.10
547.36	1163.15
547.72	1164.24
548.07	1164.84
548.43	1165.28
548.79	1166.01
549.14	1167.12
549.50	1168.30
549.86	1168.94
550.21	1169.85
550.57	1171.00
550.92	1171.07
551.28	1171.94
551.64	1172.70
551.99	1173.14
552.35	1173.67
552.70	1174.15
553.06	1174.67
553.41	1175.42
553.77	1176.61
554.13	1177.40
554.48	1178.58
554.84	1179.56
555.19	1180.24
555.55	1180.95
555.90	1181.58
556.26	1182.32
556.61	1182.82
556.97	1182.89
557.32	1183.48
557.68	1183.52
558.03	1183.48
558.39	1183.95
558.74	1184.40
559.10	1184.80
559.45	1185.02
559.81	1185.36
560.16	1185.24
560.52	1185.50
560.87	1185.72
561.23	1185.20
561.58	1185.53
561.94	1184.95
562.29	1184.13
562.64	1184.12
563.00	1183.81
563.35	1184.06
563.71	1184.43
564.06	1184.55
564.42	1185.01
564.77	1185.35
565.12	1185.88
565.48	1186.41
565.83	1186.84
566.19	1187.36
566.54	1187.17
566.89	1187.09
567.25	1187.32
567.60	1187.84
567.96	1188.16
568.31	1188.45
568.66	1188.52
569.02	1188.01
569.37	1187.54
569.72	1187.53
570.08	1187.17
570.43	1186.89
570.78	1186.22
571.14	1185.29
571.49	1184.29
571.84	1183.40
572.20	1182.06
572.55	1180.77
572.90	1179.10
573.26	1177.41
573.61	1175.40
573.96	1174.07
574.31	1172.18
574.67	1170.22
575.02	1167.79
575.37	1165.39
575.72	1162.55
576.08	1160.55
576.43	1158.29
576.78	1156.24
577.13	1154.21
577.49	1152.00
577.84	1149.56
578.19	1147.33
578.54	1145.62
578.90	1143.99
579.25	1141.65
579.60	1139.15
579.95	1136.45
580.30	1134.15
580.66	1132.07
581.01	1129.68
581.36	1126.76
581.71	1124.32
582.06	1121.49
582.42	1119.12
582.77	1116.08
583.12	1113.42
583.47	1110.85
583.82	1108.06
584.17	1105.24
584.53	1102.62
584.88	1099.67
585.23	1096.80
585.58	1093.66
585.93	1090.23
586.28	1087.12
586.63	1084.04
586.98	1081.35
587.34	1079.14
587.69	1076.01
588.04	1072.82
588.39	1069.80
588.74	1066.78
589.09	1064.04
589.44	1060.91
589.79	1058.06
590.14	1055.40
590.49	1052.42
590.84	1049.26
591.19	1046.54
591.54	1043.54
591.89	1039.77
592.25	1036.58
592.60	1033.26
592.95	1030.02
593.30	1026.24
593.65	1022.38
594.00	1018.70
594.35	1016.17
594.70	1012.20
595.05	1009.04
595.40	1005.56
595.75	1001.93
596.10	998.75
596.45	995.19
596.80	991.97
597.15	988.54
597.50	984.74
597.85	981.63
598.19	977.98
598.54	974.23
598.89	970.78
599.24	968.07
599.59	964.69
599.94	961.43
600.29	958.00
600.64	954.85
600.99	951.53
601.34	948.67
601.69	944.06
602.04	940.54
602.39	936.97
602.74	933.63
603.08	930.54
603.43	927.41
603.78	923.83
604.13	920.32
604.48	916.93
604.83	914.18
605.18	910.89
605.53	907.52
605.87	904.07
606.22	900.83
606.57	897.01
606.92	893.38
607.27	889.58
607.62	886.06
607.96	882.64
608.31	879.45
608.66	875.64
609.01	872.07
609.36	868.69
609.70	864.92
610.05	861.06
610.40	857.18
610.75	853.10
611.10	849.64
611.44	845.58
611.79	841.68
612.14	837.63
612.49	833.39
612.83	829.46
613.18	825.54
613.53	821.50
613.88	817.41
614.22	813.62
614.57	809.84
614.92	806.09
615.27	802.28
615.61	798.24
615.96	794.52
616.31	791.00
616.65	787.42
617.00	783.67
617.35	780.09
617.70	776.32
618.04	772.45
618.39	768.20
618.74	764.69
619.08	760.79
619.43	756.88
619.78	753.50
620.12	750.02
620.47	746.55
620.82	742.69
621.16	738.76
621.51	734.99
621.85	731.43
622.20	727.64
622.55	723.89
622.89	720.08
623.24	716.30
623.59	712.42
623.93	708.74
624.28	705.34
624.62	702.09
624.97	698.55
625.32	695.02
625.66	691.98
626.01	688.50
626.35	685.20
626.70	681.55
627.04	678.18
627.39	674.79
627.73	671.49
628.08	668.52
628.43	665.39
628.77	662.14
629.12	658.58
629.46	655.59
629.81	652.31
630.15	649.17
630.50	646.02
630.84	642.70
631.19	639.38
631.53	636.17
631.88	632.39
632.22	629.08
632.57	626.30
632.91	623.16
633.26	620.01
633.60	616.86
633.95	614.20
634.29	610.88
634.64	607.88
634.98	604.62
635.32	601.68
635.67	598.94
636.01	596.13
636.36	593.35
636.70	590.45
637.05	587.69
637.39	584.88
637.73	582.08
638.08	579.69
638.42	577.09
638.77	574.55
639.11	572.24
639.45	569.70
639.80	566.68
640.14	563.74
640.49	561.04
640.83	558.42
641.17	555.64
641.52	553.01
641.86	550.23
642.20	547.65
642.55	544.62
642.89	541.77
643.23	538.99
643.58	536.56
643.92	533.72
644.26	531.14
644.61	528.66
644.95	526.07
645.29	523.23
645.64	520.74
645.98	518.02
646.32	515.45
646.66	512.83
647.01	510.45
647.35	508.08
647.69	505.51
648.04	503.04
648.38	500.58
648.72	498.15
649.06	495.56
649.41	493.22
649.75	490.90
650.09	488.64
650.43	486.31
650.78	483.58
651.12	481.10
651.46	478.50
651.80	476.14
652.14	473.82
652.49	471.60
652.83	468.98
653.17	466.45
653.51	463.86
653.85	461.57
654.20	459.22
654.54	456.83
654.88	454.52
655.22	452.28
655.56	449.87
655.90	447.56
656.25	445.39
656.59	443.15
656.93	440.99
657.27	438.80
657.61	436.44
657.95	434.54
658.29	432.35
658.64	430.43
658.98	428.17
659.32	425.94
659.66	423.86
660.00	421.74
660.34	419.71
660.68	417.76
661.02	415.55
661.36	413.57
661.70	411.57
662.05	409.63
662.39	407.69
662.73	406.02
663.07	404.46
663.41	402.72
663.75	400.76
664.09	398.95
664.43	397.10
664.77	395.39
665.11	393.55
665.45	391.90
665.79	390.25
666.13	388.57
666.47	386.89
666.81	385.11
667.15	383.49
667.49	381.96
667.83	380.45
668.17	379.01
668.51	377.48
668.85	376.14
669.19	374.75
669.53	373.20
669.87	371.56
670.21	369.80
670.55	368.26
670.89	367.08
671.23	365.71
671.57	364.34
671.91	362.94
672.25	361.56
672.58	360.34
672.92	358.77
673.26	357.46
673.60	356.18
673.94	354.86
674.28	353.61
674.62	352.41
674.96	351.06
675.30	349.87
675.64	348.60
675.97	347.29
676.31	346.08
676.65	344.70
676.99	343.60
677.33	342.37
677.67	341.16
678.01	339.72
678.34	338.42
678.68	337.23
679.02	335.91
679.36	334.71
679.70	333.45
680.04	332.39
680.37	331.25
680.71	330.00
681.05	328.89
681.39	327.73
681.73	326.57
682.06	325.48
682.40	324.29
682.74	323.21
683.08	322.13
683.42	320.90
683.75	319.99
684.09	318.76
684.43	317.76
684.77	316.63
685.10	315.58
685.44	314.56
685.78	313.44
686.12	312.54
686.45	311.53
686.79	310.48
687.13	309.55
687.46	308.51
687.80	307.69
688.14	306.78
688.48	305.96
688.81	304.98
689.15	304.08
689.49	303.21
689.82	302.26
690.16	301.13
690.50	300.16
690.83	299.22
691.17	298.25
691.51	297.26
691.84	296.37
692.18	295.50
692.52	294.61
692.85	293.82
693.19	293.10
693.52	292.24
693.86	291.37
694.20	290.55
694.53	289.79
694.87	288.95
695.21	288.09
695.54	287.07
695.88	286.17
696.21	285.28
696.55	284.42
696.88	283.54
697.22	282.77
697.56	282.14
697.89	281.32
698.23	280.63
698.56	279.86
698.90	279.10
699.23	278.29
699.57	277.53
699.90	276.82
700.24	276.00
700.58	275.32
700.91	274.63
701.25	274.19
701.58	273.58
701.92	272.86
702.25	272.19
702.59	271.57
702.92	270.90
703.26	270.11
703.59	269.50
703.93	269.15
704.26	268.57
704.60	267.84
704.93	267.12
705.26	266.45
705.60	265.91
705.93	265.28
706.27	264.91
706.60	264.45
706.94	264.05
707.27	263.43
707.61	262.85
707.94	262.27
708.27	261.32
708.61	260.69
708.94	260.15
709.28	259.61
709.61	259.01
709.94	258.58
710.28	258.23
710.61	257.79
710.95	257.05
711.28	256.83
711.61	256.40
711.95	256.14
712.28	255.66
712.61	255.17
712.95	254.94
713.28	254.48
713.61	253.93
713.95	253.26
714.28	252.84
714.61	252.37
714.95	251.95
715.28	251.53
715.61	251.02
715.95	250.62
716.28	250.11
716.61	249.74
716.95	249.14
717.28	248.74
717.61	248.30
717.94	247.87
718.28	247.25
718.61	246.86
718.94	246.36
719.27	245.98
719.61	245.70
719.94	245.24
720.27	244.82
720.60	244.45
720.94	244.16
721.27	243.87
721.60	243.63
721.93	243.38
722.27	243.22
722.60	243.04
722.93	242.66
723.26	242.48
723.59	242.20
723.93	242.12
724.26	241.78
724.59	241.45
724.92	241.24
725.25	240.98
725.59	240.69
725.92	240.38
726.25	240.05
726.58	239.78
726.91	239.46
727.24	239.15
727.57	238.89
727.91	238.48
728.24	238.28
728.57	237.96
728.90	237.64
729.23	237.23
729.56	237.09
729.89	236.88
730.22	236.55
730.55	236.29
730.89	235.88
731.22	235.59
731.55	235.34
731.88	234.98
732.21	234.71
732.54	234.42
732.87	234.28
733.20	234.13
733.53	233.83
733.86	233.65
734.19	233.35
734.52	233.14
734.85	233.32
735.18	232.96
735.51	232.82
735.84	232.59
736.17	232.51
736.50	232.09
736.83	232.23
737.16	232.03
737.49	231.80
737.82	231.58
738.15	231.47
738.48	231.30
738.81	231.16
739.14	230.97
739.47	230.84
739.80	230.63
740.13	230.45
740.46	230.30
740.79	230.03
741.12	229.82
741.45	229.57
741.78	229.17
742.11	229.15
742.44	228.94
742.77	228.82
743.10	228.50
743.43	228.29
743.75	227.83
744.08	228.07
744.41	227.83
744.74	227.64
745.07	227.37
745.40	227.24
745.73	227.15
746.06	226.98
746.39	226.75
746.71	226.52
747.04	226.24
747.37	226.07
747.70	225.95
748.03	225.80
748.36	225.70
748.68	225.46
749.01	225.26
749.34	225.10
749.67	224.96
750.00	224.88
750.33	225.07
750.65	224.94
750.98	224.46
751.31	224.37
751.64	224.32
751.97	224.38
752.29	224.26
752.62	224.08
752.95	223.90
753.28	223.70
753.60	223.59
753.93	223.60
754.26	223.43
754.59	223.20
754.91	223.09
755.24	222.96
755.57	222.86
755.90	222.66
756.22	222.55
756.55	222.40
756.88	222.30
757.20	221.90
757.53	221.70
757.86	221.48
758.19	221.45
758.51	221.29
758.84	221.05
759.17	220.92
759.49	220.86
759.82	220.93
760.15	220.93
760.47	220.77
760.80	220.61
761.13	220.62
761.45	220.61
761.78	220.48
762.11	220.44
762.43	220.31
762.76	220.18
763.08	220.14
763.41	220.08
763.74	220.02
764.06	219.90
764.39	219.76
764.71	219.70
765.04	219.60
765.37	219.49
765.69	219.40
766.02	219.28
766.34	219.11
766.67	218.87
767.00	218.87
767.32	219.02
767.65	219.13
767.97	218.95
768.30	218.85
768.62	218.86
768.95	218.74
769.27	218.66
769.60	218.67
769.92	218.51
770.25	218.34
770.57	218.23
770.90	218.22
771.22	218.14
771.55	218.05
771.87	217.98
772.20	217.84
772.52	218.00
772.85	218.35
773.17	218.28
773.50	218.25
773.82	218.03
774.15	217.69
774.47	217.41
774.80	217.39
775.12	217.32
775.45	217.24
775.77	217.17
776.09	217.16
776.42	217.10
776.74	217.18
777.07	217.16
777.39	217.08
777.72	216.94
778.04	216.90
778.36	216.86
778.69	216.77
779.01	216.92
779.33	216.59
779.66	216.12
779.98	216.07
780.31	215.98
780.63	216.13
780.95	216.29
781.28	216.24
781.60	216.21
781.92	216.19
782.25	216.03
782.57	216.03
782.89	215.99
783.22	215.88
783.54	215.66
783.86	215.60
784.19	215.54
784.51	215.56
784.83	215.58
785.16	215.51
785.48	215.43
785.80	215.26
786.12	215.26
786.45	215.21
786.77	215.19
787.09	215.16
787.42	215.05
787.74	214.97
788.06	215.03
788.38	214.89
788.71	214.78
789.03	214.82
789.35	214.81
789.67	214.71
789.99	214.73
