SpectraSuite Data File
++++++++++++++++++++++++++++++++++++
Date: Mon Feb 25 17:19:53 EST 2013
User: group
Dark Spectrum Present: No
Reference Spectrum Present: No
Number of Sampled Component Spectra: 1
Spectrometers: USB2E7196
Integration Time (usec): 104000 (USB2E7196)
Spectra Averaged: 20 (USB2E7196)
Boxcar Smoothing: 10 (USB2E7196)
Correct for Electrical Dark: No (USB2E7196)
Strobe/Lamp Enabled: No (USB2E7196)
Correct for Detector Non-linearity: No (USB2E7196)
Correct for Stray Light: No (USB2E7196)
Number of Pixels in Processed Spectrum: 2048
>>>>>Begin Processed Spectral Data<<<<<
339.09	0.00
339.48	198.15
339.86	199.75
340.24	201.80
340.63	202.85
341.01	208.95
341.39	205.75
341.78	207.80
342.16	210.05
342.54	207.70
342.93	198.26
343.31	208.30
343.69	208.84
344.07	209.28
344.46	209.75
344.84	210.19
345.22	210.30
345.60	210.61
345.99	210.82
346.37	210.97
346.75	211.15
347.13	211.25
347.52	211.34
347.90	211.65
348.28	211.68
348.66	211.80
349.05	211.83
349.43	211.84
349.81	211.94
350.19	212.03
350.57	212.18
350.96	212.33
351.34	212.45
351.72	212.62
352.10	212.82
352.48	212.83
352.87	212.92
353.25	212.97
353.63	213.00
354.01	213.03
354.39	213.08
354.77	213.12
355.15	213.28
355.54	213.38
355.92	213.24
356.30	213.35
356.68	213.67
357.06	213.71
357.44	213.76
357.82	213.83
358.20	213.96
358.58	214.01
358.97	214.02
359.35	214.25
359.73	214.37
360.11	214.45
360.49	214.63
360.87	214.66
361.25	214.80
361.63	215.03
362.01	215.19
362.39	215.26
362.77	215.42
363.15	215.41
363.53	215.42
363.91	215.56
364.29	215.58
364.67	215.25
365.05	215.28
365.43	215.38
365.81	215.39
366.19	215.52
366.57	215.66
366.95	215.75
367.33	215.53
367.71	215.56
368.09	215.63
368.47	215.59
368.85	215.58
369.23	215.61
369.61	215.49
369.99	215.54
370.37	215.55
370.75	215.68
371.13	215.60
371.51	215.65
371.89	215.62
372.27	215.61
372.65	215.67
373.03	215.67
373.41	215.65
373.78	215.68
374.16	215.46
374.54	215.34
374.92	215.25
375.30	215.26
375.68	215.17
376.06	215.07
376.44	214.98
376.82	215.00
377.19	214.98
377.57	214.86
377.95	214.66
378.33	214.61
378.71	214.37
379.09	214.40
379.47	214.41
379.84	214.26
380.22	214.23
380.60	214.13
380.98	214.02
381.36	213.94
381.73	213.85
382.11	213.91
382.49	213.88
382.87	213.82
383.25	213.84
383.62	214.12
384.00	214.10
384.38	214.09
384.76	214.03
385.13	214.08
385.51	214.06
385.89	214.05
386.27	214.00
386.64	213.99
387.02	213.90
387.40	213.79
387.78	213.85
388.15	213.84
388.53	213.80
388.91	213.78
389.29	213.73
389.66	213.69
390.04	213.63
390.42	213.68
390.79	213.65
391.17	213.58
391.55	213.21
391.92	213.20
392.30	213.25
392.68	213.23
393.05	213.17
393.43	213.18
393.81	213.17
394.18	213.08
394.56	213.09
394.94	213.18
395.31	213.14
395.69	213.24
396.06	213.29
396.44	213.28
396.82	213.36
397.19	213.54
397.57	213.52
397.95	213.64
398.32	213.49
398.70	213.63
399.07	213.72
399.45	213.77
399.82	213.78
400.20	213.85
400.58	213.85
400.95	213.89
401.33	213.98
401.70	214.33
402.08	214.43
402.45	214.51
402.83	214.67
403.20	214.83
403.58	214.93
403.95	215.04
404.33	215.24
404.71	215.39
405.08	215.70
405.46	215.87
405.83	216.02
406.21	216.28
406.58	216.44
406.96	216.59
407.33	216.83
407.70	217.10
408.08	217.57
408.45	218.02
408.83	218.39
409.20	218.76
409.58	218.89
409.95	219.35
410.33	219.82
410.70	220.17
411.08	220.71
411.45	221.19
411.82	221.68
412.20	222.38
412.57	223.07
412.95	223.41
413.32	224.25
413.69	224.96
414.07	225.72
414.44	226.61
414.82	227.59
415.19	228.69
415.56	229.84
415.94	230.83
416.31	231.95
416.68	233.20
417.06	234.65
417.43	236.06
417.81	237.61
418.18	239.27
418.55	241.03
418.93	242.75
419.30	244.72
419.67	246.75
420.04	248.77
420.42	250.91
420.79	253.66
421.16	256.02
421.54	258.73
421.91	261.46
422.28	264.20
422.66	267.17
423.03	270.16
423.40	273.10
423.77	276.27
424.15	279.50
424.52	282.75
424.89	286.40
425.26	289.97
425.64	293.26
426.01	296.80
426.38	300.63
426.75	304.62
427.13	308.55
427.50	312.73
427.87	317.12
428.24	321.54
428.61	325.55
428.99	330.38
429.36	335.25
429.73	340.18
430.10	345.04
430.47	350.01
430.85	355.12
431.22	360.69
431.59	366.65
431.96	372.19
432.33	378.51
432.70	384.37
433.08	391.30
433.45	397.97
433.82	404.61
434.19	411.96
434.56	419.10
434.93	425.99
435.30	432.86
435.68	440.30
436.05	447.66
436.42	455.05
436.79	461.73
437.16	469.00
437.53	476.74
437.90	484.43
438.27	491.97
438.64	499.65
439.01	506.81
439.38	513.10
439.75	519.43
440.13	526.21
440.50	532.91
440.87	538.27
441.24	543.88
441.61	549.97
441.98	554.52
442.35	559.75
442.72	565.05
443.09	570.22
443.46	573.42
443.83	575.67
444.20	577.41
444.57	579.91
444.94	581.23
445.31	582.42
445.68	583.72
446.05	584.16
446.42	583.34
446.79	582.31
447.16	581.03
447.53	580.22
447.90	577.46
448.27	574.51
448.64	570.55
449.01	567.62
449.37	562.48
449.74	557.24
450.11	551.31
450.48	544.84
450.85	538.24
451.22	532.51
451.59	527.00
451.96	521.90
452.33	515.15
452.70	508.85
453.07	501.44
453.43	493.82
453.80	486.56
454.17	479.79
454.54	473.35
454.91	466.55
455.28	459.74
455.65	453.30
456.02	447.29
456.38	441.93
456.75	435.36
457.12	429.90
457.49	424.69
457.86	419.36
458.23	414.90
458.59	409.91
458.96	404.83
459.33	400.37
459.70	395.82
460.07	392.30
460.43	388.25
460.80	384.48
461.17	381.19
461.54	377.80
461.91	374.40
462.27	370.94
462.64	367.99
463.01	364.87
463.38	361.95
463.74	358.58
464.11	355.89
464.48	353.50
464.85	350.90
465.21	349.02
465.58	347.12
465.95	344.68
466.32	342.67
466.68	340.82
467.05	338.95
467.42	336.97
467.78	334.90
468.15	332.95
468.52	331.55
468.88	329.64
469.25	327.97
469.62	326.79
469.98	325.41
470.35	324.23
470.72	323.05
471.08	321.71
471.45	320.74
471.82	319.77
472.18	318.49
472.55	317.75
472.92	316.70
473.28	315.83
473.65	315.01
474.02	314.19
474.38	313.64
474.75	313.19
475.11	312.78
475.48	312.50
475.85	312.30
476.21	312.15
476.58	312.08
476.94	312.15
477.31	312.05
477.67	312.08
478.04	312.27
478.41	312.62
478.77	313.32
479.14	313.56
479.50	313.94
479.87	314.61
480.23	315.29
480.60	315.87
480.96	316.60
481.33	317.61
481.69	318.57
482.06	319.46
482.42	320.46
482.79	321.62
483.15	322.88
483.52	324.42
483.88	325.82
484.25	327.31
484.61	328.91
484.98	330.53
485.34	332.57
485.71	334.64
486.07	336.77
486.44	338.57
486.80	340.95
487.17	343.54
487.53	346.35
487.90	349.27
488.26	352.42
488.62	355.70
488.99	359.09
489.35	362.68
489.72	366.47
490.08	370.45
490.44	374.50
490.81	379.01
491.17	383.50
491.54	388.29
491.90	393.33
492.26	398.64
492.63	404.34
492.99	410.07
493.36	416.10
493.72	422.43
494.08	429.32
494.45	436.47
494.81	444.04
495.17	451.63
495.54	459.60
495.90	467.84
496.26	476.43
496.63	485.40
496.99	494.79
497.35	504.55
497.72	514.82
498.08	525.49
498.44	536.30
498.80	547.90
499.17	559.90
499.53	572.28
499.89	585.22
500.26	598.32
500.62	611.84
500.98	626.25
501.34	640.89
501.71	656.13
502.07	671.74
502.43	687.69
502.79	703.93
503.16	721.06
503.52	738.67
503.88	756.90
504.24	775.32
504.60	794.46
504.97	814.20
505.33	834.16
505.69	855.31
506.05	877.01
506.41	898.78
506.78	920.70
507.14	943.19
507.50	966.40
507.86	990.12
508.22	1014.79
508.59	1039.11
508.95	1064.50
509.31	1090.23
509.67	1116.50
510.03	1143.22
510.39	1171.04
510.75	1198.97
511.12	1227.36
511.48	1255.81
511.84	1285.07
512.20	1314.04
512.56	1343.87
512.92	1374.35
513.28	1404.81
513.64	1435.34
514.00	1466.18
514.37	1497.51
514.73	1529.55
515.09	1561.22
515.45	1593.18
515.81	1624.84
516.17	1657.42
516.53	1689.61
516.89	1721.93
517.25	1754.28
517.61	1786.96
517.97	1819.32
518.33	1851.53
518.69	1883.92
519.05	1917.07
519.41	1949.99
519.77	1983.90
520.13	2016.78
520.49	2049.11
520.85	2081.94
521.21	2115.10
521.57	2148.55
521.93	2180.87
522.29	2214.07
522.65	2247.50
523.01	2280.06
523.37	2312.16
523.73	2344.70
524.09	2377.01
524.45	2409.69
524.81	2442.17
525.17	2474.88
525.53	2507.28
525.89	2539.65
526.25	2571.77
526.61	2602.20
526.97	2632.87
527.33	2663.00
527.68	2693.72
528.04	2723.60
528.40	2752.43
528.76	2781.34
529.12	2810.56
529.48	2841.14
529.84	2869.46
530.20	2897.50
530.56	2926.08
530.91	2955.92
531.27	2984.35
531.63	3012.23
531.99	3039.43
532.35	3065.70
532.71	3091.22
533.07	3117.64
533.42	3142.22
533.78	3167.52
534.14	3192.42
534.50	3216.04
534.86	3240.45
535.21	3263.14
535.57	3287.60
535.93	3310.72
536.29	3332.68
536.65	3354.73
537.00	3375.20
537.36	3395.30
537.72	3415.05
538.08	3434.75
538.44	3453.60
538.79	3472.65
539.15	3491.18
539.51	3509.36
539.87	3528.50
540.22	3546.24
540.58	3564.60
540.94	3582.40
541.29	3598.08
541.65	3613.09
542.01	3628.84
542.37	3643.03
542.72	3658.10
543.08	3671.21
543.44	3685.52
543.79	3698.46
544.15	3709.73
544.51	3722.35
544.87	3735.33
545.22	3746.75
545.58	3757.08
545.94	3765.60
546.29	3773.30
546.65	3780.95
547.01	3788.55
547.36	3795.56
547.72	3802.41
548.07	3807.07
548.43	3812.02
548.79	3816.64
549.14	3822.14
549.50	3826.79
549.86	3830.31
550.21	3833.10
550.57	3836.75
550.92	3838.13
551.28	3840.23
551.64	3842.84
551.99	3845.19
552.35	3845.99
552.70	3847.15
553.06	3848.19
553.41	3849.66
553.77	3850.62
554.13	3851.19
554.48	3851.48
554.84	3851.73
555.19	3851.30
555.55	3849.87
555.90	3848.08
556.26	3846.71
556.61	3844.63
556.97	3841.45
557.32	3839.79
557.68	3835.97
558.03	3832.52
558.39	3829.74
558.74	3827.83
559.10	3824.70
559.45	3820.09
559.81	3817.04
560.16	3812.53
560.52	3809.05
560.87	3804.50
561.23	3799.16
561.58	3794.88
561.94	3789.13
562.29	3782.39
562.64	3777.15
563.00	3772.11
563.35	3768.00
563.71	3763.69
564.06	3758.62
564.42	3754.37
564.77	3749.87
565.12	3746.29
565.48	3740.92
565.83	3735.98
566.19	3730.63
566.54	3724.00
566.89	3717.42
567.25	3711.03
567.60	3705.01
567.96	3697.72
568.31	3691.27
568.66	3684.10
569.02	3675.96
569.37	3667.56
569.72	3660.05
570.08	3651.62
570.43	3642.68
570.78	3633.53
571.14	3623.74
571.49	3614.05
571.84	3605.16
572.20	3593.93
572.55	3584.30
572.90	3573.34
573.26	3561.93
573.61	3550.39
573.96	3539.61
574.31	3527.94
574.67	3515.27
575.02	3502.42
575.37	3490.09
575.72	3476.82
576.08	3465.46
576.43	3452.86
576.78	3441.48
577.13	3430.26
577.49	3418.28
577.84	3406.27
578.19	3394.79
578.54	3384.12
578.90	3373.62
579.25	3361.02
579.60	3348.32
579.95	3334.57
580.30	3323.38
580.66	3312.05
581.01	3299.21
581.36	3286.25
581.71	3273.94
582.06	3261.98
582.42	3250.36
582.77	3237.26
583.12	3225.24
583.47	3213.46
583.82	3202.90
584.17	3191.01
584.53	3178.63
584.88	3166.21
585.23	3154.23
585.58	3141.45
585.93	3127.85
586.28	3115.29
586.63	3102.86
586.98	3091.48
587.34	3080.75
587.69	3068.15
588.04	3055.95
588.39	3044.45
588.74	3032.16
589.09	3020.88
589.44	3008.21
589.79	2996.54
590.14	2985.96
590.49	2974.17
590.84	2962.01
591.19	2950.77
591.54	2938.54
591.89	2924.91
592.25	2912.70
592.60	2900.09
592.95	2887.30
593.30	2874.14
593.65	2860.53
594.00	2848.08
594.35	2836.92
594.70	2824.48
595.05	2812.53
595.40	2800.45
595.75	2787.34
596.10	2776.26
596.45	2764.69
596.80	2754.28
597.15	2743.02
597.50	2730.84
597.85	2719.53
598.19	2707.42
598.54	2695.25
598.89	2684.57
599.24	2675.14
599.59	2664.39
599.94	2654.92
600.29	2644.61
600.64	2634.55
600.99	2623.42
601.34	2613.15
601.69	2600.94
602.04	2589.23
602.39	2578.09
602.74	2567.42
603.08	2558.20
603.43	2548.35
603.78	2537.55
604.13	2526.62
604.48	2515.88
604.83	2507.04
605.18	2498.00
605.53	2487.65
605.87	2476.75
606.22	2466.63
606.57	2455.51
606.92	2444.98
607.27	2433.16
607.62	2422.17
607.96	2412.30
608.31	2403.40
608.66	2392.22
609.01	2380.95
609.36	2370.08
609.70	2358.41
610.05	2346.97
610.40	2335.34
610.75	2323.21
611.10	2312.35
611.44	2299.46
611.79	2287.08
612.14	2273.62
612.49	2259.92
612.83	2248.15
613.18	2235.44
613.53	2222.48
613.88	2209.64
614.22	2197.41
614.57	2184.95
614.92	2172.87
615.27	2159.70
615.61	2146.63
615.96	2134.71
616.31	2123.92
616.65	2112.84
617.00	2102.02
617.35	2090.02
617.70	2077.72
618.04	2065.29
618.39	2052.07
618.74	2040.70
619.08	2028.77
619.43	2017.29
619.78	2006.29
620.12	1994.43
620.47	1983.47
620.82	1971.39
621.16	1959.28
621.51	1947.16
621.85	1936.14
622.20	1924.12
622.55	1912.50
622.89	1900.86
623.24	1889.31
623.59	1877.19
623.93	1865.65
624.28	1854.18
624.62	1843.12
624.97	1831.95
625.32	1821.35
625.66	1811.18
626.01	1800.47
626.35	1790.19
626.70	1779.44
627.04	1768.99
627.39	1758.86
627.73	1748.14
628.08	1738.31
628.43	1727.85
628.77	1717.30
629.12	1706.30
629.46	1696.94
629.81	1686.97
630.15	1676.72
630.50	1666.32
630.84	1655.58
631.19	1645.11
631.53	1634.84
631.88	1623.95
632.22	1613.37
632.57	1603.07
632.91	1592.41
633.26	1582.15
633.60	1571.89
633.95	1561.97
634.29	1551.40
634.64	1541.48
634.98	1531.01
635.32	1520.96
635.67	1512.20
636.01	1502.97
636.36	1493.21
636.70	1483.48
637.05	1473.85
637.39	1464.79
637.73	1455.67
638.08	1447.61
638.42	1439.02
638.77	1429.98
639.11	1421.17
639.45	1412.15
639.80	1402.65
640.14	1393.26
640.49	1384.31
640.83	1375.00
641.17	1365.93
641.52	1356.63
641.86	1346.90
642.20	1337.83
642.55	1327.95
642.89	1318.08
643.23	1308.29
643.58	1299.55
643.92	1289.79
644.26	1280.47
644.61	1271.11
644.95	1261.77
645.29	1252.06
645.64	1242.30
645.98	1233.13
646.32	1224.30
646.66	1215.34
647.01	1206.63
647.35	1198.09
647.69	1188.58
648.04	1179.79
648.38	1170.51
648.72	1161.53
649.06	1152.80
649.41	1143.90
649.75	1135.33
650.09	1126.94
650.43	1118.37
650.78	1109.46
651.12	1100.70
651.46	1092.18
651.80	1083.64
652.14	1075.33
652.49	1066.86
652.83	1058.40
653.17	1049.26
653.51	1040.45
653.85	1032.10
654.20	1023.53
654.54	1014.70
654.88	1006.71
655.22	998.29
655.56	990.01
655.90	982.00
656.25	973.65
656.59	965.70
656.93	958.00
657.27	950.00
657.61	941.94
657.95	934.18
658.29	926.64
658.64	919.09
658.98	911.15
659.32	903.05
659.66	895.64
660.00	888.05
660.34	880.90
660.68	873.59
661.02	865.97
661.36	858.91
661.70	852.15
662.05	845.28
662.39	838.89
662.73	832.36
663.07	825.85
663.41	819.70
663.75	813.19
664.09	806.46
664.43	799.74
664.77	793.48
665.11	786.99
665.45	780.74
665.79	774.46
666.13	768.55
666.47	762.52
666.81	756.45
667.15	750.41
667.49	744.55
667.83	738.83
668.17	733.36
668.51	728.03
668.85	722.65
669.19	717.35
669.53	711.56
669.87	705.93
670.21	700.46
670.55	694.85
670.89	689.93
671.23	685.21
671.57	680.19
671.91	675.29
672.25	670.29
672.58	665.22
672.92	660.37
673.26	655.57
673.60	651.11
673.94	646.38
674.28	641.88
674.62	637.44
674.96	632.92
675.30	628.46
675.64	623.72
675.97	619.11
676.31	614.77
676.65	610.63
676.99	606.79
677.33	602.50
677.67	598.29
678.01	593.81
678.34	589.48
678.68	585.45
679.02	581.15
679.36	577.20
679.70	573.32
680.04	569.32
680.37	565.34
680.71	561.27
681.05	557.51
681.39	553.49
681.73	549.73
682.06	546.20
682.40	542.65
682.74	538.97
683.08	535.26
683.42	531.30
683.75	527.60
684.09	523.65
684.43	520.10
684.77	516.44
685.10	512.87
685.44	509.18
685.78	505.74
686.12	502.66
686.45	499.19
686.79	495.82
687.13	492.69
687.46	489.57
687.80	486.40
688.14	483.02
688.48	479.99
688.81	476.71
689.15	473.41
689.49	470.04
689.82	466.95
690.16	463.59
690.50	460.41
690.83	457.26
691.17	454.16
691.51	451.08
691.84	448.26
692.18	445.49
692.52	442.81
692.85	440.21
693.19	437.45
693.52	434.74
693.86	431.93
694.20	429.07
694.53	426.26
694.87	423.53
695.21	420.85
695.54	418.16
695.88	415.40
696.21	412.79
696.55	410.37
696.88	407.82
697.22	405.58
697.56	403.48
697.89	401.02
698.23	398.58
698.56	396.29
698.90	394.06
699.23	391.64
699.57	389.33
699.90	386.86
700.24	384.48
700.58	382.26
700.91	380.15
701.25	378.29
701.58	376.18
701.92	374.10
702.25	372.08
702.59	370.12
702.92	368.21
703.26	366.28
703.59	364.30
703.93	362.75
704.26	360.73
704.60	358.68
704.93	356.81
705.26	354.94
705.60	353.22
705.93	351.31
706.27	349.70
706.60	348.15
706.94	346.65
707.27	344.91
707.61	343.30
707.94	341.55
708.27	339.67
708.61	338.04
708.94	336.50
709.28	334.90
709.61	333.30
709.94	331.93
710.28	330.37
710.61	329.02
710.95	327.13
711.28	326.02
711.61	324.62
711.95	323.38
712.28	322.11
712.61	320.75
712.95	319.60
713.28	318.38
713.61	317.06
713.95	315.64
714.28	314.44
714.61	313.15
714.95	312.00
715.28	310.74
715.61	309.45
715.95	308.26
716.28	307.05
716.61	305.88
716.95	304.58
717.28	303.45
717.61	302.38
717.94	301.35
718.28	299.97
718.61	298.89
718.94	297.80
719.27	296.82
719.61	295.75
719.94	294.67
720.27	293.53
720.60	292.39
720.94	291.53
721.27	290.55
721.60	289.74
721.93	288.83
722.27	288.01
722.60	287.26
722.93	286.40
723.26	285.67
723.59	284.81
723.93	284.07
724.26	283.32
724.59	282.40
724.92	281.71
725.25	281.10
725.59	280.35
725.92	279.64
726.25	278.87
726.58	278.27
726.91	277.54
727.24	276.92
727.57	276.17
727.91	275.20
728.24	274.60
728.57	273.87
728.90	273.29
729.23	272.50
729.56	272.00
729.89	271.25
730.22	270.50
730.55	269.79
730.89	269.12
731.22	268.42
731.55	267.86
731.88	267.24
732.21	266.57
732.54	265.91
732.87	265.29
733.20	264.67
733.53	263.98
733.86	263.39
734.19	262.62
734.52	262.20
734.85	261.97
735.18	261.31
735.51	260.74
735.84	260.15
736.17	259.80
736.50	259.00
736.83	258.88
737.16	258.42
737.49	257.91
737.82	257.39
738.15	256.92
738.48	256.30
738.81	255.71
739.14	255.15
739.47	254.63
739.80	254.15
740.13	253.68
740.46	253.14
740.79	252.58
741.12	252.19
741.45	251.68
741.78	251.02
742.11	250.60
742.44	250.08
742.77	249.70
743.10	249.17
743.43	248.70
743.75	247.93
744.08	247.91
744.41	247.56
744.74	247.08
745.07	246.58
745.40	246.27
745.73	246.04
746.06	245.69
746.39	245.29
746.71	244.77
747.04	244.34
747.37	243.95
747.70	243.64
748.03	243.22
748.36	242.91
748.68	242.55
749.01	242.14
749.34	241.86
749.67	241.52
750.00	241.16
750.33	241.08
750.65	240.78
750.98	240.00
751.31	239.59
751.64	239.30
751.97	239.19
752.29	238.82
752.62	238.30
752.95	237.93
753.28	237.66
753.60	237.41
753.93	237.25
754.26	236.99
754.59	236.66
754.91	236.38
755.24	236.06
755.57	235.74
755.90	235.46
756.22	235.14
756.55	234.80
756.88	234.50
757.20	233.96
757.53	233.51
757.86	233.26
758.19	233.04
758.51	232.80
758.84	232.38
759.17	232.08
759.49	231.88
759.82	231.81
760.15	231.60
760.47	231.36
760.80	230.90
761.13	230.69
761.45	230.36
761.78	230.14
762.11	229.87
762.43	229.61
762.76	229.35
763.08	229.17
763.41	228.96
763.74	228.83
764.06	228.70
764.39	228.54
764.71	228.37
765.04	228.07
765.37	227.89
765.69	227.68
766.02	227.48
766.34	227.24
766.67	226.90
767.00	226.68
767.32	226.62
767.65	226.70
767.97	226.49
768.30	226.37
768.62	226.18
768.95	226.00
769.27	225.87
769.60	225.79
769.92	225.62
770.25	225.41
770.57	225.11
770.90	224.96
771.22	224.76
771.55	224.56
771.87	224.50
772.20	224.24
772.52	224.43
772.85	224.70
773.17	224.60
773.50	224.48
773.82	224.39
774.15	224.11
774.47	223.80
774.80	223.68
775.12	223.50
775.45	223.38
775.77	223.23
776.09	223.14
776.42	223.02
776.74	222.90
777.07	222.68
777.39	222.57
777.72	222.40
778.04	222.37
778.36	222.22
778.69	222.13
779.01	222.10
779.33	221.65
779.66	221.15
779.98	221.02
780.31	220.91
780.63	220.89
780.95	220.84
781.28	220.79
781.60	220.67
781.92	220.57
782.25	220.50
782.57	220.39
782.89	220.26
783.22	220.10
783.54	219.95
783.86	219.92
784.19	219.82
784.51	219.81
784.83	219.71
785.16	219.62
