SpectraSuite Data File
++++++++++++++++++++++++++++++++++++
Date: Mon Feb 25 17:12:08 EST 2013
User: group
Dark Spectrum Present: No
Reference Spectrum Present: No
Number of Sampled Component Spectra: 1
Spectrometers: USB2E7196
Integration Time (usec): 104000 (USB2E7196)
Spectra Averaged: 20 (USB2E7196)
Boxcar Smoothing: 10 (USB2E7196)
Correct for Electrical Dark: No (USB2E7196)
Strobe/Lamp Enabled: No (USB2E7196)
Correct for Detector Non-linearity: No (USB2E7196)
Correct for Stray Light: No (USB2E7196)
Number of Pixels in Processed Spectrum: 2048
>>>>>Begin Processed Spectral Data<<<<<
339.09	0.00
339.48	198.90
339.86	199.95
340.24	201.05
340.63	203.15
341.01	209.00
341.39	205.00
341.78	206.55
342.16	208.75
342.54	209.05
342.93	198.15
343.31	208.15
343.69	208.64
344.07	209.08
344.46	209.56
344.84	210.00
345.22	210.00
345.60	210.28
345.99	210.52
346.37	210.65
346.75	210.71
347.13	210.78
347.52	210.79
347.90	210.95
348.28	210.86
348.66	210.91
349.05	210.76
349.43	210.78
349.81	210.84
350.19	210.85
350.57	210.90
350.96	210.96
351.34	211.08
351.72	211.22
352.10	211.34
352.48	211.30
352.87	211.31
353.25	211.46
353.63	211.51
354.01	211.53
354.39	211.55
354.77	211.68
355.15	211.87
355.54	211.94
355.92	211.91
356.30	212.05
356.68	212.38
357.06	212.59
357.44	212.62
357.82	212.71
358.20	212.90
358.58	212.94
358.97	213.08
359.35	213.17
359.73	213.29
360.11	213.38
360.49	213.56
360.87	213.64
361.25	213.67
361.63	213.87
362.01	213.95
362.39	214.03
362.77	214.09
363.15	214.06
363.53	214.13
363.91	214.25
364.29	214.38
364.67	214.05
365.05	214.06
365.43	214.14
365.81	214.15
366.19	214.30
366.57	214.47
366.95	214.48
367.33	214.46
367.71	214.41
368.09	214.48
368.47	214.53
368.85	214.48
369.23	214.62
369.61	214.47
369.99	214.61
370.37	214.55
370.75	214.73
371.13	214.69
371.51	214.64
371.89	214.59
372.27	214.56
372.65	214.65
373.03	214.54
373.41	214.48
373.78	214.48
374.16	214.17
374.54	213.96
374.92	213.80
375.30	213.72
375.68	213.69
376.06	213.70
376.44	213.55
376.82	213.49
377.19	213.38
377.57	213.35
377.95	213.15
378.33	213.14
378.71	212.87
379.09	212.88
379.47	212.84
379.84	212.78
380.22	212.62
380.60	212.48
380.98	212.43
381.36	212.30
381.73	212.16
382.11	212.28
382.49	212.28
382.87	212.24
383.25	212.18
383.62	212.42
384.00	212.21
384.38	212.12
384.76	212.19
385.13	212.29
385.51	212.18
385.89	212.08
386.27	212.07
386.64	212.03
387.02	211.88
387.40	211.84
387.78	211.78
388.15	211.70
388.53	211.63
388.91	211.63
389.29	211.63
389.66	211.73
390.04	211.54
390.42	211.56
390.79	211.55
391.17	211.58
391.55	211.20
391.92	211.22
392.30	211.26
392.68	211.10
393.05	211.05
393.43	211.04
393.81	211.09
394.18	211.00
394.56	211.00
394.94	211.08
395.31	211.08
395.69	211.20
396.06	211.26
396.44	211.36
396.82	211.28
397.19	211.46
397.57	211.39
397.95	211.46
398.32	211.35
398.70	211.32
399.07	211.34
399.45	211.38
399.82	211.33
400.20	211.32
400.58	211.36
400.95	211.19
401.33	211.33
401.70	211.53
402.08	211.56
402.45	211.56
402.83	211.68
403.20	211.72
403.58	211.74
403.95	211.82
404.33	211.88
404.71	211.93
405.08	212.16
405.46	212.15
405.83	212.30
406.21	212.45
406.58	212.59
406.96	212.66
407.33	212.77
407.70	212.98
408.08	213.39
408.45	213.62
408.83	213.83
409.20	213.98
409.58	213.98
409.95	214.15
410.33	214.42
410.70	214.56
411.08	214.81
411.45	215.10
411.82	215.38
412.20	215.73
412.57	216.21
412.95	216.28
413.32	216.78
413.69	217.08
414.07	217.50
414.44	217.95
414.82	218.47
415.19	218.97
415.56	219.48
415.94	219.86
416.31	220.52
416.68	221.21
417.06	221.85
417.43	222.64
417.81	223.44
418.18	224.29
418.55	225.13
418.93	226.08
419.30	226.96
419.67	227.95
420.04	228.92
420.42	229.98
420.79	231.48
421.16	232.63
421.54	234.07
421.91	235.29
422.28	236.65
422.66	238.12
423.03	239.86
423.40	241.41
423.77	243.01
424.15	244.50
424.52	246.09
424.89	247.98
425.26	249.63
425.64	251.35
426.01	253.07
426.38	255.02
426.75	257.00
427.13	258.98
427.50	261.01
427.87	263.23
428.24	265.34
428.61	267.23
428.99	269.80
429.36	272.23
429.73	274.74
430.10	277.26
430.47	279.83
430.85	282.15
431.22	284.93
431.59	288.03
431.96	290.88
432.33	294.03
432.70	297.07
433.08	300.63
433.45	303.94
433.82	307.34
434.19	311.04
434.56	314.71
434.93	318.15
435.30	321.68
435.68	325.49
436.05	329.28
436.42	332.88
436.79	336.23
437.16	339.80
437.53	343.76
437.90	347.53
438.27	351.33
438.64	355.24
439.01	358.89
439.38	361.95
439.75	365.10
440.13	368.69
440.50	372.04
440.87	374.78
441.24	377.60
441.61	380.64
441.98	382.97
442.35	385.44
442.72	388.18
443.09	390.90
443.46	392.40
443.83	393.52
444.20	394.52
444.57	395.77
444.94	396.47
445.31	397.19
445.68	398.33
446.05	398.60
446.42	398.26
446.79	397.89
447.16	397.35
447.53	397.11
447.90	395.57
448.27	394.05
448.64	392.15
449.01	390.77
449.37	388.27
449.74	385.72
450.11	383.20
450.48	379.98
450.85	376.62
451.22	373.86
451.59	371.12
451.96	368.56
452.33	365.18
452.70	362.10
453.07	358.28
453.43	354.00
453.80	350.32
454.17	346.79
454.54	343.33
454.91	339.87
455.28	336.32
455.65	333.15
456.02	330.43
456.38	327.65
456.75	324.33
457.12	321.54
457.49	318.76
457.86	315.75
458.23	313.58
458.59	311.06
458.96	308.44
459.33	306.20
459.70	303.91
460.07	302.16
460.43	300.09
460.80	298.25
461.17	296.68
461.54	294.90
461.91	293.26
462.27	291.53
462.64	289.99
463.01	288.46
463.38	287.11
463.74	285.10
464.11	283.61
464.48	282.30
464.85	280.96
465.21	280.08
465.58	278.96
465.95	277.54
466.32	276.37
466.68	275.33
467.05	274.23
467.42	273.25
467.78	272.06
468.15	271.04
468.52	270.26
468.88	269.21
469.25	268.33
469.62	267.70
469.98	266.98
470.35	266.39
470.72	265.68
471.08	264.75
471.45	264.23
471.82	263.75
472.18	263.16
472.55	262.74
472.92	262.06
473.28	261.61
473.65	261.16
474.02	260.79
474.38	260.52
474.75	260.32
475.11	259.93
475.48	259.70
475.85	259.48
476.21	259.24
476.58	259.07
476.94	258.90
477.31	258.67
477.67	258.60
478.04	258.44
478.41	258.40
478.77	258.71
479.14	258.66
479.50	258.64
479.87	258.76
480.23	258.87
480.60	258.99
480.96	259.05
481.33	259.40
481.69	259.57
482.06	259.75
482.42	259.92
482.79	260.24
483.15	260.54
483.52	260.99
483.88	261.38
484.25	261.81
484.61	262.30
484.98	262.82
485.34	263.47
485.71	264.10
486.07	264.76
486.44	265.17
486.80	265.93
487.17	266.74
487.53	267.59
487.90	268.49
488.26	269.56
488.62	270.61
488.99	271.58
489.35	272.75
489.72	273.97
490.08	275.18
490.44	276.44
490.81	277.95
491.17	279.29
491.54	280.85
491.90	282.40
492.26	284.13
492.63	285.89
492.99	287.61
493.36	289.52
493.72	291.59
494.08	293.65
494.45	295.89
494.81	298.25
495.17	300.62
495.54	303.15
495.90	305.69
496.26	308.42
496.63	311.22
496.99	314.19
497.35	317.20
497.72	320.50
498.08	323.76
498.44	327.09
498.80	330.80
499.17	334.47
499.53	338.26
499.89	342.19
500.26	346.26
500.62	350.33
500.98	354.80
501.34	359.21
501.71	364.06
502.07	368.72
502.43	373.59
502.79	378.52
503.16	383.72
503.52	389.08
503.88	394.39
504.24	400.03
504.60	405.87
504.97	411.90
505.33	417.79
505.69	424.22
506.05	430.65
506.41	436.99
506.78	443.48
507.14	450.25
507.50	457.28
507.86	464.44
508.22	471.82
508.59	478.98
508.95	486.50
509.31	494.07
509.67	502.04
510.03	509.93
510.39	518.22
510.75	526.53
511.12	534.86
511.48	543.58
511.84	552.31
512.20	560.95
512.56	569.86
512.92	578.98
513.28	587.98
513.64	597.19
514.00	606.56
514.37	616.05
514.73	625.85
515.09	635.33
515.45	644.91
515.81	654.57
516.17	664.46
516.53	674.34
516.89	684.38
517.25	694.31
517.61	704.55
517.97	714.65
518.33	724.96
518.69	735.24
519.05	745.52
519.41	755.92
519.77	766.73
520.13	777.13
520.49	787.41
520.85	798.00
521.21	808.66
521.57	819.65
521.93	830.29
522.29	840.83
522.65	851.73
523.01	862.64
523.37	873.26
523.73	884.12
524.09	894.87
524.45	905.88
524.81	916.73
525.17	927.59
525.53	938.27
525.89	948.77
526.25	959.48
526.61	969.95
526.97	980.25
527.33	990.60
527.68	1001.41
528.04	1011.86
528.40	1021.95
528.76	1032.19
529.12	1042.37
529.48	1053.05
529.84	1063.55
530.20	1073.90
530.56	1084.15
530.91	1094.90
531.27	1105.27
531.63	1115.31
531.99	1124.90
532.35	1134.40
532.71	1143.92
533.07	1153.91
533.42	1163.77
533.78	1173.49
534.14	1183.12
534.50	1192.29
534.86	1201.54
535.21	1210.07
535.57	1219.36
535.93	1228.30
536.29	1237.08
536.65	1245.69
537.00	1253.61
537.36	1261.37
537.72	1268.84
538.08	1276.55
538.44	1284.24
538.79	1291.85
539.15	1299.52
539.51	1307.17
539.87	1315.11
540.22	1322.59
540.58	1329.90
540.94	1337.08
541.29	1343.38
541.65	1349.51
542.01	1356.29
542.37	1362.62
542.72	1369.21
543.08	1374.97
543.44	1381.27
543.79	1386.82
544.15	1391.95
544.51	1397.75
544.87	1403.50
545.22	1408.77
545.58	1413.34
545.94	1417.55
546.29	1421.60
546.65	1425.54
547.01	1429.48
547.36	1433.17
547.72	1436.69
548.07	1439.84
548.43	1442.77
548.79	1445.91
549.14	1449.08
549.50	1451.91
549.86	1454.08
550.21	1456.25
550.57	1458.81
550.92	1460.55
551.28	1462.52
551.64	1464.80
551.99	1466.91
552.35	1468.40
552.70	1469.90
553.06	1471.80
553.41	1473.35
553.77	1474.85
554.13	1476.28
554.48	1477.56
554.84	1478.69
555.19	1479.51
555.55	1480.04
555.90	1480.23
556.26	1480.64
556.61	1480.89
556.97	1480.69
557.32	1480.96
557.68	1480.72
558.03	1480.68
558.39	1480.57
558.74	1480.88
559.10	1480.70
559.45	1479.79
559.81	1479.70
560.16	1479.19
560.52	1478.66
560.87	1478.19
561.23	1477.20
561.58	1476.63
561.94	1475.18
562.29	1473.84
562.64	1472.83
563.00	1471.90
563.35	1471.26
563.71	1470.85
564.06	1470.19
564.42	1469.82
564.77	1469.17
565.12	1468.52
565.48	1467.43
565.83	1466.59
566.19	1465.20
566.54	1463.27
566.89	1461.83
567.25	1460.27
567.60	1459.29
567.96	1457.60
568.31	1456.03
568.66	1454.20
569.02	1451.90
569.37	1449.83
569.72	1447.98
570.08	1445.72
570.43	1443.36
570.78	1440.57
571.14	1437.45
571.49	1434.61
571.84	1431.80
572.20	1428.56
572.55	1425.80
572.90	1422.69
573.26	1419.23
573.61	1415.80
573.96	1412.92
574.31	1409.14
574.67	1405.26
575.02	1400.85
575.37	1396.92
575.72	1392.52
576.08	1388.90
576.43	1385.01
576.78	1381.41
577.13	1377.68
577.49	1374.10
577.84	1370.44
578.19	1367.15
578.54	1363.89
578.90	1360.65
579.25	1356.54
579.60	1352.77
579.95	1348.68
580.30	1344.86
580.66	1341.59
581.01	1337.53
581.36	1333.27
581.71	1329.59
582.06	1325.83
582.42	1322.32
582.77	1318.55
583.12	1314.93
583.47	1311.50
583.82	1308.13
584.17	1304.40
584.53	1300.80
584.88	1297.08
585.23	1293.25
585.58	1289.46
585.93	1285.53
586.28	1281.54
586.63	1277.83
586.98	1274.19
587.34	1270.80
587.69	1267.07
588.04	1263.01
588.39	1259.66
588.74	1255.92
589.09	1252.63
589.44	1248.63
589.79	1245.00
590.14	1241.60
590.49	1237.83
590.84	1233.87
591.19	1230.38
591.54	1226.77
591.89	1222.41
592.25	1218.49
592.60	1214.42
592.95	1210.19
593.30	1205.74
593.65	1201.40
594.00	1197.34
594.35	1194.31
594.70	1190.16
595.05	1186.20
595.40	1182.28
595.75	1177.82
596.10	1174.17
596.45	1170.07
596.80	1166.61
597.15	1163.03
597.50	1158.80
597.85	1155.23
598.19	1151.45
598.54	1147.37
598.89	1143.50
599.24	1140.30
599.59	1136.75
599.94	1133.72
600.29	1130.15
600.64	1126.81
600.99	1123.14
601.34	1119.75
601.69	1114.86
602.04	1110.91
602.39	1107.21
602.74	1103.59
603.08	1100.76
603.43	1097.72
603.78	1094.29
604.13	1090.56
604.48	1087.00
604.83	1084.13
605.18	1081.01
605.53	1077.14
605.87	1073.40
606.22	1070.11
606.57	1066.45
606.92	1062.91
607.27	1058.90
607.62	1055.32
607.96	1052.01
608.31	1049.12
608.66	1045.29
609.01	1041.68
609.36	1038.05
609.70	1034.03
610.05	1029.96
610.40	1025.77
610.75	1021.15
611.10	1017.47
611.44	1013.01
611.79	1008.51
612.14	1003.88
612.49	998.91
612.83	994.92
613.18	990.39
613.53	986.00
613.88	981.30
614.22	976.83
614.57	972.36
614.92	967.89
615.27	963.15
615.61	958.36
615.96	954.26
616.31	950.21
616.65	946.27
617.00	942.16
617.35	937.97
617.70	933.41
618.04	928.89
618.39	923.85
618.74	919.74
619.08	915.35
619.43	910.94
619.78	906.76
620.12	902.30
620.47	898.30
620.82	893.60
621.16	889.06
621.51	884.63
621.85	880.36
622.20	876.05
622.55	871.85
622.89	867.43
623.24	863.12
623.59	858.62
623.93	854.05
624.28	849.83
624.62	845.96
624.97	841.83
625.32	837.98
625.66	834.25
626.01	830.21
626.35	826.35
626.70	822.33
627.04	818.75
627.39	814.84
627.73	810.88
628.08	807.35
628.43	803.46
628.77	799.37
629.12	795.33
629.46	791.76
629.81	787.89
630.15	783.81
630.50	779.66
630.84	775.67
631.19	771.84
631.53	768.19
631.88	763.85
632.22	759.82
632.57	755.99
632.91	751.95
633.26	748.15
633.60	744.39
633.95	740.77
634.29	736.77
634.64	733.29
634.98	729.43
635.32	725.80
635.67	722.41
636.01	718.93
636.36	715.23
636.70	711.55
637.05	708.11
637.39	704.76
637.73	701.55
638.08	698.58
638.42	695.28
638.77	691.75
639.11	688.38
639.45	685.00
639.80	681.54
640.14	678.01
640.49	674.57
640.83	671.02
641.17	667.52
641.52	663.98
641.86	660.40
642.20	657.16
642.55	653.38
642.89	649.83
643.23	646.30
643.58	643.17
643.92	639.46
644.26	635.89
644.61	632.55
644.95	628.87
645.29	625.14
645.64	621.56
645.98	618.15
646.32	614.87
646.66	611.52
647.01	608.17
647.35	604.98
647.69	601.42
648.04	598.17
648.38	594.92
648.72	591.71
649.06	588.25
649.41	584.87
649.75	581.55
650.09	578.43
650.43	575.32
650.78	572.00
651.12	568.83
651.46	565.65
651.80	562.38
652.14	559.34
652.49	556.23
652.83	553.11
653.17	549.74
653.51	546.42
653.85	543.40
654.20	540.29
654.54	537.01
654.88	534.05
655.22	530.81
655.56	527.59
655.90	524.41
656.25	521.38
656.59	518.32
656.93	515.33
657.27	512.38
657.61	509.21
657.95	506.20
658.29	503.25
658.64	500.51
658.98	497.60
659.32	494.58
659.66	491.77
660.00	488.84
660.34	486.05
660.68	483.29
661.02	480.44
661.36	477.77
661.70	475.33
662.05	472.74
662.39	470.32
662.73	467.76
663.07	465.49
663.41	462.94
663.75	460.35
664.09	457.83
664.43	455.14
664.77	452.61
665.11	450.06
665.45	447.69
665.79	445.05
666.13	442.71
666.47	440.45
666.81	438.07
667.15	435.67
667.49	433.64
667.83	431.56
668.17	429.36
668.51	427.20
668.85	424.96
669.19	422.94
669.53	420.77
669.87	418.60
670.21	416.31
670.55	414.15
670.89	412.37
671.23	410.47
671.57	408.46
671.91	406.54
672.25	404.63
672.58	402.72
672.92	400.83
673.26	398.95
673.60	397.08
673.94	395.19
674.28	393.42
674.62	391.66
674.96	389.82
675.30	388.15
675.64	386.27
675.97	384.60
676.31	382.87
676.65	381.19
676.99	379.81
677.33	378.19
677.67	376.68
678.01	374.80
678.34	373.15
678.68	371.57
679.02	369.93
679.36	368.43
679.70	366.81
680.04	365.26
680.37	363.65
680.71	362.04
681.05	360.55
681.39	359.10
681.73	357.38
682.06	355.90
682.40	354.41
682.74	353.06
683.08	351.59
683.42	350.00
683.75	348.56
684.09	346.92
684.43	345.51
684.77	343.95
685.10	342.62
685.44	341.10
685.78	339.77
686.12	338.51
686.45	337.09
686.79	335.75
687.13	334.45
687.46	333.26
687.80	332.05
688.14	330.68
688.48	329.40
688.81	328.10
689.15	326.80
689.49	325.35
689.82	324.03
690.16	322.63
690.50	321.38
690.83	320.17
691.17	318.88
691.51	317.57
691.84	316.50
692.18	315.37
692.52	314.31
692.85	313.27
693.19	312.22
693.52	311.14
693.86	309.99
694.20	308.95
694.53	307.78
694.87	306.66
695.21	305.58
695.54	304.47
695.88	303.43
696.21	302.29
696.55	301.44
696.88	300.45
697.22	299.40
697.56	298.51
697.89	297.40
698.23	296.43
698.56	295.41
698.90	294.51
699.23	293.46
699.57	292.51
699.90	291.36
700.24	290.39
700.58	289.41
700.91	288.60
701.25	287.78
701.58	286.92
701.92	286.07
702.25	285.26
702.59	284.35
702.92	283.54
703.26	282.80
703.59	281.98
703.93	281.45
704.26	280.81
704.60	279.99
704.93	279.28
705.26	278.50
705.60	277.87
705.93	277.00
706.27	276.39
706.60	275.76
706.94	275.23
707.27	274.35
707.61	273.61
707.94	272.82
708.27	271.94
708.61	271.12
708.94	270.39
709.28	269.62
709.61	268.98
709.94	268.28
710.28	267.58
710.61	266.93
710.95	266.07
711.28	265.63
711.61	264.89
711.95	264.40
712.28	263.82
712.61	263.22
712.95	262.89
713.28	262.39
713.61	261.73
713.95	261.14
714.28	260.69
714.61	260.21
714.95	259.70
715.28	259.15
715.61	258.70
715.95	258.14
716.28	257.63
716.61	257.17
716.95	256.62
717.28	256.13
717.61	255.55
717.94	254.98
718.28	254.25
718.61	253.95
718.94	253.34
719.27	252.85
719.61	252.42
719.94	251.83
720.27	251.24
720.60	250.76
720.94	250.33
721.27	249.91
721.60	249.49
721.93	249.08
722.27	248.82
722.60	248.47
722.93	248.05
723.26	247.70
723.59	247.20
723.93	246.83
724.26	246.48
724.59	246.13
724.92	245.82
725.25	245.59
725.59	245.16
725.92	244.88
726.25	244.56
726.58	244.20
726.91	243.85
727.24	243.56
727.57	243.23
727.91	242.76
728.24	242.55
728.57	242.26
728.90	241.95
729.23	241.56
729.56	241.40
729.89	241.09
730.22	240.84
730.55	240.50
730.89	240.30
731.22	239.91
731.55	239.62
731.88	239.34
732.21	238.98
732.54	238.55
732.87	238.28
733.20	237.96
733.53	237.68
733.86	237.43
734.19	237.07
734.52	236.86
734.85	236.93
735.18	236.55
735.51	236.36
735.84	236.22
736.17	236.03
736.50	235.61
736.83	235.82
737.16	235.55
737.49	235.43
737.82	235.11
738.15	234.98
738.48	234.69
738.81	234.42
739.14	234.11
739.47	233.95
739.80	233.71
740.13	233.45
740.46	233.18
740.79	232.89
741.12	232.73
741.45	232.45
741.78	231.97
742.11	231.85
742.44	231.57
742.77	231.32
743.10	231.07
743.43	230.82
743.75	230.24
744.08	230.49
744.41	230.13
744.74	230.01
745.07	229.71
745.40	229.59
745.73	229.48
746.06	229.35
746.39	229.17
746.71	228.88
747.04	228.71
747.37	228.56
747.70	228.47
748.03	228.23
748.36	228.10
748.68	227.92
749.01	227.55
749.34	227.34
749.67	227.13
750.00	226.97
750.33	227.04
750.65	226.86
750.98	226.18
751.31	226.05
751.64	225.85
751.97	225.88
752.29	225.70
752.62	225.42
752.95	225.24
753.28	225.09
753.60	224.96
753.93	224.91
754.26	224.77
754.59	224.55
754.91	224.36
755.24	224.22
755.57	224.13
755.90	223.98
756.22	223.91
756.55	223.70
756.88	223.46
757.20	223.09
757.53	222.88
757.86	222.73
758.19	222.62
758.51	222.44
758.84	222.14
759.17	222.02
759.49	221.95
759.82	221.95
760.15	221.82
760.47	221.67
760.80	221.40
761.13	221.27
761.45	221.10
761.78	221.01
762.11	220.89
762.43	220.66
762.76	220.53
763.08	220.37
763.41	220.34
763.74	220.30
764.06	220.20
764.39	220.08
764.71	220.00
765.04	219.90
765.37	219.81
765.69	219.76
766.02	219.68
766.34	219.50
766.67	219.25
767.00	219.22
767.32	219.32
767.65	219.53
767.97	219.45
768.30	219.42
768.62	219.38
768.95	219.22
769.27	219.21
769.60	219.23
769.92	219.09
770.25	218.95
770.57	218.85
770.90	218.84
771.22	218.70
771.55	218.65
771.87	218.58
772.20	218.52
772.52	218.70
772.85	218.96
773.17	218.89
773.50	218.76
773.82	218.65
774.15	218.40
774.47	218.00
774.80	217.89
775.12	217.80
775.45	217.67
775.77	217.65
776.09	217.58
776.42	217.51
776.74	217.58
777.07	217.50
777.39	217.36
777.72	217.21
778.04	217.27
778.36	217.22
778.69	217.20
779.01	217.11
779.33	216.79
779.66	216.39
779.98	216.37
780.31	216.41
780.63	216.48
780.95	216.50
781.28	216.52
781.60	216.42
781.92	216.35
782.25	216.38
782.57	216.41
782.89	216.25
783.22	216.18
783.54	216.01
783.86	215.98
784.19	215.89
784.51	215.89
784.83	215.79
785.16	215.71
785.48	215.70
785.80	215.65
786.12	215.67
786.45	215.60
786.77	215.54
787.09	215.44
787.42	215.25
787.74	215.21
788.06	215.17
788.38	215.11
788.71	215.05
789.03	214.99
