SpectraSuite Data File
++++++++++++++++++++++++++++++++++++
Date: Mon Feb 25 17:09:34 EST 2013
User: group
Dark Spectrum Present: No
Reference Spectrum Present: No
Number of Sampled Component Spectra: 1
Spectrometers: USB2E7196
Integration Time (usec): 104000 (USB2E7196)
Spectra Averaged: 20 (USB2E7196)
Boxcar Smoothing: 10 (USB2E7196)
Correct for Electrical Dark: No (USB2E7196)
Strobe/Lamp Enabled: No (USB2E7196)
Correct for Detector Non-linearity: No (USB2E7196)
Correct for Stray Light: No (USB2E7196)
Number of Pixels in Processed Spectrum: 2048
>>>>>Begin Processed Spectral Data<<<<<
339.09	0.00
339.48	198.45
339.86	200.15
340.24	201.85
340.63	203.25
341.01	211.10
341.39	205.70
341.78	206.95
342.16	209.85
342.54	207.80
342.93	198.30
343.31	208.27
343.69	208.81
344.07	209.26
344.46	209.75
344.84	210.14
345.22	210.09
345.60	210.35
345.99	210.52
346.37	210.59
346.75	210.70
347.13	210.77
347.52	210.86
347.90	210.98
348.28	211.02
348.66	211.04
349.05	210.99
349.43	211.05
349.81	211.06
350.19	211.08
350.57	211.04
350.96	211.13
351.34	211.24
351.72	211.33
352.10	211.42
352.48	211.39
352.87	211.40
353.25	211.52
353.63	211.50
354.01	211.56
354.39	211.61
354.77	211.71
355.15	211.87
355.54	211.92
355.92	211.87
356.30	211.97
356.68	212.25
357.06	212.32
357.44	212.31
357.82	212.40
358.20	212.45
358.58	212.49
358.97	212.54
359.35	212.67
359.73	212.79
360.11	212.81
360.49	212.86
360.87	212.90
361.25	212.95
361.63	213.13
362.01	213.19
362.39	213.29
362.77	213.35
363.15	213.34
363.53	213.42
363.91	213.51
364.29	213.46
364.67	213.15
365.05	213.20
365.43	213.27
365.81	213.33
366.19	213.53
366.57	213.69
366.95	213.72
367.33	213.63
367.71	213.63
368.09	213.74
368.47	213.73
368.85	213.70
369.23	213.76
369.61	213.62
369.99	213.73
370.37	213.67
370.75	213.77
371.13	213.69
371.51	213.56
371.89	213.58
372.27	213.58
372.65	213.65
373.03	213.59
373.41	213.62
373.78	213.56
374.16	213.41
374.54	213.29
374.92	213.20
375.30	213.20
375.68	213.11
376.06	213.05
376.44	213.05
376.82	213.02
377.19	212.88
377.57	212.85
377.95	212.66
378.33	212.61
378.71	212.33
379.09	212.32
379.47	212.38
379.84	212.25
380.22	212.19
380.60	212.00
380.98	211.91
381.36	211.76
381.73	211.69
382.11	211.63
382.49	211.61
382.87	211.49
383.25	211.44
383.62	211.72
384.00	211.55
384.38	211.57
384.76	211.59
385.13	211.72
385.51	211.67
385.89	211.64
386.27	211.57
386.64	211.66
387.02	211.61
387.40	211.46
387.78	211.42
388.15	211.47
388.53	211.45
388.91	211.42
389.29	211.38
389.66	211.36
390.04	211.34
390.42	211.33
390.79	211.39
391.17	211.34
391.55	210.96
391.92	210.98
392.30	210.90
392.68	210.84
393.05	210.80
393.43	210.85
393.81	210.85
394.18	210.77
394.56	210.75
394.94	210.78
395.31	210.76
395.69	210.90
396.06	210.84
396.44	210.82
396.82	210.75
397.19	210.95
397.57	210.97
397.95	211.00
398.32	210.92
398.70	210.90
399.07	210.97
399.45	210.96
399.82	210.98
400.20	210.92
400.58	210.93
400.95	210.72
401.33	210.70
401.70	210.96
402.08	211.01
402.45	211.03
402.83	211.12
403.20	211.25
403.58	211.20
403.95	211.32
404.33	211.45
404.71	211.58
405.08	211.85
405.46	211.85
405.83	211.94
406.21	211.96
406.58	212.05
406.96	212.05
407.33	212.23
407.70	212.40
408.08	212.89
408.45	213.09
408.83	213.40
409.20	213.57
409.58	213.53
409.95	213.76
410.33	214.00
410.70	214.05
411.08	214.25
411.45	214.54
411.82	214.69
412.20	215.11
412.57	215.58
412.95	215.52
413.32	215.88
413.69	216.20
414.07	216.63
414.44	217.13
414.82	217.66
415.19	218.13
415.56	218.71
415.94	218.90
416.31	219.46
416.68	220.10
417.06	220.84
417.43	221.62
417.81	222.39
418.18	223.16
418.55	224.11
418.93	225.03
419.30	225.97
419.67	227.00
420.04	227.89
420.42	228.87
420.79	230.41
421.16	231.66
421.54	233.07
421.91	234.43
422.28	235.81
422.66	237.30
423.03	238.99
423.40	240.33
423.77	242.08
424.15	243.66
424.52	245.31
424.89	247.17
425.26	248.87
425.64	250.52
426.01	252.33
426.38	254.24
426.75	256.29
427.13	258.21
427.50	260.32
427.87	262.56
428.24	264.82
428.61	266.63
428.99	269.15
429.36	271.64
429.73	274.14
430.10	276.75
430.47	279.32
430.85	281.74
431.22	284.68
431.59	287.89
431.96	290.80
432.33	293.91
432.70	296.98
433.08	300.59
433.45	304.05
433.82	307.59
434.19	311.24
434.56	314.87
434.93	318.48
435.30	322.07
435.68	325.96
436.05	329.73
436.42	333.64
436.79	337.14
437.16	340.88
437.53	344.87
437.90	348.68
438.27	352.58
438.64	356.65
439.01	360.38
439.38	363.45
439.75	366.74
440.13	370.55
440.50	373.92
440.87	376.81
441.24	379.74
441.61	382.87
441.98	385.32
442.35	388.06
442.72	390.90
443.09	393.77
443.46	395.43
443.83	396.65
444.20	397.53
444.57	398.94
444.94	399.75
445.31	400.54
445.68	401.62
446.05	402.00
446.42	401.67
446.79	401.39
447.16	401.03
447.53	400.71
447.90	399.18
448.27	397.79
448.64	395.71
449.01	394.34
449.37	391.87
449.74	389.55
450.11	386.94
450.48	383.70
450.85	380.25
451.22	377.40
451.59	374.74
451.96	372.25
452.33	368.70
452.70	365.44
453.07	361.60
453.43	357.41
453.80	353.66
454.17	350.16
454.54	346.81
454.91	343.19
455.28	339.61
455.65	336.35
456.02	333.67
456.38	330.90
456.75	327.48
457.12	324.55
457.49	321.61
457.86	318.59
458.23	316.38
458.59	313.80
458.96	311.30
459.33	308.90
459.70	306.64
460.07	304.84
460.43	302.75
460.80	300.92
461.17	299.37
461.54	297.47
461.91	295.73
462.27	293.89
462.64	292.40
463.01	290.80
463.38	289.31
463.74	287.13
464.11	285.69
464.48	284.50
464.85	283.13
465.21	282.19
465.58	281.10
465.95	279.69
466.32	278.58
466.68	277.38
467.05	276.37
467.42	275.16
467.78	274.02
468.15	272.87
468.52	271.94
468.88	270.75
469.25	269.90
469.62	269.20
469.98	268.41
470.35	267.51
470.72	266.80
471.08	265.90
471.45	265.32
471.82	264.77
472.18	263.92
472.55	263.41
472.92	262.70
473.28	262.08
473.65	261.49
474.02	261.02
474.38	260.62
474.75	260.15
475.11	259.78
475.48	259.41
475.85	259.11
476.21	258.87
476.58	258.65
476.94	258.43
477.31	258.15
477.67	257.85
478.04	257.72
478.41	257.59
478.77	257.92
479.14	257.71
479.50	257.57
479.87	257.59
480.23	257.55
480.60	257.45
480.96	257.53
481.33	257.69
481.69	257.76
482.06	257.88
482.42	258.07
482.79	258.25
483.15	258.48
483.52	258.81
483.88	258.95
484.25	259.10
484.61	259.27
484.98	259.44
485.34	259.96
485.71	260.37
486.07	260.89
486.44	260.89
486.80	261.48
487.17	261.95
487.53	262.61
487.90	263.30
488.26	264.10
488.62	264.84
488.99	265.50
489.35	266.20
489.72	266.85
490.08	267.61
490.44	268.48
490.81	269.44
491.17	270.33
491.54	271.38
491.90	272.48
492.26	273.76
492.63	275.05
492.99	276.13
493.36	277.41
493.72	278.71
494.08	280.19
494.45	281.56
494.81	283.17
495.17	284.65
495.54	286.26
495.90	287.84
496.26	289.47
496.63	291.21
496.99	293.00
497.35	294.99
497.72	296.97
498.08	298.97
498.44	300.94
498.80	303.18
499.17	305.36
499.53	307.69
499.89	310.03
500.26	312.43
500.62	314.96
500.98	317.54
501.34	320.08
501.71	322.86
502.07	325.57
502.43	328.35
502.79	331.11
503.16	334.02
503.52	337.10
503.88	340.08
504.24	343.31
504.60	346.63
504.97	349.94
505.33	353.26
505.69	356.84
506.05	360.38
506.41	363.80
506.78	367.33
507.14	370.85
507.50	374.53
507.86	378.30
508.22	382.15
508.59	385.91
508.95	389.90
509.31	394.09
509.67	398.23
510.03	402.31
510.39	406.74
510.75	411.02
511.12	415.39
511.48	419.86
511.84	424.19
512.20	428.64
512.56	433.21
512.92	438.06
513.28	442.73
513.64	447.54
514.00	452.39
514.37	457.43
514.73	462.56
515.09	467.56
515.45	472.63
515.81	477.56
516.17	482.79
516.53	487.98
516.89	492.80
517.25	497.90
517.61	503.26
517.97	508.52
518.33	513.64
518.69	518.88
519.05	524.42
519.41	530.00
519.77	535.77
520.13	541.17
520.49	546.38
520.85	551.82
521.21	557.55
521.57	563.21
521.93	568.56
522.29	574.28
522.65	579.96
523.01	585.55
523.37	591.24
523.73	596.98
524.09	602.62
524.45	608.54
524.81	614.35
525.17	620.12
525.53	625.91
525.89	631.90
526.25	637.84
526.61	643.41
526.97	649.20
527.33	654.76
527.68	661.00
528.04	666.72
528.40	672.54
528.76	678.24
529.12	684.14
529.48	690.29
529.84	696.04
530.20	701.94
530.56	707.91
530.91	713.96
531.27	719.93
531.63	725.93
531.99	731.78
532.35	737.72
532.71	743.54
533.07	749.45
533.42	755.50
533.78	761.20
534.14	767.11
534.50	772.46
534.86	778.24
535.21	783.38
535.57	789.12
535.93	794.54
536.29	800.04
536.65	805.46
537.00	810.48
537.36	815.63
537.72	820.66
538.08	825.64
538.44	830.79
538.79	835.64
539.15	840.44
539.51	845.36
539.87	850.23
540.22	855.03
540.58	860.05
540.94	864.57
541.29	869.10
541.65	873.25
542.01	877.90
542.37	882.13
542.72	886.74
543.08	890.87
543.44	895.44
543.79	899.38
544.15	903.33
544.51	907.49
544.87	911.60
545.22	915.39
545.58	919.05
545.94	922.35
546.29	925.77
546.65	929.10
547.01	932.32
547.36	935.56
547.72	938.44
548.07	941.04
548.43	943.79
548.79	946.59
549.14	949.33
549.50	951.89
549.86	954.30
550.21	956.64
550.57	959.24
550.92	960.91
551.28	963.08
551.64	965.17
551.99	967.47
552.35	969.18
552.70	971.22
553.06	973.28
553.41	975.08
553.77	977.00
554.13	978.57
554.48	980.10
554.84	981.87
555.19	983.42
555.55	985.20
555.90	986.41
556.26	987.61
556.61	988.79
556.97	989.79
557.32	990.75
557.68	991.44
558.03	992.16
558.39	993.26
558.74	994.17
559.10	995.15
559.45	995.94
559.81	996.90
560.16	997.45
560.52	998.24
560.87	999.00
561.23	999.14
561.58	1000.33
561.94	1000.73
562.29	1000.80
562.64	1001.15
563.00	1001.15
563.35	1001.44
563.71	1001.93
564.06	1002.46
564.42	1002.97
564.77	1003.57
565.12	1004.16
565.48	1004.75
565.83	1005.04
566.19	1005.37
566.54	1004.92
566.89	1004.59
567.25	1004.47
567.60	1004.51
567.96	1004.18
568.31	1004.00
568.66	1003.92
569.02	1002.86
569.37	1002.24
569.72	1001.86
570.08	1001.23
570.43	1000.38
570.78	999.50
571.14	998.44
571.49	997.20
571.84	996.26
572.20	995.05
572.55	994.09
572.90	992.30
573.26	990.67
573.61	989.04
573.96	987.83
574.31	986.07
574.67	984.10
575.02	982.22
575.37	980.41
575.72	978.30
576.08	976.57
576.43	974.71
576.78	972.85
577.13	971.02
577.49	969.24
577.84	967.41
578.19	966.12
578.54	964.42
578.90	963.05
579.25	961.21
579.60	959.22
579.95	956.87
580.30	955.36
580.66	953.86
581.01	951.97
581.36	949.91
581.71	948.03
582.06	946.45
582.42	944.55
582.77	942.31
583.12	940.68
583.47	938.87
583.82	937.22
584.17	935.44
584.53	933.58
584.88	931.74
585.23	930.00
585.58	927.75
585.93	925.84
586.28	923.93
586.63	921.74
586.98	919.92
587.34	918.27
587.69	916.15
588.04	914.12
588.39	912.20
588.74	910.15
589.09	908.50
589.44	906.24
589.79	904.42
590.14	902.52
590.49	900.34
590.84	898.15
591.19	896.29
591.54	894.29
591.89	891.76
592.25	889.80
592.60	887.29
592.95	885.04
593.30	882.35
593.65	879.56
594.00	877.37
594.35	876.04
594.70	873.55
595.05	871.56
595.40	869.16
595.75	866.52
596.10	864.56
596.45	862.21
596.80	860.37
597.15	858.25
597.50	856.07
597.85	853.97
598.19	851.75
598.54	849.60
598.89	847.47
599.24	845.89
599.59	843.53
599.94	842.02
600.29	840.06
600.64	838.34
600.99	836.41
601.34	834.51
601.69	831.42
602.04	829.23
602.39	827.01
602.74	825.04
603.08	823.44
603.43	821.68
603.78	819.65
604.13	817.48
604.48	815.45
604.83	813.74
605.18	811.99
605.53	810.09
605.87	807.67
606.22	805.88
606.57	803.60
606.92	801.68
607.27	799.18
607.62	797.08
607.96	795.26
608.31	793.61
608.66	791.36
609.01	789.11
609.36	786.98
609.70	784.57
610.05	782.30
610.40	779.98
610.75	777.28
611.10	775.17
611.44	772.33
611.79	769.58
612.14	766.83
612.49	763.91
612.83	761.24
613.18	758.62
613.53	755.63
613.88	752.73
614.22	749.90
614.57	747.19
614.92	744.32
615.27	741.35
615.61	738.21
615.96	735.50
616.31	733.03
616.65	730.63
617.00	728.00
617.35	725.19
617.70	722.18
618.04	719.23
618.39	716.18
618.74	713.77
619.08	710.95
619.43	708.13
619.78	705.22
620.12	702.44
620.47	699.77
620.82	696.80
621.16	693.76
621.51	691.12
621.85	688.36
622.20	685.45
622.55	682.41
622.89	679.54
623.24	676.70
623.59	673.73
623.93	670.65
624.28	667.85
624.62	665.29
624.97	662.65
625.32	660.06
625.66	657.36
626.01	654.51
626.35	652.03
626.70	649.47
627.04	647.08
627.39	644.40
627.73	641.77
628.08	639.35
628.43	636.93
628.77	634.09
629.12	631.45
629.46	629.20
629.81	626.71
630.15	624.20
630.50	621.52
630.84	618.95
631.19	616.37
631.53	613.80
631.88	610.87
632.22	608.11
632.57	605.67
632.91	603.03
633.26	600.46
633.60	597.88
633.95	595.36
634.29	592.68
634.64	590.26
634.98	587.65
635.32	585.13
635.67	582.80
636.01	580.37
636.36	577.76
636.70	575.22
637.05	572.96
637.39	570.56
637.73	568.32
638.08	566.11
638.42	563.94
638.77	561.67
639.11	559.33
639.45	556.99
639.80	554.39
640.14	551.85
640.49	549.46
640.83	546.88
641.17	544.45
641.52	542.16
641.86	539.59
642.20	537.39
642.55	534.86
642.89	532.32
643.23	529.90
643.58	527.85
643.92	525.37
644.26	522.88
644.61	520.56
644.95	518.14
645.29	515.54
645.64	513.02
645.98	510.55
646.32	508.38
646.66	505.97
647.01	503.65
647.35	501.49
647.69	499.20
648.04	497.02
648.38	494.70
648.72	492.29
649.06	490.08
649.41	487.58
649.75	485.39
650.09	483.20
650.43	481.06
650.78	478.39
651.12	476.02
651.46	473.83
651.80	471.55
652.14	469.28
652.49	467.13
652.83	464.84
653.17	462.45
653.51	460.10
653.85	458.05
654.20	455.92
654.54	453.60
654.88	451.31
655.22	449.17
655.56	446.87
655.90	444.75
656.25	442.51
656.59	440.37
656.93	438.31
657.27	436.20
657.61	433.84
657.95	431.98
658.29	429.98
658.64	427.86
658.98	425.74
659.32	423.59
659.66	421.63
660.00	419.62
660.34	417.65
660.68	415.50
661.02	413.35
661.36	411.32
661.70	409.47
662.05	407.69
662.39	405.90
662.73	404.28
663.07	402.56
663.41	400.73
663.75	398.89
664.09	397.01
664.43	395.10
664.77	393.42
665.11	391.55
665.45	389.84
665.79	388.18
666.13	386.51
666.47	384.84
666.81	383.12
667.15	381.37
667.49	379.93
667.83	378.51
668.17	377.02
668.51	375.63
668.85	374.18
669.19	372.84
669.53	371.01
669.87	369.36
670.21	367.72
670.55	366.33
670.89	365.16
671.23	363.77
671.57	362.48
671.91	361.05
672.25	359.73
672.58	358.43
672.92	356.93
673.26	355.54
673.60	354.22
673.94	352.85
674.28	351.64
674.62	350.37
674.96	349.06
675.30	347.82
675.64	346.50
675.97	345.17
676.31	343.78
676.65	342.67
676.99	341.55
677.33	340.25
677.67	339.05
678.01	337.66
678.34	336.51
678.68	335.39
679.02	334.14
679.36	332.90
679.70	331.63
680.04	330.60
680.37	329.46
680.71	328.24
681.05	327.23
681.39	326.04
681.73	324.78
682.06	323.66
682.40	322.60
682.74	321.49
683.08	320.48
683.42	319.28
683.75	318.25
684.09	317.09
684.43	316.08
684.77	314.92
685.10	313.78
685.44	312.55
685.78	311.32
686.12	310.46
686.45	309.42
686.79	308.33
687.13	307.27
687.46	306.34
687.80	305.43
688.14	304.34
688.48	303.38
688.81	302.37
689.15	301.54
689.49	300.45
689.82	299.50
690.16	298.33
690.50	297.36
690.83	296.33
691.17	295.28
691.51	294.34
691.84	293.52
692.18	292.65
692.52	291.90
692.85	291.12
693.19	290.25
693.52	289.35
693.86	288.52
694.20	287.75
694.53	286.93
694.87	286.07
695.21	285.19
695.54	284.38
695.88	283.55
696.21	282.58
696.55	281.83
696.88	280.99
697.22	280.27
697.56	279.57
697.89	278.67
698.23	277.98
698.56	277.23
698.90	276.50
699.23	275.83
699.57	275.05
699.90	274.23
700.24	273.46
700.58	272.76
700.91	272.12
701.25	271.58
701.58	270.93
701.92	270.27
702.25	269.67
702.59	269.01
702.92	268.40
703.26	267.73
703.59	267.11
703.93	266.81
704.26	266.20
704.60	265.66
704.93	265.23
705.26	264.60
705.60	264.11
705.93	263.39
706.27	262.84
706.60	262.38
706.94	262.02
707.27	261.41
707.61	260.97
707.94	260.49
708.27	259.63
708.61	259.06
708.94	258.57
709.28	258.01
709.61	257.48
709.94	256.98
710.28	256.65
710.61	256.20
710.95	255.36
711.28	255.11
711.61	254.61
711.95	254.17
712.28	253.74
712.61	253.30
712.95	253.04
713.28	252.68
713.61	252.12
713.95	251.61
714.28	251.30
714.61	250.80
714.95	250.35
715.28	249.95
715.61	249.48
715.95	249.14
716.28	248.67
716.61	248.28
716.95	247.88
717.28	247.39
717.61	246.93
717.94	246.59
718.28	246.01
718.61	245.59
718.94	245.11
719.27	244.68
719.61	244.32
719.94	243.88
720.27	243.35
720.60	243.08
720.94	242.71
721.27	242.32
721.60	242.04
721.93	241.71
722.27	241.65
722.60	241.35
722.93	240.92
723.26	240.65
723.59	240.35
723.93	240.06
724.26	239.85
724.59	239.64
724.92	239.34
725.25	239.13
725.59	238.84
725.92	238.71
726.25	238.50
726.58	238.18
726.91	237.94
727.24	237.73
727.57	237.44
727.91	237.16
728.24	236.94
728.57	236.61
728.90	236.37
729.23	235.87
729.56	235.85
729.89	235.63
730.22	235.35
730.55	235.11
730.89	234.88
731.22	234.54
731.55	234.26
731.88	234.08
732.21	233.82
732.54	233.64
732.87	233.39
733.20	233.13
733.53	233.00
733.86	232.85
734.19	232.61
734.52	232.43
734.85	232.44
735.18	232.22
735.51	232.13
735.84	231.90
736.17	231.79
736.50	231.38
736.83	231.60
737.16	231.43
737.49	231.24
737.82	230.99
738.15	230.90
738.48	230.63
738.81	230.35
739.14	230.02
739.47	229.76
739.80	229.55
740.13	229.46
740.46	229.25
740.79	228.97
741.12	228.83
741.45	228.55
741.78	228.17
742.11	228.03
742.44	227.80
742.77	227.68
743.10	227.47
743.43	227.25
743.75	226.70
744.08	227.07
744.41	226.83
744.74	226.70
745.07	226.41
745.40	226.42
745.73	226.42
746.06	226.26
746.39	226.15
746.71	226.03
747.04	225.76
747.37	225.52
747.70	225.37
748.03	225.20
748.36	225.18
748.68	225.11
749.01	224.86
749.34	224.68
749.67	224.52
750.00	224.46
750.33	224.57
750.65	224.45
750.98	223.79
751.31	223.78
751.64	223.71
751.97	223.86
752.29	223.63
752.62	223.38
752.95	223.30
753.28	223.11
753.60	222.92
753.93	222.97
754.26	222.98
754.59	222.81
754.91	222.67
755.24	222.48
755.57	222.26
755.90	222.16
756.22	222.06
756.55	221.85
756.88	221.66
757.20	221.30
757.53	221.08
757.86	220.92
758.19	220.73
758.51	220.57
758.84	220.23
759.17	220.08
759.49	220.01
759.82	220.10
760.15	220.05
760.47	219.90
760.80	219.69
761.13	219.58
761.45	219.48
761.78	219.41
762.11	219.35
762.43	219.28
762.76	219.14
763.08	219.12
763.41	219.12
763.74	219.02
764.06	218.96
764.39	218.89
764.71	218.94
765.04	218.85
765.37	218.74
765.69	218.65
766.02	218.62
766.34	218.49
766.67	218.27
767.00	218.29
767.32	218.48
767.65	218.55
767.97	218.45
768.30	218.41
768.62	218.37
768.95	218.24
769.27	218.14
769.60	218.20
769.92	218.00
770.25	217.87
770.57	217.76
770.90	217.73
771.22	217.67
771.55	217.52
771.87	217.50
772.20	217.43
772.52	217.72
772.85	218.00
773.17	217.94
773.50	217.87
773.82	217.76
774.15	217.50
774.47	217.32
774.80	217.17
775.12	217.14
775.45	217.01
775.77	217.00
776.09	216.99
776.42	216.91
776.74	216.97
777.07	216.87
777.39	216.79
777.72	216.67
778.04	216.70
778.36	216.70
778.69	216.69
779.01	216.65
779.33	216.25
779.66	215.84
779.98	215.76
780.31	215.72
780.63	215.75
780.95	215.69
781.28	215.64
781.60	215.56
781.92	215.50
782.25	215.40
782.57	215.27
782.89	215.18
783.22	215.08
783.54	214.99
783.86	214.95
784.19	214.93
784.51	214.95
784.83	214.80
785.16	214.69
785.48	214.63
785.80	214.61
786.12	214.66
786.45	214.62
786.77	214.61
787.09	214.52
787.42	214.38
787.74	214.41
788.06	214.35
788.38	214.29
788.71	214.15
789.03	214.17
789.35	214.24
789.67	214.21
789.99	214.22
790.32	214.12
790.64	214.15
790.96	214.49
791.28	214.37
791.61	214.35
791.93	214.33
792.25	214.23
792.57	214.43
792.89	214.24
793.21	214.27
793.54	214.19
793.86	214.12
