SpectraSuite Data File
++++++++++++++++++++++++++++++++++++
Date: Mon Feb 25 17:04:45 EST 2013
User: group
Dark Spectrum Present: No
Reference Spectrum Present: No
Number of Sampled Component Spectra: 1
Spectrometers: USB2E7196
Integration Time (usec): 104000 (USB2E7196)
Spectra Averaged: 20 (USB2E7196)
Boxcar Smoothing: 10 (USB2E7196)
Correct for Electrical Dark: No (USB2E7196)
Strobe/Lamp Enabled: No (USB2E7196)
Correct for Detector Non-linearity: No (USB2E7196)
Correct for Stray Light: No (USB2E7196)
Number of Pixels in Processed Spectrum: 2048
>>>>>Begin Processed Spectral Data<<<<<
339.09	0.00
339.48	198.15
339.86	200.40
340.24	201.85
340.63	203.00
341.01	208.40
341.39	204.30
341.78	208.15
342.16	209.05
342.54	208.70
342.93	198.08
343.31	208.08
343.69	208.62
344.07	209.07
344.46	209.51
344.84	209.84
345.22	209.91
345.60	210.19
345.99	210.32
346.37	210.41
346.75	210.50
347.13	210.57
347.52	210.67
347.90	210.87
348.28	210.79
348.66	210.99
349.05	210.89
349.43	211.00
349.81	211.03
350.19	211.06
350.57	211.11
350.96	211.12
351.34	211.22
351.72	211.39
352.10	211.46
352.48	211.49
352.87	211.59
353.25	211.63
353.63	211.71
354.01	211.74
354.39	211.82
354.77	211.91
355.15	212.10
355.54	212.09
355.92	212.04
356.30	212.17
356.68	212.46
357.06	212.54
357.44	212.54
357.82	212.65
358.20	212.85
358.58	212.89
358.97	212.99
359.35	213.07
359.73	213.14
360.11	213.16
360.49	213.17
360.87	213.22
361.25	213.36
361.63	213.53
362.01	213.61
362.39	213.67
362.77	213.70
363.15	213.66
363.53	213.69
363.91	213.70
364.29	213.75
364.67	213.41
365.05	213.38
365.43	213.36
365.81	213.40
366.19	213.44
366.57	213.54
366.95	213.54
367.33	213.40
367.71	213.39
368.09	213.46
368.47	213.52
368.85	213.46
369.23	213.54
369.61	213.34
369.99	213.39
370.37	213.29
370.75	213.45
371.13	213.38
371.51	213.34
371.89	213.35
372.27	213.29
372.65	213.29
373.03	213.31
373.41	213.28
373.78	213.16
374.16	213.00
374.54	212.84
374.92	212.73
375.30	212.72
375.68	212.56
376.06	212.58
376.44	212.51
376.82	212.51
377.19	212.40
377.57	212.37
377.95	212.23
378.33	212.17
378.71	211.86
379.09	211.81
379.47	211.83
379.84	211.69
380.22	211.59
380.60	211.43
380.98	211.35
381.36	211.25
381.73	211.11
382.11	211.05
382.49	211.02
382.87	210.90
383.25	210.86
383.62	211.26
384.00	211.10
384.38	211.05
384.76	211.08
385.13	211.10
385.51	211.12
385.89	211.01
386.27	211.05
386.64	211.11
387.02	211.05
387.40	210.91
387.78	210.89
388.15	210.93
388.53	210.87
388.91	210.89
389.29	210.85
389.66	210.95
390.04	210.89
390.42	210.95
390.79	211.03
391.17	211.04
391.55	210.63
391.92	210.65
392.30	210.60
392.68	210.49
393.05	210.49
393.43	210.43
393.81	210.48
394.18	210.40
394.56	210.33
394.94	210.45
395.31	210.38
395.69	210.50
396.06	210.52
396.44	210.58
396.82	210.52
397.19	210.80
397.57	210.76
397.95	210.85
398.32	210.69
398.70	210.68
399.07	210.76
399.45	210.74
399.82	210.72
400.20	210.75
400.58	210.77
400.95	210.67
401.33	210.78
401.70	211.03
402.08	211.06
402.45	211.14
402.83	211.20
403.20	211.37
403.58	211.35
403.95	211.46
404.33	211.60
404.71	211.66
405.08	211.98
405.46	212.10
405.83	212.14
406.21	212.33
406.58	212.53
406.96	212.55
407.33	212.68
407.70	212.89
408.08	213.35
408.45	213.55
408.83	213.84
409.20	214.02
409.58	214.02
409.95	214.38
410.33	214.71
410.70	214.95
411.08	215.30
411.45	215.73
411.82	216.01
412.20	216.45
412.57	217.08
412.95	217.05
413.32	217.50
413.69	218.00
414.07	218.52
414.44	219.05
414.82	219.73
415.19	220.53
415.56	221.22
415.94	221.77
416.31	222.76
416.68	223.53
417.06	224.54
417.43	225.59
417.81	226.55
418.18	227.63
418.55	228.78
418.93	230.01
419.30	231.25
419.67	232.69
420.04	234.04
420.42	235.45
420.79	237.40
421.16	239.12
421.54	241.01
421.91	242.91
422.28	244.94
422.66	246.94
423.03	249.03
423.40	251.12
423.77	253.37
424.15	255.48
424.52	257.84
424.89	260.39
425.26	262.79
425.64	265.22
426.01	267.72
426.38	270.38
426.75	273.15
427.13	275.90
427.50	278.87
427.87	281.97
428.24	285.17
428.61	288.08
428.99	291.55
429.36	295.15
429.73	298.80
430.10	302.25
430.47	305.97
430.85	309.67
431.22	313.70
431.59	318.12
431.96	322.22
432.33	326.83
432.70	331.23
433.08	336.40
433.45	341.41
433.82	346.33
434.19	351.90
434.56	357.21
434.93	362.38
435.30	367.56
435.68	373.31
436.05	379.00
436.42	384.52
436.79	389.60
437.16	395.10
437.53	400.71
437.90	406.62
438.27	412.39
438.64	418.37
439.01	423.95
439.38	428.87
439.75	433.81
440.13	439.38
440.50	444.66
440.87	449.09
441.24	453.55
441.61	458.64
441.98	462.33
442.35	466.71
442.72	471.18
443.09	475.53
443.46	478.15
443.83	480.05
444.20	481.87
444.57	484.14
444.94	485.48
445.31	487.05
445.68	488.62
446.05	489.39
446.42	489.20
446.79	488.96
447.16	488.58
447.53	488.41
447.90	486.51
448.27	484.74
448.64	482.09
449.01	480.36
449.37	476.82
449.74	473.35
450.11	469.44
450.48	464.90
450.85	460.07
451.22	456.16
451.59	452.37
451.96	448.78
452.33	444.01
452.70	439.50
453.07	434.05
453.43	428.14
453.80	422.98
454.17	417.95
454.54	413.03
454.91	407.76
455.28	402.62
455.65	397.95
456.02	393.51
456.38	389.44
456.75	384.28
457.12	380.01
457.49	375.92
457.86	371.61
458.23	368.20
458.59	364.52
458.96	360.72
459.33	357.15
459.70	353.65
460.07	350.82
460.43	347.63
460.80	344.69
461.17	342.38
461.54	339.46
461.91	336.87
462.27	334.28
462.64	331.97
463.01	329.49
463.38	327.20
463.74	324.33
464.11	322.17
464.48	320.31
464.85	318.29
465.21	316.77
465.58	315.13
465.95	313.01
466.32	311.22
466.68	309.49
467.05	307.93
467.42	306.19
467.78	304.40
468.15	302.84
468.52	301.63
468.88	299.81
469.25	298.40
469.62	297.18
469.98	295.93
470.35	294.83
470.72	293.75
471.08	292.39
471.45	291.51
471.82	290.57
472.18	289.41
472.55	288.58
472.92	287.55
473.28	286.58
473.65	285.66
474.02	284.87
474.38	284.22
474.75	283.59
475.11	283.07
475.48	282.65
475.85	282.18
476.21	281.59
476.58	281.25
476.94	280.95
477.31	280.55
477.67	280.17
478.04	279.78
478.41	279.50
478.77	279.64
479.14	279.24
479.50	279.05
479.87	278.91
480.23	278.85
480.60	278.65
480.96	278.55
481.33	278.69
481.69	278.63
482.06	278.62
482.42	278.56
482.79	278.51
483.15	278.52
483.52	278.74
483.88	278.88
484.25	278.93
484.61	279.10
484.98	279.28
485.34	279.68
485.71	280.05
486.07	280.34
486.44	280.30
486.80	280.75
487.17	281.09
487.53	281.71
487.90	282.17
488.26	282.91
488.62	283.62
488.99	284.21
489.35	284.94
489.72	285.65
490.08	286.35
490.44	287.12
490.81	287.97
491.17	288.65
491.54	289.54
491.90	290.43
492.26	291.31
492.63	292.27
492.99	293.03
493.36	294.09
493.72	295.23
494.08	296.37
494.45	297.58
494.81	298.73
495.17	299.79
495.54	301.10
495.90	302.19
496.26	303.39
496.63	304.68
496.99	305.87
497.35	307.18
497.72	308.50
498.08	309.83
498.44	311.14
498.80	312.58
499.17	313.89
499.53	315.26
499.89	316.60
500.26	317.92
500.62	319.31
500.98	320.67
501.34	321.93
501.71	323.23
502.07	324.47
502.43	325.71
502.79	326.90
503.16	328.09
503.52	329.36
503.88	330.47
504.24	331.66
504.60	332.85
504.97	334.03
505.33	335.13
505.69	336.40
506.05	337.47
506.41	338.48
506.78	339.46
507.14	340.42
507.50	341.41
507.86	342.45
508.22	343.43
508.59	344.21
508.95	345.16
509.31	346.27
509.67	347.24
510.03	348.18
510.39	349.04
510.75	349.72
511.12	350.45
511.48	351.24
511.84	351.91
512.20	352.64
512.56	353.30
512.92	354.14
513.28	354.72
513.64	355.42
514.00	356.10
514.37	356.79
514.73	357.50
515.09	358.24
515.45	358.72
515.81	359.30
516.17	359.76
516.53	360.19
516.89	360.52
517.25	360.83
517.61	361.35
517.97	361.85
518.33	362.38
518.69	362.97
519.05	363.61
519.41	364.16
519.77	364.86
520.13	365.35
520.49	365.68
520.85	366.22
521.21	366.84
521.57	367.44
521.93	367.95
522.29	368.56
522.65	369.10
523.01	369.82
523.37	370.49
523.73	371.39
524.09	372.19
524.45	373.08
524.81	374.03
525.17	375.05
525.53	376.03
525.89	377.02
526.25	378.05
526.61	378.90
526.97	380.08
527.33	381.15
527.68	382.66
528.04	384.04
528.40	385.20
528.76	386.53
529.12	387.88
529.48	389.52
529.84	390.91
530.20	392.48
530.56	394.19
530.91	395.93
531.27	397.56
531.63	399.35
531.99	400.93
532.35	402.63
532.71	404.28
533.07	406.13
533.42	408.49
533.78	410.43
534.14	412.66
534.50	414.46
534.86	416.61
535.21	418.39
535.57	420.60
535.93	422.80
536.29	425.10
536.65	427.34
537.00	429.48
537.36	431.82
537.72	434.02
538.08	436.37
538.44	438.69
538.79	441.03
539.15	443.40
539.51	445.99
539.87	448.55
540.22	451.13
540.58	453.78
540.94	456.03
541.29	458.57
541.65	460.93
542.01	463.83
542.37	466.47
542.72	469.22
543.08	471.78
543.44	474.63
543.79	477.13
544.15	479.82
544.51	482.82
544.87	485.75
545.22	488.55
545.58	491.20
545.94	493.95
546.29	496.69
546.65	499.48
547.01	502.07
547.36	504.97
547.72	507.65
548.07	510.35
548.43	513.04
548.79	515.53
549.14	518.12
549.50	520.76
549.86	523.22
550.21	525.71
550.57	528.39
550.92	530.75
551.28	533.36
551.64	535.98
551.99	538.20
552.35	540.62
552.70	543.00
553.06	545.42
553.41	547.85
553.77	550.50
554.13	552.94
554.48	555.80
554.84	558.28
555.19	560.67
555.55	563.21
555.90	565.37
556.26	567.72
556.61	570.08
556.97	572.18
557.32	574.36
557.68	576.41
558.03	578.41
558.39	580.54
558.74	582.82
559.10	584.83
559.45	587.13
559.81	589.27
560.16	591.29
560.52	593.39
560.87	595.32
561.23	597.06
561.58	599.42
561.94	600.96
562.29	602.59
562.64	604.46
563.00	606.04
563.35	608.00
563.71	609.93
564.06	611.87
564.42	613.63
564.77	615.45
565.12	617.51
565.48	619.78
565.83	621.58
566.19	623.14
566.54	624.88
566.89	626.28
567.25	627.89
567.60	629.55
567.96	631.19
568.31	632.85
568.66	634.43
569.02	635.38
569.37	636.42
569.72	637.77
570.08	638.81
570.43	639.90
570.78	640.86
571.14	641.67
571.49	642.47
571.84	643.50
572.20	644.18
572.55	644.88
572.90	644.98
573.26	645.58
573.61	645.83
573.96	646.18
574.31	646.46
574.67	646.54
575.02	646.61
575.37	646.59
575.72	646.46
576.08	646.60
576.43	646.56
576.78	646.76
577.13	646.71
577.49	646.74
577.84	646.85
578.19	647.04
578.54	647.32
578.90	647.45
579.25	647.20
579.60	646.99
579.95	646.69
580.30	646.75
580.66	646.78
581.01	646.75
581.36	646.46
581.71	646.28
582.06	646.34
582.42	646.39
582.77	646.21
583.12	646.06
583.47	645.84
583.82	645.78
584.17	645.57
584.53	645.51
584.88	645.36
585.23	645.23
585.58	644.75
585.93	644.35
586.28	644.03
586.63	643.82
586.98	643.95
587.34	643.68
587.69	643.19
588.04	642.72
588.39	642.34
588.74	641.91
589.09	641.74
589.44	641.07
589.79	640.48
590.14	640.05
590.49	639.61
590.84	639.12
591.19	638.58
591.54	638.08
591.89	637.23
592.25	636.77
592.60	635.81
592.95	635.13
593.30	634.12
593.65	633.19
594.00	632.24
594.35	632.04
594.70	631.20
595.05	630.31
595.40	629.29
595.75	628.41
596.10	627.69
596.45	626.78
596.80	626.17
597.15	625.50
597.50	624.55
597.85	623.75
598.19	622.70
598.54	621.73
598.89	620.84
599.24	620.06
599.59	619.07
599.94	618.36
600.29	617.46
600.64	616.68
600.99	615.77
601.34	615.06
601.69	613.35
602.04	612.31
602.39	611.65
602.74	610.97
603.08	610.21
603.43	609.61
603.78	608.66
604.13	607.65
604.48	606.78
604.83	606.15
605.18	605.35
605.53	604.49
605.87	603.59
606.22	602.76
606.57	601.86
606.92	600.73
607.27	599.61
607.62	598.78
607.96	598.01
608.31	597.16
608.66	596.13
609.01	594.92
609.36	594.06
609.70	592.80
610.05	591.48
610.40	590.38
610.75	588.90
611.10	587.89
611.44	586.33
611.79	584.84
612.14	583.30
612.49	581.66
612.83	580.33
613.18	578.81
613.53	577.29
613.88	575.61
614.22	574.27
614.57	572.77
614.92	571.16
615.27	569.61
615.61	568.01
615.96	566.51
616.31	565.27
616.65	563.77
617.00	562.34
617.35	560.95
617.70	559.19
618.04	557.60
618.39	555.70
618.74	554.33
619.08	552.80
619.43	551.28
619.78	549.76
620.12	548.12
620.47	546.63
620.82	544.93
621.16	543.30
621.51	541.75
621.85	540.17
622.20	538.40
622.55	536.62
622.89	534.90
623.24	533.22
623.59	531.32
623.93	529.72
624.28	527.98
624.62	526.61
624.97	525.10
625.32	523.30
625.66	521.88
626.01	520.24
626.35	518.55
626.70	516.87
627.04	515.35
627.39	513.85
627.73	512.30
628.08	510.92
628.43	509.18
628.77	507.36
629.12	505.81
629.46	504.45
629.81	502.94
630.15	501.43
630.50	499.63
630.84	498.06
631.19	496.25
631.53	494.70
631.88	492.73
632.22	490.93
632.57	489.74
632.91	487.96
633.26	486.32
633.60	484.66
633.95	483.09
634.29	481.42
634.64	479.78
634.98	478.08
635.32	476.51
635.67	475.13
636.01	473.76
636.36	472.16
636.70	470.65
637.05	469.22
637.39	467.66
637.73	466.33
638.08	465.08
638.42	463.75
638.77	462.23
639.11	460.71
639.45	459.31
639.80	457.50
640.14	455.92
640.49	454.37
640.83	452.72
641.17	451.15
641.52	449.58
641.86	447.90
642.20	446.40
642.55	444.56
642.89	442.91
643.23	441.25
643.58	439.80
643.92	437.96
644.26	436.26
644.61	434.75
644.95	433.29
645.29	431.51
645.64	429.91
645.98	428.22
646.32	426.73
646.66	425.07
647.01	423.45
647.35	422.02
647.69	420.49
648.04	419.09
648.38	417.56
648.72	416.10
649.06	414.48
649.41	412.81
649.75	411.39
650.09	409.90
650.43	408.33
650.78	406.64
651.12	405.07
651.46	403.49
651.80	402.00
652.14	400.36
652.49	398.94
652.83	397.38
653.17	395.97
653.51	394.41
653.85	393.07
654.20	391.64
654.54	390.08
654.88	388.55
655.22	387.18
655.56	385.61
655.90	384.07
656.25	382.65
656.59	381.17
656.93	379.75
657.27	378.47
657.61	376.96
657.95	375.53
658.29	374.12
658.64	372.81
658.98	371.27
659.32	369.76
659.66	368.35
660.00	366.91
660.34	365.47
660.68	364.05
661.02	362.54
661.36	361.19
661.70	359.95
662.05	358.63
662.39	357.30
662.73	356.11
663.07	354.98
663.41	353.72
663.75	352.46
664.09	351.14
664.43	349.64
664.77	348.43
665.11	347.20
665.45	346.04
665.79	344.73
666.13	343.50
666.47	342.30
666.81	341.05
667.15	339.81
667.49	338.74
667.83	337.65
668.17	336.46
668.51	335.33
668.85	334.13
669.19	333.16
669.53	331.93
669.87	330.78
670.21	329.54
670.55	328.50
670.89	327.72
671.23	326.73
671.57	325.82
671.91	324.83
672.25	323.76
672.58	322.89
672.92	321.92
673.26	321.04
673.60	320.05
673.94	319.03
674.28	318.08
674.62	317.19
674.96	316.24
675.30	315.40
675.64	314.54
675.97	313.61
676.31	312.75
676.65	311.89
676.99	311.15
677.33	310.25
677.67	309.26
678.01	308.13
678.34	307.20
678.68	306.46
679.02	305.55
679.36	304.72
679.70	303.87
680.04	303.03
680.37	302.06
680.71	301.20
681.05	300.44
681.39	299.69
681.73	298.78
682.06	298.04
682.40	297.32
682.74	296.51
683.08	295.88
683.42	294.91
683.75	294.14
684.09	293.19
684.43	292.39
684.77	291.62
685.10	290.88
685.44	290.10
685.78	289.18
686.12	288.45
686.45	287.68
686.79	286.83
687.13	286.13
687.46	285.38
687.80	284.78
688.14	283.98
688.48	283.22
688.81	282.44
689.15	281.75
689.49	280.80
689.82	280.08
690.16	279.20
690.50	278.50
690.83	277.71
691.17	276.92
691.51	276.27
691.84	275.66
692.18	274.98
692.52	274.32
692.85	273.80
693.19	273.26
693.52	272.70
693.86	272.05
694.20	271.37
694.53	270.80
694.87	270.11
695.21	269.49
695.54	268.82
695.88	268.19
696.21	267.50
696.55	267.05
696.88	266.43
697.22	265.86
697.56	265.41
697.89	264.89
698.23	264.41
698.56	263.79
698.90	263.27
699.23	262.71
699.57	262.25
699.90	261.65
700.24	261.00
700.58	260.44
700.91	259.96
701.25	259.76
701.58	259.32
701.92	258.97
702.25	258.52
702.59	258.16
702.92	257.71
703.26	257.22
703.59	256.75
703.93	256.52
704.26	256.13
704.60	255.67
704.93	255.29
705.26	254.86
705.60	254.61
705.93	254.15
706.27	253.77
706.60	253.47
706.94	253.16
707.27	252.75
707.61	252.27
707.94	251.87
708.27	251.16
708.61	250.65
708.94	250.16
709.28	249.79
709.61	249.37
709.94	249.00
710.28	248.66
710.61	248.31
710.95	247.72
711.28	247.55
711.61	247.10
711.95	246.74
712.28	246.31
712.61	245.76
712.95	245.50
713.28	245.32
713.61	244.78
713.95	244.31
714.28	244.03
714.61	243.77
714.95	243.32
715.28	242.96
715.61	242.67
715.95	242.35
716.28	241.91
716.61	241.65
716.95	241.27
717.28	241.00
717.61	240.66
717.94	240.33
718.28	239.77
718.61	239.49
718.94	239.18
719.27	238.90
719.61	238.71
719.94	238.39
720.27	237.93
720.60	237.74
720.94	237.48
721.27	237.17
721.60	236.96
721.93	236.75
722.27	236.65
722.60	236.43
722.93	236.07
723.26	235.92
723.59	235.55
723.93	235.38
724.26	235.07
724.59	234.86
724.92	234.69
725.25	234.56
725.59	234.35
725.92	234.17
726.25	233.93
726.58	233.71
726.91	233.49
727.24	233.30
727.57	233.09
727.91	232.86
728.24	232.72
728.57	232.50
728.90	232.34
729.23	231.99
729.56	231.95
729.89	231.84
730.22	231.61
730.55	231.40
730.89	231.14
731.22	230.97
731.55	230.70
731.88	230.47
732.21	230.20
732.54	229.99
732.87	229.75
733.20	229.65
733.53	229.44
733.86	229.34
734.19	229.11
734.52	228.96
734.85	229.01
735.18	228.76
735.51	228.64
735.84	228.50
736.17	228.44
736.50	228.08
736.83	228.35
737.16	228.24
737.49	228.16
737.82	228.01
738.15	227.85
738.48	227.75
738.81	227.57
739.14	227.40
739.47	227.22
739.80	227.11
740.13	226.99
740.46	226.85
740.79	226.62
741.12	226.50
741.45	226.23
741.78	225.83
742.11	225.79
742.44	225.51
742.77	225.38
743.10	225.20
743.43	225.08
743.75	224.52
744.08	224.75
744.41	224.53
744.74	224.35
745.07	224.17
745.40	224.08
745.73	224.08
746.06	223.91
746.39	223.80
746.71	223.62
747.04	223.39
747.37	223.25
747.70	223.16
748.03	223.01
748.36	222.95
748.68	222.87
749.01	222.66
749.34	222.60
749.67	222.50
750.00	222.36
750.33	222.43
750.65	222.32
750.98	221.76
751.31	221.66
751.64	221.58
751.97	221.67
752.29	221.57
752.62	221.32
752.95	221.25
753.28	221.12
753.60	221.01
753.93	221.07
754.26	220.98
754.59	220.78
754.91	220.71
755.24	220.61
755.57	220.51
755.90	220.36
756.22	220.14
756.55	219.98
756.88	219.90
757.20	219.54
757.53	219.41
757.86	219.38
758.19	219.37
758.51	219.30
758.84	218.99
759.17	218.85
759.49	218.77
759.82	218.96
760.15	218.89
760.47	218.84
760.80	218.61
761.13	218.62
761.45	218.51
761.78	218.45
762.11	218.35
762.43	218.23
762.76	218.18
763.08	218.18
763.41	218.14
763.74	217.99
764.06	218.03
764.39	217.92
764.71	217.90
765.04	217.76
765.37	217.69
765.69	217.68
766.02	217.55
766.34	217.47
766.67	217.18
767.00	217.22
767.32	217.33
767.65	217.48
767.97	217.40
768.30	217.41
768.62	217.32
768.95	217.21
769.27	217.12
769.60	217.16
769.92	217.11
770.25	217.01
770.57	216.98
770.90	216.88
771.22	216.85
771.55	216.71
771.87	216.65
772.20	216.61
772.52	216.77
772.85	217.19
773.17	217.11
773.50	217.03
773.82	216.89
774.15	216.65
774.47	216.37
774.80	216.22
775.12	216.16
775.45	216.07
775.77	216.08
776.09	216.13
776.42	216.03
776.74	216.05
777.07	216.00
777.39	215.91
777.72	215.85
778.04	215.82
778.36	215.74
778.69	215.73
779.01	215.70
779.33	215.44
779.66	215.03
779.98	214.97
780.31	214.97
780.63	215.13
780.95	215.17
781.28	215.12
781.60	215.11
781.92	215.06
782.25	215.06
782.57	214.96
782.89	214.86
783.22	214.83
783.54	214.70
783.86	214.64
784.19	214.60
784.51	214.68
784.83	214.61
785.16	214.61
785.48	214.55
785.80	214.50
786.12	214.52
786.45	214.50
786.77	214.50
787.09	214.44
787.42	214.24
787.74	214.14
788.06	214.13
788.38	214.08
788.71	214.01
789.03	214.06
789.35	214.22
789.67	214.10
789.99	214.05
790.32	213.99
790.64	214.04
790.96	214.31
791.28	214.14
791.61	214.15
791.93	214.20
792.25	214.15
792.57	214.38
792.89	214.24
793.21	214.20
793.54	214.21
793.86	214.20
794.18	214.10
