SpectraSuite Data File
++++++++++++++++++++++++++++++++++++
Date: Mon Feb 25 17:15:08 EST 2013
User: group
Dark Spectrum Present: No
Reference Spectrum Present: No
Number of Sampled Component Spectra: 1
Spectrometers: USB2E7196
Integration Time (usec): 104000 (USB2E7196)
Spectra Averaged: 20 (USB2E7196)
Boxcar Smoothing: 10 (USB2E7196)
Correct for Electrical Dark: No (USB2E7196)
Strobe/Lamp Enabled: No (USB2E7196)
Correct for Detector Non-linearity: No (USB2E7196)
Correct for Stray Light: No (USB2E7196)
Number of Pixels in Processed Spectrum: 2048
>>>>>Begin Processed Spectral Data<<<<<
339.09	0.00
339.48	198.10
339.86	200.40
340.24	201.20
340.63	203.00
341.01	209.35
341.39	204.70
341.78	208.35
342.16	209.40
342.54	208.60
342.93	198.40
343.31	208.40
343.69	209.00
344.07	209.45
344.46	209.95
344.84	210.33
345.22	210.41
345.60	210.80
345.99	210.97
346.37	211.03
346.75	211.16
347.13	211.22
347.52	211.35
347.90	211.47
348.28	211.56
348.66	211.60
349.05	211.50
349.43	211.54
349.81	211.63
350.19	211.68
350.57	211.70
350.96	211.72
351.34	211.78
351.72	211.81
352.10	211.87
352.48	211.95
352.87	211.99
353.25	212.07
353.63	211.98
354.01	212.03
354.39	212.07
354.77	212.14
355.15	212.24
355.54	212.23
355.92	212.13
356.30	212.09
356.68	212.40
357.06	212.50
357.44	212.45
357.82	212.44
358.20	212.52
358.58	212.60
358.97	212.68
359.35	212.80
359.73	212.98
360.11	213.09
360.49	213.01
360.87	213.04
361.25	213.05
361.63	213.23
362.01	213.30
362.39	213.41
362.77	213.43
363.15	213.47
363.53	213.50
363.91	213.59
364.29	213.61
364.67	213.27
365.05	213.35
365.43	213.45
365.81	213.58
366.19	213.77
366.57	213.94
366.95	213.93
367.33	213.87
367.71	213.78
368.09	213.79
368.47	213.84
368.85	213.80
369.23	213.87
369.61	213.74
369.99	213.78
370.37	213.73
370.75	213.90
371.13	213.86
371.51	213.79
371.89	213.84
372.27	213.91
372.65	213.90
373.03	213.89
373.41	213.80
373.78	213.71
374.16	213.42
374.54	213.24
374.92	213.25
375.30	213.25
375.68	213.15
376.06	213.23
376.44	213.23
376.82	213.28
377.19	213.25
377.57	213.20
377.95	213.07
378.33	213.06
378.71	212.80
379.09	212.82
379.47	212.88
379.84	212.79
380.22	212.67
380.60	212.61
380.98	212.56
381.36	212.50
381.73	212.43
382.11	212.45
382.49	212.49
382.87	212.30
383.25	212.25
383.62	212.70
384.00	212.52
384.38	212.47
384.76	212.51
385.13	212.57
385.51	212.52
385.89	212.46
386.27	212.45
386.64	212.49
387.02	212.38
387.40	212.27
387.78	212.22
388.15	212.17
388.53	212.09
388.91	212.04
389.29	212.04
389.66	212.03
390.04	211.96
390.42	211.99
390.79	212.01
391.17	212.02
391.55	211.52
391.92	211.47
392.30	211.52
392.68	211.40
393.05	211.44
393.43	211.49
393.81	211.44
394.18	211.36
394.56	211.33
394.94	211.46
395.31	211.45
395.69	211.56
396.06	211.61
396.44	211.65
396.82	211.62
397.19	211.80
397.57	211.80
397.95	211.91
398.32	211.77
398.70	211.85
399.07	211.92
399.45	211.92
399.82	211.91
400.20	211.90
400.58	211.95
400.95	211.83
401.33	211.91
401.70	212.23
402.08	212.30
402.45	212.31
402.83	212.34
403.20	212.37
403.58	212.42
403.95	212.52
404.33	212.69
404.71	212.79
405.08	213.00
405.46	213.13
405.83	213.25
406.21	213.35
406.58	213.44
406.96	213.51
407.33	213.74
407.70	214.01
408.08	214.43
408.45	214.60
408.83	214.85
409.20	215.02
409.58	215.04
409.95	215.31
410.33	215.63
410.70	215.87
411.08	216.27
411.45	216.54
411.82	216.81
412.20	217.21
412.57	217.84
412.95	217.99
413.32	218.50
413.69	218.94
414.07	219.51
414.44	220.09
414.82	220.67
415.19	221.35
415.56	221.92
415.94	222.42
416.31	223.26
416.68	224.01
417.06	224.92
417.43	225.86
417.81	226.81
418.18	227.80
418.55	228.77
418.93	229.80
419.30	230.90
419.67	232.13
420.04	233.32
420.42	234.51
420.79	236.21
421.16	237.71
421.54	239.40
421.91	241.03
422.28	242.74
422.66	244.48
423.03	246.46
423.40	248.27
423.77	250.17
424.15	252.04
424.52	254.01
424.89	256.19
425.26	258.20
425.64	260.29
426.01	262.45
426.38	264.76
426.75	267.17
427.13	269.73
427.50	272.18
427.87	274.91
428.24	277.50
428.61	279.87
428.99	282.75
429.36	285.63
429.73	288.62
430.10	291.61
430.47	294.76
430.85	297.74
431.22	301.08
431.59	304.90
431.96	308.36
432.33	312.15
432.70	315.74
433.08	320.01
433.45	323.95
433.82	328.06
434.19	332.60
434.56	337.03
434.93	341.04
435.30	345.23
435.68	349.66
436.05	354.14
436.42	358.64
436.79	362.65
437.16	367.07
437.53	371.63
437.90	376.24
438.27	380.71
438.64	385.33
439.01	389.77
439.38	393.43
439.75	397.08
440.13	401.25
440.50	405.12
440.87	408.37
441.24	411.74
441.61	415.38
441.98	418.01
442.35	421.12
442.72	424.39
443.09	427.71
443.46	429.58
443.83	430.94
444.20	431.90
444.57	433.42
444.94	434.06
445.31	434.86
445.68	435.84
446.05	435.99
446.42	435.36
446.79	434.75
447.16	433.87
447.53	433.41
447.90	431.66
448.27	430.01
448.64	427.45
449.01	425.58
449.37	422.55
449.74	419.62
450.11	416.26
450.48	412.35
450.85	408.21
451.22	404.87
451.59	401.44
451.96	398.44
452.33	394.40
452.70	390.68
453.07	386.16
453.43	381.21
453.80	377.03
454.17	372.96
454.54	368.98
454.91	364.87
455.28	360.68
455.65	356.83
456.02	353.41
456.38	350.26
456.75	346.35
457.12	342.87
457.49	339.47
457.86	336.03
458.23	333.35
458.59	330.35
458.96	327.30
459.33	324.62
459.70	321.87
460.07	319.61
460.43	317.08
460.80	314.78
461.17	312.95
461.54	310.72
461.91	308.71
462.27	306.61
462.64	304.82
463.01	303.00
463.38	301.35
463.74	299.00
464.11	297.34
464.48	295.94
464.85	294.38
465.21	293.32
465.58	292.06
465.95	290.48
466.32	289.21
466.68	287.90
467.05	286.72
467.42	285.50
467.78	284.26
468.15	283.14
468.52	282.43
468.88	281.10
469.25	280.13
469.62	279.32
469.98	278.50
470.35	277.73
470.72	276.94
471.08	275.96
471.45	275.34
471.82	274.70
472.18	273.82
472.55	273.45
472.92	272.64
473.28	272.05
473.65	271.59
474.02	271.08
474.38	270.83
474.75	270.49
475.11	270.19
475.48	269.98
475.85	269.81
476.21	269.43
476.58	269.41
476.94	269.32
477.31	269.24
477.67	269.12
478.04	269.13
478.41	269.25
478.77	269.65
479.14	269.75
479.50	269.93
479.87	270.30
480.23	270.50
480.60	270.87
480.96	271.22
481.33	271.72
481.69	272.16
482.06	272.52
482.42	273.05
482.79	273.56
483.15	274.10
483.52	274.97
483.88	275.66
484.25	276.41
484.61	277.30
484.98	278.19
485.34	279.31
485.71	280.44
486.07	281.43
486.44	282.30
486.80	283.57
487.17	284.87
487.53	286.36
487.90	287.94
488.26	289.70
488.62	291.45
488.99	293.10
489.35	295.01
489.72	297.01
490.08	299.07
490.44	301.12
490.81	303.52
491.17	305.65
491.54	308.20
491.90	310.78
492.26	313.43
492.63	316.28
492.99	319.26
493.36	322.49
493.72	325.98
494.08	329.55
494.45	333.21
494.81	337.13
495.17	340.95
495.54	345.10
495.90	349.33
496.26	353.84
496.63	358.48
496.99	363.29
497.35	368.40
497.72	373.67
498.08	379.22
498.44	384.89
498.80	391.09
499.17	397.30
499.53	403.80
499.89	410.61
500.26	417.40
500.62	424.31
500.98	431.61
501.34	439.12
501.71	446.94
502.07	454.95
502.43	463.17
502.79	471.63
503.16	480.33
503.52	489.40
503.88	498.71
504.24	508.32
504.60	518.14
504.97	528.30
505.33	538.65
505.69	549.55
506.05	560.41
506.41	571.46
506.78	583.02
507.14	594.63
507.50	606.48
507.86	618.68
508.22	631.30
508.59	644.04
508.95	657.29
509.31	670.63
509.67	684.35
510.03	698.17
510.39	712.68
510.75	727.32
511.12	741.89
511.48	756.70
511.84	772.03
512.20	787.34
512.56	802.99
512.92	818.89
513.28	834.93
513.64	851.11
514.00	867.55
514.37	883.93
514.73	900.79
515.09	917.72
515.45	934.65
515.81	951.86
516.17	968.98
516.53	986.39
516.89	1003.76
517.25	1021.26
517.61	1039.00
517.97	1056.50
518.33	1074.14
518.69	1091.81
519.05	1109.76
519.41	1127.78
519.77	1146.30
520.13	1164.13
520.49	1181.99
520.85	1200.19
521.21	1218.68
521.57	1236.98
521.93	1255.01
522.29	1273.53
522.65	1292.21
523.01	1310.85
523.37	1328.85
523.73	1347.03
524.09	1365.00
524.45	1383.18
524.81	1401.17
525.17	1419.47
525.53	1437.44
525.89	1455.55
526.25	1473.90
526.61	1491.64
526.97	1509.00
527.33	1526.12
527.68	1544.02
528.04	1560.93
528.40	1577.15
528.76	1593.67
529.12	1610.73
529.48	1628.15
529.84	1644.67
530.20	1660.86
530.56	1677.22
530.91	1694.31
531.27	1711.00
531.63	1727.04
531.99	1743.09
532.35	1758.83
532.71	1773.76
533.07	1789.40
533.42	1804.08
533.78	1818.92
534.14	1833.29
534.50	1846.88
534.86	1861.23
535.21	1874.54
535.57	1889.17
535.93	1903.07
536.29	1916.42
536.65	1929.53
537.00	1941.45
537.36	1953.35
537.72	1965.10
538.08	1976.99
538.44	1988.38
538.79	1999.76
539.15	2010.97
539.51	2022.32
539.87	2033.89
540.22	2044.78
540.58	2055.78
540.94	2066.60
541.29	2076.20
541.65	2085.66
542.01	2095.46
542.37	2104.59
542.72	2113.99
543.08	2122.20
543.44	2131.30
543.79	2139.38
544.15	2146.51
544.51	2154.83
544.87	2162.96
545.22	2170.07
545.58	2176.41
545.94	2182.10
546.29	2187.38
546.65	2192.80
547.01	2197.39
547.36	2202.02
547.72	2206.86
548.07	2210.29
548.43	2213.62
548.79	2217.01
549.14	2220.42
549.50	2224.05
549.86	2226.59
550.21	2228.63
550.57	2231.62
550.92	2233.18
551.28	2234.69
551.64	2236.72
551.99	2238.59
552.35	2239.72
552.70	2240.93
553.06	2242.36
553.41	2243.56
553.77	2244.85
554.13	2245.90
554.48	2246.72
554.84	2247.32
555.19	2247.23
555.55	2246.91
555.90	2246.28
556.26	2245.78
556.61	2244.97
556.97	2243.68
557.32	2243.08
557.68	2241.62
558.03	2239.64
558.39	2238.04
558.74	2237.45
559.10	2236.50
559.45	2234.25
559.81	2232.57
560.16	2230.75
560.52	2229.15
560.87	2227.00
561.23	2224.24
561.58	2221.92
561.94	2218.91
562.29	2215.25
562.64	2212.58
563.00	2210.25
563.35	2208.44
563.71	2206.64
564.06	2204.27
564.42	2201.94
564.77	2199.70
565.12	2197.89
565.48	2195.58
565.83	2193.25
566.19	2190.74
566.54	2186.60
566.89	2183.25
567.25	2179.99
567.60	2176.76
567.96	2172.93
568.31	2169.80
568.66	2166.03
569.02	2161.65
569.37	2157.39
569.72	2153.71
570.08	2149.44
570.43	2144.96
570.78	2139.92
571.14	2134.26
571.49	2129.34
571.84	2124.76
572.20	2118.50
572.55	2113.00
572.90	2107.03
573.26	2100.86
573.61	2094.59
573.96	2089.02
574.31	2082.80
574.67	2075.92
575.02	2068.74
575.37	2061.60
575.72	2053.86
576.08	2047.95
576.43	2041.27
576.78	2034.82
577.13	2028.58
577.49	2022.29
577.84	2015.62
578.19	2009.48
578.54	2003.79
578.90	1998.13
579.25	1991.34
579.60	1984.66
579.95	1977.56
580.30	1971.30
580.66	1965.53
581.01	1958.55
581.36	1951.60
581.71	1944.75
582.06	1938.40
582.42	1932.30
582.77	1925.61
583.12	1918.98
583.47	1912.28
583.82	1906.18
584.17	1899.66
584.53	1893.35
584.88	1886.53
585.23	1880.05
585.58	1873.20
585.93	1866.17
586.28	1859.40
586.63	1852.76
586.98	1846.61
587.34	1840.85
587.69	1833.97
588.04	1827.10
588.39	1820.46
588.74	1813.60
589.09	1807.69
589.44	1800.77
589.79	1794.58
590.14	1788.43
590.49	1782.36
590.84	1775.59
591.19	1769.60
591.54	1763.37
591.89	1755.93
592.25	1749.50
592.60	1742.60
592.95	1735.49
593.30	1727.77
593.65	1720.19
594.00	1713.04
594.35	1707.70
594.70	1700.85
595.05	1694.40
595.40	1687.76
595.75	1680.99
596.10	1674.85
596.45	1668.55
596.80	1662.84
597.15	1656.92
597.50	1650.59
597.85	1644.56
598.19	1638.08
598.54	1631.22
598.89	1625.14
599.24	1619.49
599.59	1613.50
599.94	1608.35
600.29	1603.01
600.64	1597.74
600.99	1591.57
601.34	1586.17
601.69	1578.85
602.04	1572.33
602.39	1566.26
602.74	1560.34
603.08	1555.00
603.43	1549.85
603.78	1543.74
604.13	1538.00
604.48	1531.85
604.83	1527.02
605.18	1521.98
605.53	1516.63
605.87	1510.90
606.22	1505.30
606.57	1499.48
606.92	1493.55
607.27	1487.27
607.62	1480.79
607.96	1475.34
608.31	1470.34
608.66	1464.12
609.01	1458.10
609.36	1452.20
609.70	1445.70
610.05	1439.20
610.40	1432.82
610.75	1426.03
611.10	1420.01
611.44	1412.48
611.79	1405.25
612.14	1397.52
612.49	1389.84
612.83	1382.94
613.18	1375.52
613.53	1368.32
613.88	1360.90
614.22	1353.82
614.57	1346.42
614.92	1339.60
615.27	1332.09
615.61	1324.64
615.96	1317.76
616.31	1311.11
616.65	1304.88
617.00	1298.90
617.35	1292.34
617.70	1285.38
618.04	1278.24
618.39	1270.74
618.74	1264.36
619.08	1257.38
619.43	1250.69
619.78	1244.33
620.12	1237.62
620.47	1231.33
620.82	1224.32
621.16	1217.47
621.51	1210.59
621.85	1204.15
622.20	1197.14
622.55	1190.58
622.89	1183.92
623.24	1177.27
623.59	1170.48
623.93	1163.31
624.28	1156.70
624.62	1150.36
624.97	1144.02
625.32	1137.65
625.66	1131.59
626.01	1125.51
626.35	1119.81
626.70	1113.49
627.04	1107.43
627.39	1101.37
627.73	1095.19
628.08	1089.45
628.43	1083.16
628.77	1077.08
629.12	1070.73
629.46	1065.44
629.81	1059.40
630.15	1053.66
630.50	1047.60
630.84	1041.39
631.19	1035.37
631.53	1029.26
631.88	1022.95
632.22	1016.68
632.57	1011.00
632.91	1004.80
633.26	998.78
633.60	992.95
633.95	987.58
634.29	981.33
634.64	975.67
634.98	969.58
635.32	963.97
635.67	958.88
636.01	953.31
636.36	947.52
636.70	941.97
637.05	936.68
637.39	931.25
637.73	925.98
638.08	921.25
638.42	916.29
638.77	911.02
639.11	905.75
639.45	900.65
639.80	895.24
640.14	889.88
640.49	884.44
640.83	879.11
641.17	873.85
641.52	868.80
641.86	863.30
642.20	858.55
642.55	852.89
642.89	847.38
643.23	842.00
643.58	837.25
643.92	831.70
644.26	826.45
644.61	821.29
644.95	816.03
645.29	810.47
645.64	805.21
645.98	800.01
646.32	794.95
646.66	789.82
647.01	785.01
647.35	780.31
647.69	775.19
648.04	770.33
648.38	765.13
648.72	760.17
649.06	755.21
649.41	750.18
649.75	745.61
650.09	740.92
650.43	736.27
650.78	731.19
651.12	726.26
651.46	721.44
651.80	716.80
652.14	712.04
652.49	707.35
652.83	702.54
653.17	697.39
653.51	692.52
653.85	687.88
654.20	682.91
654.54	678.15
654.88	673.58
655.22	668.87
655.56	664.05
655.90	659.38
656.25	654.60
656.59	650.00
656.93	645.50
657.27	641.21
657.61	636.60
657.95	632.30
658.29	628.08
658.64	624.00
658.98	619.57
659.32	615.14
659.66	610.94
660.00	606.81
660.34	602.69
660.68	598.58
661.02	594.41
661.36	590.39
661.70	586.33
662.05	582.56
662.39	578.81
662.73	575.27
663.07	571.73
663.41	568.26
663.75	564.53
664.09	560.75
664.43	556.66
664.77	553.10
665.11	549.50
665.45	545.95
665.79	542.35
666.13	538.76
666.47	535.40
666.81	532.08
667.15	528.61
667.49	525.56
667.83	522.52
668.17	519.29
668.51	516.35
668.85	513.27
669.19	510.28
669.53	507.05
669.87	504.09
670.21	500.99
670.55	497.84
670.89	495.10
671.23	492.34
671.57	489.67
671.91	486.77
672.25	483.90
672.58	481.13
672.92	478.21
673.26	475.58
673.60	472.98
673.94	470.10
674.28	467.44
674.62	464.86
674.96	462.18
675.30	459.68
675.64	457.05
675.97	454.61
676.31	452.27
676.65	449.76
676.99	447.44
677.33	444.87
677.67	442.53
678.01	439.92
678.34	437.47
678.68	435.07
679.02	432.66
679.36	430.34
679.70	428.00
680.04	425.81
680.37	423.41
680.71	421.02
681.05	419.02
681.39	416.81
681.73	414.60
682.06	412.49
682.40	410.44
682.74	408.23
683.08	406.14
683.42	403.73
683.75	401.75
684.09	399.35
684.43	397.31
684.77	395.22
685.10	393.20
685.44	390.96
685.78	388.92
686.12	387.07
686.45	385.20
686.79	383.15
687.13	381.26
687.46	379.34
687.80	377.66
688.14	375.53
688.48	373.78
688.81	371.80
689.15	369.93
689.49	367.91
689.82	366.10
690.16	364.08
690.50	362.29
690.83	360.36
691.17	358.56
691.51	356.75
691.84	355.00
692.18	353.29
692.52	351.76
692.85	350.36
693.19	348.80
693.52	347.04
693.86	345.49
694.20	343.88
694.53	342.42
694.87	340.76
695.21	339.28
695.54	337.70
695.88	336.06
696.21	334.51
696.55	333.09
696.88	331.65
697.22	330.24
697.56	328.93
697.89	327.50
698.23	326.10
698.56	324.74
698.90	323.48
699.23	322.19
699.57	320.76
699.90	319.37
700.24	318.01
700.58	316.86
700.91	315.66
701.25	314.64
701.58	313.44
701.92	312.13
702.25	310.97
702.59	309.76
702.92	308.66
703.26	307.44
703.59	306.35
703.93	305.51
704.26	304.44
704.60	303.33
704.93	302.35
705.26	301.31
705.60	300.35
705.93	299.21
706.27	298.17
706.60	297.31
706.94	296.42
707.27	295.31
707.61	294.25
707.94	293.19
708.27	291.95
708.61	290.87
708.94	290.02
709.28	289.08
709.61	288.16
709.94	287.36
710.28	286.61
710.61	285.71
710.95	284.50
711.28	283.79
711.61	282.90
711.95	282.14
712.28	281.31
712.61	280.48
712.95	279.91
713.28	279.31
713.61	278.45
713.95	277.56
714.28	276.89
714.61	276.19
714.95	275.43
715.28	274.66
715.61	273.81
715.95	273.08
716.28	272.27
716.61	271.50
716.95	270.71
717.28	269.99
717.61	269.25
717.94	268.60
718.28	267.72
718.61	267.00
718.94	266.21
719.27	265.65
719.61	265.01
719.94	264.24
720.27	263.34
720.60	262.67
720.94	262.07
721.27	261.47
721.60	260.89
721.93	260.35
722.27	259.93
722.60	259.52
722.93	258.97
723.26	258.46
723.59	257.85
723.93	257.35
724.26	256.75
724.59	256.23
724.92	255.76
725.25	255.44
725.59	255.02
725.92	254.61
726.25	254.13
726.58	253.64
726.91	253.14
727.24	252.80
727.57	252.47
727.91	251.92
728.24	251.52
728.57	251.05
728.90	250.66
729.23	250.13
729.56	249.91
729.89	249.49
730.22	249.12
730.55	248.76
730.89	248.38
731.22	248.00
731.55	247.66
731.88	247.27
732.21	246.80
732.54	246.36
732.87	246.00
733.20	245.59
733.53	245.17
733.86	244.87
734.19	244.48
734.52	244.11
734.85	244.02
735.18	243.64
735.51	243.45
735.84	243.14
736.17	242.90
736.50	242.39
736.83	242.48
737.16	242.22
737.49	241.97
737.82	241.65
738.15	241.39
738.48	241.08
738.81	240.77
739.14	240.43
739.47	240.09
739.80	239.79
740.13	239.49
740.46	239.16
740.79	238.79
741.12	238.42
741.45	238.02
741.78	237.50
742.11	237.19
742.44	236.77
742.77	236.46
743.10	236.12
743.43	235.86
743.75	235.25
744.08	235.35
744.41	234.96
744.74	234.63
745.07	234.29
745.40	234.12
745.73	234.03
746.06	233.72
746.39	233.50
746.71	233.23
747.04	232.93
747.37	232.71
747.70	232.52
748.03	232.38
748.36	232.18
748.68	231.99
749.01	231.76
749.34	231.47
749.67	231.27
750.00	231.12
750.33	231.11
750.65	230.84
750.98	230.16
751.31	230.02
751.64	229.83
751.97	229.84
752.29	229.58
752.62	229.20
752.95	228.96
753.28	228.75
753.60	228.55
753.93	228.45
754.26	228.30
754.59	228.04
754.91	227.78
755.24	227.61
755.57	227.40
755.90	227.19
756.22	227.04
756.55	226.77
756.88	226.44
757.20	226.02
757.53	225.74
757.86	225.52
758.19	225.35
758.51	225.17
758.84	224.80
759.17	224.54
759.49	224.38
759.82	224.40
760.15	224.22
760.47	224.08
760.80	223.77
761.13	223.63
761.45	223.42
761.78	223.26
762.11	223.17
762.43	222.99
762.76	222.83
763.08	222.75
763.41	222.67
763.74	222.69
764.06	222.56
764.39	222.43
764.71	222.34
765.04	222.24
765.37	222.15
765.69	222.02
766.02	221.92
766.34	221.87
766.67	221.60
767.00	221.59
767.32	221.58
767.65	221.79
767.97	221.66
768.30	221.63
768.62	221.56
768.95	221.37
769.27	221.32
769.60	221.32
769.92	221.14
770.25	220.97
770.57	220.70
770.90	220.60
771.22	220.47
771.55	220.38
771.87	220.28
772.20	220.21
772.52	220.44
772.85	220.77
773.17	220.65
773.50	220.56
773.82	220.44
774.15	220.20
774.47	219.92
774.80	219.74
775.12	219.66
775.45	219.55
775.77	219.49
776.09	219.40
776.42	219.30
776.74	219.41
777.07	219.31
777.39	219.32
777.72	219.17
778.04	219.24
778.36	219.14
778.69	219.10
779.01	219.03
779.33	218.62
779.66	218.19
779.98	218.06
780.31	218.05
780.63	218.15
780.95	218.22
781.28	218.16
781.60	218.11
781.92	218.10
782.25	218.08
782.57	217.99
782.89	217.87
783.22	217.75
783.54	217.63
783.86	217.66
784.19	217.63
784.51	217.67
784.83	217.50
785.16	217.48
785.48	217.46
785.80	217.43
786.12	217.41
786.45	217.38
786.77	217.39
787.09	217.34
