SpectraSuite Data File
++++++++++++++++++++++++++++++++++++
Date: Mon Feb 25 17:20:20 EST 2013
User: group
Dark Spectrum Present: No
Reference Spectrum Present: No
Number of Sampled Component Spectra: 1
Spectrometers: USB2E7196
Integration Time (usec): 104000 (USB2E7196)
Spectra Averaged: 20 (USB2E7196)
Boxcar Smoothing: 10 (USB2E7196)
Correct for Electrical Dark: No (USB2E7196)
Strobe/Lamp Enabled: No (USB2E7196)
Correct for Detector Non-linearity: No (USB2E7196)
Correct for Stray Light: No (USB2E7196)
Number of Pixels in Processed Spectrum: 2048
>>>>>Begin Processed Spectral Data<<<<<
339.09	0.00
339.48	199.25
339.86	200.00
340.24	202.40
340.63	203.65
341.01	210.30
341.39	205.95
341.78	209.25
342.16	209.45
342.54	208.20
342.93	198.51
343.31	208.54
343.69	209.06
344.07	209.53
344.46	209.98
344.84	210.37
345.22	210.41
345.60	210.67
345.99	210.82
346.37	210.98
346.75	211.05
347.13	211.10
347.52	211.22
347.90	211.45
348.28	211.52
348.66	211.64
349.05	211.57
349.43	211.64
349.81	211.79
350.19	211.98
350.57	212.14
350.96	212.19
351.34	212.28
351.72	212.38
352.10	212.52
352.48	212.58
352.87	212.62
353.25	212.72
353.63	212.76
354.01	212.80
354.39	212.89
354.77	213.07
355.15	213.30
355.54	213.33
355.92	213.31
356.30	213.37
356.68	213.68
357.06	213.77
357.44	213.87
357.82	213.88
358.20	213.99
358.58	214.01
358.97	214.18
359.35	214.31
359.73	214.43
360.11	214.48
360.49	214.58
360.87	214.64
361.25	214.75
361.63	214.93
362.01	215.04
362.39	215.05
362.77	215.11
363.15	215.10
363.53	215.06
363.91	215.09
364.29	215.08
364.67	214.79
365.05	214.93
365.43	214.95
365.81	215.04
366.19	215.20
366.57	215.43
366.95	215.37
367.33	215.23
367.71	215.29
368.09	215.40
368.47	215.37
368.85	215.37
369.23	215.44
369.61	215.36
369.99	215.48
370.37	215.48
370.75	215.59
371.13	215.48
371.51	215.45
371.89	215.42
372.27	215.50
372.65	215.48
373.03	215.32
373.41	215.25
373.78	215.11
374.16	214.81
374.54	214.54
374.92	214.56
375.30	214.62
375.68	214.47
376.06	214.35
376.44	214.21
376.82	214.16
377.19	214.05
377.57	214.00
377.95	213.80
378.33	213.72
378.71	213.57
379.09	213.57
379.47	213.54
379.84	213.45
380.22	213.32
380.60	213.24
380.98	213.19
381.36	213.13
381.73	213.09
382.11	213.19
382.49	213.25
382.87	213.10
383.25	213.02
383.62	213.43
384.00	213.37
384.38	213.47
384.76	213.47
385.13	213.59
385.51	213.56
385.89	213.43
386.27	213.40
386.64	213.36
387.02	213.33
387.40	213.34
387.78	213.35
388.15	213.39
388.53	213.39
388.91	213.42
389.29	213.39
389.66	213.49
390.04	213.43
390.42	213.46
390.79	213.51
391.17	213.62
391.55	213.18
391.92	213.22
392.30	213.18
392.68	213.14
393.05	213.15
393.43	213.11
393.81	213.21
394.18	213.16
394.56	213.21
394.94	213.29
395.31	213.21
395.69	213.32
396.06	213.41
396.44	213.46
396.82	213.44
397.19	213.64
397.57	213.63
397.95	213.66
398.32	213.57
398.70	213.64
399.07	213.70
399.45	213.77
399.82	213.80
400.20	213.85
400.58	213.86
400.95	213.70
401.33	213.88
401.70	214.19
402.08	214.33
402.45	214.38
402.83	214.55
403.20	214.80
403.58	214.87
403.95	214.93
404.33	215.14
404.71	215.30
405.08	215.58
405.46	215.76
405.83	216.01
406.21	216.20
406.58	216.46
406.96	216.68
407.33	217.01
407.70	217.31
408.08	217.90
408.45	218.31
408.83	218.77
409.20	219.04
409.58	219.17
409.95	219.66
410.33	220.14
410.70	220.50
411.08	220.97
411.45	221.54
411.82	222.23
412.20	222.89
412.57	223.77
412.95	224.19
413.32	224.93
413.69	225.64
414.07	226.50
414.44	227.38
414.82	228.26
415.19	229.37
415.56	230.44
415.94	231.41
416.31	232.75
416.68	234.08
417.06	235.67
417.43	237.19
417.81	238.80
418.18	240.42
418.55	242.24
418.93	244.20
419.30	246.19
419.67	248.21
420.04	250.38
420.42	252.56
420.79	255.34
421.16	257.96
421.54	260.85
421.91	263.66
422.28	266.52
422.66	269.68
423.03	272.79
423.40	275.99
423.77	279.37
424.15	282.71
424.52	286.23
424.89	290.09
425.26	293.80
425.64	297.32
426.01	301.27
426.38	305.29
426.75	309.43
427.13	313.63
427.50	318.02
427.87	322.55
428.24	327.21
428.61	331.64
428.99	336.57
429.36	341.77
429.73	346.92
430.10	352.11
430.47	357.34
430.85	362.74
431.22	368.55
431.59	374.80
431.96	380.75
432.33	387.29
432.70	393.49
433.08	400.84
433.45	407.75
433.82	414.72
434.19	422.49
434.56	429.90
434.93	437.12
435.30	444.18
435.68	452.27
436.05	460.03
436.42	467.75
436.79	474.96
437.16	482.66
437.53	490.79
437.90	498.82
438.27	506.68
438.64	514.88
439.01	522.40
439.38	529.05
439.75	535.37
440.13	542.75
440.50	549.90
440.87	555.68
441.24	561.65
441.61	568.02
441.98	572.71
442.35	578.31
442.72	584.02
443.09	589.74
443.46	592.92
443.83	595.01
444.20	596.74
444.57	599.30
444.94	600.48
445.31	601.84
445.68	603.19
446.05	603.66
446.42	602.65
446.79	601.60
447.16	600.31
447.53	599.65
447.90	596.37
448.27	593.20
448.64	588.78
449.01	585.62
449.37	580.22
449.74	575.02
450.11	569.06
450.48	562.20
450.85	555.10
451.22	549.05
451.59	543.56
451.96	538.35
452.33	531.36
452.70	524.85
453.07	517.16
453.43	509.08
453.80	501.57
454.17	494.44
454.54	487.62
454.91	480.34
455.28	473.18
455.65	466.73
456.02	460.33
456.38	454.72
456.75	447.75
457.12	441.97
457.49	436.22
457.86	430.27
458.23	425.53
458.59	420.27
458.96	415.02
459.33	410.26
459.70	405.41
460.07	401.51
460.43	397.24
460.80	393.22
461.17	389.92
461.54	386.22
461.91	382.75
462.27	379.18
462.64	376.27
463.01	372.99
463.38	369.87
463.74	366.31
464.11	363.50
464.48	361.09
464.85	358.45
465.21	356.58
465.58	354.57
465.95	351.92
466.32	349.84
466.68	347.83
467.05	345.78
467.42	343.72
467.78	341.60
468.15	339.59
468.52	338.13
468.88	336.05
469.25	334.40
469.62	333.05
469.98	331.68
470.35	330.35
470.72	329.14
471.08	327.58
471.45	326.62
471.82	325.62
472.18	324.45
472.55	323.64
472.92	322.44
473.28	321.58
473.65	320.85
474.02	320.12
474.38	319.55
474.75	319.22
475.11	318.73
475.48	318.44
475.85	318.19
476.21	317.83
476.58	317.78
476.94	317.80
477.31	317.79
477.67	317.73
478.04	317.91
478.41	318.20
478.77	318.96
479.14	319.18
479.50	319.58
479.87	320.18
480.23	320.81
480.60	321.49
480.96	322.23
481.33	323.26
481.69	324.27
482.06	325.23
482.42	326.17
482.79	327.49
483.15	328.82
483.52	330.35
483.88	331.85
484.25	333.47
484.61	335.18
484.98	336.90
485.34	339.11
485.71	341.21
486.07	343.46
486.44	345.48
486.80	347.97
487.17	350.73
487.53	353.74
487.90	356.90
488.26	360.30
488.62	363.86
488.99	367.25
489.35	371.01
489.72	375.03
490.08	379.24
490.44	383.50
490.81	388.06
491.17	392.88
491.54	398.04
491.90	403.34
492.26	408.91
492.63	414.88
492.99	420.87
493.36	427.31
493.72	434.11
494.08	441.27
494.45	448.85
494.81	456.61
495.17	464.44
495.54	472.93
495.90	481.71
496.26	490.84
496.63	500.45
496.99	510.37
497.35	520.91
497.72	531.68
498.08	542.87
498.44	554.55
498.80	567.05
499.17	579.82
499.53	592.79
499.89	606.49
500.26	620.35
500.62	634.63
500.98	649.77
501.34	665.32
501.71	681.50
502.07	697.99
502.43	714.96
502.79	732.50
503.16	750.51
503.52	769.15
503.88	788.10
504.24	807.70
504.60	827.90
504.97	848.45
505.33	869.75
505.69	892.36
506.05	914.98
506.41	937.65
506.78	961.08
507.14	985.14
507.50	1009.80
507.86	1034.96
508.22	1060.60
508.59	1086.51
508.95	1113.51
509.31	1140.49
509.67	1168.21
510.03	1196.43
510.39	1225.56
510.75	1255.11
511.12	1284.75
511.48	1314.90
511.84	1345.54
512.20	1376.04
512.56	1407.75
512.92	1439.92
513.28	1471.77
513.64	1504.02
514.00	1536.43
514.37	1568.89
514.73	1602.44
515.09	1635.58
515.45	1668.95
515.81	1702.65
516.17	1736.61
516.53	1770.19
516.89	1804.45
517.25	1838.54
517.61	1873.04
517.97	1906.80
518.33	1940.59
518.69	1974.85
519.05	2009.43
519.41	2044.45
519.77	2079.54
520.13	2113.59
520.49	2147.26
520.85	2181.95
521.21	2216.75
521.57	2252.03
521.93	2286.17
522.29	2321.24
522.65	2356.15
523.01	2390.66
523.37	2424.40
523.73	2458.44
524.09	2492.16
524.45	2526.15
524.81	2559.97
525.17	2593.96
525.53	2627.92
525.89	2661.60
526.25	2694.36
526.61	2726.41
526.97	2758.71
527.33	2790.55
527.68	2822.56
528.04	2853.93
528.40	2883.20
528.76	2913.49
529.12	2943.83
529.48	2975.77
529.84	3005.37
530.20	3034.89
530.56	3064.49
530.91	3095.44
531.27	3124.86
531.63	3153.89
531.99	3182.36
532.35	3209.80
532.71	3236.78
533.07	3264.47
533.42	3290.31
533.78	3317.51
534.14	3343.69
534.50	3367.09
534.86	3392.55
535.21	3416.15
535.57	3441.44
535.93	3465.89
536.29	3488.80
536.65	3511.60
537.00	3532.69
537.36	3553.05
537.72	3573.50
538.08	3593.80
538.44	3613.27
538.79	3633.29
539.15	3653.02
539.51	3672.05
539.87	3692.00
540.22	3710.28
540.58	3728.85
540.94	3747.25
541.29	3763.00
541.65	3778.32
542.01	3794.94
542.37	3809.93
542.72	3825.83
543.08	3839.11
543.44	3854.51
543.79	3867.70
544.15	3879.81
544.51	3892.88
544.87	3906.57
545.22	3918.39
545.58	3929.00
545.94	3938.22
546.29	3946.65
546.65	3954.37
547.01	3962.00
547.36	3969.21
547.72	3976.31
548.07	3981.06
548.43	3986.15
548.79	3991.04
549.14	3996.45
549.50	4001.75
549.86	4005.22
550.21	4008.28
550.57	4012.36
550.92	4013.66
551.28	4015.77
551.64	4017.99
551.99	4020.33
552.35	4021.18
552.70	4022.45
553.06	4023.98
553.41	4025.48
553.77	4026.11
554.13	4026.58
554.48	4027.15
554.84	4027.62
555.19	4026.76
555.55	4025.62
555.90	4023.75
556.26	4022.01
556.61	4019.88
556.97	4016.48
557.32	4014.46
557.68	4010.99
558.03	4006.94
558.39	4003.68
558.74	4001.82
559.10	3999.17
559.45	3994.86
559.81	3991.59
560.16	3986.76
560.52	3982.76
560.87	3977.93
561.23	3972.23
561.58	3967.76
561.94	3961.37
562.29	3954.03
562.64	3948.56
563.00	3943.26
563.35	3938.70
563.71	3934.97
564.06	3930.05
564.42	3925.80
564.77	3920.90
565.12	3916.47
565.48	3910.92
565.83	3905.60
566.19	3900.23
566.54	3893.05
566.89	3885.81
567.25	3879.01
567.60	3872.41
567.96	3864.71
568.31	3857.85
568.66	3850.90
569.02	3842.48
569.37	3834.10
569.72	3826.88
570.08	3818.25
570.43	3809.41
570.78	3800.34
571.14	3789.34
571.49	3779.14
571.84	3769.52
572.20	3757.88
572.55	3747.89
572.90	3736.98
573.26	3725.09
573.61	3712.55
573.96	3701.07
574.31	3688.50
574.67	3675.13
575.02	3661.84
575.37	3649.04
575.72	3635.17
576.08	3623.19
576.43	3609.58
576.78	3597.24
577.13	3584.78
577.49	3572.45
577.84	3559.96
578.19	3547.65
578.54	3537.06
578.90	3526.13
579.25	3513.24
579.60	3500.19
579.95	3486.15
580.30	3474.11
580.66	3462.72
581.01	3449.45
581.36	3436.20
581.71	3423.70
582.06	3411.31
582.42	3399.11
582.77	3385.75
583.12	3373.04
583.47	3360.53
583.82	3349.09
584.17	3336.56
584.53	3323.89
584.88	3311.20
585.23	3298.03
585.58	3284.83
585.93	3270.39
586.28	3256.98
586.63	3243.73
586.98	3231.65
587.34	3219.97
587.69	3206.77
588.04	3193.83
588.39	3181.66
588.74	3168.49
589.09	3156.66
589.44	3143.45
589.79	3131.37
590.14	3119.56
590.49	3107.23
590.84	3094.17
591.19	3082.54
591.54	3070.10
591.89	3055.60
592.25	3042.33
592.60	3028.91
592.95	3015.30
593.30	3001.43
593.65	2987.42
594.00	2974.42
594.35	2963.01
594.70	2949.62
595.05	2937.43
595.40	2924.34
595.75	2910.80
596.10	2899.20
596.45	2887.05
596.80	2875.77
597.15	2864.05
597.50	2851.50
597.85	2839.68
598.19	2827.35
598.54	2814.85
598.89	2803.35
599.24	2793.75
599.59	2782.65
599.94	2772.93
600.29	2762.48
600.64	2751.98
600.99	2739.91
601.34	2728.71
601.69	2715.85
602.04	2703.82
602.39	2692.06
602.74	2681.01
603.08	2671.20
603.43	2660.91
603.78	2649.45
604.13	2637.97
604.48	2627.04
604.83	2617.81
605.18	2608.46
605.53	2597.87
605.87	2586.36
606.22	2576.09
606.57	2564.38
606.92	2552.91
607.27	2540.90
607.62	2529.41
607.96	2518.96
608.31	2509.91
608.66	2498.56
609.01	2487.25
609.36	2475.97
609.70	2463.96
610.05	2452.02
610.40	2440.10
610.75	2427.44
611.10	2416.35
611.44	2403.24
611.79	2389.98
612.14	2376.08
612.49	2361.54
612.83	2348.87
613.18	2335.66
613.53	2321.80
613.88	2307.81
614.22	2295.30
614.57	2282.29
614.92	2269.33
615.27	2255.65
615.61	2242.10
615.96	2229.83
616.31	2218.11
616.65	2206.94
617.00	2195.47
617.35	2183.12
617.70	2170.18
618.04	2156.86
618.39	2143.08
618.74	2131.46
619.08	2118.66
619.43	2106.59
619.78	2095.00
620.12	2083.10
620.47	2071.76
620.82	2059.22
621.16	2047.20
621.51	2034.52
621.85	2022.59
622.20	2010.02
622.55	1998.02
622.89	1985.57
623.24	1972.96
623.59	1960.06
623.93	1947.34
624.28	1935.12
624.62	1923.41
624.97	1911.58
625.32	1900.41
625.66	1889.33
626.01	1877.88
626.35	1867.22
626.70	1856.01
627.04	1845.19
627.39	1833.92
627.73	1822.51
628.08	1812.25
628.43	1800.95
628.77	1789.86
629.12	1778.46
629.46	1768.63
629.81	1758.19
630.15	1747.76
630.50	1737.03
630.84	1726.01
631.19	1715.17
631.53	1704.47
631.88	1693.04
632.22	1681.88
632.57	1671.67
632.91	1660.65
633.26	1649.85
633.60	1639.23
633.95	1629.05
634.29	1618.06
634.64	1607.77
634.98	1597.06
635.32	1586.65
635.67	1577.33
636.01	1567.81
636.36	1557.50
636.70	1547.21
637.05	1537.26
637.39	1527.45
637.73	1518.40
638.08	1509.86
638.42	1501.15
638.77	1491.60
639.11	1482.49
639.45	1473.17
639.80	1462.96
640.14	1452.99
640.49	1443.28
640.83	1433.50
641.17	1423.53
641.52	1413.88
641.86	1403.61
642.20	1394.21
642.55	1383.84
642.89	1373.54
643.23	1363.17
643.58	1354.17
643.92	1344.03
644.26	1334.03
644.61	1324.24
644.95	1314.07
645.29	1304.15
645.64	1293.78
645.98	1284.15
646.32	1274.75
646.66	1265.23
647.01	1255.94
647.35	1247.07
647.69	1237.18
648.04	1228.17
648.38	1218.60
648.72	1209.29
649.06	1200.12
649.41	1191.01
649.75	1181.98
650.09	1173.21
650.43	1164.41
650.78	1154.79
651.12	1145.52
651.46	1136.48
651.80	1127.68
652.14	1118.96
652.49	1109.73
652.83	1100.93
653.17	1091.40
653.51	1082.21
653.85	1073.70
654.20	1065.13
654.54	1056.20
654.88	1047.95
655.22	1038.74
655.56	1030.10
655.90	1021.48
656.25	1012.80
656.59	1004.14
656.93	996.08
657.27	987.74
657.61	978.96
657.95	970.94
658.29	963.06
658.64	955.36
658.98	947.09
659.32	938.60
659.66	930.86
660.00	922.68
660.34	915.15
660.68	907.16
661.02	899.17
661.36	891.53
661.70	884.14
662.05	876.88
662.39	870.30
662.73	863.35
663.07	856.38
663.41	849.55
663.75	842.54
664.09	835.42
664.43	828.31
664.77	821.87
665.11	815.17
665.45	808.60
665.79	802.00
666.13	795.56
666.47	789.27
666.81	782.83
667.15	776.63
667.49	770.54
667.83	764.96
668.17	759.03
668.51	753.16
668.85	747.52
669.19	741.96
669.53	735.91
669.87	730.09
670.21	724.58
670.55	718.91
670.89	713.76
671.23	708.64
671.57	703.58
671.91	698.19
672.25	692.97
672.58	687.78
672.92	682.57
673.26	677.75
673.60	672.85
673.94	667.84
674.28	662.87
674.62	658.30
674.96	653.35
675.30	648.74
675.64	644.01
675.97	639.16
676.31	634.58
676.65	630.21
676.99	625.92
677.33	621.33
677.67	617.11
678.01	612.39
678.34	607.84
678.68	603.42
679.02	599.11
679.36	594.94
679.70	590.60
680.04	586.45
680.37	582.01
680.71	577.75
681.05	573.82
681.39	569.77
681.73	565.67
682.06	561.83
682.40	558.06
682.74	554.21
683.08	550.54
683.42	546.45
683.75	542.51
684.09	538.55
684.43	534.79
684.77	530.84
685.10	527.15
685.44	523.47
685.78	519.87
686.12	516.41
686.45	512.76
686.79	509.35
687.13	506.04
687.46	502.85
687.80	499.71
688.14	496.13
688.48	492.90
688.81	489.47
689.15	486.24
689.49	482.66
689.82	479.36
690.16	475.73
690.50	472.43
690.83	469.14
691.17	465.86
691.51	462.66
691.84	459.62
692.18	456.78
692.52	453.77
692.85	450.96
693.19	448.25
693.52	445.40
693.86	442.49
694.20	439.52
694.53	436.57
694.87	433.59
695.21	430.90
695.54	428.11
695.88	425.22
696.21	422.48
696.55	420.07
696.88	417.44
697.22	415.07
697.56	412.74
697.89	410.30
698.23	407.92
698.56	405.54
698.90	403.37
699.23	400.79
699.57	398.43
699.90	395.93
700.24	393.37
700.58	391.00
700.91	388.62
701.25	386.63
701.58	384.49
701.92	382.37
702.25	380.21
702.59	378.07
702.92	376.27
703.26	374.10
703.59	371.92
703.93	370.27
704.26	368.20
704.60	366.16
704.93	364.28
705.26	362.33
705.60	360.46
705.93	358.48
706.27	356.76
706.60	355.12
706.94	353.55
707.27	351.67
707.61	349.94
707.94	348.32
708.27	346.24
708.61	344.46
708.94	342.82
709.28	341.13
709.61	339.57
709.94	337.95
710.28	336.52
710.61	335.18
710.95	333.29
711.28	332.00
711.61	330.51
711.95	329.13
712.28	327.75
712.61	326.39
712.95	325.09
713.28	323.86
713.61	322.45
713.95	320.94
714.28	319.82
714.61	318.44
714.95	317.07
715.28	315.78
715.61	314.50
715.95	313.30
716.28	312.05
716.61	310.86
716.95	309.58
717.28	308.24
717.61	306.94
717.94	305.75
718.28	304.41
718.61	303.32
718.94	302.10
719.27	300.96
719.61	299.81
719.94	298.70
720.27	297.42
720.60	296.33
720.94	295.31
721.27	294.29
721.60	293.42
721.93	292.56
722.27	291.79
722.60	290.95
722.93	290.03
723.26	289.25
723.59	288.26
723.93	287.36
724.26	286.60
724.59	285.75
724.92	284.97
725.25	284.22
725.59	283.36
725.92	282.60
726.25	281.81
726.58	281.04
726.91	280.19
727.24	279.53
727.57	278.71
727.91	277.85
728.24	277.19
728.57	276.45
728.90	275.82
729.23	274.94
729.56	274.37
729.89	273.57
730.22	272.79
730.55	272.16
730.89	271.47
731.22	270.76
731.55	270.07
731.88	269.40
732.21	268.67
732.54	267.97
732.87	267.20
733.20	266.56
733.53	265.94
733.86	265.31
734.19	264.56
734.52	264.04
734.85	263.75
735.18	263.04
735.51	262.47
735.84	261.81
736.17	261.33
736.50	260.49
736.83	260.40
737.16	259.86
737.49	259.26
737.82	258.69
738.15	258.15
738.48	257.64
738.81	257.09
739.14	256.52
739.47	256.04
739.80	255.53
740.13	255.01
740.46	254.42
740.79	253.83
741.12	253.37
741.45	252.78
741.78	252.10
742.11	251.62
742.44	251.15
742.77	250.69
743.10	250.20
743.43	249.81
743.75	248.87
744.08	248.84
744.41	248.36
744.74	247.90
745.07	247.40
745.40	246.97
745.73	246.69
746.06	246.35
746.39	245.97
746.71	245.58
747.04	245.09
747.37	244.70
747.70	244.41
748.03	244.00
748.36	243.66
748.68	243.22
749.01	242.80
749.34	242.46
749.67	242.13
750.00	241.90
750.33	241.86
750.65	241.50
750.98	240.72
751.31	240.40
751.64	240.10
751.97	240.03
752.29	239.72
752.62	239.25
752.95	238.90
753.28	238.50
753.60	238.15
753.93	238.07
754.26	237.83
754.59	237.45
754.91	237.17
755.24	236.93
755.57	236.66
755.90	236.45
756.22	236.03
756.55	235.66
756.88	235.23
757.20	234.63
757.53	234.35
757.86	234.08
758.19	233.84
758.51	233.51
758.84	233.00
759.17	232.63
759.49	232.38
759.82	232.28
760.15	232.08
760.47	231.92
760.80	231.54
761.13	231.30
761.45	231.10
761.78	230.84
762.11	230.65
762.43	230.42
762.76	230.14
763.08	230.05
763.41	229.90
763.74	229.83
764.06	229.61
764.39	229.44
764.71	229.25
765.04	229.00
765.37	228.82
765.69	228.61
766.02	228.48
766.34	228.29
766.67	227.89
767.00	227.75
767.32	227.67
767.65	227.59
767.97	227.36
768.30	227.10
768.62	226.97
768.95	226.64
769.27	226.54
769.60	226.38
769.92	226.08
770.25	225.83
770.57	225.52
770.90	225.34
771.22	225.06
771.55	224.91
771.87	224.75
772.20	224.62
772.52	224.79
772.85	225.07
773.17	224.95
773.50	224.84
773.82	224.64
774.15	224.29
774.47	223.99
774.80	223.83
775.12	223.77
775.45	223.65
775.77	223.56
776.09	223.37
776.42	223.29
776.74	223.32
777.07	223.12
777.39	223.03
777.72	222.90
778.04	222.88
778.36	222.75
778.69	222.67
779.01	222.58
779.33	222.11
779.66	221.68
779.98	221.45
780.31	221.36
780.63	221.35
780.95	221.33
781.28	221.26
781.60	221.12
781.92	221.00
782.25	220.86
782.57	220.83
782.89	220.70
783.22	220.55
783.54	220.34
783.86	220.34
784.19	220.20
784.51	220.16
784.83	219.99
785.16	219.80
