SpectraSuite Data File
++++++++++++++++++++++++++++++++++++
Date: Mon Feb 25 17:11:59 EST 2013
User: group
Dark Spectrum Present: No
Reference Spectrum Present: No
Number of Sampled Component Spectra: 1
Spectrometers: USB2E7196
Integration Time (usec): 104000 (USB2E7196)
Spectra Averaged: 20 (USB2E7196)
Boxcar Smoothing: 10 (USB2E7196)
Correct for Electrical Dark: No (USB2E7196)
Strobe/Lamp Enabled: No (USB2E7196)
Correct for Detector Non-linearity: No (USB2E7196)
Correct for Stray Light: No (USB2E7196)
Number of Pixels in Processed Spectrum: 2048
>>>>>Begin Processed Spectral Data<<<<<
339.09	0.00
339.48	198.10
339.86	201.00
340.24	202.00
340.63	204.25
341.01	209.25
341.39	205.90
341.78	207.90
342.16	209.90
342.54	208.05
342.93	198.69
343.31	208.73
343.69	209.30
344.07	209.78
344.46	210.25
344.84	210.55
345.22	210.66
345.60	210.96
345.99	211.17
346.37	211.27
346.75	211.43
347.13	211.54
347.52	211.62
347.90	211.76
348.28	211.71
348.66	211.75
349.05	211.70
349.43	211.75
349.81	211.80
350.19	211.89
350.57	211.93
350.96	211.93
351.34	211.98
351.72	212.09
352.10	212.15
352.48	212.15
352.87	212.28
353.25	212.31
353.63	212.27
354.01	212.25
354.39	212.31
354.77	212.34
355.15	212.45
355.54	212.43
355.92	212.37
356.30	212.41
356.68	212.73
357.06	212.81
357.44	212.73
357.82	212.77
358.20	212.79
358.58	212.86
358.97	213.00
359.35	213.07
359.73	213.14
360.11	213.18
360.49	213.19
360.87	213.20
361.25	213.27
361.63	213.47
362.01	213.55
362.39	213.59
362.77	213.66
363.15	213.66
363.53	213.64
363.91	213.74
364.29	213.70
364.67	213.24
365.05	213.21
365.43	213.30
365.81	213.33
366.19	213.45
366.57	213.58
366.95	213.53
367.33	213.47
367.71	213.46
368.09	213.53
368.47	213.54
368.85	213.48
369.23	213.50
369.61	213.30
369.99	213.38
370.37	213.35
370.75	213.47
371.13	213.35
371.51	213.31
371.89	213.23
372.27	213.25
372.65	213.32
373.03	213.32
373.41	213.27
373.78	213.21
374.16	213.06
374.54	212.88
374.92	212.83
375.30	212.81
375.68	212.66
376.06	212.62
376.44	212.54
376.82	212.55
377.19	212.49
377.57	212.46
377.95	212.21
378.33	212.11
378.71	211.84
379.09	211.95
379.47	211.90
379.84	211.84
380.22	211.77
380.60	211.69
380.98	211.56
381.36	211.58
381.73	211.42
382.11	211.43
382.49	211.40
382.87	211.34
383.25	211.30
383.62	211.71
384.00	211.60
384.38	211.55
384.76	211.54
385.13	211.64
385.51	211.69
385.89	211.74
386.27	211.77
386.64	211.79
387.02	211.64
387.40	211.62
387.78	211.60
388.15	211.65
388.53	211.58
388.91	211.63
389.29	211.53
389.66	211.59
390.04	211.48
390.42	211.53
390.79	211.45
391.17	211.47
391.55	211.06
391.92	210.91
392.30	211.05
392.68	210.95
393.05	210.90
393.43	210.80
393.81	210.72
394.18	210.57
394.56	210.57
394.94	210.62
395.31	210.57
395.69	210.69
396.06	210.64
396.44	210.67
396.82	210.55
397.19	210.75
397.57	210.75
397.95	210.82
398.32	210.72
398.70	210.85
399.07	210.88
399.45	210.88
399.82	211.05
400.20	210.91
400.58	211.01
400.95	210.82
401.33	210.91
401.70	211.22
402.08	211.30
402.45	211.35
402.83	211.53
403.20	211.51
403.58	211.53
403.95	211.66
404.33	211.76
404.71	211.84
405.08	212.10
405.46	212.12
405.83	212.24
406.21	212.34
406.58	212.37
406.96	212.42
407.33	212.57
407.70	212.70
408.08	213.18
408.45	213.30
408.83	213.50
409.20	213.63
409.58	213.58
409.95	213.85
410.33	214.04
410.70	214.07
411.08	214.43
411.45	214.71
411.82	214.97
412.20	215.34
412.57	215.85
412.95	215.86
413.32	216.31
413.69	216.62
414.07	217.02
414.44	217.46
414.82	217.90
415.19	218.40
415.56	218.88
415.94	219.18
416.31	219.79
416.68	220.48
417.06	221.28
417.43	222.09
417.81	222.85
418.18	223.64
418.55	224.48
418.93	225.39
419.30	226.25
419.67	227.26
420.04	228.23
420.42	229.25
420.79	230.76
421.16	231.96
421.54	233.50
421.91	234.89
422.28	236.32
422.66	237.70
423.03	239.35
423.40	240.87
423.77	242.52
424.15	244.09
424.52	245.79
424.89	247.62
425.26	249.30
425.64	251.04
426.01	252.86
426.38	254.87
426.75	256.85
427.13	258.93
427.50	260.96
427.87	263.20
428.24	265.44
428.61	267.25
428.99	269.71
429.36	272.00
429.73	274.39
430.10	276.90
430.47	279.65
430.85	282.01
431.22	284.78
431.59	287.92
431.96	290.83
432.33	293.90
432.70	296.83
433.08	300.40
433.45	303.68
433.82	307.06
434.19	310.84
434.56	314.47
434.93	317.89
435.30	321.35
435.68	325.14
436.05	328.78
436.42	332.42
436.79	335.82
437.16	339.49
437.53	343.38
437.90	347.17
438.27	350.88
438.64	354.86
439.01	358.42
439.38	361.42
439.75	364.50
440.13	368.01
440.50	371.37
440.87	374.02
441.24	376.85
441.61	379.87
441.98	381.96
442.35	384.56
442.72	387.23
443.09	389.90
443.46	391.38
443.83	392.54
444.20	393.53
444.57	394.79
444.94	395.50
445.31	396.12
445.68	397.05
446.05	397.19
446.42	396.75
446.79	396.48
447.16	395.89
447.53	395.50
447.90	394.00
448.27	392.48
448.64	390.48
449.01	389.07
449.37	386.65
449.74	384.31
450.11	381.63
450.48	378.42
450.85	375.02
451.22	372.20
451.59	369.47
451.96	366.92
452.33	363.53
452.70	360.52
453.07	356.85
453.43	352.78
453.80	349.37
454.17	345.95
454.54	342.52
454.91	339.14
455.28	335.68
455.65	332.52
456.02	329.88
456.38	327.17
456.75	323.76
457.12	320.90
457.49	318.12
457.86	315.26
458.23	313.10
458.59	310.77
458.96	308.22
459.33	305.99
459.70	303.73
460.07	301.89
460.43	299.79
460.80	297.94
461.17	296.35
461.54	294.55
461.91	292.94
462.27	291.28
462.64	289.72
463.01	288.23
463.38	286.87
463.74	284.82
464.11	283.46
464.48	282.38
464.85	281.01
465.21	280.05
465.58	279.03
465.95	277.62
466.32	276.51
466.68	275.51
467.05	274.47
467.42	273.52
467.78	272.44
468.15	271.32
468.52	270.58
468.88	269.53
469.25	268.57
469.62	267.80
469.98	267.06
470.35	266.44
470.72	265.75
471.08	264.89
471.45	264.42
471.82	263.92
472.18	263.27
472.55	262.92
472.92	262.28
473.28	261.70
473.65	261.30
474.02	260.79
474.38	260.50
474.75	260.10
475.11	259.71
475.48	259.55
475.85	259.32
476.21	259.01
476.58	258.75
476.94	258.68
477.31	258.58
477.67	258.40
478.04	258.30
478.41	258.30
478.77	258.70
479.14	258.64
479.50	258.61
479.87	258.65
480.23	258.69
480.60	258.77
480.96	258.86
481.33	259.18
481.69	259.39
482.06	259.50
482.42	259.80
482.79	260.06
483.15	260.37
483.52	260.81
483.88	261.25
484.25	261.71
484.61	262.15
484.98	262.60
485.34	263.30
485.71	263.91
486.07	264.48
486.44	264.72
486.80	265.38
487.17	266.18
487.53	267.01
487.90	267.97
488.26	269.04
488.62	270.18
488.99	271.05
489.35	272.12
489.72	273.36
490.08	274.61
490.44	275.81
490.81	277.14
491.17	278.52
491.54	280.05
491.90	281.69
492.26	283.29
492.63	284.97
492.99	286.66
493.36	288.48
493.72	290.57
494.08	292.62
494.45	294.88
494.81	297.24
495.17	299.61
495.54	302.09
495.90	304.54
496.26	307.18
496.63	309.92
496.99	312.82
497.35	315.78
497.72	318.82
498.08	322.09
498.44	325.34
498.80	328.78
499.17	332.29
499.53	335.92
499.89	339.90
500.26	343.82
500.62	347.89
500.98	352.16
501.34	356.33
501.71	360.94
502.07	365.47
502.43	370.05
502.79	374.82
503.16	379.76
503.52	384.90
503.88	390.01
504.24	395.55
504.60	401.03
504.97	406.81
505.33	412.59
505.69	418.85
506.05	425.10
506.41	431.35
506.78	437.68
507.14	444.18
507.50	450.64
507.86	457.54
508.22	464.57
508.59	471.49
508.95	478.90
509.31	486.30
509.67	493.73
510.03	501.30
510.39	509.11
510.75	517.09
511.12	525.20
511.48	533.43
511.84	541.64
512.20	549.94
512.56	558.48
512.92	567.25
513.28	575.86
513.64	584.74
514.00	593.62
514.37	602.72
514.73	612.06
515.09	621.55
515.45	630.74
515.81	639.99
516.17	649.63
516.53	659.07
516.89	668.52
517.25	678.29
517.61	688.15
517.97	698.04
518.33	708.03
518.69	717.93
519.05	727.92
519.41	738.18
519.77	748.79
520.13	758.89
520.49	768.90
520.85	778.95
521.21	789.24
521.57	799.76
521.93	809.98
522.29	820.43
522.65	830.67
523.01	841.22
523.37	851.36
523.73	861.72
524.09	872.04
524.45	882.58
524.81	892.88
525.17	903.39
525.53	913.76
525.89	924.05
526.25	934.54
526.61	944.78
526.97	954.89
527.33	964.85
527.68	975.40
528.04	985.47
528.40	995.30
528.76	1005.21
529.12	1015.28
529.48	1025.86
529.84	1035.86
530.20	1045.97
530.56	1055.85
530.91	1066.20
531.27	1076.30
531.63	1086.06
531.99	1095.59
532.35	1105.40
532.71	1114.88
533.07	1124.49
533.42	1134.11
533.78	1143.27
534.14	1152.56
534.50	1160.84
534.86	1169.86
535.21	1177.83
535.57	1186.98
535.93	1195.77
536.29	1204.25
536.65	1212.63
537.00	1220.17
537.36	1227.54
537.72	1234.83
538.08	1242.55
538.44	1250.00
538.79	1257.57
539.15	1265.10
539.51	1272.63
539.87	1279.95
540.22	1286.98
540.58	1294.04
540.94	1300.62
541.29	1307.18
541.65	1313.18
542.01	1319.97
542.37	1326.08
542.72	1332.58
543.08	1338.08
543.44	1344.20
543.79	1349.56
544.15	1354.72
544.51	1360.65
544.87	1366.36
545.22	1371.78
545.58	1376.41
545.94	1380.99
546.29	1384.97
546.65	1388.82
547.01	1392.72
547.36	1396.56
547.72	1400.11
548.07	1403.44
548.43	1406.59
548.79	1409.63
549.14	1412.86
549.50	1415.84
549.86	1418.05
550.21	1420.43
550.57	1422.90
550.92	1424.58
551.28	1426.47
551.64	1428.35
551.99	1429.88
552.35	1431.35
552.70	1432.80
553.06	1434.57
553.41	1436.11
553.77	1437.50
554.13	1438.60
554.48	1439.82
554.84	1440.80
555.19	1441.60
555.55	1442.11
555.90	1442.37
556.26	1442.62
556.61	1442.58
556.97	1442.53
557.32	1443.07
557.68	1442.72
558.03	1442.36
558.39	1442.31
558.74	1442.66
559.10	1442.71
559.45	1442.39
559.81	1442.35
560.16	1441.77
560.52	1441.11
560.87	1440.23
561.23	1439.17
561.58	1439.16
561.94	1438.21
562.29	1436.85
562.64	1436.17
563.00	1435.16
563.35	1434.75
563.71	1434.45
564.06	1433.90
564.42	1433.37
564.77	1432.59
565.12	1432.15
565.48	1431.72
565.83	1430.85
566.19	1429.80
566.54	1427.97
566.89	1426.30
567.25	1424.83
567.60	1423.79
567.96	1422.16
568.31	1420.87
568.66	1419.28
569.02	1416.86
569.37	1414.46
569.72	1412.72
570.08	1410.40
570.43	1408.23
570.78	1405.58
571.14	1402.70
571.49	1400.02
571.84	1397.52
572.20	1394.45
572.55	1391.86
572.90	1388.53
573.26	1385.27
573.61	1382.11
573.96	1379.34
574.31	1375.94
574.67	1372.30
575.02	1368.18
575.37	1364.69
575.72	1360.74
576.08	1357.56
576.43	1353.80
576.78	1350.43
577.13	1346.92
577.49	1343.24
577.84	1339.65
578.19	1336.49
578.54	1333.40
578.90	1330.35
579.25	1326.59
579.60	1322.77
579.95	1318.50
580.30	1315.16
580.66	1311.96
581.01	1307.95
581.36	1304.13
581.71	1300.44
582.06	1296.83
582.42	1293.41
582.77	1289.68
583.12	1286.04
583.47	1282.42
583.82	1279.19
584.17	1275.59
584.53	1271.97
584.88	1268.58
585.23	1265.03
585.58	1261.18
585.93	1257.03
586.28	1253.41
586.63	1249.67
586.98	1246.28
587.34	1243.24
587.69	1239.37
588.04	1235.66
588.39	1232.26
588.74	1228.40
589.09	1225.32
589.44	1221.53
589.79	1218.07
590.14	1214.49
590.49	1210.84
590.84	1206.90
591.19	1203.62
591.54	1200.15
591.89	1195.93
592.25	1192.21
592.60	1188.16
592.95	1183.90
593.30	1179.73
593.65	1175.40
594.00	1171.51
594.35	1168.85
594.70	1164.83
595.05	1161.32
595.40	1157.44
595.75	1153.25
596.10	1149.70
596.45	1145.74
596.80	1142.57
597.15	1139.02
597.50	1135.34
597.85	1131.88
598.19	1128.08
598.54	1124.11
598.89	1120.49
599.24	1117.63
599.59	1113.99
599.94	1111.01
600.29	1107.79
600.64	1104.51
600.99	1100.91
601.34	1097.58
601.69	1092.96
602.04	1089.23
602.39	1085.51
602.74	1081.99
603.08	1079.20
603.43	1076.23
603.78	1072.76
604.13	1069.08
604.48	1065.58
604.83	1062.60
605.18	1059.55
605.53	1056.23
605.87	1052.66
606.22	1049.37
606.57	1045.64
606.92	1042.14
607.27	1038.39
607.62	1034.69
607.96	1031.70
608.31	1028.70
608.66	1024.92
609.01	1021.32
609.36	1017.66
609.70	1013.68
610.05	1009.77
610.40	1005.86
610.75	1001.70
611.10	998.10
611.44	993.68
611.79	989.36
612.14	984.76
612.49	979.85
612.83	975.75
613.18	971.39
613.53	966.94
613.88	962.43
614.22	958.32
614.57	953.79
614.92	949.75
615.27	945.00
615.61	940.61
615.96	936.50
616.31	932.27
616.65	928.51
617.00	924.65
617.35	920.56
617.70	916.20
618.04	911.75
618.39	907.03
618.74	903.05
619.08	898.86
619.43	894.84
619.78	890.90
620.12	886.91
620.47	882.91
620.82	878.43
621.16	874.15
621.51	869.82
621.85	865.67
622.20	861.19
622.55	857.00
622.89	852.42
623.24	848.45
623.59	844.12
623.93	839.80
624.28	835.79
624.62	831.97
624.97	827.83
625.32	824.06
625.66	820.44
626.01	816.60
626.35	812.81
626.70	808.78
627.04	805.29
627.39	801.31
627.73	797.63
628.08	794.24
628.43	790.38
628.77	786.37
629.12	782.59
629.46	779.22
629.81	775.54
630.15	772.06
630.50	768.03
630.84	764.31
631.19	760.50
631.53	756.57
631.88	752.35
632.22	748.47
632.57	744.71
632.91	740.81
633.26	737.01
633.60	733.31
633.95	729.80
634.29	725.75
634.64	722.31
634.98	718.42
635.32	714.73
635.67	711.52
636.01	708.21
636.36	704.56
636.70	701.10
637.05	697.77
637.39	694.22
637.73	691.05
638.08	687.98
638.42	684.86
638.77	681.73
639.11	678.45
639.45	675.10
639.80	671.54
640.14	668.13
640.49	664.68
640.83	661.39
641.17	657.98
641.52	654.74
641.86	651.17
642.20	648.05
642.55	644.43
642.89	640.86
643.23	637.37
643.58	634.45
643.92	630.76
644.26	627.31
644.61	624.11
644.95	620.77
645.29	617.22
645.64	613.57
645.98	610.01
646.32	606.93
646.66	603.73
647.01	600.70
647.35	597.55
647.69	594.30
648.04	591.04
648.38	587.83
648.72	584.59
649.06	581.24
649.41	577.98
649.75	574.89
650.09	571.91
650.43	568.81
650.78	565.46
651.12	562.40
651.46	559.20
651.80	556.12
652.14	552.77
652.49	549.71
652.83	546.70
653.17	543.57
653.51	540.20
653.85	537.08
654.20	533.87
654.54	530.65
654.88	527.54
655.22	524.58
655.56	521.49
655.90	518.49
656.25	515.62
656.59	512.51
656.93	509.58
657.27	506.69
657.61	503.57
657.95	500.81
658.29	498.03
658.64	495.36
658.98	492.36
659.32	489.50
659.66	486.61
660.00	483.75
660.34	480.85
660.68	478.18
661.02	475.51
661.36	472.90
661.70	470.26
662.05	467.70
662.39	465.25
662.73	462.85
663.07	460.56
663.41	458.10
663.75	455.65
664.09	453.08
664.43	450.35
664.77	447.90
665.11	445.32
665.45	442.75
665.79	440.34
666.13	438.10
666.47	435.71
666.81	433.49
667.15	431.25
667.49	429.27
667.83	427.17
668.17	425.01
668.51	422.99
668.85	421.04
669.19	419.22
669.53	416.94
669.87	414.64
670.21	412.55
670.55	410.54
670.89	408.83
671.23	407.09
671.57	405.33
671.91	403.59
672.25	401.63
672.58	399.96
672.92	398.02
673.26	396.15
673.60	394.50
673.94	392.60
674.28	390.78
674.62	389.02
674.96	387.20
675.30	385.47
675.64	383.58
675.97	381.80
676.31	380.00
676.65	378.47
676.99	377.18
677.33	375.39
677.67	373.77
678.01	371.87
678.34	370.25
678.68	368.60
679.02	366.96
679.36	365.44
679.70	363.77
680.04	362.19
680.37	360.59
680.71	359.00
681.05	357.69
681.39	356.18
681.73	354.64
682.06	353.23
682.40	351.85
682.74	350.49
683.08	349.19
683.42	347.70
683.75	346.14
684.09	344.53
684.43	343.13
684.77	341.73
685.10	340.38
685.44	338.80
685.78	337.40
686.12	336.09
686.45	334.81
686.79	333.50
687.13	332.32
687.46	331.05
687.80	329.85
688.14	328.39
688.48	327.11
688.81	325.86
689.15	324.69
689.49	323.42
689.82	322.28
690.16	320.81
690.50	319.61
690.83	318.31
691.17	317.04
691.51	315.74
691.84	314.60
692.18	313.51
692.52	312.48
692.85	311.45
693.19	310.42
693.52	309.22
693.86	308.05
694.20	306.91
694.53	305.85
694.87	304.72
695.21	303.67
695.54	302.68
695.88	301.56
696.21	300.38
696.55	299.31
696.88	298.19
697.22	297.24
697.56	296.22
697.89	295.21
698.23	294.30
698.56	293.42
698.90	292.45
699.23	291.44
699.57	290.56
699.90	289.48
700.24	288.46
700.58	287.62
700.91	286.87
701.25	286.24
701.58	285.40
701.92	284.50
702.25	283.73
702.59	282.84
702.92	282.03
703.26	281.27
703.59	280.50
703.93	279.98
704.26	279.23
704.60	278.47
704.93	277.83
705.26	277.08
705.60	276.41
705.93	275.60
706.27	275.03
706.60	274.41
706.94	273.93
707.27	273.16
707.61	272.46
707.94	271.74
708.27	270.77
708.61	269.99
708.94	269.36
709.28	268.67
709.61	267.99
709.94	267.43
710.28	266.76
710.61	266.14
710.95	265.26
711.28	264.86
711.61	264.17
711.95	263.59
712.28	262.95
712.61	262.35
712.95	261.96
713.28	261.46
713.61	260.85
713.95	260.15
714.28	259.65
714.61	259.03
714.95	258.46
715.28	257.94
715.61	257.40
715.95	257.00
716.28	256.54
716.61	256.05
716.95	255.45
717.28	255.00
717.61	254.46
717.94	253.94
718.28	253.22
718.61	252.83
718.94	252.29
719.27	251.78
719.61	251.33
719.94	250.74
720.27	250.09
720.60	249.66
720.94	249.28
721.27	248.90
721.60	248.59
721.93	248.24
722.27	247.91
722.60	247.61
722.93	247.09
723.26	246.67
723.59	246.38
723.93	246.08
724.26	245.80
724.59	245.42
724.92	245.17
725.25	244.91
725.59	244.55
725.92	244.34
726.25	244.07
726.58	243.82
726.91	243.54
727.24	243.30
727.57	242.93
727.91	242.48
728.24	242.15
728.57	241.77
728.90	241.49
729.23	241.14
729.56	240.98
729.89	240.73
730.22	240.44
730.55	240.05
730.89	239.71
731.22	239.33
731.55	239.09
731.88	238.78
732.21	238.41
732.54	238.13
732.87	237.83
733.20	237.53
733.53	237.19
733.86	236.88
734.19	236.51
734.52	236.34
734.85	236.44
735.18	236.16
735.51	236.08
735.84	235.80
736.17	235.56
736.50	235.17
736.83	235.35
737.16	235.03
737.49	234.85
737.82	234.59
738.15	234.37
738.48	234.15
738.81	233.92
739.14	233.66
739.47	233.33
739.80	233.08
740.13	232.91
740.46	232.61
740.79	232.26
741.12	232.04
741.45	231.70
741.78	231.28
742.11	231.17
742.44	230.76
742.77	230.60
743.10	230.40
743.43	230.15
743.75	229.48
744.08	229.76
744.41	229.47
744.74	229.24
745.07	228.95
745.40	228.75
745.73	228.64
746.06	228.49
746.39	228.38
746.71	228.07
747.04	227.88
747.37	227.68
747.70	227.65
748.03	227.55
748.36	227.52
748.68	227.28
749.01	226.99
749.34	226.87
749.67	226.68
750.00	226.51
750.33	226.57
750.65	226.46
750.98	225.85
751.31	225.68
751.64	225.56
751.97	225.63
752.29	225.45
752.62	225.13
752.95	224.94
753.28	224.74
753.60	224.63
753.93	224.55
754.26	224.39
754.59	224.19
754.91	224.00
755.24	223.74
755.57	223.56
755.90	223.46
756.22	223.32
756.55	223.11
756.88	222.92
757.20	222.53
757.53	222.34
757.86	222.15
758.19	222.06
758.51	221.82
758.84	221.57
759.17	221.44
759.49	221.30
759.82	221.39
760.15	221.32
760.47	221.15
760.80	220.81
761.13	220.74
761.45	220.61
761.78	220.44
762.11	220.34
762.43	220.22
762.76	220.04
763.08	219.94
763.41	219.90
763.74	219.93
764.06	219.86
764.39	219.70
764.71	219.66
765.04	219.58
765.37	219.53
765.69	219.40
766.02	219.31
766.34	219.23
766.67	218.95
767.00	218.94
767.32	219.03
767.65	219.24
767.97	219.14
768.30	219.15
768.62	219.07
768.95	218.94
769.27	218.88
769.60	218.85
769.92	218.71
770.25	218.54
770.57	218.34
770.90	218.28
771.22	218.20
771.55	218.16
771.87	218.11
772.20	218.11
772.52	218.31
772.85	218.60
773.17	218.54
773.50	218.48
773.82	218.29
774.15	218.11
774.47	217.82
774.80	217.74
775.12	217.62
775.45	217.56
775.77	217.57
776.09	217.61
776.42	217.48
776.74	217.62
777.07	217.50
777.39	217.42
777.72	217.31
778.04	217.30
778.36	217.15
778.69	217.08
779.01	216.95
779.33	216.63
779.66	216.16
779.98	216.08
780.31	216.09
780.63	216.20
780.95	216.21
781.28	216.20
781.60	216.16
781.92	216.15
782.25	216.08
782.57	216.00
782.89	215.87
783.22	215.92
783.54	215.75
783.86	215.80
784.19	215.71
784.51	215.79
784.83	215.75
785.16	215.80
785.48	215.73
785.80	215.71
786.12	215.72
786.45	215.69
786.77	215.76
787.09	215.68
787.42	215.55
787.74	215.52
788.06	215.52
788.38	215.45
788.71	215.36
789.03	215.31
789.35	215.29
