SpectraSuite Data File
++++++++++++++++++++++++++++++++++++
Date: Mon Feb 25 17:12:35 EST 2013
User: group
Dark Spectrum Present: No
Reference Spectrum Present: No
Number of Sampled Component Spectra: 1
Spectrometers: USB2E7196
Integration Time (usec): 104000 (USB2E7196)
Spectra Averaged: 20 (USB2E7196)
Boxcar Smoothing: 10 (USB2E7196)
Correct for Electrical Dark: No (USB2E7196)
Strobe/Lamp Enabled: No (USB2E7196)
Correct for Detector Non-linearity: No (USB2E7196)
Correct for Stray Light: No (USB2E7196)
Number of Pixels in Processed Spectrum: 2048
>>>>>Begin Processed Spectral Data<<<<<
339.09	0.00
339.48	197.70
339.86	198.30
340.24	200.50
340.63	203.65
341.01	208.40
341.39	205.60
341.78	206.70
342.16	209.05
342.54	208.50
342.93	197.79
343.31	207.79
343.69	208.39
344.07	208.93
344.46	209.41
344.84	209.79
345.22	209.94
345.60	210.20
345.99	210.39
346.37	210.49
346.75	210.58
347.13	210.76
347.52	210.88
347.90	211.12
348.28	211.14
348.66	211.28
349.05	211.19
349.43	211.34
349.81	211.45
350.19	211.46
350.57	211.55
350.96	211.64
351.34	211.79
351.72	211.85
352.10	211.95
352.48	212.01
352.87	212.06
353.25	212.19
353.63	212.27
354.01	212.34
354.39	212.48
354.77	212.56
355.15	212.71
355.54	212.69
355.92	212.61
356.30	212.72
356.68	213.01
357.06	213.06
357.44	213.06
357.82	213.19
358.20	213.34
358.58	213.42
358.97	213.47
359.35	213.56
359.73	213.69
360.11	213.76
360.49	213.85
360.87	213.86
361.25	213.90
361.63	214.07
362.01	214.18
362.39	214.14
362.77	214.25
363.15	214.20
363.53	214.33
363.91	214.50
364.29	214.50
364.67	214.23
365.05	214.36
365.43	214.48
365.81	214.49
366.19	214.63
366.57	214.76
366.95	214.81
367.33	214.70
367.71	214.68
368.09	214.76
368.47	214.82
368.85	214.82
369.23	214.81
369.61	214.60
369.99	214.70
370.37	214.70
370.75	214.83
371.13	214.77
371.51	214.63
371.89	214.53
372.27	214.58
372.65	214.48
373.03	214.36
373.41	214.20
373.78	214.10
374.16	213.87
374.54	213.66
374.92	213.48
375.30	213.44
375.68	213.29
376.06	213.26
376.44	213.13
376.82	213.08
377.19	213.00
377.57	212.98
377.95	212.76
378.33	212.71
378.71	212.37
379.09	212.42
379.47	212.40
379.84	212.33
380.22	212.23
380.60	212.17
380.98	212.12
381.36	212.01
381.73	212.00
382.11	211.97
382.49	212.01
382.87	212.00
383.25	212.03
383.62	212.41
384.00	212.26
384.38	212.25
384.76	212.35
385.13	212.45
385.51	212.40
385.89	212.31
386.27	212.27
386.64	212.34
387.02	212.19
387.40	212.16
387.78	212.06
388.15	211.98
388.53	211.87
388.91	211.84
389.29	211.76
389.66	211.65
390.04	211.62
390.42	211.63
390.79	211.64
391.17	211.53
391.55	211.12
391.92	211.10
392.30	211.06
392.68	210.89
393.05	210.83
393.43	210.84
393.81	210.84
394.18	210.70
394.56	210.73
394.94	210.82
395.31	210.76
395.69	210.91
396.06	211.00
396.44	211.03
396.82	211.05
397.19	211.29
397.57	211.32
397.95	211.40
398.32	211.32
398.70	211.31
399.07	211.44
399.45	211.51
399.82	211.47
400.20	211.48
400.58	211.53
400.95	211.43
401.33	211.54
401.70	211.80
402.08	211.90
402.45	211.88
402.83	211.94
403.20	211.98
403.58	211.98
403.95	211.96
404.33	212.08
404.71	212.05
405.08	212.28
405.46	212.36
405.83	212.40
406.21	212.48
406.58	212.65
406.96	212.67
407.33	212.79
407.70	213.00
408.08	213.36
408.45	213.51
408.83	213.74
409.20	213.86
409.58	213.82
409.95	214.18
410.33	214.42
410.70	214.55
411.08	214.80
411.45	215.09
411.82	215.40
412.20	215.75
412.57	216.32
412.95	216.38
413.32	216.77
413.69	217.19
414.07	217.59
414.44	218.07
414.82	218.62
415.19	219.05
415.56	219.60
415.94	220.01
416.31	220.69
416.68	221.31
417.06	222.02
417.43	222.85
417.81	223.57
418.18	224.37
418.55	225.25
418.93	226.26
419.30	227.17
419.67	228.16
420.04	229.19
420.42	230.18
420.79	231.73
421.16	232.98
421.54	234.39
421.91	235.65
422.28	236.98
422.66	238.43
423.03	240.19
423.40	241.74
423.77	243.36
424.15	244.96
424.52	246.65
424.89	248.58
425.26	250.28
425.64	251.96
426.01	253.85
426.38	255.80
426.75	257.78
427.13	259.80
427.50	261.97
427.87	264.17
428.24	266.38
428.61	268.25
428.99	270.76
429.36	273.19
429.73	275.83
430.10	278.40
430.47	280.99
430.85	283.50
431.22	286.26
431.59	289.44
431.96	292.27
432.33	295.48
432.70	298.49
433.08	302.12
433.45	305.54
433.82	308.95
434.19	312.79
434.56	316.42
434.93	319.87
435.30	323.40
435.68	327.26
436.05	330.99
436.42	334.69
436.79	338.19
437.16	341.85
437.53	345.76
437.90	349.56
438.27	353.44
438.64	357.37
439.01	361.04
439.38	364.10
439.75	367.32
440.13	370.84
440.50	374.17
440.87	376.87
441.24	379.70
441.61	382.77
441.98	385.04
442.35	387.72
442.72	390.50
443.09	393.24
443.46	394.81
443.83	395.96
444.20	397.13
444.57	398.29
444.94	399.07
445.31	399.70
445.68	400.71
446.05	400.97
446.42	400.42
446.79	400.06
447.16	399.52
447.53	399.15
447.90	397.73
448.27	396.29
448.64	394.32
449.01	392.86
449.37	390.36
449.74	387.85
450.11	385.15
450.48	381.87
450.85	378.38
451.22	375.50
451.59	372.75
451.96	370.00
452.33	366.49
452.70	363.21
453.07	359.45
453.43	355.32
453.80	351.62
454.17	348.30
454.54	344.79
454.91	341.28
455.28	337.75
455.65	334.42
456.02	331.61
456.38	328.77
456.75	325.33
457.12	322.40
457.49	319.44
457.86	316.36
458.23	314.13
458.59	311.60
458.96	309.09
459.33	306.79
459.70	304.49
460.07	302.75
460.43	300.63
460.80	298.67
461.17	296.99
461.54	295.22
461.91	293.45
462.27	291.84
462.64	290.39
463.01	288.75
463.38	287.28
463.74	285.26
464.11	283.84
464.48	282.67
464.85	281.38
465.21	280.61
465.58	279.66
465.95	278.34
466.32	277.29
466.68	276.20
467.05	275.09
467.42	274.03
467.78	272.86
468.15	271.84
468.52	271.16
468.88	269.99
469.25	268.96
469.62	268.32
469.98	267.50
470.35	266.72
470.72	266.03
471.08	265.24
471.45	264.66
471.82	264.23
472.18	263.56
472.55	263.09
472.92	262.45
473.28	261.97
473.65	261.52
474.02	261.05
474.38	260.77
474.75	260.58
475.11	260.21
475.48	260.06
475.85	259.82
476.21	259.53
476.58	259.49
476.94	259.48
477.31	259.31
477.67	259.26
478.04	259.18
478.41	259.20
478.77	259.55
479.14	259.63
479.50	259.60
479.87	259.78
480.23	259.86
480.60	259.97
480.96	260.05
481.33	260.31
481.69	260.68
482.06	260.82
482.42	261.14
482.79	261.54
483.15	261.83
483.52	262.42
483.88	262.92
484.25	263.37
484.61	263.85
484.98	264.37
485.34	265.03
485.71	265.76
486.07	266.48
486.44	266.94
486.80	267.69
487.17	268.56
487.53	269.53
487.90	270.60
488.26	271.81
488.62	273.02
488.99	274.14
489.35	275.18
489.72	276.57
490.08	277.87
490.44	279.20
490.81	280.75
491.17	282.13
491.54	283.75
491.90	285.60
492.26	287.43
492.63	289.34
492.99	291.28
493.36	293.29
493.72	295.50
494.08	297.80
494.45	300.28
494.81	302.85
495.17	305.36
495.54	308.18
495.90	310.86
496.26	313.66
496.63	316.77
496.99	320.02
497.35	323.29
497.72	326.81
498.08	330.40
498.44	334.10
498.80	338.18
499.17	342.20
499.53	346.19
499.89	350.58
500.26	354.99
500.62	359.55
500.98	364.34
501.34	369.18
501.71	374.33
502.07	379.43
502.43	384.67
502.79	390.04
503.16	395.60
503.52	401.43
503.88	407.34
504.24	413.40
504.60	419.66
504.97	426.19
505.33	432.70
505.69	439.88
506.05	446.86
506.41	453.87
506.78	461.16
507.14	468.42
507.50	475.79
507.86	483.56
508.22	491.43
508.59	499.57
508.95	507.88
509.31	516.27
509.67	524.88
510.03	533.62
510.39	542.69
510.75	551.81
511.12	560.91
511.48	570.35
511.84	579.97
512.20	589.63
512.56	599.49
512.92	609.48
513.28	619.30
513.64	629.41
514.00	639.70
514.37	650.18
514.73	660.96
515.09	671.78
515.45	682.33
515.81	693.16
516.17	703.98
516.53	715.00
516.89	725.90
517.25	737.08
517.61	748.45
517.97	759.56
518.33	770.64
518.69	782.13
519.05	793.68
519.41	805.04
519.77	816.89
520.13	828.09
520.49	839.43
520.85	850.91
521.21	862.69
521.57	874.44
521.93	885.58
522.29	897.51
522.65	909.46
523.01	921.17
523.37	932.67
523.73	944.44
524.09	956.10
524.45	968.04
524.81	979.57
525.17	991.25
525.53	1003.08
525.89	1015.06
526.25	1026.77
526.61	1038.21
526.97	1049.68
527.33	1060.84
527.68	1072.89
528.04	1084.21
528.40	1095.35
528.76	1106.61
529.12	1117.96
529.48	1130.02
529.84	1141.07
530.20	1151.92
530.56	1163.25
530.91	1174.79
531.27	1185.93
531.63	1196.68
531.99	1207.37
532.35	1217.97
532.71	1228.35
533.07	1239.14
533.42	1249.42
533.78	1259.79
534.14	1270.04
534.50	1279.63
534.86	1289.96
535.21	1298.90
535.57	1308.99
535.93	1318.42
536.29	1327.76
536.65	1337.00
537.00	1345.20
537.36	1353.45
537.72	1361.80
538.08	1370.28
538.44	1378.60
538.79	1386.85
539.15	1394.87
539.51	1402.87
539.87	1411.39
540.22	1419.19
540.58	1426.75
540.94	1434.28
541.29	1441.26
541.65	1448.00
542.01	1455.37
542.37	1461.81
542.72	1469.02
543.08	1475.02
543.44	1481.84
543.79	1487.54
544.15	1492.97
544.51	1499.40
544.87	1505.79
545.22	1511.39
545.58	1516.31
545.94	1520.75
546.29	1524.81
546.65	1528.93
547.01	1533.05
547.36	1536.63
547.72	1540.70
548.07	1543.90
548.43	1547.15
548.79	1549.95
549.14	1552.87
549.50	1555.73
549.86	1557.69
550.21	1559.71
550.57	1562.35
550.92	1563.88
551.28	1565.65
551.64	1567.90
551.99	1569.65
552.35	1570.75
552.70	1572.05
553.06	1573.68
553.41	1574.96
553.77	1576.24
554.13	1577.75
554.48	1578.77
554.84	1579.89
555.19	1580.13
555.55	1580.80
555.90	1580.89
556.26	1581.25
556.61	1581.41
556.97	1580.65
557.32	1580.90
557.68	1580.34
558.03	1579.82
558.39	1579.52
558.74	1579.92
559.10	1579.60
559.45	1578.72
559.81	1578.43
560.16	1577.53
560.52	1576.89
560.87	1576.29
561.23	1575.11
561.58	1574.50
561.94	1573.14
562.29	1571.16
562.64	1570.10
563.00	1568.83
563.35	1567.87
563.71	1567.42
564.06	1566.32
564.42	1565.67
564.77	1564.93
565.12	1564.19
565.48	1563.04
565.83	1561.94
566.19	1560.55
566.54	1558.28
566.89	1556.49
567.25	1554.90
567.60	1553.30
567.96	1551.25
568.31	1549.34
568.66	1547.40
569.02	1544.64
569.37	1542.06
569.72	1540.25
570.08	1537.66
570.43	1535.07
570.78	1532.16
571.14	1528.52
571.49	1525.41
571.84	1522.65
572.20	1519.25
572.55	1516.19
572.90	1512.59
573.26	1508.83
573.61	1504.72
573.96	1501.49
574.31	1497.73
574.67	1493.32
575.02	1489.09
575.37	1484.84
575.72	1480.28
576.08	1476.74
576.43	1472.53
576.78	1468.63
577.13	1464.58
577.49	1460.52
577.84	1456.35
578.19	1452.83
578.54	1449.34
578.90	1445.94
579.25	1441.42
579.60	1436.81
579.95	1432.28
580.30	1428.48
580.66	1424.92
581.01	1420.86
581.36	1416.32
581.71	1411.93
582.06	1407.98
582.42	1404.14
582.77	1399.62
583.12	1395.49
583.47	1391.33
583.82	1387.55
584.17	1383.33
584.53	1379.18
584.88	1375.00
585.23	1370.75
585.58	1366.29
585.93	1361.82
586.28	1357.50
586.63	1353.54
586.98	1349.68
587.34	1345.93
587.69	1341.35
588.04	1337.01
588.39	1332.95
588.74	1328.60
589.09	1324.76
589.44	1320.10
589.79	1315.85
590.14	1312.01
590.49	1307.89
590.84	1303.44
591.19	1299.60
591.54	1295.62
591.89	1290.57
592.25	1286.20
592.60	1281.56
592.95	1276.95
593.30	1272.23
593.65	1267.32
594.00	1262.57
594.35	1259.27
594.70	1254.74
595.05	1250.61
595.40	1246.12
595.75	1241.36
596.10	1237.37
596.45	1233.02
596.80	1229.55
597.15	1225.89
597.50	1221.57
597.85	1217.56
598.19	1213.37
598.54	1208.78
598.89	1204.51
599.24	1201.38
599.59	1197.59
599.94	1194.53
600.29	1190.55
600.64	1186.88
600.99	1182.66
601.34	1179.37
601.69	1174.26
602.04	1170.03
602.39	1166.08
602.74	1162.38
603.08	1159.20
603.43	1155.96
603.78	1152.44
604.13	1148.33
604.48	1144.26
604.83	1141.19
605.18	1137.78
605.53	1133.95
605.87	1130.12
606.22	1126.75
606.57	1122.74
606.92	1118.85
607.27	1114.34
607.62	1110.43
607.96	1106.73
608.31	1103.27
608.66	1099.00
609.01	1095.17
609.36	1091.15
609.70	1086.78
610.05	1082.19
610.40	1077.81
610.75	1072.97
611.10	1068.76
611.44	1063.91
611.79	1059.06
612.14	1054.06
612.49	1049.08
612.83	1044.47
613.18	1039.76
613.53	1034.90
613.88	1029.75
614.22	1025.08
614.57	1020.39
614.92	1015.50
615.27	1010.50
615.61	1005.74
615.96	1001.17
616.31	996.73
616.65	992.49
617.00	988.06
617.35	983.68
617.70	978.79
618.04	973.98
618.39	968.69
618.74	964.40
619.08	959.61
619.43	954.94
619.78	950.22
620.12	945.72
620.47	941.23
620.82	936.26
621.16	931.50
621.51	926.64
621.85	921.95
622.20	917.54
622.55	912.92
622.89	908.31
623.24	903.56
623.59	898.62
623.93	893.80
624.28	889.32
624.62	885.03
624.97	880.69
625.32	876.32
625.66	872.12
626.01	867.54
626.35	863.54
626.70	859.22
627.04	855.55
627.39	851.34
627.73	847.11
628.08	843.09
628.43	838.93
628.77	834.77
629.12	830.67
629.46	826.77
629.81	822.73
630.15	818.59
630.50	814.36
630.84	810.13
631.19	805.97
631.53	801.85
631.88	797.09
632.22	792.69
632.57	788.86
632.91	784.70
633.26	780.73
633.60	776.68
633.95	772.76
634.29	768.26
634.64	764.21
634.98	759.95
635.32	756.29
635.67	752.85
636.01	748.99
636.36	745.02
636.70	741.17
637.05	737.14
637.39	733.38
637.73	729.78
638.08	726.55
638.42	723.24
638.77	719.56
639.11	716.11
639.45	712.39
639.80	708.33
640.14	704.54
640.49	700.86
640.83	697.17
641.17	693.47
641.52	689.79
641.86	685.99
642.20	682.60
642.55	678.47
642.89	674.42
643.23	670.78
643.58	667.37
643.92	663.48
644.26	659.93
644.61	656.44
644.95	652.72
645.29	648.74
645.64	644.81
645.98	641.29
646.32	637.80
646.66	634.19
647.01	630.77
647.35	627.52
647.69	623.90
648.04	620.42
648.38	616.89
648.72	613.42
649.06	610.02
649.41	606.44
649.75	603.10
650.09	599.80
650.43	596.27
650.78	592.54
651.12	589.01
651.46	585.64
651.80	582.22
652.14	578.76
652.49	575.50
652.83	572.18
653.17	568.49
653.51	564.99
653.85	561.89
654.20	558.53
654.54	555.02
654.88	551.61
655.22	548.27
655.56	544.86
655.90	541.56
656.25	538.24
656.59	534.82
656.93	531.69
657.27	528.56
657.61	525.31
657.95	522.27
658.29	519.31
658.64	516.28
658.98	513.14
659.32	510.12
659.66	507.12
660.00	503.93
660.34	500.98
660.68	497.89
661.02	494.81
661.36	491.90
661.70	489.21
662.05	486.55
662.39	483.81
662.73	481.31
663.07	478.78
663.41	476.12
663.75	473.58
664.09	470.69
664.43	467.81
664.77	465.25
665.11	462.69
665.45	460.08
665.79	457.61
666.13	454.98
666.47	452.47
666.81	449.88
667.15	447.35
667.49	445.19
667.83	443.13
668.17	440.78
668.51	438.67
668.85	436.40
669.19	434.21
669.53	431.86
669.87	429.55
670.21	427.18
670.55	425.01
670.89	423.03
671.23	421.16
671.57	419.27
671.91	417.18
672.25	415.08
672.58	413.02
672.92	410.95
673.26	409.04
673.60	407.11
673.94	405.17
674.28	403.40
674.62	401.47
674.96	399.43
675.30	397.60
675.64	395.57
675.97	393.71
676.31	391.88
676.65	390.17
676.99	388.45
677.33	386.69
677.67	384.93
678.01	383.04
678.34	381.17
678.68	379.55
679.02	377.80
679.36	376.13
679.70	374.39
680.04	372.63
680.37	371.03
680.71	369.40
681.05	367.85
681.39	366.26
681.73	364.64
682.06	363.15
682.40	361.61
682.74	360.11
683.08	358.57
683.42	357.00
683.75	355.49
684.09	353.73
684.43	352.19
684.77	350.57
685.10	349.06
685.44	347.54
685.78	345.99
686.12	344.56
686.45	343.17
686.79	341.80
687.13	340.55
687.46	339.13
687.80	337.85
688.14	336.41
688.48	335.14
688.81	333.70
689.15	332.35
689.49	330.86
689.82	329.51
690.16	327.95
690.50	326.52
690.83	325.19
691.17	323.92
691.51	322.62
691.84	321.54
692.18	320.29
692.52	319.21
692.85	318.03
693.19	317.02
693.52	315.78
693.86	314.54
694.20	313.30
694.53	312.21
694.87	310.99
695.21	309.84
695.54	308.62
695.88	307.43
696.21	306.24
696.55	305.30
696.88	304.21
697.22	303.26
697.56	302.34
697.89	301.25
698.23	300.31
698.56	299.32
698.90	298.24
699.23	297.28
699.57	296.27
699.90	295.20
700.24	294.09
700.58	293.14
700.91	292.22
701.25	291.58
701.58	290.64
701.92	289.76
702.25	288.90
702.59	287.93
702.92	287.09
703.26	286.31
703.59	285.41
703.93	284.92
704.26	284.08
704.60	283.27
704.93	282.38
705.26	281.51
705.60	280.76
705.93	279.87
706.27	279.15
706.60	278.52
706.94	277.93
707.27	277.04
707.61	276.26
707.94	275.48
708.27	274.38
708.61	273.56
708.94	272.78
709.28	272.06
709.61	271.30
709.94	270.68
710.28	269.90
710.61	269.23
710.95	268.21
711.28	267.77
711.61	267.09
711.95	266.61
712.28	266.00
712.61	265.36
712.95	265.01
713.28	264.46
713.61	263.75
713.95	263.06
714.28	262.65
714.61	262.09
714.95	261.57
715.28	260.99
715.61	260.42
715.95	259.99
716.28	259.37
716.61	258.99
716.95	258.34
717.28	257.90
717.61	257.34
717.94	256.89
718.28	256.16
718.61	255.61
718.94	255.01
719.27	254.57
719.61	254.05
719.94	253.49
720.27	252.88
720.60	252.40
720.94	251.91
721.27	251.48
721.60	251.06
721.93	250.57
722.27	250.33
722.60	249.99
722.93	249.48
723.26	249.20
723.59	248.68
723.93	248.46
724.26	248.08
724.59	247.70
724.92	247.34
725.25	247.10
725.59	246.72
725.92	246.45
726.25	245.95
726.58	245.68
726.91	245.23
727.24	244.98
727.57	244.57
727.91	244.19
728.24	243.87
728.57	243.52
728.90	243.27
729.23	242.79
729.56	242.64
729.89	242.34
730.22	242.00
730.55	241.69
730.89	241.35
731.22	241.03
731.55	240.76
731.88	240.40
732.21	240.02
732.54	239.61
732.87	239.23
733.20	239.07
733.53	238.80
733.86	238.67
734.19	238.29
734.52	238.05
734.85	238.07
735.18	237.75
735.51	237.60
735.84	237.36
736.17	237.19
736.50	236.70
736.83	236.85
737.16	236.56
737.49	236.37
737.82	236.05
738.15	235.80
738.48	235.50
738.81	235.34
739.14	234.99
739.47	234.89
739.80	234.72
740.13	234.40
740.46	234.05
740.79	233.72
741.12	233.56
741.45	233.32
741.78	232.90
742.11	232.70
742.44	232.42
742.77	232.28
743.10	231.95
743.43	231.80
743.75	231.16
744.08	231.35
744.41	231.05
744.74	230.81
745.07	230.60
745.40	230.54
745.73	230.46
746.06	230.35
746.39	230.15
746.71	229.92
747.04	229.71
747.37	229.44
747.70	229.30
748.03	229.06
748.36	228.86
748.68	228.64
749.01	228.44
749.34	228.21
749.67	227.95
750.00	227.90
750.33	227.87
750.65	227.72
750.98	227.08
751.31	226.90
751.64	226.80
751.97	226.80
752.29	226.57
752.62	226.29
752.95	226.08
753.28	225.90
753.60	225.65
753.93	225.61
754.26	225.54
754.59	225.20
754.91	225.03
755.24	224.93
755.57	224.78
755.90	224.62
756.22	224.45
756.55	224.26
756.88	223.98
757.20	223.65
757.53	223.42
757.86	223.31
758.19	223.26
758.51	223.06
758.84	222.73
759.17	222.56
759.49	222.39
759.82	222.43
760.15	222.31
760.47	222.23
760.80	221.98
761.13	221.89
761.45	221.83
761.78	221.69
762.11	221.62
762.43	221.45
762.76	221.39
763.08	221.31
763.41	221.19
763.74	221.14
764.06	221.00
764.39	220.91
764.71	220.82
765.04	220.65
765.37	220.55
765.69	220.50
766.02	220.38
766.34	220.20
766.67	219.98
767.00	219.85
767.32	219.93
767.65	220.08
767.97	219.93
768.30	219.92
768.62	219.82
768.95	219.69
769.27	219.57
769.60	219.48
769.92	219.34
770.25	219.24
770.57	219.06
770.90	219.03
771.22	218.93
771.55	218.85
771.87	218.83
772.20	218.72
772.52	218.91
772.85	219.20
773.17	219.18
773.50	219.06
773.82	219.02
774.15	218.90
774.47	218.57
774.80	218.53
775.12	218.41
775.45	218.43
775.77	218.29
776.09	218.26
776.42	218.17
776.74	218.19
777.07	218.10
777.39	218.10
777.72	218.05
778.04	218.09
778.36	217.98
778.69	217.92
779.01	217.88
779.33	217.52
779.66	217.13
779.98	216.98
780.31	216.93
780.63	216.98
780.95	216.91
781.28	216.81
781.60	216.76
781.92	216.73
782.25	216.60
782.57	216.55
782.89	216.46
783.22	216.36
783.54	216.31
783.86	216.27
784.19	216.15
784.51	216.09
784.83	215.89
785.16	215.83
785.48	215.77
785.80	215.70
786.12	215.67
786.45	215.58
786.77	215.66
787.09	215.60
787.42	215.41
787.74	215.35
788.06	215.32
788.38	215.21
788.71	215.14
