SpectraSuite Data File
++++++++++++++++++++++++++++++++++++
Date: Mon Feb 25 17:00:42 EST 2013
User: group
Dark Spectrum Present: No
Reference Spectrum Present: No
Number of Sampled Component Spectra: 1
Spectrometers: USB2E7196
Integration Time (usec): 104000 (USB2E7196)
Spectra Averaged: 20 (USB2E7196)
Boxcar Smoothing: 10 (USB2E7196)
Correct for Electrical Dark: No (USB2E7196)
Strobe/Lamp Enabled: No (USB2E7196)
Correct for Detector Non-linearity: No (USB2E7196)
Correct for Stray Light: No (USB2E7196)
Number of Pixels in Processed Spectrum: 2048
>>>>>Begin Processed Spectral Data<<<<<
339.09	0.00
339.48	197.75
339.86	198.40
340.24	200.65
340.63	202.95
341.01	208.50
341.39	205.55
341.78	207.50
342.16	208.80
342.54	207.85
342.93	198.10
343.31	208.12
343.69	208.64
344.07	209.20
344.46	209.78
344.84	210.18
345.22	210.29
345.60	210.55
345.99	210.70
346.37	210.80
346.75	210.95
347.13	211.06
347.52	211.10
347.90	211.28
348.28	211.27
348.66	211.44
349.05	211.34
349.43	211.46
349.81	211.54
350.19	211.67
350.57	211.80
350.96	211.83
351.34	211.94
351.72	212.11
352.10	212.18
352.48	212.16
352.87	212.22
353.25	212.32
353.63	212.46
354.01	212.57
354.39	212.68
354.77	212.80
355.15	212.98
355.54	213.01
355.92	212.98
356.30	213.09
356.68	213.33
357.06	213.40
357.44	213.38
357.82	213.38
358.20	213.45
358.58	213.45
358.97	213.56
359.35	213.70
359.73	213.80
360.11	213.90
360.49	213.98
360.87	214.07
361.25	214.09
361.63	214.18
362.01	214.17
362.39	214.11
362.77	214.13
363.15	214.07
363.53	214.06
363.91	214.05
364.29	214.09
364.67	213.75
365.05	213.79
365.43	213.82
365.81	213.92
366.19	214.05
366.57	214.20
366.95	214.15
367.33	214.10
367.71	213.98
368.09	213.96
368.47	213.90
368.85	213.80
369.23	213.91
369.61	213.76
369.99	213.86
370.37	213.91
370.75	214.00
371.13	213.90
371.51	213.86
371.89	213.94
372.27	213.92
372.65	213.99
373.03	213.99
373.41	213.90
373.78	213.83
374.16	213.58
374.54	213.36
374.92	213.31
375.30	213.15
375.68	213.14
376.06	213.17
376.44	213.12
376.82	213.12
377.19	213.01
377.57	212.94
377.95	212.76
378.33	212.65
378.71	212.44
379.09	212.55
379.47	212.49
379.84	212.29
380.22	212.16
380.60	211.98
380.98	211.89
381.36	211.89
381.73	211.73
382.11	211.74
382.49	211.70
382.87	211.61
383.25	211.61
383.62	212.03
384.00	211.88
384.38	211.84
384.76	211.83
385.13	211.90
385.51	211.91
385.89	211.83
386.27	211.84
386.64	211.80
387.02	211.66
387.40	211.62
387.78	211.71
388.15	211.69
388.53	211.68
388.91	211.62
389.29	211.57
389.66	211.60
390.04	211.56
390.42	211.61
390.79	211.60
391.17	211.52
391.55	211.08
391.92	211.07
392.30	211.03
392.68	210.96
393.05	210.90
393.43	210.89
393.81	210.98
394.18	210.94
394.56	210.97
394.94	211.05
395.31	211.01
395.69	211.10
396.06	211.18
396.44	211.16
396.82	211.11
397.19	211.34
397.57	211.35
397.95	211.42
398.32	211.35
398.70	211.32
399.07	211.45
399.45	211.48
399.82	211.47
400.20	211.51
400.58	211.51
400.95	211.45
401.33	211.60
401.70	211.87
402.08	211.89
402.45	211.97
402.83	212.12
403.20	212.20
403.58	212.20
403.95	212.29
404.33	212.54
404.71	212.66
405.08	212.85
405.46	213.00
405.83	213.18
406.21	213.34
406.58	213.64
406.96	213.79
407.33	214.05
407.70	214.40
408.08	214.95
408.45	215.30
408.83	215.71
409.20	215.95
409.58	216.08
409.95	216.61
410.33	217.09
410.70	217.35
411.08	217.88
411.45	218.39
411.82	218.93
412.20	219.55
412.57	220.43
412.95	220.91
413.32	221.77
413.69	222.53
414.07	223.39
414.44	224.32
414.82	225.34
415.19	226.48
415.56	227.62
415.94	228.67
416.31	230.10
416.68	231.46
417.06	233.04
417.43	234.60
417.81	236.29
418.18	238.02
418.55	239.99
418.93	242.02
419.30	244.20
419.67	246.49
420.04	248.73
420.42	251.12
420.79	254.07
421.16	256.77
421.54	259.82
421.91	262.85
422.28	265.92
422.66	269.20
423.03	272.54
423.40	276.02
423.77	279.68
424.15	283.34
424.52	287.22
424.89	291.43
425.26	295.51
425.64	299.45
426.01	303.79
426.38	308.43
426.75	313.18
427.13	317.90
427.50	322.91
427.87	328.15
428.24	333.34
428.61	338.14
428.99	343.82
429.36	349.65
429.73	355.54
430.10	361.56
430.47	367.56
430.85	373.83
431.22	380.48
431.59	387.58
431.96	394.40
432.33	401.92
432.70	409.25
433.08	417.85
433.45	426.00
433.82	434.21
434.19	443.18
434.56	452.05
434.93	460.58
435.30	469.17
435.68	478.77
436.05	488.30
436.42	498.03
436.79	506.73
437.16	516.24
437.53	526.14
437.90	535.94
438.27	545.76
438.64	555.92
439.01	565.40
439.38	574.05
439.75	582.24
440.13	591.58
440.50	600.40
440.87	607.74
441.24	615.50
441.61	623.98
441.98	630.28
442.35	637.59
442.72	644.98
443.09	652.24
443.46	656.77
443.83	660.00
444.20	662.77
444.57	666.76
444.94	669.00
445.31	671.49
445.68	673.93
446.05	675.48
446.42	675.18
446.79	674.80
447.16	674.09
447.53	673.99
447.90	671.08
448.27	668.30
448.64	664.04
449.01	660.96
449.37	655.02
449.74	649.56
450.11	642.80
450.48	635.36
450.85	627.54
451.22	620.92
451.59	614.82
451.96	608.80
452.33	600.47
452.70	593.02
453.07	583.91
453.43	574.69
453.80	565.88
454.17	557.29
454.54	549.22
454.91	540.60
455.28	532.17
455.65	524.52
456.02	516.87
456.38	510.04
456.75	501.54
457.12	494.60
457.49	487.59
457.86	480.78
458.23	475.07
458.59	468.70
458.96	462.35
459.33	456.56
459.70	450.90
460.07	446.47
460.43	441.31
460.80	436.42
461.17	431.97
461.54	427.40
461.91	423.26
462.27	418.92
462.64	415.29
463.01	411.13
463.38	407.13
463.74	402.81
464.11	399.35
464.48	396.38
464.85	392.92
465.21	390.41
465.58	387.66
465.95	384.34
466.32	381.56
466.68	378.86
467.05	376.04
467.42	373.25
467.78	370.35
468.15	367.62
468.52	365.68
468.88	363.13
469.25	360.75
469.62	358.88
469.98	356.72
470.35	354.55
470.72	352.71
471.08	350.64
471.45	348.94
471.82	347.27
472.18	345.41
472.55	344.11
472.92	342.40
473.28	340.98
473.65	339.45
474.02	338.11
474.38	336.90
474.75	335.97
475.11	334.90
475.48	334.10
475.85	333.35
476.21	332.45
476.58	331.80
476.94	331.26
477.31	330.50
477.67	329.96
478.04	329.61
478.41	329.22
478.77	329.13
479.14	328.70
479.50	328.42
479.87	328.27
480.23	328.07
480.60	327.92
480.96	327.76
481.33	328.13
481.69	328.22
482.06	328.32
482.42	328.34
482.79	328.46
483.15	328.82
483.52	329.22
483.88	329.60
484.25	329.98
484.61	330.30
484.98	330.71
485.34	331.37
485.71	332.06
486.07	332.79
486.44	333.27
486.80	334.10
487.17	335.00
487.53	336.10
487.90	337.19
488.26	338.45
488.62	339.70
488.99	340.69
489.35	341.87
489.72	343.29
490.08	344.75
490.44	346.38
490.81	347.75
491.17	349.21
491.54	350.87
491.90	352.50
492.26	354.37
492.63	356.25
492.99	358.03
493.36	359.87
493.72	361.98
494.08	363.98
494.45	366.24
494.81	368.50
495.17	370.58
495.54	373.08
495.90	375.34
496.26	377.71
496.63	380.28
496.99	382.88
497.35	385.30
497.72	387.92
498.08	390.46
498.44	393.11
498.80	395.83
499.17	398.50
499.53	401.18
499.89	403.90
500.26	406.62
500.62	409.32
500.98	412.27
501.34	414.85
501.71	417.68
502.07	420.30
502.43	422.92
502.79	425.51
503.16	427.88
503.52	430.41
503.88	432.86
504.24	435.25
504.60	437.81
504.97	440.30
505.33	442.47
505.69	444.95
506.05	447.25
506.41	449.52
506.78	451.70
507.14	453.80
507.50	455.87
507.86	457.91
508.22	459.89
508.59	461.60
508.95	463.52
509.31	465.35
509.67	467.17
510.03	468.91
510.39	470.70
510.75	472.32
511.12	473.91
511.48	475.50
511.84	477.07
512.20	478.36
512.56	479.83
512.92	481.29
513.28	482.42
513.64	483.63
514.00	484.63
514.37	485.57
514.73	486.72
515.09	487.70
515.45	488.51
515.81	489.44
516.17	490.10
516.53	490.76
516.89	491.22
517.25	491.65
517.61	492.30
517.97	492.55
518.33	492.96
518.69	493.36
519.05	493.63
519.41	493.88
519.77	494.35
520.13	494.41
520.49	494.46
520.85	494.58
521.21	494.72
521.57	494.88
521.93	495.04
522.29	495.14
522.65	495.26
523.01	495.45
523.37	495.32
523.73	495.61
524.09	495.76
524.45	495.86
524.81	496.23
525.17	496.45
525.53	496.92
525.89	497.32
526.25	497.58
526.61	497.86
526.97	498.21
527.33	498.44
527.68	499.22
528.04	499.80
528.40	500.20
528.76	500.73
529.12	501.45
529.48	502.42
529.84	503.07
530.20	503.72
530.56	504.46
530.91	505.52
531.27	506.28
531.63	507.22
531.99	508.50
532.35	509.40
532.71	510.34
533.07	511.41
533.42	512.89
533.78	514.14
534.14	515.46
534.50	516.66
534.86	518.12
535.21	519.13
535.57	520.75
535.93	522.30
536.29	523.98
536.65	525.55
537.00	526.85
537.36	528.39
537.72	530.08
538.08	531.92
538.44	533.64
538.79	535.67
539.15	537.43
539.51	539.18
539.87	541.09
540.22	543.04
540.58	545.24
540.94	547.09
541.29	549.19
541.65	551.01
542.01	553.25
542.37	555.36
542.72	557.63
543.08	559.72
543.44	562.06
543.79	564.11
544.15	566.50
544.51	569.17
544.87	571.76
545.22	574.35
545.58	576.95
545.94	579.39
546.29	581.73
546.65	584.30
547.01	586.84
547.36	589.52
547.72	592.05
548.07	594.58
548.43	596.95
548.79	599.43
549.14	602.20
549.50	604.91
549.86	607.34
550.21	610.04
550.57	612.78
550.92	615.24
551.28	618.07
551.64	620.49
551.99	623.08
552.35	625.50
552.70	627.69
553.06	630.19
553.41	632.88
553.77	635.74
554.13	638.32
554.48	641.06
554.84	643.78
555.19	646.51
555.55	649.27
555.90	651.79
556.26	654.39
556.61	656.77
556.97	659.05
557.32	661.66
557.68	663.86
558.03	666.01
558.39	668.39
558.74	670.69
559.10	672.95
559.45	675.18
559.81	677.62
560.16	680.05
560.52	682.30
560.87	684.46
561.23	686.57
561.58	689.15
561.94	691.07
562.29	693.03
562.64	695.06
563.00	696.82
563.35	699.11
563.71	701.37
564.06	703.59
564.42	705.83
564.77	707.95
565.12	710.25
565.48	712.87
565.83	715.01
566.19	717.03
566.54	719.19
566.89	721.25
567.25	723.39
567.60	725.61
567.96	727.76
568.31	729.77
568.66	731.59
569.02	732.80
569.37	734.25
569.72	735.79
570.08	737.31
570.43	738.71
570.78	739.89
571.14	740.73
571.49	741.77
571.84	742.77
572.20	743.65
572.55	744.55
572.90	744.86
573.26	745.45
573.61	745.92
573.96	746.31
574.31	746.55
574.67	746.73
575.02	746.70
575.37	746.46
575.72	746.25
576.08	746.26
576.43	746.35
576.78	746.47
577.13	746.55
577.49	746.57
577.84	746.64
578.19	746.58
578.54	746.83
578.90	747.04
579.25	746.90
579.60	746.55
579.95	746.12
580.30	745.85
580.66	745.82
581.01	745.78
581.36	745.45
581.71	745.02
582.06	744.75
582.42	744.60
582.77	744.25
583.12	743.83
583.47	743.44
583.82	743.02
584.17	742.57
584.53	742.33
584.88	741.71
585.23	741.17
585.58	740.61
585.93	739.88
586.28	739.42
586.63	738.99
586.98	738.58
587.34	738.33
587.69	737.91
588.04	737.07
588.39	736.30
588.74	735.51
589.09	734.93
589.44	733.82
589.79	733.05
590.14	732.31
590.49	731.62
590.84	730.58
591.19	729.97
591.54	729.05
591.89	727.54
592.25	726.72
592.60	725.46
592.95	724.27
593.30	722.92
593.65	721.35
594.00	719.67
594.35	719.35
594.70	717.82
595.05	716.52
595.40	715.28
595.75	713.71
596.10	712.60
596.45	711.28
596.80	710.25
597.15	708.95
597.50	707.53
597.85	706.18
598.19	704.82
598.54	703.26
598.89	702.08
599.24	701.05
599.59	699.47
599.94	698.38
600.29	697.05
600.64	695.78
600.99	694.46
601.34	693.34
601.69	690.90
602.04	689.41
602.39	687.75
602.74	686.33
603.08	685.18
603.43	684.01
603.78	682.61
604.13	681.03
604.48	679.57
604.83	678.31
605.18	677.03
605.53	675.57
605.87	674.03
606.22	672.65
606.57	671.05
606.92	669.47
607.27	667.56
607.62	665.96
607.96	664.59
608.31	663.18
608.66	661.45
609.01	659.77
609.36	658.07
609.70	656.44
610.05	654.56
610.40	652.77
610.75	650.63
611.10	648.94
611.44	646.89
611.79	644.85
612.14	642.77
612.49	640.62
612.83	638.62
613.18	636.49
613.53	634.39
613.88	632.30
614.22	630.25
614.57	628.36
614.92	626.25
615.27	624.06
615.61	621.82
615.96	619.91
616.31	618.04
616.65	616.37
617.00	614.37
617.35	612.45
617.70	610.19
618.04	608.09
618.39	605.56
618.74	603.57
619.08	601.39
619.43	599.31
619.78	597.33
620.12	595.36
620.47	593.41
620.82	591.08
621.16	588.78
621.51	586.86
621.85	584.80
622.20	582.65
622.55	580.45
622.89	578.22
623.24	575.98
623.59	573.69
623.93	571.28
624.28	569.24
624.62	567.31
624.97	565.44
625.32	563.26
625.66	561.34
626.01	559.33
626.35	557.39
626.70	555.27
627.04	553.44
627.39	551.34
627.73	549.50
628.08	547.65
628.43	545.75
628.77	543.55
629.12	541.54
629.46	539.70
629.81	537.72
630.15	535.82
630.50	533.79
630.84	531.71
631.19	529.68
631.53	527.60
631.88	525.30
632.22	523.06
632.57	521.35
632.91	519.47
633.26	517.48
633.60	515.41
633.95	513.59
634.29	511.35
634.64	509.50
634.98	507.41
635.32	505.47
635.67	503.71
636.01	501.88
636.36	499.86
636.70	498.05
637.05	496.23
637.39	494.36
637.73	492.76
638.08	491.38
638.42	489.78
638.77	488.05
639.11	486.29
639.45	484.64
639.80	482.58
640.14	480.68
640.49	478.92
640.83	477.16
641.17	475.33
641.52	473.47
641.86	471.55
642.20	469.90
642.55	467.88
642.89	465.84
643.23	463.90
643.58	462.38
643.92	460.55
644.26	458.82
644.61	457.19
644.95	455.24
645.29	453.29
645.64	451.56
645.98	449.63
646.32	447.95
646.66	446.06
647.01	444.44
647.35	442.82
647.69	440.96
648.04	439.26
648.38	437.47
648.72	435.70
649.06	433.95
649.41	432.04
649.75	430.42
650.09	428.87
650.43	427.32
650.78	425.46
651.12	423.60
651.46	421.75
651.80	419.96
652.14	418.25
652.49	416.43
652.83	414.58
653.17	412.87
653.51	411.09
653.85	409.61
654.20	407.94
654.54	406.16
654.88	404.59
655.22	403.01
655.56	401.32
655.90	399.76
656.25	398.05
656.59	396.45
656.93	394.93
657.27	393.41
657.61	391.60
657.95	389.94
658.29	388.42
658.64	387.06
658.98	385.42
659.32	383.86
659.66	382.37
660.00	380.82
660.34	379.25
660.68	377.64
661.02	375.90
661.36	374.34
661.70	372.88
662.05	371.41
662.39	370.03
662.73	368.72
663.07	367.50
663.41	366.17
663.75	364.65
664.09	363.20
664.43	361.61
664.77	360.17
665.11	358.78
665.45	357.42
665.79	356.01
666.13	354.74
666.47	353.41
666.81	352.09
667.15	350.65
667.49	349.59
667.83	348.49
668.17	347.33
668.51	346.17
668.85	344.99
669.19	343.93
669.53	342.52
669.87	341.17
670.21	339.77
670.55	338.54
670.89	337.58
671.23	336.59
671.57	335.56
671.91	334.54
672.25	333.41
672.58	332.40
672.92	331.21
673.26	330.06
673.60	329.02
673.94	327.89
674.28	326.93
674.62	325.87
674.96	324.80
675.30	323.74
675.64	322.79
675.97	321.73
676.31	320.78
676.65	319.89
676.99	319.12
677.33	318.12
677.67	317.10
678.01	316.00
678.34	315.01
678.68	314.15
679.02	313.28
679.36	312.45
679.70	311.49
680.04	310.60
680.37	309.74
680.71	308.80
681.05	308.06
681.39	307.23
681.73	306.27
682.06	305.38
682.40	304.56
682.74	303.61
683.08	302.88
683.42	301.84
683.75	300.99
684.09	299.99
684.43	299.15
684.77	298.34
685.10	297.51
685.44	296.57
685.78	295.64
686.12	294.83
686.45	293.90
686.79	293.07
687.13	292.38
687.46	291.54
687.80	290.81
688.14	289.90
688.48	289.16
688.81	288.38
689.15	287.67
689.49	286.88
689.82	286.13
690.16	285.14
690.50	284.40
690.83	283.62
691.17	282.74
691.51	282.01
691.84	281.39
692.18	280.68
692.52	280.02
692.85	279.47
693.19	278.91
693.52	278.24
693.86	277.48
694.20	276.75
694.53	276.11
694.87	275.36
695.21	274.66
695.54	273.98
695.88	273.28
696.21	272.56
696.55	271.93
696.88	271.28
697.22	270.67
697.56	270.12
697.89	269.47
698.23	268.99
698.56	268.49
698.90	267.95
699.23	267.34
699.57	266.77
699.90	266.07
700.24	265.34
700.58	264.85
700.91	264.38
701.25	264.10
701.58	263.64
701.92	263.18
702.25	262.72
702.59	262.10
702.92	261.65
703.26	261.20
703.59	260.67
703.93	260.54
704.26	260.17
704.60	259.69
704.93	259.27
705.26	258.74
705.60	258.20
705.93	257.61
706.27	257.25
706.60	256.82
706.94	256.47
707.27	255.97
707.61	255.53
707.94	255.11
708.27	254.32
708.61	253.82
708.94	253.33
709.28	252.90
709.61	252.50
709.94	252.01
710.28	251.61
710.61	251.26
710.95	250.45
711.28	250.23
711.61	249.76
711.95	249.41
712.28	248.99
712.61	248.59
712.95	248.42
713.28	248.15
713.61	247.70
713.95	247.26
714.28	246.99
714.61	246.50
714.95	245.97
715.28	245.60
715.61	245.19
715.95	244.83
716.28	244.42
716.61	244.08
716.95	243.74
717.28	243.40
717.61	242.99
717.94	242.76
718.28	242.22
718.61	241.88
718.94	241.45
719.27	241.15
719.61	240.87
719.94	240.44
720.27	239.96
720.60	239.73
720.94	239.39
721.27	239.12
721.60	239.00
721.93	238.80
722.27	238.70
722.60	238.48
722.93	238.21
723.26	237.96
723.59	237.69
723.93	237.46
724.26	237.15
724.59	236.97
724.92	236.62
725.25	236.44
725.59	236.15
725.92	235.91
726.25	235.66
726.58	235.47
726.91	235.20
727.24	235.00
727.57	234.64
727.91	234.36
728.24	234.10
728.57	233.74
728.90	233.53
729.23	233.15
729.56	233.13
729.89	232.88
730.22	232.63
730.55	232.40
730.89	232.13
731.22	231.88
731.55	231.62
731.88	231.51
732.21	231.30
732.54	231.11
732.87	230.95
733.20	230.84
733.53	230.58
733.86	230.43
734.19	230.24
734.52	230.14
734.85	230.25
735.18	230.02
735.51	229.98
735.84	229.82
736.17	229.81
736.50	229.38
736.83	229.74
737.16	229.67
737.49	229.51
737.82	229.38
738.15	229.26
738.48	229.19
738.81	228.98
739.14	228.66
739.47	228.51
739.80	228.36
740.13	228.16
740.46	227.97
740.79	227.78
741.12	227.59
741.45	227.40
741.78	227.05
742.11	227.00
742.44	226.79
742.77	226.71
743.10	226.46
743.43	226.35
743.75	225.80
744.08	226.07
744.41	225.90
744.74	225.77
745.07	225.58
745.40	225.42
745.73	225.38
746.06	225.30
746.39	225.26
746.71	225.12
747.04	224.91
747.37	224.71
747.70	224.66
748.03	224.64
748.36	224.54
748.68	224.32
749.01	224.13
749.34	223.97
749.67	223.83
750.00	223.72
750.33	223.86
750.65	223.68
750.98	223.11
751.31	223.01
751.64	223.01
751.97	223.19
752.29	223.02
752.62	222.82
752.95	222.70
753.28	222.44
753.60	222.36
753.93	222.36
754.26	222.30
754.59	222.08
754.91	221.86
755.24	221.65
755.57	221.55
755.90	221.46
756.22	221.35
756.55	221.15
756.88	220.95
757.20	220.57
757.53	220.37
757.86	220.21
758.19	220.20
758.51	219.95
758.84	219.60
759.17	219.54
759.49	219.41
759.82	219.45
760.15	219.41
760.47	219.26
760.80	219.08
761.13	219.08
761.45	218.94
761.78	218.90
762.11	218.86
762.43	218.82
762.76	218.76
763.08	218.63
763.41	218.61
763.74	218.57
764.06	218.53
764.39	218.52
764.71	218.51
765.04	218.32
765.37	218.25
765.69	218.16
766.02	218.03
766.34	217.95
766.67	217.71
767.00	217.70
767.32	217.80
767.65	217.88
767.97	217.75
768.30	217.76
768.62	217.66
768.95	217.61
769.27	217.57
769.60	217.50
769.92	217.46
770.25	217.36
770.57	217.30
770.90	217.20
771.22	217.07
771.55	216.97
771.87	216.97
772.20	216.87
772.52	217.08
772.85	217.46
773.17	217.44
773.50	217.47
773.82	217.38
774.15	217.12
774.47	216.90
774.80	216.78
775.12	216.77
775.45	216.69
775.77	216.59
776.09	216.51
776.42	216.41
776.74	216.43
777.07	216.35
777.39	216.21
777.72	216.16
778.04	216.11
778.36	216.02
778.69	215.93
779.01	215.93
779.33	215.62
779.66	215.10
779.98	214.98
780.31	214.93
780.63	215.05
780.95	215.09
781.28	215.09
781.60	215.05
781.92	214.92
782.25	214.94
782.57	214.90
782.89	214.87
783.22	214.83
783.54	214.80
783.86	214.80
784.19	214.79
784.51	214.92
784.83	214.88
785.16	214.88
785.48	214.86
785.80	214.84
786.12	214.83
786.45	214.85
786.77	214.91
787.09	214.87
787.42	214.61
787.74	214.54
788.06	214.52
788.38	214.49
788.71	214.44
789.03	214.41
789.35	214.44
789.67	214.31
789.99	214.32
790.32	214.18
790.64	214.27
790.96	214.53
791.28	214.31
791.61	214.30
791.93	214.21
792.25	214.16
792.57	214.35
792.89	214.25
793.21	214.29
793.54	214.28
793.86	214.26
794.18	214.35
