SpectraSuite Data File
++++++++++++++++++++++++++++++++++++
Date: Mon Feb 25 17:14:35 EST 2013
User: group
Dark Spectrum Present: No
Reference Spectrum Present: No
Number of Sampled Component Spectra: 1
Spectrometers: USB2E7196
Integration Time (usec): 104000 (USB2E7196)
Spectra Averaged: 20 (USB2E7196)
Boxcar Smoothing: 10 (USB2E7196)
Correct for Electrical Dark: No (USB2E7196)
Strobe/Lamp Enabled: No (USB2E7196)
Correct for Detector Non-linearity: No (USB2E7196)
Correct for Stray Light: No (USB2E7196)
Number of Pixels in Processed Spectrum: 2048
>>>>>Begin Processed Spectral Data<<<<<
339.09	0.00
339.48	199.05
339.86	200.80
340.24	200.85
340.63	202.10
341.01	208.60
341.39	206.20
341.78	206.85
342.16	209.10
342.54	208.10
342.93	198.25
343.31	208.21
343.69	208.72
344.07	209.15
344.46	209.57
344.84	210.03
345.22	210.15
345.60	210.38
345.99	210.59
346.37	210.75
346.75	210.89
347.13	211.01
347.52	211.07
347.90	211.20
348.28	211.21
348.66	211.28
349.05	211.13
349.43	211.15
349.81	211.20
350.19	211.25
350.57	211.34
350.96	211.41
351.34	211.59
351.72	211.69
352.10	211.82
352.48	211.90
352.87	211.91
353.25	211.97
353.63	212.07
354.01	212.19
354.39	212.21
354.77	212.28
355.15	212.42
355.54	212.43
355.92	212.37
356.30	212.37
356.68	212.64
357.06	212.81
357.44	212.85
357.82	212.87
358.20	213.04
358.58	213.04
358.97	213.15
359.35	213.31
359.73	213.45
360.11	213.48
360.49	213.62
360.87	213.65
361.25	213.73
361.63	213.83
362.01	213.86
362.39	213.92
362.77	213.96
363.15	213.97
363.53	214.05
363.91	214.11
364.29	214.15
364.67	213.81
365.05	213.82
365.43	213.86
365.81	213.95
366.19	214.03
366.57	214.18
366.95	214.12
367.33	213.95
367.71	213.97
368.09	213.98
368.47	213.97
368.85	214.03
369.23	214.11
369.61	214.01
369.99	214.13
370.37	214.15
370.75	214.33
371.13	214.24
371.51	214.09
371.89	214.16
372.27	214.19
372.65	214.25
373.03	214.25
373.41	214.28
373.78	214.27
374.16	214.11
374.54	213.98
374.92	213.98
375.30	213.97
375.68	213.86
376.06	213.93
376.44	213.83
376.82	213.78
377.19	213.67
377.57	213.65
377.95	213.48
378.33	213.38
378.71	213.16
379.09	213.17
379.47	213.26
379.84	213.20
380.22	213.14
380.60	213.01
380.98	212.99
381.36	212.78
381.73	212.67
382.11	212.64
382.49	212.59
382.87	212.50
383.25	212.47
383.62	212.80
384.00	212.65
384.38	212.64
384.76	212.67
385.13	212.75
385.51	212.70
385.89	212.56
386.27	212.53
386.64	212.52
387.02	212.46
387.40	212.37
387.78	212.28
388.15	212.29
388.53	212.31
388.91	212.20
389.29	212.18
389.66	212.17
390.04	212.14
390.42	212.14
390.79	212.16
391.17	212.14
391.55	211.72
391.92	211.69
392.30	211.70
392.68	211.61
393.05	211.52
393.43	211.48
393.81	211.55
394.18	211.53
394.56	211.49
394.94	211.50
395.31	211.42
395.69	211.56
396.06	211.54
396.44	211.47
396.82	211.41
397.19	211.64
397.57	211.59
397.95	211.59
398.32	211.50
398.70	211.48
399.07	211.55
399.45	211.50
399.82	211.50
400.20	211.45
400.58	211.51
400.95	211.47
401.33	211.57
401.70	211.80
402.08	211.86
402.45	211.92
402.83	212.10
403.20	212.24
403.58	212.21
403.95	212.30
404.33	212.44
404.71	212.55
405.08	212.79
405.46	212.90
405.83	213.04
406.21	213.22
406.58	213.41
406.96	213.49
407.33	213.75
407.70	213.99
408.08	214.42
408.45	214.57
408.83	214.81
409.20	214.90
409.58	214.90
409.95	215.13
410.33	215.43
410.70	215.54
411.08	215.80
411.45	216.11
411.82	216.41
412.20	216.84
412.57	217.46
412.95	217.56
413.32	218.04
413.69	218.45
414.07	218.88
414.44	219.35
414.82	219.87
415.19	220.43
415.56	220.99
415.94	221.45
416.31	222.25
416.68	222.94
417.06	223.85
417.43	224.79
417.81	225.73
418.18	226.64
418.55	227.67
418.93	228.76
419.30	229.84
419.67	231.00
420.04	232.14
420.42	233.24
420.79	234.95
421.16	236.36
421.54	238.14
421.91	239.70
422.28	241.26
422.66	242.99
423.03	244.85
423.40	246.62
423.77	248.50
424.15	250.26
424.52	252.23
424.89	254.31
425.26	256.18
425.64	258.18
426.01	260.28
426.38	262.53
426.75	264.84
427.13	267.15
427.50	269.66
427.87	272.25
428.24	274.81
428.61	277.06
428.99	279.88
429.36	282.56
429.73	285.38
430.10	288.30
430.47	291.25
430.85	294.07
431.22	297.30
431.59	300.98
431.96	304.22
432.33	307.84
432.70	311.35
433.08	315.44
433.45	319.22
433.82	323.01
434.19	327.28
434.56	331.48
434.93	335.41
435.30	339.35
435.68	343.69
436.05	348.02
436.42	352.30
436.79	356.22
437.16	360.40
437.53	364.90
437.90	369.20
438.27	373.62
438.64	378.12
439.01	382.30
439.38	385.66
439.75	389.17
440.13	393.17
440.50	396.94
440.87	400.20
441.24	403.36
441.61	406.94
441.98	409.48
442.35	412.47
442.72	415.61
443.09	418.65
443.46	420.37
443.83	421.56
444.20	422.49
444.57	423.88
444.94	424.51
445.31	425.09
445.68	426.07
446.05	426.15
446.42	425.64
446.79	425.00
447.16	424.36
447.53	423.93
447.90	422.21
448.27	420.55
448.64	417.98
449.01	416.38
449.37	413.45
449.74	410.45
450.11	407.32
450.48	403.49
450.85	399.49
451.22	396.27
451.59	393.12
451.96	390.20
452.33	386.23
452.70	382.67
453.07	378.55
453.43	374.07
453.80	370.03
454.17	366.05
454.54	362.23
454.91	358.17
455.28	354.28
455.65	350.58
456.02	347.35
456.38	344.28
456.75	340.35
457.12	337.04
457.49	333.98
457.86	330.48
458.23	328.04
458.59	325.19
458.96	322.26
459.33	319.64
459.70	317.05
460.07	315.01
460.43	312.57
460.80	310.40
461.17	308.40
461.54	306.33
461.91	304.40
462.27	302.42
462.64	300.87
463.01	299.07
463.38	297.50
463.74	295.23
464.11	293.67
464.48	292.30
464.85	290.82
465.21	289.75
465.58	288.69
465.95	287.06
466.32	285.91
466.68	284.73
467.05	283.52
467.42	282.39
467.78	281.10
468.15	280.09
468.52	279.26
468.88	278.08
469.25	277.12
469.62	276.46
469.98	275.65
470.35	274.80
470.72	274.02
471.08	273.03
471.45	272.46
471.82	271.91
472.18	271.29
472.55	270.85
472.92	270.19
473.28	269.59
473.65	269.15
474.02	268.67
474.38	268.38
474.75	268.13
475.11	267.72
475.48	267.53
475.85	267.29
476.21	267.03
476.58	266.94
476.94	266.86
477.31	266.72
477.67	266.67
478.04	266.65
478.41	266.70
478.77	267.14
479.14	267.15
479.50	267.33
479.87	267.51
480.23	267.79
480.60	268.08
480.96	268.31
481.33	268.82
481.69	269.20
482.06	269.52
482.42	269.93
482.79	270.50
483.15	271.06
483.52	271.82
483.88	272.34
484.25	272.97
484.61	273.69
484.98	274.41
485.34	275.43
485.71	276.41
486.07	277.43
486.44	278.32
486.80	279.54
487.17	280.60
487.53	281.88
487.90	283.29
488.26	284.87
488.62	286.53
488.99	288.03
489.35	289.74
489.72	291.60
490.08	293.48
490.44	295.39
490.81	297.57
491.17	299.63
491.54	302.06
491.90	304.60
492.26	307.05
492.63	309.79
492.99	312.49
493.36	315.33
493.72	318.52
494.08	321.50
494.45	324.82
494.81	328.48
495.17	332.06
495.54	335.86
495.90	339.69
496.26	343.80
496.63	348.24
496.99	352.72
497.35	357.44
497.72	362.30
498.08	367.36
498.44	372.53
498.80	377.96
499.17	383.75
499.53	389.55
499.89	395.77
500.26	401.91
500.62	408.30
500.98	415.26
501.34	422.24
501.71	429.50
502.07	436.95
502.43	444.54
502.79	452.36
503.16	460.45
503.52	468.80
503.88	477.36
504.24	486.02
504.60	494.99
504.97	504.14
505.33	513.64
505.69	523.59
506.05	533.71
506.41	544.03
506.78	554.27
507.14	564.90
507.50	575.93
507.86	587.13
508.22	598.66
508.59	610.21
508.95	622.07
509.31	634.45
509.67	646.91
510.03	659.60
510.39	672.69
510.75	686.08
511.12	699.35
511.48	713.06
511.84	726.90
512.20	740.67
512.56	755.07
512.92	769.79
513.28	784.33
513.64	799.04
514.00	813.96
514.37	829.14
514.73	844.41
515.09	859.79
515.45	875.44
515.81	891.20
516.17	906.85
516.53	922.39
516.89	938.35
517.25	954.42
517.61	970.55
517.97	986.44
518.33	1002.34
518.69	1018.68
519.05	1035.06
519.41	1051.59
519.77	1068.77
520.13	1085.11
520.49	1101.35
520.85	1118.01
521.21	1134.81
521.57	1151.79
521.93	1168.23
522.29	1185.50
522.65	1202.48
523.01	1219.11
523.37	1235.48
523.73	1252.31
524.09	1269.20
524.45	1285.89
524.81	1302.46
525.17	1319.10
525.53	1335.89
525.89	1352.60
526.25	1369.08
526.61	1384.98
526.97	1401.05
527.33	1416.81
527.68	1433.17
528.04	1448.89
528.40	1463.78
528.76	1479.06
529.12	1494.50
529.48	1510.70
529.84	1525.74
530.20	1540.86
530.56	1556.10
530.91	1571.71
531.27	1587.00
531.63	1601.95
531.99	1616.52
532.35	1630.79
532.71	1644.77
533.07	1659.51
533.42	1673.58
533.78	1687.60
534.14	1701.44
534.50	1714.24
534.86	1727.65
535.21	1739.99
535.57	1753.13
535.93	1766.20
536.29	1778.78
536.65	1791.15
537.00	1802.23
537.36	1813.74
537.72	1824.60
538.08	1835.50
538.44	1846.45
538.79	1857.24
539.15	1867.92
539.51	1878.18
539.87	1888.87
540.22	1899.27
540.58	1909.50
540.94	1919.15
541.29	1928.13
541.65	1936.79
542.01	1946.10
542.37	1954.50
542.72	1963.37
543.08	1971.18
543.44	1979.65
543.79	1987.02
544.15	1993.65
544.51	2001.33
544.87	2009.00
545.22	2016.15
545.58	2022.50
545.94	2027.98
546.29	2032.99
546.65	2037.79
547.01	2042.69
547.36	2047.44
547.72	2052.04
548.07	2055.17
548.43	2058.49
548.79	2061.72
549.14	2065.07
549.50	2068.10
549.86	2070.70
550.21	2072.79
550.57	2075.62
550.92	2077.19
551.28	2078.96
551.64	2081.10
551.99	2083.01
552.35	2083.79
552.70	2084.62
553.06	2086.10
553.41	2087.15
553.77	2088.52
554.13	2089.49
554.48	2090.26
554.84	2091.08
555.19	2090.80
555.55	2090.85
555.90	2090.50
556.26	2090.16
556.61	2089.58
556.97	2088.73
557.32	2088.43
557.68	2087.32
558.03	2085.53
558.39	2084.55
558.74	2084.05
559.10	2083.12
559.45	2081.28
559.81	2080.14
560.16	2078.56
560.52	2076.71
560.87	2075.20
561.23	2072.45
561.58	2070.78
561.94	2068.17
562.29	2064.73
562.64	2062.58
563.00	2060.49
563.35	2058.88
563.71	2057.39
564.06	2055.24
564.42	2053.30
564.77	2051.20
565.12	2049.47
565.48	2047.67
565.83	2045.19
566.19	2042.72
566.54	2039.44
566.89	2036.53
567.25	2033.40
567.60	2030.72
567.96	2027.76
568.31	2024.52
568.66	2021.47
569.02	2017.33
569.37	2013.61
569.72	2010.25
570.08	2006.39
570.43	2002.04
570.78	1997.47
571.14	1992.36
571.49	1987.90
571.84	1983.54
572.20	1977.92
572.55	1973.13
572.90	1967.63
573.26	1962.33
573.61	1956.55
573.96	1951.26
574.31	1945.31
574.67	1939.20
575.02	1932.62
575.37	1926.45
575.72	1919.90
576.08	1914.28
576.43	1908.11
576.78	1902.09
577.13	1896.68
577.49	1890.73
577.84	1884.59
578.19	1878.79
578.54	1873.67
578.90	1868.61
579.25	1862.55
579.60	1856.43
579.95	1849.79
580.30	1844.32
580.66	1838.81
581.01	1832.75
581.36	1826.39
581.71	1820.48
582.06	1814.53
582.42	1808.97
582.77	1802.47
583.12	1796.34
583.47	1790.28
583.82	1784.93
584.17	1778.95
584.53	1772.80
584.88	1766.73
585.23	1760.78
585.58	1754.65
585.93	1748.26
586.28	1741.81
586.63	1735.55
586.98	1729.91
587.34	1724.59
587.69	1718.44
588.04	1712.22
588.39	1706.24
588.74	1699.90
589.09	1694.16
589.44	1688.11
589.79	1682.41
590.14	1676.99
590.49	1671.00
590.84	1664.79
591.19	1659.29
591.54	1653.65
591.89	1646.81
592.25	1640.86
592.60	1634.66
592.95	1628.08
593.30	1621.05
593.65	1614.30
594.00	1607.96
594.35	1602.96
594.70	1596.52
595.05	1590.38
595.40	1584.32
595.75	1577.62
596.10	1572.14
596.45	1566.17
596.80	1560.76
597.15	1554.94
597.50	1548.67
597.85	1543.37
598.19	1537.40
598.54	1531.22
598.89	1525.54
599.24	1520.80
599.59	1515.02
599.94	1510.22
600.29	1505.17
600.64	1500.18
600.99	1494.70
601.34	1489.47
601.69	1482.93
602.04	1477.15
602.39	1471.69
602.74	1466.48
603.08	1462.05
603.43	1457.30
603.78	1452.10
604.13	1446.61
604.48	1441.11
604.83	1436.85
605.18	1432.10
605.53	1426.96
605.87	1421.37
606.22	1416.20
606.57	1410.46
606.92	1405.17
607.27	1399.13
607.62	1393.36
607.96	1388.21
608.31	1383.31
608.66	1377.58
609.01	1371.87
609.36	1366.26
609.70	1360.16
610.05	1353.63
610.40	1347.47
610.75	1340.95
611.10	1335.30
611.44	1328.64
611.79	1322.02
612.14	1314.84
612.49	1307.77
612.83	1301.37
613.18	1294.63
613.53	1288.02
613.88	1281.18
614.22	1274.84
614.57	1268.38
614.92	1261.96
615.27	1255.28
615.61	1248.49
615.96	1242.31
616.31	1236.28
616.65	1230.58
617.00	1224.75
617.35	1219.05
617.70	1212.62
618.04	1205.94
618.39	1198.78
618.74	1192.59
619.08	1186.46
619.43	1180.64
619.78	1174.61
620.12	1168.48
620.47	1162.63
620.82	1155.97
621.16	1149.52
621.51	1143.21
621.85	1137.01
622.20	1130.81
622.55	1124.58
622.89	1118.28
623.24	1111.87
623.59	1105.14
623.93	1098.75
624.28	1092.49
624.62	1086.47
624.97	1080.55
625.32	1074.86
625.66	1069.26
626.01	1063.58
626.35	1057.98
626.70	1052.08
627.04	1046.57
627.39	1040.94
627.73	1035.18
628.08	1030.01
628.43	1024.44
628.77	1018.58
629.12	1012.92
629.46	1007.85
629.81	1002.42
630.15	996.98
630.50	991.48
630.84	985.86
631.19	980.30
631.53	974.86
631.88	968.76
632.22	963.05
632.57	957.90
632.91	952.46
633.26	947.05
633.60	941.47
633.95	936.26
634.29	930.77
634.64	925.64
634.98	920.15
635.32	914.89
635.67	910.06
636.01	905.10
636.36	899.77
636.70	894.45
637.05	889.25
637.39	884.33
637.73	879.82
638.08	875.48
638.42	870.74
638.77	865.93
639.11	861.29
639.45	856.57
639.80	851.28
640.14	846.18
640.49	841.27
640.83	836.49
641.17	831.51
641.52	826.59
641.86	821.40
642.20	816.78
642.55	811.60
642.89	806.58
643.23	801.48
643.58	797.00
643.92	791.86
644.26	787.09
644.61	782.17
644.95	777.05
645.29	772.19
645.64	767.34
645.98	762.52
646.32	757.96
646.66	753.08
647.01	748.45
647.35	744.11
647.69	739.19
648.04	734.63
648.38	729.72
648.72	725.07
649.06	720.28
649.41	715.77
649.75	711.26
650.09	706.69
650.43	702.15
650.78	697.37
651.12	692.95
651.46	688.44
651.80	684.15
652.14	679.80
652.49	675.18
652.83	670.64
653.17	666.05
653.51	661.47
653.85	657.17
654.20	653.10
654.54	648.35
654.88	644.13
655.22	639.67
655.56	635.40
655.90	630.95
656.25	626.74
656.59	622.41
656.93	618.22
657.27	614.32
657.61	610.16
657.95	606.21
658.29	602.09
658.64	598.17
658.98	594.02
659.32	589.76
659.66	585.88
660.00	581.92
660.34	578.03
660.68	574.07
661.02	570.10
661.36	566.18
661.70	562.73
662.05	559.08
662.39	555.75
662.73	552.45
663.07	549.07
663.41	545.76
663.75	542.14
664.09	538.67
664.43	535.04
664.77	531.74
665.11	528.46
665.45	525.25
665.79	521.95
666.13	518.73
666.47	515.52
666.81	512.32
667.15	509.11
667.49	506.20
667.83	503.39
668.17	500.61
668.51	497.67
668.85	494.75
669.19	492.07
669.53	488.96
669.87	485.90
670.21	483.02
670.55	480.12
670.89	477.79
671.23	475.22
671.57	472.65
671.91	469.88
672.25	467.03
672.58	464.41
672.92	461.75
673.26	459.19
673.60	456.82
673.94	454.37
674.28	451.95
674.62	449.44
674.96	446.90
675.30	444.48
675.64	441.95
675.97	439.49
676.31	437.07
676.65	434.81
676.99	432.76
677.33	430.50
677.67	428.20
678.01	425.67
678.34	423.41
678.68	421.15
679.02	418.96
679.36	416.84
679.70	414.58
680.04	412.45
680.37	410.26
680.71	408.05
681.05	405.93
681.39	403.84
681.73	401.82
682.06	399.85
682.40	397.89
682.74	396.03
683.08	394.23
683.42	392.14
683.75	390.17
684.09	388.12
684.43	386.16
684.77	384.26
685.10	382.35
685.44	380.40
685.78	378.44
686.12	376.79
686.45	375.02
686.79	373.24
687.13	371.55
687.46	369.87
687.80	368.29
688.14	366.48
688.48	364.81
688.81	362.96
689.15	361.29
689.49	359.56
689.82	357.85
690.16	355.90
690.50	354.20
690.83	352.50
691.17	350.75
691.51	349.09
691.84	347.57
692.18	346.09
692.52	344.65
692.85	343.39
693.19	341.97
693.52	340.44
693.86	338.90
694.20	337.37
694.53	335.93
694.87	334.31
695.21	332.91
695.54	331.38
695.88	329.91
696.21	328.36
696.55	326.96
696.88	325.63
697.22	324.38
697.56	323.29
697.89	321.99
698.23	320.77
698.56	319.44
698.90	318.30
699.23	316.84
699.57	315.50
699.90	314.09
700.24	312.68
700.58	311.41
700.91	310.31
701.25	309.41
701.58	308.32
701.92	307.29
702.25	306.13
702.59	305.01
702.92	303.88
703.26	302.78
703.59	301.68
703.93	300.84
704.26	299.84
704.60	298.66
704.93	297.59
705.26	296.48
705.60	295.57
705.93	294.44
706.27	293.66
706.60	292.80
706.94	291.97
707.27	290.94
707.61	290.14
707.94	289.14
708.27	287.84
708.61	286.84
708.94	285.92
709.28	285.03
709.61	284.22
709.94	283.47
710.28	282.68
710.61	281.90
710.95	280.77
711.28	280.10
711.61	279.28
711.95	278.61
712.28	277.88
712.61	277.17
712.95	276.70
713.28	276.07
713.61	275.30
713.95	274.45
714.28	273.88
714.61	273.03
714.95	272.30
715.28	271.67
715.61	270.90
715.95	270.11
716.28	269.45
716.61	268.80
716.95	268.13
717.28	267.50
717.61	266.88
717.94	266.37
718.28	265.56
718.61	264.95
718.94	264.27
719.27	263.66
719.61	263.05
719.94	262.30
720.27	261.43
720.60	260.82
720.94	260.18
721.27	259.57
721.60	259.16
721.93	258.70
722.27	258.24
722.60	257.84
722.93	257.35
723.26	256.85
723.59	256.24
723.93	255.75
724.26	255.34
724.59	254.87
724.92	254.33
725.25	253.95
725.59	253.45
725.92	253.03
726.25	252.64
726.58	252.25
726.91	251.78
727.24	251.48
727.57	251.02
727.91	250.61
728.24	250.25
728.57	249.77
728.90	249.45
729.23	248.96
729.56	248.70
729.89	248.33
730.22	247.94
730.55	247.60
730.89	247.22
731.22	246.80
731.55	246.38
731.88	246.03
732.21	245.54
732.54	245.19
732.87	244.81
733.20	244.38
733.53	243.97
733.86	243.72
734.19	243.29
734.52	242.96
734.85	242.94
735.18	242.55
735.51	242.39
735.84	242.04
736.17	241.85
736.50	241.30
736.83	241.42
737.16	241.12
737.49	240.82
737.82	240.35
738.15	239.99
738.48	239.67
738.81	239.29
739.14	238.97
739.47	238.63
739.80	238.35
740.13	238.03
740.46	237.70
740.79	237.23
741.12	237.01
741.45	236.76
741.78	236.23
742.11	236.05
742.44	235.57
742.77	235.34
743.10	235.05
743.43	234.82
743.75	234.11
744.08	234.28
744.41	233.92
744.74	233.77
745.07	233.46
745.40	233.26
745.73	233.22
746.06	233.01
746.39	232.78
746.71	232.44
747.04	232.22
747.37	231.96
747.70	231.82
748.03	231.62
748.36	231.42
748.68	231.29
749.01	230.99
749.34	230.76
749.67	230.55
750.00	230.40
750.33	230.45
750.65	230.30
750.98	229.64
751.31	229.54
751.64	229.42
751.97	229.47
752.29	229.27
752.62	228.85
752.95	228.67
753.28	228.50
753.60	228.27
753.93	228.20
754.26	227.97
754.59	227.64
754.91	227.39
755.24	227.23
755.57	226.93
755.90	226.73
756.22	226.58
756.55	226.29
756.88	226.04
757.20	225.65
757.53	225.41
757.86	225.21
758.19	225.04
758.51	224.83
758.84	224.49
759.17	224.32
759.49	224.19
759.82	224.20
760.15	224.11
760.47	224.00
760.80	223.74
761.13	223.71
761.45	223.58
761.78	223.41
762.11	223.15
762.43	223.00
762.76	222.86
763.08	222.77
763.41	222.66
763.74	222.46
764.06	222.35
764.39	222.22
764.71	222.16
765.04	221.98
765.37	221.84
765.69	221.64
766.02	221.45
766.34	221.27
766.67	221.03
767.00	220.98
767.32	221.18
767.65	221.27
767.97	221.12
768.30	221.04
768.62	220.98
768.95	220.90
769.27	220.86
769.60	220.82
769.92	220.70
770.25	220.57
770.57	220.45
770.90	220.28
771.22	220.24
771.55	220.02
771.87	219.92
772.20	219.82
772.52	220.11
772.85	220.50
773.17	220.46
773.50	220.34
773.82	220.16
774.15	219.90
774.47	219.56
774.80	219.44
775.12	219.37
775.45	219.23
775.77	219.18
776.09	219.14
776.42	219.07
776.74	219.11
777.07	219.02
777.39	218.97
777.72	218.94
778.04	218.83
778.36	218.88
778.69	218.82
779.01	218.84
779.33	218.43
779.66	217.93
779.98	217.84
780.31	217.78
780.63	217.85
780.95	217.71
781.28	217.73
781.60	217.64
781.92	217.54
782.25	217.49
782.57	217.42
782.89	217.26
783.22	217.21
783.54	216.96
783.86	217.03
784.19	216.90
784.51	216.93
784.83	216.81
785.16	216.72
785.48	216.67
785.80	216.60
786.12	216.54
786.45	216.53
786.77	216.59
787.09	216.48
787.42	216.30
