SpectraSuite Data File
++++++++++++++++++++++++++++++++++++
Date: Mon Feb 25 17:12:14 EST 2013
User: group
Dark Spectrum Present: No
Reference Spectrum Present: No
Number of Sampled Component Spectra: 1
Spectrometers: USB2E7196
Integration Time (usec): 104000 (USB2E7196)
Spectra Averaged: 20 (USB2E7196)
Boxcar Smoothing: 10 (USB2E7196)
Correct for Electrical Dark: No (USB2E7196)
Strobe/Lamp Enabled: No (USB2E7196)
Correct for Detector Non-linearity: No (USB2E7196)
Correct for Stray Light: No (USB2E7196)
Number of Pixels in Processed Spectrum: 2048
>>>>>Begin Processed Spectral Data<<<<<
339.09	0.00
339.48	200.20
339.86	200.65
340.24	201.00
340.63	203.15
341.01	210.75
341.39	206.20
341.78	207.30
342.16	209.30
342.54	208.95
342.93	198.82
343.31	208.86
343.69	209.29
344.07	209.81
344.46	210.29
344.84	210.69
345.22	210.68
345.60	210.94
345.99	211.14
346.37	211.21
346.75	211.25
347.13	211.33
347.52	211.40
347.90	211.65
348.28	211.67
348.66	211.70
349.05	211.60
349.43	211.52
349.81	211.56
350.19	211.55
350.57	211.61
350.96	211.70
351.34	211.75
351.72	211.88
352.10	211.88
352.48	211.88
352.87	211.89
353.25	211.97
353.63	211.96
354.01	211.95
354.39	212.06
354.77	212.15
355.15	212.21
355.54	212.21
355.92	212.08
356.30	212.13
356.68	212.42
357.06	212.52
357.44	212.57
357.82	212.66
358.20	212.70
358.58	212.68
358.97	212.72
359.35	212.86
359.73	212.91
360.11	212.95
360.49	212.99
360.87	213.08
361.25	213.11
361.63	213.26
362.01	213.29
362.39	213.27
362.77	213.27
363.15	213.25
363.53	213.25
363.91	213.26
364.29	213.35
364.67	212.96
365.05	212.90
365.43	212.94
365.81	212.93
366.19	213.10
366.57	213.28
366.95	213.25
367.33	213.22
367.71	213.27
368.09	213.30
368.47	213.35
368.85	213.28
369.23	213.36
369.61	213.24
369.99	213.37
370.37	213.35
370.75	213.56
371.13	213.55
371.51	213.53
371.89	213.49
372.27	213.44
372.65	213.44
373.03	213.45
373.41	213.42
373.78	213.37
374.16	213.17
374.54	213.08
374.92	212.93
375.30	212.85
375.68	212.63
376.06	212.64
376.44	212.44
376.82	212.41
377.19	212.30
377.57	212.32
377.95	212.18
378.33	212.15
378.71	211.90
379.09	211.88
379.47	211.80
379.84	211.68
380.22	211.58
380.60	211.51
380.98	211.43
381.36	211.39
381.73	211.30
382.11	211.30
382.49	211.21
382.87	211.20
383.25	211.15
383.62	211.57
384.00	211.53
384.38	211.63
384.76	211.55
385.13	211.69
385.51	211.63
385.89	211.58
386.27	211.51
386.64	211.48
387.02	211.46
387.40	211.48
387.78	211.60
388.15	211.60
388.53	211.59
388.91	211.56
389.29	211.51
389.66	211.47
390.04	211.39
390.42	211.44
390.79	211.40
391.17	211.30
391.55	210.95
391.92	210.79
392.30	210.82
392.68	210.82
393.05	210.79
393.43	210.70
393.81	210.69
394.18	210.69
394.56	210.72
394.94	210.71
395.31	210.70
395.69	210.79
396.06	210.82
396.44	210.88
396.82	210.86
397.19	211.02
397.57	211.03
397.95	211.14
398.32	210.98
398.70	211.08
399.07	211.23
399.45	211.17
399.82	211.29
400.20	211.26
400.58	211.30
400.95	211.20
401.33	211.30
401.70	211.52
402.08	211.58
402.45	211.58
402.83	211.71
403.20	211.82
403.58	211.81
403.95	211.91
404.33	212.01
404.71	212.06
405.08	212.25
405.46	212.32
405.83	212.42
406.21	212.54
406.58	212.66
406.96	212.76
407.33	212.95
407.70	213.09
408.08	213.49
408.45	213.69
408.83	213.89
409.20	214.05
409.58	214.05
409.95	214.29
410.33	214.58
410.70	214.69
411.08	214.87
411.45	215.08
411.82	215.28
412.20	215.59
412.57	216.16
412.95	216.17
413.32	216.60
413.69	216.98
414.07	217.42
414.44	217.84
414.82	218.25
415.19	218.82
415.56	219.39
415.94	219.75
416.31	220.42
416.68	221.02
417.06	221.76
417.43	222.55
417.81	223.39
418.18	224.20
418.55	225.08
418.93	226.06
419.30	227.02
419.67	228.11
420.04	229.09
420.42	230.07
420.79	231.63
421.16	232.90
421.54	234.28
421.91	235.59
422.28	236.98
422.66	238.44
423.03	240.10
423.40	241.63
423.77	243.23
424.15	244.79
424.52	246.51
424.89	248.31
425.26	250.03
425.64	251.69
426.01	253.45
426.38	255.32
426.75	257.32
427.13	259.34
427.50	261.40
427.87	263.62
428.24	265.71
428.61	267.66
428.99	270.06
429.36	272.49
429.73	275.06
430.10	277.61
430.47	280.25
430.85	282.66
431.22	285.37
431.59	288.54
431.96	291.40
432.33	294.47
432.70	297.60
433.08	301.13
433.45	304.49
433.82	307.80
434.19	311.60
434.56	315.22
434.93	318.67
435.30	322.03
435.68	325.96
436.05	329.84
436.42	333.57
436.79	337.02
437.16	340.69
437.53	344.53
437.90	348.35
438.27	352.08
438.64	356.05
439.01	359.80
439.38	362.78
439.75	365.96
440.13	369.49
440.50	372.75
440.87	375.45
441.24	378.18
441.61	381.35
441.98	383.60
442.35	386.23
442.72	389.05
443.09	391.95
443.46	393.37
443.83	394.37
444.20	395.30
444.57	396.48
444.94	397.05
445.31	397.69
445.68	398.55
446.05	398.79
446.42	398.35
446.79	397.93
447.16	397.52
447.53	397.18
447.90	395.78
448.27	394.35
448.64	392.37
449.01	390.99
449.37	388.45
449.74	386.00
450.11	383.26
450.48	379.92
450.85	376.28
451.22	373.42
451.59	370.81
451.96	368.17
452.33	364.90
452.70	361.85
453.07	358.14
453.43	354.07
453.80	350.48
454.17	346.99
454.54	343.59
454.91	339.97
455.28	336.43
455.65	333.26
456.02	330.52
456.38	327.77
456.75	324.42
457.12	321.54
457.49	318.78
457.86	315.87
458.23	313.70
458.59	311.37
458.96	308.88
459.33	306.62
459.70	304.40
460.07	302.50
460.43	300.44
460.80	298.56
461.17	296.96
461.54	295.21
461.91	293.49
462.27	291.78
462.64	290.28
463.01	288.67
463.38	287.18
463.74	285.08
464.11	283.75
464.48	282.59
464.85	281.33
465.21	280.43
465.58	279.46
465.95	278.05
466.32	277.02
466.68	275.99
467.05	274.98
467.42	273.97
467.78	272.86
468.15	271.77
468.52	271.02
468.88	269.92
469.25	268.96
469.62	268.31
469.98	267.55
470.35	266.89
470.72	266.27
471.08	265.45
471.45	265.01
471.82	264.44
472.18	263.75
472.55	263.26
472.92	262.51
473.28	261.90
473.65	261.50
474.02	260.95
474.38	260.56
474.75	260.16
475.11	259.68
475.48	259.47
475.85	259.30
476.21	258.96
476.58	258.83
476.94	258.72
477.31	258.52
477.67	258.41
478.04	258.38
478.41	258.43
478.77	258.75
479.14	258.64
479.50	258.66
479.87	258.75
480.23	258.93
480.60	259.07
480.96	259.23
481.33	259.53
481.69	259.80
482.06	260.08
482.42	260.39
482.79	260.76
483.15	261.04
483.52	261.50
483.88	261.92
484.25	262.35
484.61	262.83
484.98	263.32
485.34	263.98
485.71	264.61
486.07	265.22
486.44	265.60
486.80	266.34
487.17	267.12
487.53	268.11
487.90	269.01
488.26	270.10
488.62	271.24
488.99	272.21
489.35	273.36
489.72	274.52
490.08	275.75
490.44	277.04
490.81	278.56
491.17	280.01
491.54	281.64
491.90	283.44
492.26	285.18
492.63	287.03
492.99	288.87
493.36	290.78
493.72	292.92
494.08	295.09
494.45	297.40
494.81	299.78
495.17	302.13
495.54	304.80
495.90	307.45
496.26	310.23
496.63	313.14
496.99	316.14
497.35	319.31
497.72	322.57
498.08	326.05
498.44	329.49
498.80	333.25
499.17	336.97
499.53	340.77
499.89	344.90
500.26	349.02
500.62	353.20
500.98	357.70
501.34	362.29
501.71	367.13
502.07	371.89
502.43	376.88
502.79	381.92
503.16	387.06
503.52	392.48
503.88	397.99
504.24	403.59
504.60	409.44
504.97	415.53
505.33	421.63
505.69	428.16
506.05	434.86
506.41	441.44
506.78	448.14
507.14	454.95
507.50	461.91
507.86	469.11
508.22	476.59
508.59	483.95
508.95	491.49
509.31	499.30
509.67	507.44
510.03	515.62
510.39	524.12
510.75	532.75
511.12	541.31
511.48	549.99
511.84	558.99
512.20	567.90
512.56	577.07
512.92	586.46
513.28	595.76
513.64	605.04
514.00	614.38
514.37	624.16
514.73	634.06
515.09	644.04
515.45	654.05
515.81	664.27
516.17	674.48
516.53	684.66
516.89	694.89
517.25	705.40
517.61	715.77
517.97	726.10
518.33	736.41
518.69	746.87
519.05	757.51
519.41	768.29
519.77	779.38
520.13	790.09
520.49	800.70
520.85	811.33
521.21	822.17
521.57	833.47
521.93	844.11
522.29	855.23
522.65	866.31
523.01	877.41
523.37	887.92
523.73	898.94
524.09	910.20
524.45	921.19
524.81	931.95
525.17	943.09
525.53	954.29
525.89	965.31
526.25	976.41
526.61	987.09
526.97	997.56
527.33	1008.51
527.68	1019.54
528.04	1030.20
528.40	1040.52
528.76	1051.14
529.12	1061.55
529.48	1072.60
529.84	1083.07
530.20	1093.35
530.56	1103.72
530.91	1114.86
531.27	1125.63
531.63	1135.85
531.99	1146.08
532.35	1155.82
532.71	1165.61
533.07	1175.62
533.42	1185.64
533.78	1195.43
534.14	1205.19
534.50	1214.39
534.86	1223.54
535.21	1232.48
535.57	1241.88
535.93	1250.99
536.29	1259.88
536.65	1268.58
537.00	1276.86
537.36	1285.00
537.72	1293.14
538.08	1301.28
538.44	1308.69
538.79	1316.45
539.15	1324.11
539.51	1331.75
539.87	1339.90
540.22	1347.35
540.58	1354.82
540.94	1361.81
541.29	1368.68
541.65	1375.20
542.01	1382.25
542.37	1388.52
542.72	1394.65
543.08	1400.65
543.44	1407.10
543.79	1412.62
544.15	1418.12
544.51	1423.87
544.87	1429.55
545.22	1434.72
545.58	1439.53
545.94	1444.07
546.29	1448.15
546.65	1452.02
547.01	1455.98
547.36	1459.81
547.72	1463.53
548.07	1466.64
548.43	1469.75
548.79	1472.56
549.14	1475.47
549.50	1478.30
549.86	1480.60
550.21	1483.06
550.57	1485.66
550.92	1487.29
551.28	1489.48
551.64	1491.49
551.99	1493.23
552.35	1494.75
552.70	1496.36
553.06	1497.90
553.41	1499.41
553.77	1500.86
554.13	1502.26
554.48	1503.48
554.84	1504.78
555.19	1505.62
555.55	1506.32
555.90	1506.52
556.26	1506.82
556.61	1506.98
556.97	1506.42
557.32	1506.88
557.68	1506.43
558.03	1505.72
558.39	1505.65
558.74	1505.64
559.10	1505.60
559.45	1505.32
559.81	1505.23
560.16	1504.54
560.52	1504.10
560.87	1503.58
561.23	1502.37
561.58	1501.85
561.94	1500.58
562.29	1498.68
562.64	1497.78
563.00	1496.86
563.35	1496.36
563.71	1495.94
564.06	1495.18
564.42	1494.78
564.77	1493.79
565.12	1493.38
565.48	1492.75
565.83	1491.83
566.19	1490.65
566.54	1488.87
566.89	1487.02
567.25	1485.47
567.60	1483.87
567.96	1482.05
568.31	1480.48
568.66	1478.79
569.02	1476.42
569.37	1473.88
569.72	1472.17
570.08	1469.59
570.43	1466.94
570.78	1464.32
571.14	1461.15
571.49	1458.19
571.84	1455.71
572.20	1452.40
572.55	1449.54
572.90	1446.01
573.26	1442.47
573.61	1439.00
573.96	1435.70
574.31	1431.95
574.67	1427.66
575.02	1423.84
575.37	1419.70
575.72	1415.28
576.08	1411.79
576.43	1407.76
576.78	1403.99
577.13	1400.12
577.49	1396.41
577.84	1392.66
578.19	1388.96
578.54	1385.72
578.90	1382.56
579.25	1378.32
579.60	1374.27
579.95	1369.80
580.30	1366.31
580.66	1362.70
581.01	1358.67
581.36	1354.49
581.71	1350.52
582.06	1346.96
582.42	1343.20
582.77	1339.34
583.12	1335.31
583.47	1331.13
583.82	1327.57
584.17	1324.09
584.53	1320.36
584.88	1316.57
585.23	1312.45
585.58	1308.43
585.93	1304.15
586.28	1300.11
586.63	1296.21
586.98	1292.54
587.34	1289.36
587.69	1285.10
588.04	1281.23
588.39	1277.27
588.74	1273.32
589.09	1269.90
589.44	1265.59
589.79	1261.81
590.14	1258.06
590.49	1254.33
590.84	1250.65
591.19	1247.04
591.54	1243.25
591.89	1238.60
592.25	1234.55
592.60	1230.46
592.95	1226.03
593.30	1221.49
593.65	1216.74
594.00	1212.54
594.35	1209.55
594.70	1204.88
595.05	1200.92
595.40	1196.64
595.75	1192.24
596.10	1188.44
596.45	1184.62
596.80	1181.23
597.15	1177.44
597.50	1173.57
597.85	1169.80
598.19	1165.62
598.54	1161.60
598.89	1157.81
599.24	1154.62
599.59	1150.86
599.94	1147.60
600.29	1144.24
600.64	1140.85
600.99	1137.21
601.34	1133.89
601.69	1129.31
602.04	1125.35
602.39	1121.54
602.74	1118.07
603.08	1115.16
603.43	1112.01
603.78	1108.31
604.13	1104.65
604.48	1100.98
604.83	1097.65
605.18	1094.51
605.53	1090.89
605.87	1087.05
606.22	1083.60
606.57	1079.94
606.92	1076.29
607.27	1072.49
607.62	1068.91
607.96	1065.51
608.31	1062.31
608.66	1058.48
609.01	1054.50
609.36	1050.98
609.70	1047.02
610.05	1042.86
610.40	1038.85
610.75	1034.56
611.10	1030.80
611.44	1025.90
611.79	1021.43
612.14	1016.77
612.49	1011.93
612.83	1007.77
613.18	1003.32
613.53	998.64
613.88	993.66
614.22	989.17
614.57	984.46
614.92	979.86
615.27	975.28
615.61	970.67
615.96	966.28
616.31	962.05
616.65	958.11
617.00	954.05
617.35	949.81
617.70	945.13
618.04	940.25
618.39	934.97
618.74	931.08
619.08	926.55
619.43	922.36
619.78	918.06
620.12	913.65
620.47	909.56
620.82	904.96
621.16	900.74
621.51	896.39
621.85	892.02
622.20	887.28
622.55	882.53
622.89	877.99
623.24	873.63
623.59	869.07
623.93	864.49
624.28	860.17
624.62	855.99
624.97	851.94
625.32	847.99
625.66	844.27
626.01	840.14
626.35	836.42
626.70	832.40
627.04	828.62
627.39	824.75
627.73	820.65
628.08	816.90
628.43	812.71
628.77	808.66
629.12	804.67
629.46	801.24
629.81	797.43
630.15	793.62
630.50	789.35
630.84	785.37
631.19	781.40
631.53	777.47
631.88	773.20
632.22	768.89
632.57	765.12
632.91	761.05
633.26	756.97
633.60	752.85
633.95	748.94
634.29	744.87
634.64	741.24
634.98	737.23
635.32	733.52
635.67	730.03
636.01	726.34
636.36	722.60
636.70	719.00
637.05	715.56
637.39	712.02
637.73	708.87
638.08	705.67
638.42	702.38
638.77	699.00
639.11	695.52
639.45	692.12
639.80	688.29
640.14	684.72
640.49	681.34
640.83	677.93
641.17	674.48
641.52	670.93
641.86	667.09
642.20	663.79
642.55	659.85
642.89	656.39
643.23	652.67
643.58	649.26
643.92	645.47
644.26	641.88
644.61	638.31
644.95	634.59
645.29	630.86
645.64	627.19
645.98	623.67
646.32	620.43
646.66	616.94
647.01	613.81
647.35	610.55
647.69	607.03
648.04	603.68
648.38	600.20
648.72	596.97
649.06	593.63
649.41	590.06
649.75	586.94
650.09	583.62
650.43	580.49
650.78	577.06
651.12	573.68
651.46	570.39
651.80	567.25
652.14	564.12
652.49	561.09
652.83	557.86
653.17	554.41
653.51	551.08
653.85	548.00
654.20	544.73
654.54	541.33
654.88	538.25
655.22	535.00
655.56	531.87
655.90	528.60
656.25	525.38
656.59	522.40
656.93	519.22
657.27	516.30
657.61	513.10
657.95	510.35
658.29	507.48
658.64	504.65
658.98	501.60
659.32	498.47
659.66	495.50
660.00	492.46
660.34	489.63
660.68	486.67
661.02	483.72
661.36	481.13
661.70	478.57
662.05	475.86
662.39	473.48
662.73	470.89
663.07	468.55
663.41	466.14
663.75	463.50
664.09	461.05
664.43	458.42
664.77	456.02
665.11	453.35
665.45	450.91
665.79	448.36
666.13	446.01
666.47	443.71
666.81	441.21
667.15	438.85
667.49	436.66
667.83	434.61
668.17	432.44
668.51	430.15
668.85	428.03
669.19	425.98
669.53	423.65
669.87	421.48
670.21	419.23
670.55	417.09
670.89	415.41
671.23	413.49
671.57	411.48
671.91	409.48
672.25	407.55
672.58	405.60
672.92	403.78
673.26	401.87
673.60	400.00
673.94	398.23
674.28	396.46
674.62	394.71
674.96	392.90
675.30	391.14
675.64	389.30
675.97	387.50
676.31	385.76
676.65	384.05
676.99	382.57
677.33	380.96
677.67	379.28
678.01	377.30
678.34	375.60
678.68	373.95
679.02	372.22
679.36	370.64
679.70	369.03
680.04	367.38
680.37	365.78
680.71	364.10
681.05	362.65
681.39	361.14
681.73	359.55
682.06	358.07
682.40	356.51
682.74	355.05
683.08	353.67
683.42	352.14
683.75	350.65
684.09	348.92
684.43	347.38
684.77	345.78
685.10	344.37
685.44	342.89
685.78	341.48
686.12	340.26
686.45	338.84
686.79	337.45
687.13	336.28
687.46	334.92
687.80	333.75
688.14	332.24
688.48	331.00
688.81	329.65
689.15	328.18
689.49	326.94
689.82	325.68
690.16	324.16
690.50	322.80
690.83	321.57
691.17	320.27
691.51	319.00
691.84	317.86
692.18	316.67
692.52	315.52
692.85	314.40
693.19	313.30
693.52	312.15
693.86	310.91
694.20	309.67
694.53	308.60
694.87	307.37
695.21	306.40
695.54	305.20
695.88	303.99
696.21	302.93
696.55	301.91
696.88	300.78
697.22	299.83
697.56	298.84
697.89	297.84
698.23	296.97
698.56	296.00
698.90	295.15
699.23	294.19
699.57	293.26
699.90	292.17
700.24	291.08
700.58	290.13
700.91	289.31
701.25	288.66
701.58	287.79
701.92	287.08
702.25	286.20
702.59	285.30
702.92	284.51
703.26	283.75
703.59	282.87
703.93	282.45
704.26	281.65
704.60	281.00
704.93	280.16
705.26	279.36
705.60	278.66
705.93	277.84
706.27	277.08
706.60	276.41
706.94	275.93
707.27	275.21
707.61	274.53
707.94	273.86
708.27	272.83
708.61	272.09
708.94	271.29
709.28	270.60
709.61	269.97
709.94	269.35
710.28	268.69
710.61	268.15
710.95	267.11
711.28	266.76
711.61	266.08
711.95	265.59
712.28	264.96
712.61	264.29
712.95	263.77
713.28	263.40
713.61	262.79
713.95	262.18
714.28	261.60
714.61	261.05
714.95	260.47
715.28	259.95
715.61	259.38
715.95	258.86
716.28	258.30
716.61	257.75
716.95	257.24
717.28	256.72
717.61	256.23
717.94	255.76
718.28	255.01
718.61	254.50
718.94	253.97
719.27	253.49
719.61	253.00
719.94	252.58
720.27	251.92
720.60	251.41
720.94	250.88
721.27	250.51
721.60	250.11
721.93	249.67
722.27	249.41
722.60	249.09
722.93	248.54
723.26	248.25
723.59	247.86
723.93	247.53
724.26	247.21
724.59	246.76
724.92	246.41
725.25	246.10
725.59	245.69
725.92	245.36
726.25	245.01
726.58	244.73
726.91	244.32
727.24	244.07
727.57	243.78
727.91	243.43
728.24	243.16
728.57	242.79
728.90	242.54
729.23	242.11
729.56	242.01
729.89	241.80
730.22	241.44
730.55	241.15
730.89	240.83
731.22	240.45
731.55	240.13
731.88	239.78
732.21	239.51
732.54	239.13
732.87	238.75
733.20	238.52
733.53	238.23
733.86	238.00
734.19	237.63
734.52	237.40
734.85	237.39
735.18	236.97
735.51	236.82
735.84	236.48
736.17	236.29
736.50	235.72
736.83	235.90
737.16	235.60
737.49	235.33
737.82	235.04
738.15	234.85
738.48	234.63
738.81	234.44
739.14	234.10
739.47	233.94
739.80	233.73
740.13	233.51
740.46	233.16
740.79	232.90
741.12	232.70
741.45	232.45
741.78	232.07
742.11	231.97
742.44	231.72
742.77	231.59
743.10	231.35
743.43	231.20
743.75	230.54
744.08	230.80
744.41	230.53
744.74	230.31
745.07	230.06
745.40	229.91
745.73	229.80
746.06	229.62
746.39	229.48
746.71	229.33
747.04	229.10
747.37	229.04
747.70	228.84
748.03	228.71
748.36	228.56
748.68	228.32
749.01	228.05
749.34	227.84
749.67	227.66
750.00	227.54
750.33	227.60
750.65	227.46
750.98	226.82
751.31	226.72
751.64	226.54
751.97	226.59
752.29	226.45
752.62	226.11
752.95	225.95
753.28	225.75
753.60	225.52
753.93	225.37
754.26	225.15
754.59	224.91
754.91	224.69
755.24	224.54
755.57	224.35
755.90	224.24
756.22	224.08
756.55	223.83
756.88	223.59
757.20	223.20
757.53	222.98
757.86	222.90
758.19	222.78
758.51	222.66
758.84	222.36
759.17	222.08
759.49	222.02
759.82	222.05
760.15	221.99
760.47	221.91
760.80	221.73
761.13	221.62
761.45	221.53
761.78	221.36
762.11	221.25
762.43	221.21
762.76	221.09
763.08	221.04
763.41	221.00
763.74	220.90
764.06	220.79
764.39	220.74
764.71	220.57
765.04	220.41
765.37	220.29
765.69	220.17
766.02	220.18
766.34	220.17
766.67	219.83
767.00	219.82
767.32	219.88
767.65	220.04
767.97	219.99
768.30	219.90
768.62	219.85
768.95	219.69
769.27	219.54
769.60	219.44
769.92	219.21
770.25	219.05
770.57	218.93
770.90	218.80
771.22	218.63
771.55	218.48
771.87	218.49
772.20	218.38
772.52	218.62
772.85	218.89
773.17	218.72
773.50	218.70
773.82	218.49
774.15	218.29
774.47	217.98
774.80	217.86
775.12	217.81
775.45	217.82
775.77	217.75
776.09	217.75
776.42	217.71
776.74	217.81
777.07	217.72
777.39	217.66
777.72	217.57
778.04	217.55
778.36	217.59
778.69	217.42
779.01	217.41
779.33	217.03
779.66	216.57
779.98	216.53
780.31	216.44
780.63	216.56
780.95	216.54
781.28	216.47
781.60	216.40
781.92	216.39
782.25	216.21
782.57	216.14
782.89	216.05
783.22	216.02
783.54	215.85
783.86	215.92
784.19	215.85
784.51	215.92
784.83	215.88
785.16	215.77
785.48	215.85
785.80	215.84
786.12	215.88
786.45	215.85
786.77	215.74
787.09	215.77
787.42	215.58
787.74	215.58
788.06	215.61
788.38	215.52
788.71	215.38
789.03	215.40
