SpectraSuite Data File
++++++++++++++++++++++++++++++++++++
Date: Mon Feb 25 17:13:39 EST 2013
User: group
Dark Spectrum Present: No
Reference Spectrum Present: No
Number of Sampled Component Spectra: 1
Spectrometers: USB2E7196
Integration Time (usec): 104000 (USB2E7196)
Spectra Averaged: 20 (USB2E7196)
Boxcar Smoothing: 10 (USB2E7196)
Correct for Electrical Dark: No (USB2E7196)
Strobe/Lamp Enabled: No (USB2E7196)
Correct for Detector Non-linearity: No (USB2E7196)
Correct for Stray Light: No (USB2E7196)
Number of Pixels in Processed Spectrum: 2048
>>>>>Begin Processed Spectral Data<<<<<
339.09	0.00
339.48	199.05
339.86	201.60
340.24	202.25
340.63	203.60
341.01	210.25
341.39	207.40
341.78	208.10
342.16	209.45
342.54	208.50
342.93	198.99
343.31	209.00
343.69	209.50
344.07	209.91
344.46	210.34
344.84	210.69
345.22	210.70
345.60	210.87
345.99	211.03
346.37	211.11
346.75	211.22
347.13	211.25
347.52	211.16
347.90	211.24
348.28	211.16
348.66	211.27
349.05	211.15
349.43	211.25
349.81	211.32
350.19	211.39
350.57	211.34
350.96	211.42
351.34	211.57
351.72	211.63
352.10	211.77
352.48	211.77
352.87	211.77
353.25	211.81
353.63	211.72
354.01	211.74
354.39	211.78
354.77	211.78
355.15	211.93
355.54	211.99
355.92	211.93
356.30	211.99
356.68	212.20
357.06	212.30
357.44	212.21
357.82	212.29
358.20	212.33
358.58	212.35
358.97	212.32
359.35	212.36
359.73	212.46
360.11	212.38
360.49	212.48
360.87	212.52
361.25	212.55
361.63	212.74
362.01	212.80
362.39	212.88
362.77	212.97
363.15	212.91
363.53	212.96
363.91	212.96
364.29	213.04
364.67	212.72
365.05	212.67
365.43	212.77
365.81	212.79
366.19	212.93
366.57	213.11
366.95	213.23
367.33	213.15
367.71	213.14
368.09	213.23
368.47	213.22
368.85	213.26
369.23	213.42
369.61	213.36
369.99	213.51
370.37	213.50
370.75	213.66
371.13	213.53
371.51	213.51
371.89	213.50
372.27	213.51
372.65	213.57
373.03	213.57
373.41	213.56
373.78	213.46
374.16	213.25
374.54	213.12
374.92	213.03
375.30	212.98
375.68	212.94
376.06	212.96
376.44	212.86
376.82	212.83
377.19	212.77
377.57	212.70
377.95	212.54
378.33	212.43
378.71	212.19
379.09	212.28
379.47	212.32
379.84	212.29
380.22	212.17
380.60	212.05
380.98	211.97
381.36	211.93
381.73	211.84
382.11	211.86
382.49	211.82
382.87	211.70
383.25	211.70
383.62	212.00
384.00	211.89
384.38	211.89
384.76	211.90
385.13	211.99
385.51	212.01
385.89	211.94
386.27	211.97
386.64	212.00
387.02	211.92
387.40	211.86
387.78	211.85
388.15	211.84
388.53	211.84
388.91	211.87
389.29	211.78
389.66	211.85
390.04	211.79
390.42	211.87
390.79	211.90
391.17	211.80
391.55	211.42
391.92	211.41
392.30	211.43
392.68	211.35
393.05	211.32
393.43	211.27
393.81	211.28
394.18	211.20
394.56	211.09
394.94	211.17
395.31	211.11
395.69	211.20
396.06	211.33
396.44	211.36
396.82	211.33
397.19	211.48
397.57	211.46
397.95	211.50
398.32	211.43
398.70	211.50
399.07	211.74
399.45	211.73
399.82	211.79
400.20	211.74
400.58	211.74
400.95	211.56
401.33	211.65
401.70	211.90
402.08	211.92
402.45	212.05
402.83	212.14
403.20	212.18
403.58	212.14
403.95	212.11
404.33	212.20
404.71	212.23
405.08	212.40
405.46	212.56
405.83	212.70
406.21	212.71
406.58	212.77
406.96	212.72
407.33	212.85
407.70	213.00
408.08	213.54
408.45	213.79
408.83	214.06
409.20	214.16
409.58	214.17
409.95	214.48
410.33	214.77
410.70	214.90
411.08	215.20
411.45	215.52
411.82	215.81
412.20	216.20
412.57	216.68
412.95	216.77
413.32	217.08
413.69	217.43
414.07	217.86
414.44	218.35
414.82	218.87
415.19	219.52
415.56	219.99
415.94	220.34
416.31	221.00
416.68	221.71
417.06	222.58
417.43	223.37
417.81	224.29
418.18	225.14
418.55	226.11
418.93	227.12
419.30	228.10
419.67	229.22
420.04	230.25
420.42	231.41
420.79	233.05
421.16	234.33
421.54	235.97
421.91	237.55
422.28	238.99
422.66	240.61
423.03	242.39
423.40	244.02
423.77	245.74
424.15	247.46
424.52	249.25
424.89	251.25
425.26	253.09
425.64	254.76
426.01	256.69
426.38	258.75
426.75	261.01
427.13	263.20
427.50	265.50
427.87	267.96
428.24	270.29
428.61	272.42
428.99	275.06
429.36	277.60
429.73	280.17
430.10	282.90
430.47	285.66
430.85	288.28
431.22	291.27
431.59	294.60
431.96	297.66
432.33	301.00
432.70	304.24
433.08	308.08
433.45	311.83
433.82	315.43
434.19	319.41
434.56	323.30
434.93	326.96
435.30	330.68
435.68	334.73
436.05	338.80
436.42	342.85
436.79	346.45
437.16	350.33
437.53	354.57
437.90	358.68
438.27	362.75
438.64	366.92
439.01	370.82
439.38	374.10
439.75	377.39
440.13	381.12
440.50	384.57
440.87	387.40
441.24	390.32
441.61	393.58
441.98	395.99
442.35	398.57
442.72	401.57
443.09	404.33
443.46	405.83
443.83	406.87
444.20	407.71
444.57	409.02
444.94	409.63
445.31	410.33
445.68	411.25
446.05	411.34
446.42	410.92
446.79	410.49
447.16	409.90
447.53	409.50
447.90	407.96
448.27	406.43
448.64	404.28
449.01	402.71
449.37	400.01
449.74	397.38
450.11	394.45
450.48	390.90
450.85	387.27
451.22	384.36
451.59	381.43
451.96	378.65
452.33	375.17
452.70	371.82
453.07	367.70
453.43	363.34
453.80	359.58
454.17	355.81
454.54	352.28
454.91	348.45
455.28	344.75
455.65	341.34
456.02	338.43
456.38	335.54
456.75	331.97
457.12	328.85
457.49	325.86
457.86	322.78
458.23	320.36
458.59	317.67
458.96	314.87
459.33	312.41
459.70	309.99
460.07	307.94
460.43	305.80
460.80	303.76
461.17	301.93
461.54	299.90
461.91	298.11
462.27	296.20
462.64	294.64
463.01	292.90
463.38	291.33
463.74	289.20
464.11	287.66
464.48	286.36
464.85	285.07
465.21	284.10
465.58	283.06
465.95	281.62
466.32	280.60
466.68	279.49
467.05	278.45
467.42	277.38
467.78	276.21
468.15	275.02
468.52	274.22
468.88	273.18
469.25	272.37
469.62	271.62
469.98	270.79
470.35	270.06
470.72	269.45
471.08	268.66
471.45	268.04
471.82	267.59
472.18	266.92
472.55	266.44
472.92	265.78
473.28	265.24
473.65	264.77
474.02	264.25
474.38	263.95
474.75	263.69
475.11	263.39
475.48	263.21
475.85	263.14
476.21	263.00
476.58	262.93
476.94	262.82
477.31	262.76
477.67	262.74
478.04	262.76
478.41	262.69
478.77	262.92
479.14	262.93
479.50	263.03
479.87	263.22
480.23	263.42
480.60	263.52
480.96	263.71
481.33	264.22
481.69	264.59
482.06	264.90
482.42	265.22
482.79	265.67
483.15	266.14
483.52	266.71
483.88	267.19
484.25	267.75
484.61	268.44
484.98	269.09
485.34	269.92
485.71	270.71
486.07	271.58
486.44	272.24
486.80	273.13
487.17	274.06
487.53	275.14
487.90	276.29
488.26	277.70
488.62	279.12
488.99	280.35
489.35	281.71
489.72	283.32
490.08	284.87
490.44	286.54
490.81	288.34
491.17	290.11
491.54	292.20
491.90	294.29
492.26	296.50
492.63	298.74
492.99	301.05
493.36	303.58
493.72	306.34
494.08	309.06
494.45	312.06
494.81	315.11
495.17	318.27
495.54	321.55
495.90	324.95
496.26	328.39
496.63	332.03
496.99	335.97
497.35	339.97
497.72	344.23
498.08	348.45
498.44	352.92
498.80	357.71
499.17	362.52
499.53	367.47
499.89	372.68
500.26	378.06
500.62	383.59
500.98	389.49
501.34	395.37
501.71	401.66
502.07	407.97
502.43	414.32
502.79	420.88
503.16	427.74
503.52	434.70
503.88	441.99
504.24	449.40
504.60	456.91
504.97	464.73
505.33	472.68
505.69	481.20
506.05	489.60
506.41	498.28
506.78	506.97
507.14	515.96
507.50	525.21
507.86	534.63
508.22	544.25
508.59	553.74
508.95	563.85
509.31	573.94
509.67	584.40
510.03	595.20
510.39	606.06
510.75	617.24
511.12	628.64
511.48	640.13
511.84	651.90
512.20	663.63
512.56	675.74
512.92	687.99
513.28	700.34
513.64	712.81
514.00	725.31
514.37	738.20
514.73	751.21
515.09	764.13
515.45	777.35
515.81	790.48
516.17	804.06
516.53	817.45
516.89	831.02
517.25	844.43
517.61	858.15
517.97	871.88
518.33	885.49
518.69	899.30
519.05	913.31
519.41	927.39
519.77	941.67
520.13	955.56
520.49	969.43
520.85	983.41
521.21	997.83
521.57	1012.28
521.93	1026.14
522.29	1040.75
522.65	1055.30
523.01	1069.45
523.37	1083.73
523.73	1097.99
524.09	1112.14
524.45	1126.34
524.81	1140.55
525.17	1154.94
525.53	1169.13
525.89	1183.71
526.25	1197.82
526.61	1211.33
526.97	1225.43
527.33	1239.37
527.68	1253.57
528.04	1267.17
528.40	1280.56
528.76	1293.88
529.12	1307.36
529.48	1321.56
529.84	1334.70
530.20	1347.84
530.56	1361.30
530.91	1374.91
531.27	1388.15
531.63	1400.89
531.99	1413.79
532.35	1426.65
532.71	1438.87
533.07	1451.64
533.42	1463.82
533.78	1475.99
534.14	1488.05
534.50	1499.06
534.86	1510.59
535.21	1521.44
535.57	1533.25
535.93	1544.31
536.29	1555.13
536.65	1565.86
537.00	1576.01
537.36	1585.73
537.72	1595.53
538.08	1605.20
538.44	1614.50
538.79	1624.03
539.15	1633.54
539.51	1642.69
539.87	1652.04
540.22	1661.05
540.58	1670.16
540.94	1678.69
541.29	1686.70
541.65	1694.41
542.01	1702.34
542.37	1709.82
542.72	1717.55
543.08	1724.37
543.44	1731.89
543.79	1738.30
544.15	1744.38
544.51	1750.71
544.87	1757.53
545.22	1763.52
545.58	1768.85
545.94	1774.10
546.29	1778.81
546.65	1783.39
547.01	1787.90
547.36	1792.03
547.72	1796.10
548.07	1799.16
548.43	1802.45
548.79	1805.59
549.14	1808.81
549.50	1812.25
549.86	1814.79
550.21	1816.99
550.57	1819.83
550.92	1821.32
551.28	1823.35
551.64	1825.44
551.99	1827.51
552.35	1828.74
552.70	1830.05
553.06	1831.73
553.41	1832.97
553.77	1834.23
554.13	1835.42
554.48	1836.46
554.84	1837.53
555.19	1837.83
555.55	1838.25
555.90	1838.02
556.26	1838.11
556.61	1837.91
556.97	1836.91
557.32	1836.62
557.68	1835.83
558.03	1834.87
558.39	1834.29
558.74	1834.09
559.10	1833.42
559.45	1832.13
559.81	1831.22
560.16	1829.67
560.52	1828.49
560.87	1827.18
561.23	1825.07
561.58	1823.74
561.94	1821.74
562.29	1818.99
562.64	1817.17
563.00	1815.30
563.35	1814.10
563.71	1812.81
564.06	1811.77
564.42	1810.59
564.77	1809.17
565.12	1807.92
565.48	1806.01
565.83	1804.43
566.19	1802.43
566.54	1799.58
566.89	1797.17
567.25	1794.94
567.60	1793.25
567.96	1790.78
568.31	1788.13
568.66	1785.79
569.02	1782.55
569.37	1779.03
569.72	1775.90
570.08	1772.63
570.43	1769.01
570.78	1765.00
571.14	1760.82
571.49	1756.31
571.84	1752.81
572.20	1748.29
572.55	1744.33
572.90	1739.97
573.26	1735.15
573.61	1730.59
573.96	1726.40
574.31	1721.23
574.67	1716.03
575.02	1710.33
575.37	1705.11
575.72	1699.64
576.08	1694.91
576.43	1689.44
576.78	1684.73
577.13	1680.24
577.49	1675.22
577.84	1670.38
578.19	1665.68
578.54	1661.20
578.90	1657.02
579.25	1651.45
579.60	1646.17
579.95	1640.37
580.30	1635.51
580.66	1630.76
581.01	1625.04
581.36	1619.60
581.71	1614.50
582.06	1609.62
582.42	1604.69
582.77	1599.21
583.12	1594.14
583.47	1589.08
583.82	1584.61
584.17	1579.43
584.53	1574.53
584.88	1569.55
585.23	1564.22
585.58	1559.04
585.93	1553.50
586.28	1548.21
586.63	1542.98
586.98	1538.10
587.34	1533.64
587.69	1528.17
588.04	1523.04
588.39	1518.46
588.74	1513.09
589.09	1508.37
589.44	1502.87
589.79	1497.95
590.14	1493.17
590.49	1488.27
590.84	1482.94
591.19	1478.35
591.54	1473.43
591.89	1467.35
592.25	1462.22
592.60	1457.00
592.95	1451.15
593.30	1445.27
593.65	1439.46
594.00	1434.11
594.35	1429.90
594.70	1424.40
595.05	1419.45
595.40	1414.11
595.75	1408.42
596.10	1403.88
596.45	1398.97
596.80	1394.58
597.15	1390.08
597.50	1384.91
597.85	1379.88
598.19	1374.76
598.54	1369.54
598.89	1364.67
599.24	1360.61
599.59	1355.85
599.94	1351.62
600.29	1347.55
600.64	1343.45
600.99	1338.60
601.34	1334.35
601.69	1328.56
602.04	1323.38
602.39	1318.59
602.74	1313.90
603.08	1310.19
603.43	1305.80
603.78	1301.09
604.13	1296.14
604.48	1291.27
604.83	1287.34
605.18	1283.49
605.53	1278.88
605.87	1273.82
606.22	1269.65
606.57	1265.09
606.92	1260.26
607.27	1255.31
607.62	1250.54
607.96	1246.10
608.31	1242.14
608.66	1236.89
609.01	1232.11
609.36	1227.60
609.70	1222.53
610.05	1217.37
610.40	1211.97
610.75	1206.66
611.10	1202.01
611.44	1196.32
611.79	1190.54
612.14	1184.34
612.49	1178.03
612.83	1172.67
613.18	1166.98
613.53	1160.99
613.88	1154.86
614.22	1149.58
614.57	1143.93
614.92	1138.00
615.27	1132.04
615.61	1126.20
615.96	1120.90
616.31	1115.59
616.65	1110.70
617.00	1105.60
617.35	1100.43
617.70	1094.70
618.04	1088.93
618.39	1082.51
618.74	1077.27
619.08	1071.84
619.43	1066.56
619.78	1061.33
620.12	1055.83
620.47	1050.79
620.82	1045.11
621.16	1039.59
621.51	1033.96
621.85	1028.43
622.20	1023.06
622.55	1017.51
622.89	1011.83
623.24	1006.35
623.59	1000.63
623.93	994.86
624.28	989.51
624.62	984.17
624.97	979.01
625.32	974.17
625.66	969.42
626.01	964.33
626.35	959.56
626.70	954.55
627.04	949.87
627.39	944.98
627.73	940.06
628.08	935.55
628.43	930.52
628.77	925.62
629.12	920.82
629.46	916.49
629.81	911.95
630.15	907.17
630.50	902.38
630.84	897.56
631.19	892.62
631.53	887.66
631.88	882.51
632.22	877.54
632.57	872.71
632.91	867.95
633.26	863.31
633.60	858.50
633.95	854.03
634.29	849.12
634.64	844.67
634.98	839.71
635.32	835.21
635.67	831.26
636.01	826.83
636.36	822.08
636.70	817.33
637.05	812.65
637.39	808.47
637.73	804.38
638.08	800.62
638.42	796.79
638.77	792.75
639.11	788.74
639.45	784.49
639.80	779.84
640.14	775.24
640.49	770.95
640.83	766.48
641.17	762.19
641.52	757.96
641.86	753.43
642.20	749.43
642.55	744.78
642.89	740.04
643.23	735.56
643.58	731.79
643.92	727.31
644.26	723.26
644.61	718.94
644.95	714.53
645.29	710.03
645.64	705.46
645.98	701.10
646.32	696.96
646.66	692.78
647.01	689.04
647.35	685.05
647.69	680.66
648.04	676.90
648.38	672.73
648.72	668.63
649.06	664.61
649.41	660.48
649.75	656.52
650.09	652.72
650.43	648.65
650.78	644.30
651.12	640.40
651.46	636.44
651.80	632.69
652.14	628.64
652.49	624.70
652.83	620.88
653.17	616.74
653.51	612.77
653.85	609.08
654.20	605.09
654.54	601.30
654.88	597.53
655.22	593.61
655.56	589.75
655.90	586.02
656.25	582.06
656.59	578.23
656.93	574.63
657.27	571.11
657.61	567.44
657.95	563.93
658.29	560.53
658.64	557.14
658.98	553.28
659.32	549.75
659.66	546.25
660.00	542.60
660.34	539.22
660.68	535.68
661.02	532.12
661.36	528.76
661.70	525.60
662.05	522.66
662.39	519.69
662.73	516.73
663.07	513.74
663.41	510.87
663.75	507.90
664.09	504.61
664.43	501.27
664.77	498.46
665.11	495.47
665.45	492.47
665.79	489.41
666.13	486.55
666.47	483.81
666.81	481.04
667.15	478.35
667.49	475.71
667.83	473.27
668.17	470.66
668.51	468.15
668.85	465.56
669.19	463.01
669.53	460.15
669.87	457.47
670.21	454.85
670.55	452.34
670.89	450.08
671.23	447.98
671.57	445.72
671.91	443.29
672.25	440.94
672.58	438.71
672.92	436.44
673.26	434.26
673.60	432.12
673.94	429.89
674.28	427.63
674.62	425.55
674.96	423.38
675.30	421.25
675.64	419.04
675.97	416.80
676.31	414.62
676.65	412.66
676.99	410.87
677.33	408.74
677.67	406.69
678.01	404.45
678.34	402.40
678.68	400.45
679.02	398.50
679.36	396.57
679.70	394.52
680.04	392.46
680.37	390.56
680.71	388.52
681.05	386.66
681.39	384.81
681.73	382.91
682.06	381.10
682.40	379.39
682.74	377.65
683.08	375.95
683.42	374.10
683.75	372.45
684.09	370.57
684.43	368.82
684.77	367.06
685.10	365.44
685.44	363.62
685.78	362.05
686.12	360.47
686.45	358.92
686.79	357.35
687.13	356.00
687.46	354.40
687.80	352.99
688.14	351.51
688.48	350.11
688.81	348.44
689.15	346.93
689.49	345.32
689.82	343.77
690.16	342.08
690.50	340.55
690.83	338.91
691.17	337.26
691.51	335.80
691.84	334.44
692.18	332.97
692.52	331.66
692.85	330.36
693.19	329.07
693.52	327.64
693.86	326.29
694.20	324.90
694.53	323.65
694.87	322.19
695.21	320.81
695.54	319.37
695.88	318.11
696.21	316.73
696.55	315.44
696.88	314.20
697.22	313.01
697.56	311.89
697.89	310.74
698.23	309.67
698.56	308.53
698.90	307.43
699.23	306.20
699.57	305.01
699.90	303.72
700.24	302.51
700.58	301.37
700.91	300.21
701.25	299.37
701.58	298.33
701.92	297.37
702.25	296.29
702.59	295.35
702.92	294.38
703.26	293.47
703.59	292.53
703.93	291.90
704.26	291.07
704.60	290.06
704.93	289.10
705.26	288.12
705.60	287.31
705.93	286.38
706.27	285.74
706.60	284.94
706.94	284.21
707.27	283.36
707.61	282.65
707.94	281.81
708.27	280.74
708.61	279.86
708.94	279.09
709.28	278.36
709.61	277.55
709.94	276.89
710.28	276.16
710.61	275.45
710.95	274.38
711.28	273.87
711.61	273.30
711.95	272.76
712.28	272.12
712.61	271.35
712.95	270.84
713.28	270.28
713.61	269.55
713.95	268.91
714.28	268.25
714.61	267.42
714.95	266.82
715.28	266.17
715.61	265.50
715.95	264.84
716.28	264.15
716.61	263.63
716.95	262.89
717.28	262.25
717.61	261.76
717.94	261.21
718.28	260.33
718.61	259.65
718.94	258.98
719.27	258.51
719.61	258.05
719.94	257.45
720.27	256.71
720.60	256.23
720.94	255.63
721.27	255.12
721.60	254.74
721.93	254.23
722.27	253.95
722.60	253.52
722.93	253.09
723.26	252.77
723.59	252.27
723.93	251.91
724.26	251.46
724.59	251.01
724.92	250.65
725.25	250.36
725.59	249.97
725.92	249.63
726.25	249.16
726.58	248.80
726.91	248.41
727.24	248.08
727.57	247.77
727.91	247.36
728.24	247.01
728.57	246.62
728.90	246.36
729.23	245.68
729.56	245.59
729.89	245.14
730.22	244.69
730.55	244.29
730.89	243.94
731.22	243.57
731.55	243.22
731.88	242.88
732.21	242.48
732.54	242.12
732.87	241.67
733.20	241.35
733.53	240.97
733.86	240.65
734.19	240.26
734.52	239.95
734.85	239.90
735.18	239.52
735.51	239.39
735.84	239.04
736.17	238.93
736.50	238.37
736.83	238.51
737.16	238.26
737.49	237.96
737.82	237.68
738.15	237.47
738.48	237.16
738.81	236.79
739.14	236.42
739.47	236.13
739.80	235.87
740.13	235.67
740.46	235.31
740.79	235.03
741.12	234.81
741.45	234.46
741.78	234.02
742.11	233.81
742.44	233.44
742.77	233.29
743.10	233.05
743.43	232.87
743.75	232.24
744.08	232.36
744.41	232.15
744.74	231.83
745.07	231.53
745.40	231.35
745.73	231.28
746.06	231.13
746.39	230.95
746.71	230.76
747.04	230.40
747.37	230.19
747.70	229.96
748.03	229.71
748.36	229.54
748.68	229.30
749.01	229.14
749.34	228.93
749.67	228.67
750.00	228.50
750.33	228.43
750.65	228.30
750.98	227.71
751.31	227.51
751.64	227.39
751.97	227.36
752.29	227.26
752.62	226.94
752.95	226.79
753.28	226.56
753.60	226.35
753.93	226.31
754.26	226.20
754.59	225.92
754.91	225.67
755.24	225.50
755.57	225.36
755.90	225.11
756.22	224.91
756.55	224.65
756.88	224.37
757.20	224.12
757.53	223.87
757.86	223.77
758.19	223.73
758.51	223.55
758.84	223.30
759.17	223.07
759.49	222.95
759.82	222.92
760.15	222.79
760.47	222.66
760.80	222.43
761.13	222.39
761.45	222.31
761.78	222.29
762.11	222.15
762.43	221.97
762.76	221.80
763.08	221.76
763.41	221.77
763.74	221.71
764.06	221.57
764.39	221.52
764.71	221.34
765.04	221.15
765.37	221.01
765.69	220.88
766.02	220.75
766.34	220.57
766.67	220.38
767.00	220.38
767.32	220.52
767.65	220.62
767.97	220.43
768.30	220.35
768.62	220.28
768.95	220.10
769.27	219.99
769.60	220.05
769.92	219.84
770.25	219.65
770.57	219.52
770.90	219.48
771.22	219.35
771.55	219.28
771.87	219.18
772.20	219.14
772.52	219.39
772.85	219.68
773.17	219.70
773.50	219.58
773.82	219.46
774.15	219.18
774.47	218.89
774.80	218.81
775.12	218.70
775.45	218.61
775.77	218.59
776.09	218.55
776.42	218.48
776.74	218.54
777.07	218.45
777.39	218.39
777.72	218.23
778.04	218.21
778.36	218.12
778.69	218.11
779.01	218.00
779.33	217.59
779.66	217.10
779.98	216.96
780.31	216.95
780.63	217.00
780.95	216.96
781.28	216.93
781.60	216.86
781.92	216.85
782.25	216.83
782.57	216.77
782.89	216.67
783.22	216.55
783.54	216.40
783.86	216.37
784.19	216.33
784.51	216.41
784.83	216.34
785.16	216.30
785.48	216.18
785.80	216.14
786.12	216.12
786.45	216.07
786.77	216.01
787.09	215.91
787.42	215.78
787.74	215.75
788.06	215.74
