SpectraSuite Data File
++++++++++++++++++++++++++++++++++++
Date: Mon Feb 25 17:13:37 EST 2013
User: group
Dark Spectrum Present: No
Reference Spectrum Present: No
Number of Sampled Component Spectra: 1
Spectrometers: USB2E7196
Integration Time (usec): 104000 (USB2E7196)
Spectra Averaged: 20 (USB2E7196)
Boxcar Smoothing: 10 (USB2E7196)
Correct for Electrical Dark: No (USB2E7196)
Strobe/Lamp Enabled: No (USB2E7196)
Correct for Detector Non-linearity: No (USB2E7196)
Correct for Stray Light: No (USB2E7196)
Number of Pixels in Processed Spectrum: 2048
>>>>>Begin Processed Spectral Data<<<<<
339.09	0.00
339.48	199.60
339.86	200.50
340.24	201.20
340.63	202.95
341.01	208.40
341.39	206.10
341.78	207.10
342.16	210.15
342.54	208.75
342.93	198.42
343.31	208.49
343.69	209.00
344.07	209.43
344.46	209.95
344.84	210.31
345.22	210.39
345.60	210.57
345.99	210.79
346.37	210.83
346.75	210.90
347.13	211.04
347.52	211.10
347.90	211.28
348.28	211.31
348.66	211.38
349.05	211.17
349.43	211.15
349.81	211.10
350.19	211.20
350.57	211.36
350.96	211.38
351.34	211.38
351.72	211.42
352.10	211.55
352.48	211.50
352.87	211.57
353.25	211.60
353.63	211.60
354.01	211.61
354.39	211.66
354.77	211.80
355.15	211.93
355.54	211.89
355.92	211.80
356.30	211.87
356.68	212.16
357.06	212.37
357.44	212.47
357.82	212.55
358.20	212.60
358.58	212.63
358.97	212.68
359.35	212.81
359.73	212.97
360.11	212.93
360.49	213.04
360.87	212.98
361.25	213.13
361.63	213.40
362.01	213.53
362.39	213.54
362.77	213.58
363.15	213.51
363.53	213.57
363.91	213.59
364.29	213.60
364.67	213.28
365.05	213.18
365.43	213.15
365.81	213.17
366.19	213.32
366.57	213.41
366.95	213.45
367.33	213.42
367.71	213.35
368.09	213.44
368.47	213.44
368.85	213.56
369.23	213.63
369.61	213.46
369.99	213.47
370.37	213.53
370.75	213.68
371.13	213.65
371.51	213.64
371.89	213.62
372.27	213.59
372.65	213.59
373.03	213.64
373.41	213.60
373.78	213.58
374.16	213.49
374.54	213.35
374.92	213.28
375.30	213.20
375.68	213.08
376.06	213.07
376.44	212.93
376.82	212.86
377.19	212.83
377.57	212.80
377.95	212.63
378.33	212.53
378.71	212.29
379.09	212.24
379.47	212.23
379.84	212.19
380.22	212.10
380.60	212.02
380.98	211.88
381.36	211.84
381.73	211.77
382.11	211.68
382.49	211.65
382.87	211.57
383.25	211.54
383.62	211.93
384.00	211.84
384.38	211.87
384.76	211.90
385.13	211.96
385.51	211.90
385.89	211.88
386.27	211.86
386.64	211.84
387.02	211.78
387.40	211.69
387.78	211.68
388.15	211.64
388.53	211.61
388.91	211.63
389.29	211.62
389.66	211.56
390.04	211.56
390.42	211.56
390.79	211.55
391.17	211.55
391.55	211.08
391.92	211.08
392.30	211.04
392.68	210.97
393.05	210.91
393.43	211.00
393.81	211.00
394.18	210.95
394.56	210.95
394.94	211.08
395.31	211.05
395.69	211.17
396.06	211.25
396.44	211.30
396.82	211.34
397.19	211.53
397.57	211.53
397.95	211.60
398.32	211.53
398.70	211.67
399.07	211.80
399.45	211.89
399.82	211.89
400.20	211.88
400.58	211.90
400.95	211.77
401.33	211.75
401.70	212.09
402.08	212.14
402.45	212.23
402.83	212.25
403.20	212.36
403.58	212.29
403.95	212.38
404.33	212.54
404.71	212.61
405.08	212.83
405.46	212.97
405.83	213.09
406.21	213.19
406.58	213.21
406.96	213.23
407.33	213.42
407.70	213.64
408.08	214.16
408.45	214.44
408.83	214.69
409.20	214.94
409.58	214.94
409.95	215.22
410.33	215.46
410.70	215.59
411.08	215.85
411.45	216.16
411.82	216.37
412.20	216.73
412.57	217.23
412.95	217.32
413.32	217.78
413.69	218.11
414.07	218.53
414.44	219.03
414.82	219.55
415.19	220.08
415.56	220.65
415.94	220.98
416.31	221.63
416.68	222.25
417.06	222.90
417.43	223.65
417.81	224.45
418.18	225.21
418.55	226.12
418.93	227.07
419.30	228.04
419.67	229.20
420.04	230.23
420.42	231.35
420.79	232.96
421.16	234.23
421.54	235.78
421.91	237.23
422.28	238.70
422.66	240.32
423.03	242.11
423.40	243.66
423.77	245.36
424.15	247.03
424.52	248.87
424.89	250.92
425.26	252.77
425.64	254.60
426.01	256.57
426.38	258.69
426.75	260.93
427.13	263.13
427.50	265.43
427.87	267.81
428.24	270.15
428.61	272.11
428.99	274.71
429.36	277.23
429.73	279.87
430.10	282.56
430.47	285.30
430.85	287.91
431.22	291.03
431.59	294.38
431.96	297.42
432.33	300.75
432.70	303.93
433.08	307.67
433.45	311.27
433.82	314.97
434.19	318.86
434.56	322.79
434.93	326.40
435.30	329.95
435.68	334.03
436.05	337.95
436.42	342.05
436.79	345.65
437.16	349.60
437.53	353.76
437.90	357.81
438.27	361.82
438.64	365.95
439.01	369.74
439.38	372.96
439.75	376.31
440.13	380.12
440.50	383.66
440.87	386.61
441.24	389.51
441.61	392.69
441.98	395.24
442.35	397.81
442.72	400.81
443.09	403.77
443.46	405.30
443.83	406.40
444.20	407.32
444.57	408.61
444.94	409.30
445.31	410.07
445.68	410.95
446.05	411.12
446.42	410.76
446.79	410.34
447.16	409.73
447.53	409.33
447.90	407.67
448.27	406.07
448.64	403.82
449.01	402.25
449.37	399.67
449.74	396.92
450.11	394.16
450.48	390.68
450.85	386.98
451.22	383.95
451.59	381.18
451.96	378.36
452.33	374.76
452.70	371.37
453.07	367.29
453.43	363.00
453.80	359.23
454.17	355.48
454.54	351.90
454.91	348.20
455.28	344.49
455.65	341.13
456.02	338.30
456.38	335.46
456.75	331.98
457.12	328.89
457.49	325.93
457.86	322.74
458.23	320.46
458.59	317.78
458.96	315.21
459.33	312.75
459.70	310.31
460.07	308.38
460.43	306.19
460.80	304.22
461.17	302.54
461.54	300.59
461.91	298.83
462.27	296.91
462.64	295.33
463.01	293.62
463.38	292.09
463.74	289.91
464.11	288.45
464.48	287.16
464.85	285.71
465.21	284.74
465.58	283.66
465.95	282.08
466.32	281.03
466.68	279.80
467.05	278.70
467.42	277.60
467.78	276.44
468.15	275.49
468.52	274.69
468.88	273.51
469.25	272.56
469.62	271.78
469.98	271.03
470.35	270.33
470.72	269.61
471.08	268.78
471.45	268.22
471.82	267.69
472.18	267.01
472.55	266.60
472.92	265.94
473.28	265.44
473.65	264.97
474.02	264.50
474.38	264.27
474.75	264.05
475.11	263.73
475.48	263.54
475.85	263.18
476.21	262.90
476.58	262.77
476.94	262.75
477.31	262.70
477.67	262.57
478.04	262.56
478.41	262.64
478.77	262.97
479.14	262.94
479.50	263.00
479.87	263.17
480.23	263.36
480.60	263.50
480.96	263.67
481.33	264.14
481.69	264.51
482.06	264.82
482.42	265.14
482.79	265.54
483.15	265.96
483.52	266.57
483.88	267.09
484.25	267.62
484.61	268.17
484.98	268.81
485.34	269.64
485.71	270.41
486.07	271.24
486.44	271.82
486.80	272.77
487.17	273.72
487.53	274.96
487.90	276.15
488.26	277.59
488.62	279.03
488.99	280.35
489.35	281.75
489.72	283.23
490.08	284.79
490.44	286.45
490.81	288.20
491.17	289.94
491.54	292.03
491.90	294.25
492.26	296.41
492.63	298.57
492.99	300.87
493.36	303.39
493.72	306.08
494.08	308.83
494.45	311.68
494.81	314.72
495.17	317.60
495.54	320.85
495.90	324.24
496.26	327.72
496.63	331.38
496.99	335.17
497.35	339.09
497.72	343.35
498.08	347.65
498.44	352.15
498.80	356.95
499.17	361.88
499.53	366.76
499.89	371.91
500.26	377.21
500.62	382.70
500.98	388.39
501.34	394.19
501.71	400.35
502.07	406.64
502.43	413.15
502.79	419.73
503.16	426.45
503.52	433.40
503.88	440.46
504.24	447.92
504.60	455.47
504.97	463.43
505.33	471.25
505.69	479.74
506.05	488.07
506.41	496.52
506.78	504.92
507.14	513.89
507.50	523.17
507.86	532.56
508.22	542.23
508.59	551.91
508.95	561.98
509.31	572.14
509.67	582.55
510.03	593.02
510.39	603.94
510.75	615.16
511.12	626.39
511.48	637.91
511.84	649.33
512.20	661.01
512.56	672.90
512.92	685.21
513.28	697.31
513.64	709.75
514.00	722.32
514.37	735.16
514.73	748.10
515.09	761.24
515.45	774.18
515.81	787.41
516.17	800.75
516.53	814.12
516.89	827.59
517.25	841.09
517.61	855.03
517.97	868.49
518.33	881.87
518.69	895.52
519.05	909.50
519.41	923.65
519.77	938.02
520.13	951.91
520.49	965.76
520.85	979.96
521.21	994.20
521.57	1008.69
521.93	1022.64
522.29	1037.11
522.65	1051.20
523.01	1065.55
523.37	1079.15
523.73	1093.37
524.09	1107.43
524.45	1121.66
524.81	1135.84
525.17	1149.89
525.53	1164.47
525.89	1178.82
526.25	1192.87
526.61	1206.58
526.97	1220.09
527.33	1233.62
527.68	1247.68
528.04	1261.09
528.40	1274.24
528.76	1287.46
529.12	1301.02
529.48	1314.91
529.84	1327.95
530.20	1341.15
530.56	1354.47
530.91	1368.47
531.27	1381.61
531.63	1394.40
531.99	1407.17
532.35	1419.77
532.71	1432.09
533.07	1444.58
533.42	1456.89
533.78	1469.08
534.14	1480.95
534.50	1492.38
534.86	1504.12
535.21	1514.88
535.57	1526.54
535.93	1537.56
536.29	1548.53
536.65	1558.87
537.00	1568.56
537.36	1578.39
537.72	1588.06
538.08	1597.62
538.44	1606.75
538.79	1616.46
539.15	1626.10
539.51	1635.34
539.87	1644.71
540.22	1653.51
540.58	1662.50
540.94	1671.12
541.29	1679.15
541.65	1686.82
542.01	1694.83
542.37	1702.24
542.72	1710.09
543.08	1717.02
543.44	1724.48
543.79	1730.94
544.15	1737.32
544.51	1744.37
544.87	1751.16
545.22	1757.30
545.58	1762.73
545.94	1767.80
546.29	1772.50
546.65	1776.89
547.01	1781.24
547.36	1785.39
547.72	1789.56
548.07	1792.55
548.43	1795.51
548.79	1798.60
549.14	1801.65
549.50	1805.15
549.86	1807.54
550.21	1809.74
550.57	1812.33
550.92	1813.99
551.28	1816.01
551.64	1818.01
551.99	1819.84
552.35	1821.12
552.70	1822.24
553.06	1824.04
553.41	1825.41
553.77	1826.42
554.13	1827.28
554.48	1828.40
554.84	1829.32
555.19	1829.77
555.55	1830.13
555.90	1830.19
556.26	1830.25
556.61	1830.07
556.97	1828.73
557.32	1828.74
557.68	1827.71
558.03	1826.55
558.39	1825.71
558.74	1825.36
559.10	1824.64
559.45	1823.36
559.81	1822.79
560.16	1821.77
560.52	1820.65
560.87	1819.49
561.23	1817.61
561.58	1816.75
561.94	1814.45
562.29	1811.88
562.64	1810.28
563.00	1808.60
563.35	1807.38
563.71	1805.99
564.06	1804.70
564.42	1803.66
564.77	1802.05
565.12	1800.81
565.48	1799.44
565.83	1798.05
566.19	1796.19
566.54	1793.49
566.89	1790.98
567.25	1788.33
567.60	1786.25
567.96	1783.49
568.31	1781.14
568.66	1778.50
569.02	1774.88
569.37	1771.60
569.72	1768.93
570.08	1765.32
570.43	1761.83
570.78	1757.89
571.14	1753.96
571.49	1749.70
571.84	1746.25
572.20	1741.82
572.55	1738.23
572.90	1733.80
573.26	1728.95
573.61	1724.28
573.96	1719.88
574.31	1715.10
574.67	1709.91
575.02	1704.21
575.37	1698.89
575.72	1693.41
576.08	1688.81
576.43	1683.50
576.78	1678.61
577.13	1673.66
577.49	1668.43
577.84	1663.32
578.19	1658.96
578.54	1654.35
578.90	1650.25
579.25	1644.89
579.60	1639.43
579.95	1633.38
580.30	1628.37
580.66	1623.63
581.01	1618.17
581.36	1612.90
581.71	1607.52
582.06	1602.57
582.42	1597.63
582.77	1592.31
583.12	1587.02
583.47	1582.18
583.82	1577.69
584.17	1572.76
584.53	1567.90
584.88	1563.10
585.23	1557.97
585.58	1552.56
585.93	1547.38
586.28	1542.16
586.63	1536.88
586.98	1532.42
587.34	1528.15
587.69	1523.25
588.04	1518.16
588.39	1513.41
588.74	1507.92
589.09	1503.41
589.44	1498.29
589.79	1493.74
590.14	1489.04
590.49	1484.01
590.84	1478.57
591.19	1474.10
591.54	1469.15
591.89	1463.31
592.25	1458.15
592.60	1452.80
592.95	1447.20
593.30	1441.19
593.65	1435.45
594.00	1430.06
594.35	1425.87
594.70	1420.48
595.05	1415.13
595.40	1409.90
595.75	1404.09
596.10	1399.33
596.45	1394.27
596.80	1389.61
597.15	1384.83
597.50	1379.94
597.85	1375.30
598.19	1370.13
598.54	1364.82
598.89	1359.95
599.24	1356.00
599.59	1351.53
599.94	1347.49
600.29	1343.04
600.64	1338.78
600.99	1333.68
601.34	1329.40
601.69	1323.39
602.04	1318.42
602.39	1313.63
602.74	1309.06
603.08	1305.29
603.43	1301.46
603.78	1297.05
604.13	1292.30
604.48	1287.62
604.83	1283.60
605.18	1279.42
605.53	1274.92
605.87	1270.09
606.22	1265.85
606.57	1261.05
606.92	1256.32
607.27	1251.30
607.62	1246.55
607.96	1242.32
608.31	1238.34
608.66	1233.27
609.01	1228.58
609.36	1223.86
609.70	1218.61
610.05	1213.40
610.40	1208.37
610.75	1202.67
611.10	1197.66
611.44	1191.80
611.79	1186.06
612.14	1180.20
612.49	1174.24
612.83	1168.94
613.18	1163.24
613.53	1157.38
613.88	1151.42
614.22	1145.93
614.57	1140.21
614.92	1134.60
615.27	1128.54
615.61	1122.82
615.96	1117.52
616.31	1112.40
616.65	1107.34
617.00	1102.59
617.35	1097.54
617.70	1091.73
618.04	1086.08
618.39	1080.04
618.74	1075.12
619.08	1069.52
619.43	1063.95
619.78	1058.59
620.12	1053.02
620.47	1048.08
620.82	1042.59
621.16	1036.83
621.51	1031.18
621.85	1025.97
622.20	1020.50
622.55	1014.96
622.89	1009.47
623.24	1003.96
623.59	998.10
623.93	992.38
624.28	986.88
624.62	981.60
624.97	976.50
625.32	971.50
625.66	966.65
626.01	961.38
626.35	956.52
626.70	951.54
627.04	946.92
627.39	942.27
627.73	937.32
628.08	932.69
628.43	927.94
628.77	922.92
629.12	917.99
629.46	913.47
629.81	909.03
630.15	904.20
630.50	899.22
630.84	894.44
631.19	889.72
631.53	885.00
631.88	879.91
632.22	874.81
632.57	870.23
632.91	865.37
633.26	860.66
633.60	856.05
633.95	851.55
634.29	846.65
634.64	842.02
634.98	837.16
635.32	832.70
635.67	828.42
636.01	824.19
636.36	819.57
636.70	815.11
637.05	810.61
637.39	806.38
637.73	802.44
638.08	798.58
638.42	794.64
638.77	790.37
639.11	786.05
639.45	782.02
639.80	777.52
640.14	773.07
640.49	768.67
640.83	764.33
641.17	760.11
641.52	755.73
641.86	751.13
642.20	746.87
642.55	742.19
642.89	737.63
643.23	733.11
643.58	729.06
643.92	724.60
644.26	720.43
644.61	716.21
644.95	711.85
645.29	707.41
645.64	703.03
645.98	698.73
646.32	694.72
646.66	690.45
647.01	686.40
647.35	682.54
647.69	678.40
648.04	674.40
648.38	670.20
648.72	666.12
649.06	662.21
649.41	658.11
649.75	654.17
650.09	650.59
650.43	646.71
650.78	642.68
651.12	638.64
651.46	634.62
651.80	630.87
652.14	626.98
652.49	623.06
652.83	619.03
653.17	614.84
653.51	610.94
653.85	607.20
654.20	603.47
654.54	599.43
654.88	595.59
655.22	591.80
655.56	587.87
655.90	584.19
656.25	580.58
656.59	576.92
656.93	573.30
657.27	569.72
657.61	565.97
657.95	562.39
658.29	558.90
658.64	555.50
658.98	551.81
659.32	548.09
659.66	544.70
660.00	541.16
660.34	537.82
660.68	534.29
661.02	530.94
661.36	527.56
661.70	524.44
662.05	521.44
662.39	518.46
662.73	515.55
663.07	512.66
663.41	509.70
663.75	506.62
664.09	503.57
664.43	500.19
664.77	497.16
665.11	494.09
665.45	491.16
665.79	488.26
666.13	485.40
666.47	482.67
666.81	479.85
667.15	477.18
667.49	474.76
667.83	472.30
668.17	469.59
668.51	466.94
668.85	464.50
669.19	462.09
669.53	459.50
669.87	456.83
670.21	454.24
670.55	451.59
670.89	449.49
671.23	447.16
671.57	444.90
671.91	442.60
672.25	440.28
672.58	437.99
672.92	435.66
673.26	433.49
673.60	431.30
673.94	428.90
674.28	426.72
674.62	424.48
674.96	422.24
675.30	420.11
675.64	417.98
675.97	415.89
676.31	413.81
676.65	411.68
676.99	409.94
677.33	407.82
677.67	405.88
678.01	403.60
678.34	401.64
678.68	399.65
679.02	397.80
679.36	395.89
679.70	394.05
680.04	392.21
680.37	390.23
680.71	388.34
681.05	386.69
681.39	384.83
681.73	382.95
682.06	381.24
682.40	379.59
682.74	377.94
683.08	376.15
683.42	374.22
683.75	372.50
684.09	370.56
684.43	368.91
684.77	367.08
685.10	365.44
685.44	363.59
685.78	362.06
686.12	360.45
686.45	358.92
686.79	357.23
687.13	355.69
687.46	354.17
687.80	352.71
688.14	351.06
688.48	349.65
688.81	348.07
689.15	346.61
689.49	344.91
689.82	343.46
690.16	341.81
690.50	340.36
690.83	338.85
691.17	337.36
691.51	335.80
691.84	334.44
692.18	333.03
692.52	331.76
692.85	330.44
693.19	329.19
693.52	327.78
693.86	326.40
694.20	325.02
694.53	323.80
694.87	322.43
695.21	321.16
695.54	319.77
695.88	318.49
696.21	317.13
696.55	316.01
696.88	314.73
697.22	313.51
697.56	312.38
697.89	311.25
698.23	310.09
698.56	308.95
698.90	307.89
699.23	306.73
699.57	305.55
699.90	304.32
700.24	303.06
700.58	301.99
700.91	300.98
701.25	300.12
701.58	299.03
701.92	298.01
702.25	296.97
702.59	295.93
702.92	295.04
703.26	294.09
703.59	293.17
703.93	292.47
704.26	291.64
704.60	290.66
704.93	289.71
705.26	288.77
705.60	288.01
705.93	287.07
706.27	286.31
706.60	285.66
706.94	284.98
707.27	284.18
707.61	283.25
707.94	282.42
708.27	281.33
708.61	280.45
708.94	279.55
709.28	278.79
709.61	277.94
709.94	277.13
710.28	276.28
710.61	275.56
710.95	274.51
711.28	273.95
711.61	273.16
711.95	272.49
712.28	271.70
712.61	270.91
712.95	270.39
713.28	269.81
713.61	269.03
713.95	268.24
714.28	267.53
714.61	266.91
714.95	266.25
715.28	265.65
715.61	264.89
715.95	264.40
716.28	263.70
716.61	263.10
716.95	262.46
717.28	261.91
717.61	261.25
717.94	260.72
718.28	259.95
718.61	259.37
718.94	258.79
719.27	258.25
719.61	257.73
719.94	257.12
720.27	256.40
720.60	255.82
720.94	255.37
721.27	254.90
721.60	254.55
721.93	254.04
722.27	253.68
722.60	253.40
722.93	252.87
723.26	252.52
723.59	252.06
723.93	251.70
724.26	251.26
724.59	250.77
724.92	250.36
725.25	249.96
725.59	249.54
725.92	249.20
726.25	248.82
726.58	248.47
726.91	248.07
727.24	247.67
727.57	247.31
727.91	246.85
728.24	246.58
728.57	246.08
728.90	245.83
729.23	245.30
729.56	245.01
729.89	244.65
730.22	244.27
730.55	244.00
730.89	243.61
731.22	243.35
731.55	243.01
731.88	242.62
732.21	242.25
732.54	241.97
732.87	241.60
733.20	241.32
733.53	240.97
733.86	240.64
734.19	240.33
734.52	240.15
734.85	240.14
735.18	239.67
735.51	239.54
735.84	239.26
736.17	239.07
736.50	238.58
736.83	238.72
737.16	238.43
737.49	238.16
737.82	237.85
738.15	237.60
738.48	237.40
738.81	237.18
739.14	236.93
739.47	236.60
739.80	236.34
740.13	236.13
740.46	235.82
740.79	235.41
741.12	235.19
741.45	234.82
741.78	234.30
742.11	234.20
742.44	233.84
742.77	233.64
743.10	233.35
743.43	233.09
743.75	232.51
744.08	232.69
744.41	232.35
744.74	232.17
745.07	231.83
745.40	231.67
745.73	231.57
746.06	231.33
746.39	231.26
746.71	230.97
747.04	230.72
747.37	230.50
747.70	230.44
748.03	230.25
748.36	230.07
748.68	229.83
749.01	229.59
749.34	229.38
749.67	229.15
750.00	228.98
750.33	229.17
750.65	228.96
750.98	228.38
751.31	228.25
751.64	228.01
751.97	228.03
752.29	227.76
752.62	227.45
752.95	227.21
753.28	226.90
753.60	226.74
753.93	226.69
754.26	226.55
754.59	226.26
754.91	225.98
755.24	225.81
755.57	225.73
755.90	225.60
756.22	225.42
756.55	225.18
756.88	224.98
757.20	224.58
757.53	224.31
757.86	224.18
758.19	224.03
758.51	223.94
758.84	223.60
759.17	223.48
759.49	223.27
759.82	223.33
760.15	223.19
760.47	223.05
760.80	222.77
761.13	222.67
761.45	222.58
761.78	222.56
762.11	222.38
762.43	222.15
762.76	221.98
763.08	221.90
763.41	221.80
763.74	221.68
764.06	221.47
764.39	221.35
764.71	221.17
765.04	221.10
765.37	220.85
765.69	220.74
766.02	220.68
766.34	220.58
766.67	220.34
767.00	220.36
767.32	220.45
767.65	220.55
767.97	220.41
768.30	220.36
768.62	220.27
768.95	220.19
769.27	220.11
769.60	220.07
769.92	220.00
770.25	219.81
770.57	219.65
770.90	219.59
771.22	219.57
771.55	219.52
771.87	219.37
772.20	219.44
772.52	219.65
772.85	219.89
773.17	219.84
773.50	219.76
773.82	219.60
774.15	219.42
774.47	219.08
774.80	218.98
775.12	218.81
775.45	218.72
775.77	218.66
776.09	218.64
776.42	218.55
776.74	218.45
777.07	218.46
777.39	218.40
777.72	218.32
778.04	218.28
778.36	218.15
778.69	218.17
779.01	218.10
779.33	217.68
779.66	217.28
779.98	217.22
780.31	217.18
780.63	217.32
780.95	217.29
781.28	217.35
781.60	217.32
781.92	217.34
782.25	217.27
782.57	217.18
782.89	217.12
783.22	217.00
783.54	216.90
783.86	216.83
784.19	216.85
784.51	216.88
784.83	216.72
785.16	216.80
785.48	216.71
785.80	216.60
786.12	216.68
786.45	216.57
786.77	216.49
787.09	216.38
787.42	216.11
787.74	216.05
788.06	215.91
