SpectraSuite Data File
++++++++++++++++++++++++++++++++++++
Date: Tue Jan 29 16:54:54 EST 2013
User: group
Dark Spectrum Present: No
Reference Spectrum Present: No
Number of Sampled Component Spectra: 1
Spectrometers: USB2E7196
Integration Time (usec): 65000 (USB2E7196)
Spectra Averaged: 100 (USB2E7196)
Boxcar Smoothing: 10 (USB2E7196)
Correct for Electrical Dark: No (USB2E7196)
Strobe/Lamp Enabled: No (USB2E7196)
Correct for Detector Non-linearity: No (USB2E7196)
Correct for Stray Light: No (USB2E7196)
Number of Pixels in Processed Spectrum: 2048
>>>>>Begin Processed Spectral Data<<<<<
339.09	0.00
339.48	201.37
339.86	202.58
340.24	204.78
340.63	205.81
341.01	210.08
341.39	208.95
341.78	210.15
342.16	211.54
342.54	211.57
342.93	200.87
343.31	211.00
343.69	211.54
344.07	212.03
344.46	212.48
344.84	212.87
345.22	213.06
345.60	213.29
345.99	213.47
346.37	213.60
346.75	213.72
347.13	213.77
347.52	213.82
347.90	213.94
348.28	213.96
348.66	214.06
349.05	214.02
349.43	214.08
349.81	214.18
350.19	214.22
350.57	214.27
350.96	214.37
351.34	214.49
351.72	214.61
352.10	214.71
352.48	214.78
352.87	214.84
353.25	214.91
353.63	215.00
354.01	215.09
354.39	215.14
354.77	215.21
355.15	215.35
355.54	215.37
355.92	215.34
356.30	215.43
356.68	215.61
357.06	215.69
357.44	215.68
357.82	215.72
358.20	215.81
358.58	215.90
358.97	215.95
359.35	216.05
359.73	216.13
360.11	216.15
360.49	216.18
360.87	216.24
361.25	216.30
361.63	216.39
362.01	216.43
362.39	216.46
362.77	216.52
363.15	216.56
363.53	216.65
363.91	216.71
364.29	216.73
364.67	216.56
365.05	216.58
365.43	216.63
365.81	216.65
366.19	216.76
366.57	216.83
366.95	216.84
367.33	216.76
367.71	216.76
368.09	216.84
368.47	216.85
368.85	216.80
369.23	216.82
369.61	216.76
369.99	216.82
370.37	216.86
370.75	216.96
371.13	216.88
371.51	216.85
371.89	216.83
372.27	216.86
372.65	216.82
373.03	216.82
373.41	216.76
373.78	216.77
374.16	216.65
374.54	216.56
374.92	216.52
375.30	216.51
375.68	216.43
376.06	216.38
376.44	216.36
376.82	216.36
377.19	216.31
377.57	216.25
377.95	216.13
378.33	216.06
378.71	215.88
379.09	215.84
379.47	215.82
379.84	215.74
380.22	215.63
380.60	215.58
380.98	215.50
381.36	215.47
381.73	215.38
382.11	215.36
382.49	215.30
382.87	215.25
383.25	215.24
383.62	215.42
384.00	215.33
384.38	215.31
384.76	215.30
385.13	215.31
385.51	215.29
385.89	215.25
386.27	215.20
386.64	215.19
387.02	215.14
387.40	215.08
387.78	215.09
388.15	215.08
388.53	215.06
388.91	215.05
389.29	215.03
389.66	215.04
390.04	215.00
390.42	215.06
390.79	215.04
391.17	214.99
391.55	214.77
391.92	214.78
392.30	214.77
392.68	214.70
393.05	214.71
393.43	214.71
393.81	214.72
394.18	214.71
394.56	214.73
394.94	214.82
395.31	214.81
395.69	214.84
396.06	214.90
396.44	214.97
396.82	214.98
397.19	215.07
397.57	215.06
397.95	215.11
398.32	215.02
398.70	215.08
399.07	215.17
399.45	215.19
399.82	215.24
400.20	215.27
400.58	215.33
400.95	215.28
401.33	215.38
401.70	215.58
402.08	215.68
402.45	215.77
402.83	215.85
403.20	215.98
403.58	216.10
403.95	216.25
404.33	216.37
404.71	216.47
405.08	216.73
405.46	216.92
405.83	217.10
406.21	217.33
406.58	217.57
406.96	217.79
407.33	218.07
407.70	218.36
408.08	218.82
408.45	219.20
408.83	219.62
409.20	219.97
409.58	220.24
409.95	220.73
410.33	221.19
410.70	221.67
411.08	222.24
411.45	222.79
411.82	223.36
412.20	224.07
412.57	224.94
412.95	225.50
413.32	226.34
413.69	227.19
414.07	228.10
414.44	229.07
414.82	230.08
415.19	231.25
415.56	232.47
415.94	233.64
416.31	235.03
416.68	236.44
417.06	238.05
417.43	239.65
417.81	241.35
418.18	243.14
418.55	245.03
418.93	247.02
419.30	249.15
419.67	251.35
420.04	253.66
420.42	256.01
420.79	258.91
421.16	261.72
421.54	264.65
421.91	267.65
422.28	270.80
422.66	274.15
423.03	277.45
423.40	280.85
423.77	284.49
424.15	288.22
424.52	292.10
424.89	296.30
425.26	300.41
425.64	304.36
426.01	308.68
426.38	313.21
426.75	317.85
427.13	322.59
427.50	327.65
427.87	332.87
428.24	338.13
428.61	343.12
428.99	348.63
429.36	354.67
429.73	360.65
430.10	366.52
430.47	372.62
430.85	378.97
431.22	385.76
431.59	392.92
431.96	399.74
432.33	407.27
432.70	414.55
433.08	423.09
433.45	431.20
433.82	439.25
434.19	448.18
434.56	456.91
434.93	465.37
435.30	473.71
435.68	482.88
436.05	491.96
436.42	500.92
436.79	509.15
437.16	517.89
437.53	527.21
437.90	536.44
438.27	545.47
438.64	554.75
439.01	563.32
439.38	570.90
439.75	578.30
440.13	586.77
440.50	594.78
440.87	601.27
441.24	607.97
441.61	615.36
441.98	620.72
442.35	627.07
442.72	633.36
443.09	639.45
443.46	643.22
443.83	645.76
444.20	647.98
444.57	651.19
444.94	652.74
445.31	654.17
445.68	655.56
446.05	656.17
446.42	655.37
446.79	654.40
447.16	653.36
447.53	652.61
447.90	649.31
448.27	646.06
448.64	641.39
449.01	638.04
449.37	632.17
449.74	626.58
450.11	619.68
450.48	612.35
450.85	604.82
451.22	598.36
451.59	592.20
451.96	586.35
452.33	578.39
452.70	571.28
453.07	562.74
453.43	554.09
453.80	545.78
454.17	537.75
454.54	530.16
454.91	521.90
455.28	513.85
455.65	506.37
456.02	498.71
456.38	492.34
456.75	484.36
457.12	477.67
457.49	471.03
457.86	464.79
458.23	459.31
458.59	453.35
458.96	447.23
459.33	441.89
459.70	436.46
460.07	432.15
460.43	427.16
460.80	422.57
461.17	418.50
461.54	414.23
461.91	410.16
462.27	405.99
462.64	402.54
463.01	398.72
463.38	395.03
463.74	391.36
464.11	388.09
464.48	385.29
464.85	382.21
465.21	379.80
465.58	377.15
465.95	373.96
466.32	371.34
466.68	368.73
467.05	366.08
467.42	363.51
467.78	360.83
468.15	358.29
468.52	356.34
468.88	353.86
469.25	351.66
469.62	349.83
469.98	347.81
470.35	346.00
470.72	344.26
471.08	342.41
471.45	340.90
471.82	339.33
472.18	337.62
472.55	336.39
472.92	334.96
473.28	333.70
473.65	332.55
474.02	331.39
474.38	330.47
474.75	329.72
475.11	328.85
475.48	328.26
475.85	327.75
476.21	327.26
476.58	326.91
476.94	326.66
477.31	326.30
477.67	326.08
478.04	325.97
478.41	325.95
478.77	326.09
479.14	326.00
479.50	326.16
479.87	326.41
480.23	326.72
480.60	326.97
480.96	327.20
481.33	327.79
481.69	328.33
482.06	328.85
482.42	329.36
482.79	329.96
483.15	330.72
483.52	331.71
483.88	332.58
484.25	333.50
484.61	334.44
484.98	335.52
485.34	336.81
485.71	338.10
486.07	339.50
486.44	340.79
486.80	342.41
487.17	344.08
487.53	345.95
487.90	347.82
488.26	349.85
488.62	352.04
488.99	354.07
489.35	356.26
489.72	358.61
490.08	361.10
490.44	363.66
490.81	366.34
491.17	369.00
491.54	372.01
491.90	375.03
492.26	378.33
492.63	381.71
492.99	385.16
493.36	388.88
493.72	392.75
494.08	396.75
494.45	400.97
494.81	405.26
495.17	409.63
495.54	414.33
495.90	419.05
496.26	423.96
496.63	429.20
496.99	434.63
497.35	440.22
497.72	445.98
498.08	451.92
498.44	458.09
498.80	464.49
499.17	470.91
499.53	477.55
499.89	484.35
500.26	491.41
500.62	498.49
500.98	505.84
501.34	513.23
501.71	520.95
502.07	528.73
502.43	536.77
502.79	544.91
503.16	553.22
503.52	561.90
503.88	570.58
504.24	579.50
504.60	588.47
504.97	597.72
505.33	607.01
505.69	616.85
506.05	626.60
506.41	636.40
506.78	646.48
507.14	656.75
507.50	667.26
507.86	677.85
508.22	688.64
508.59	699.25
508.95	710.32
509.31	721.58
509.67	732.98
510.03	744.33
510.39	756.02
510.75	767.83
511.12	779.63
511.48	791.71
511.84	803.87
512.20	816.12
512.56	828.64
512.92	841.43
513.28	854.02
513.64	866.81
514.00	879.69
514.37	892.60
514.73	905.69
515.09	918.67
515.45	931.56
515.81	944.55
516.17	957.99
516.53	971.28
516.89	984.41
517.25	997.56
517.61	1011.14
517.97	1024.60
518.33	1037.69
518.69	1051.27
519.05	1064.98
519.41	1078.61
519.77	1092.62
520.13	1105.86
520.49	1118.96
520.85	1132.29
521.21	1145.52
521.57	1159.20
521.93	1172.23
522.29	1185.96
522.65	1199.54
523.01	1213.14
523.37	1226.22
523.73	1239.55
524.09	1252.70
524.45	1266.10
524.81	1279.64
525.17	1292.95
525.53	1306.14
525.89	1319.58
526.25	1332.72
526.61	1345.62
526.97	1358.76
527.33	1371.78
527.68	1385.40
528.04	1398.96
528.40	1412.17
528.76	1425.79
529.12	1438.84
529.48	1452.31
529.84	1464.67
530.20	1477.47
530.56	1490.12
530.91	1503.56
531.27	1516.44
531.63	1529.22
531.99	1542.03
532.35	1554.40
532.71	1566.86
533.07	1579.84
533.42	1592.12
533.78	1604.32
534.14	1616.36
534.50	1627.75
534.86	1639.36
535.21	1650.22
535.57	1661.67
535.93	1672.94
536.29	1684.00
536.65	1695.35
537.00	1706.35
537.36	1717.74
537.72	1728.83
538.08	1740.31
538.44	1751.37
538.79	1762.57
539.15	1773.63
539.51	1784.58
539.87	1796.04
540.22	1806.93
540.58	1817.94
540.94	1829.02
541.29	1839.43
541.65	1849.35
542.01	1859.86
542.37	1869.97
542.72	1880.17
543.08	1890.04
543.44	1900.73
543.79	1909.95
544.15	1919.50
544.51	1929.43
544.87	1939.51
545.22	1948.82
545.58	1957.81
545.94	1966.73
546.29	1975.21
546.65	1983.50
547.01	1991.57
547.36	1999.10
547.72	2006.92
548.07	2014.39
548.43	2021.98
548.79	2029.81
549.14	2038.02
549.50	2046.59
549.86	2054.49
550.21	2062.11
550.57	2069.88
550.92	2076.72
551.28	2084.27
551.64	2091.54
551.99	2099.08
552.35	2106.11
552.70	2113.09
553.06	2119.85
553.41	2126.15
553.77	2132.68
554.13	2139.08
554.48	2146.29
554.84	2153.55
555.19	2160.14
555.55	2166.55
555.90	2173.02
556.26	2179.93
556.61	2186.08
556.97	2190.84
557.32	2196.59
557.68	2202.92
558.03	2208.75
558.39	2214.06
558.74	2220.11
559.10	2225.66
559.45	2231.27
559.81	2236.72
560.16	2242.02
560.52	2247.77
560.87	2254.08
561.23	2259.92
561.58	2266.57
561.94	2271.83
562.29	2276.32
562.64	2282.17
563.00	2287.81
563.35	2293.20
563.71	2298.76
564.06	2304.32
564.42	2310.15
564.77	2314.99
565.12	2320.18
565.48	2325.12
565.83	2330.51
566.19	2335.74
566.54	2340.85
566.89	2345.29
567.25	2349.64
567.60	2355.39
567.96	2360.37
568.31	2364.83
568.66	2369.03
569.02	2372.77
569.37	2376.29
569.72	2380.67
570.08	2383.98
570.43	2387.06
570.78	2390.16
571.14	2392.38
571.49	2395.42
571.84	2398.80
572.20	2401.82
572.55	2404.68
572.90	2406.87
573.26	2409.39
573.61	2411.81
573.96	2413.98
574.31	2415.89
574.67	2417.92
575.02	2418.48
575.37	2419.76
575.72	2420.30
576.08	2421.68
576.43	2421.81
576.78	2421.95
577.13	2423.20
577.49	2424.37
577.84	2425.14
578.19	2426.13
578.54	2426.72
578.90	2427.14
579.25	2426.83
579.60	2426.38
579.95	2425.30
580.30	2425.10
580.66	2424.37
581.01	2422.42
581.36	2419.72
581.71	2418.18
582.06	2416.58
582.42	2415.52
582.77	2413.12
583.12	2411.33
583.47	2409.54
583.82	2408.62
584.17	2407.31
584.53	2405.09
584.88	2402.69
585.23	2400.68
585.58	2398.36
585.93	2396.35
586.28	2393.95
586.63	2391.36
586.98	2389.06
587.34	2386.89
587.69	2384.20
588.04	2381.81
588.39	2380.37
588.74	2377.80
589.09	2374.78
589.44	2371.51
589.79	2368.80
590.14	2366.58
590.49	2363.48
590.84	2359.52
591.19	2356.10
591.54	2352.67
591.89	2348.48
592.25	2345.19
592.60	2340.94
592.95	2336.41
593.30	2331.96
593.65	2327.50
594.00	2322.95
594.35	2319.85
594.70	2315.18
595.05	2310.62
595.40	2305.14
595.75	2299.23
596.10	2295.54
596.45	2290.67
596.80	2286.13
597.15	2280.95
597.50	2275.09
597.85	2270.21
598.19	2265.04
598.54	2259.42
598.89	2254.22
599.24	2249.48
599.59	2243.28
599.94	2237.18
600.29	2231.31
600.64	2225.28
600.99	2218.34
601.34	2212.86
601.69	2205.79
602.04	2199.34
602.39	2192.62
602.74	2186.40
603.08	2180.73
603.43	2174.26
603.78	2167.36
604.13	2160.26
604.48	2152.73
604.83	2146.59
605.18	2140.38
605.53	2133.49
605.87	2126.33
606.22	2119.35
606.57	2111.55
606.92	2103.46
607.27	2096.56
607.62	2089.94
607.96	2082.98
608.31	2076.78
608.66	2068.98
609.01	2061.41
609.36	2054.43
609.70	2046.93
610.05	2039.10
610.40	2030.78
610.75	2022.44
611.10	2014.74
611.44	2005.84
611.79	1997.29
612.14	1987.33
612.49	1976.60
612.83	1967.27
613.18	1958.01
613.53	1948.72
613.88	1939.14
614.22	1930.61
614.57	1920.90
614.92	1910.27
615.27	1899.98
615.61	1889.71
615.96	1880.15
616.31	1870.62
616.65	1861.10
617.00	1851.44
617.35	1841.95
617.70	1832.34
618.04	1822.44
618.39	1812.40
618.74	1802.84
619.08	1793.28
619.43	1784.75
619.78	1776.59
620.12	1767.90
620.47	1758.55
620.82	1748.29
621.16	1738.68
621.51	1728.98
621.85	1719.25
622.20	1709.07
622.55	1698.76
622.89	1688.82
623.24	1679.18
623.59	1669.40
623.93	1659.38
624.28	1649.61
624.62	1639.72
624.97	1629.63
625.32	1619.82
625.66	1610.97
626.01	1602.33
626.35	1593.29
626.70	1583.21
627.04	1573.28
627.39	1563.31
627.73	1554.18
628.08	1545.53
628.43	1536.10
628.77	1526.91
629.12	1518.08
629.46	1510.34
629.81	1502.11
630.15	1492.89
630.50	1483.30
630.84	1472.95
631.19	1463.17
631.53	1454.03
631.88	1443.95
632.22	1434.06
632.57	1424.84
632.91	1414.94
633.26	1405.24
633.60	1395.60
633.95	1386.49
634.29	1377.11
634.64	1368.01
634.98	1358.07
635.32	1348.87
635.67	1340.49
636.01	1331.29
636.36	1321.71
636.70	1312.32
637.05	1303.04
637.39	1294.24
637.73	1285.67
638.08	1278.16
638.42	1270.23
638.77	1261.62
639.11	1253.55
639.45	1245.82
639.80	1237.41
640.14	1228.65
640.49	1219.87
640.83	1211.16
641.17	1203.03
641.52	1195.02
641.86	1186.55
642.20	1178.82
642.55	1170.32
642.89	1161.55
643.23	1153.14
643.58	1145.10
643.92	1136.32
644.26	1127.70
644.61	1119.35
644.95	1110.60
645.29	1101.70
645.64	1092.61
645.98	1084.03
646.32	1076.18
646.66	1067.70
647.01	1059.54
647.35	1051.57
647.69	1043.34
648.04	1035.17
648.38	1026.41
648.72	1017.76
649.06	1009.44
649.41	1001.24
649.75	993.37
650.09	985.58
650.43	977.54
650.78	969.34
651.12	961.65
651.46	954.33
651.80	947.13
652.14	939.89
652.49	932.36
652.83	925.15
653.17	917.59
653.51	910.01
653.85	902.99
654.20	895.74
654.54	888.44
654.88	881.30
655.22	874.13
655.56	867.22
655.90	860.50
656.25	853.77
656.59	847.09
656.93	840.16
657.27	833.07
657.61	826.16
657.95	820.02
658.29	813.97
658.64	807.92
658.98	801.50
659.32	795.00
659.66	788.81
660.00	782.47
660.34	776.49
660.68	770.42
661.02	763.99
661.36	758.05
661.70	752.15
662.05	746.51
662.39	741.04
662.73	735.69
663.07	730.30
663.41	724.71
663.75	718.91
664.09	713.13
664.43	707.67
664.77	702.34
665.11	696.64
665.45	690.79
665.79	684.98
666.13	679.33
666.47	673.86
666.81	668.39
667.15	662.97
667.49	657.77
667.83	652.52
668.17	647.38
668.51	642.29
668.85	637.40
669.19	632.50
669.53	627.43
669.87	622.26
670.21	617.47
670.55	612.81
670.89	608.38
671.23	604.14
671.57	599.79
671.91	595.52
672.25	591.35
672.58	587.28
672.92	583.22
673.26	579.25
673.60	575.39
673.94	571.58
674.28	568.04
674.62	564.32
674.96	560.56
675.30	557.04
675.64	553.36
675.97	549.75
676.31	546.14
676.65	542.63
676.99	539.23
677.33	535.33
677.67	531.66
678.01	527.79
678.34	524.12
678.68	520.57
679.02	516.97
679.36	513.28
679.70	509.62
680.04	506.02
680.37	502.54
680.71	499.17
681.05	495.95
681.39	492.62
681.73	489.38
682.06	486.38
682.40	483.25
682.74	480.06
683.08	476.83
683.42	473.60
683.75	470.49
684.09	467.42
684.43	464.65
684.77	461.74
685.10	458.91
685.44	455.96
685.78	453.01
686.12	450.18
686.45	447.40
686.79	444.66
687.13	442.06
687.46	439.44
687.80	436.75
688.14	433.84
688.48	431.05
688.81	428.31
689.15	425.66
689.49	422.98
689.82	420.40
690.16	417.80
690.50	415.35
690.83	412.87
691.17	410.33
691.51	407.77
691.84	405.46
692.18	403.23
692.52	400.97
692.85	398.81
693.19	396.63
693.52	394.46
693.86	392.26
694.20	390.11
694.53	387.94
694.87	385.73
695.21	383.66
695.54	381.54
695.88	379.38
696.21	377.17
696.55	375.05
696.88	373.00
697.22	371.05
697.56	369.10
697.89	367.14
698.23	365.33
698.56	363.52
698.90	361.73
699.23	359.81
699.57	357.97
699.90	356.06
700.24	354.22
700.58	352.45
700.91	350.74
701.25	349.14
701.58	347.50
701.92	345.89
702.25	344.27
702.59	342.64
702.92	341.07
703.26	339.50
703.59	338.02
703.93	336.73
704.26	335.23
704.60	333.72
704.93	332.25
705.26	330.78
705.60	329.33
705.93	327.78
706.27	326.36
706.60	325.05
706.94	323.87
707.27	322.49
707.61	321.14
707.94	319.77
708.27	318.18
708.61	316.74
708.94	315.35
709.28	314.00
709.61	312.73
709.94	311.54
710.28	310.26
710.61	309.06
710.95	307.59
711.28	306.51
711.61	305.33
711.95	304.17
712.28	302.95
712.61	301.70
712.95	300.63
713.28	299.60
713.61	298.41
713.95	297.20
714.28	296.18
714.61	295.12
714.95	294.07
715.28	293.06
715.61	292.03
715.95	291.03
716.28	290.09
716.61	289.10
716.95	288.06
717.28	287.15
717.61	286.18
717.94	285.26
718.28	284.23
718.61	283.31
718.94	282.38
719.27	281.50
719.61	280.69
719.94	279.82
720.27	278.81
720.60	277.98
720.94	277.17
721.27	276.39
721.60	275.69
721.93	275.00
722.27	274.38
722.60	273.69
722.93	273.00
723.26	272.30
723.59	271.60
723.93	270.97
724.26	270.28
724.59	269.58
724.92	268.97
725.25	268.40
725.59	267.82
725.92	267.32
726.25	266.72
726.58	266.14
726.91	265.49
727.24	265.00
727.57	264.44
727.91	263.81
728.24	263.26
728.57	262.66
728.90	262.07
729.23	261.43
729.56	260.99
729.89	260.44
730.22	259.88
730.55	259.33
730.89	258.79
731.22	258.28
731.55	257.77
731.88	257.26
732.21	256.68
732.54	256.12
732.87	255.56
733.20	255.06
733.53	254.58
733.86	254.18
734.19	253.68
734.52	253.25
734.85	252.96
735.18	252.43
735.51	252.04
735.84	251.63
736.17	251.24
736.50	250.66
736.83	250.48
737.16	250.11
737.49	249.73
737.82	249.29
738.15	248.91
738.48	248.50
738.81	248.13
739.14	247.72
739.47	247.34
739.80	246.97
740.13	246.63
740.46	246.21
740.79	245.78
741.12	245.40
741.45	244.98
741.78	244.52
742.11	244.29
742.44	243.88
742.77	243.52
743.10	243.17
743.43	242.87
743.75	242.31
744.08	242.21
744.41	241.85
744.74	241.52
745.07	241.10
745.40	240.80
745.73	240.51
746.06	240.23
746.39	239.90
746.71	239.56
747.04	239.22
747.37	238.90
747.70	238.63
748.03	238.34
748.36	238.09
748.68	237.79
749.01	237.40
749.34	237.11
749.67	236.85
750.00	236.55
750.33	236.41
750.65	236.13
750.98	235.57
751.31	235.30
751.64	235.06
751.97	234.96
752.29	234.68
752.62	234.35
752.95	234.03
753.28	233.78
753.60	233.54
753.93	233.38
754.26	233.19
754.59	232.90
754.91	232.61
755.24	232.36
755.57	232.12
755.90	231.91
756.22	231.64
756.55	231.38
756.88	231.12
757.20	230.77
757.53	230.50
757.86	230.33
758.19	230.15
758.51	229.92
758.84	229.59
759.17	229.41
759.49	229.22
759.82	229.17
760.15	229.03
760.47	228.83
760.80	228.52
761.13	228.33
761.45	228.12
761.78	227.96
762.11	227.75
762.43	227.55
762.76	227.36
763.08	227.24
763.41	227.07
763.74	226.91
764.06	226.72
764.39	226.56
764.71	226.38
765.04	226.23
765.37	226.08
765.69	225.92
766.02	225.74
766.34	225.57
766.67	225.34
767.00	225.20
767.32	225.16
767.65	225.19
767.97	225.05
768.30	224.91
768.62	224.78
768.95	224.63
769.27	224.51
769.60	224.42
769.92	224.24
770.25	224.09
770.57	223.95
770.90	223.87
771.22	223.76
771.55	223.65
771.87	223.52
772.20	223.39
772.52	223.44
772.85	223.64
773.17	223.54
773.50	223.40
773.82	223.25
774.15	223.07
774.47	222.83
774.80	222.69
775.12	222.60
775.45	222.49
775.77	222.42
776.09	222.36
776.42	222.25
776.74	222.25
777.07	222.15
777.39	222.07
777.72	221.95
778.04	221.91
778.36	221.78
778.69	221.72
779.01	221.66
779.33	221.41
779.66	221.06
779.98	220.95
780.31	220.89
780.63	220.87
780.95	220.82
781.28	220.74
781.60	220.69
781.92	220.63
782.25	220.57
782.57	220.53
782.89	220.42
783.22	220.35
783.54	220.22
783.86	220.17
784.19	220.09
784.51	220.11
784.83	220.01
785.16	219.99
785.48	219.90
785.80	219.85
786.12	219.83
