SpectraSuite Data File
++++++++++++++++++++++++++++++++++++
Date: Tue Jan 29 16:09:56 EST 2013
User: group
Dark Spectrum Present: No
Reference Spectrum Present: No
Number of Sampled Component Spectra: 1
Spectrometers: USB2E7196
Integration Time (usec): 65000 (USB2E7196)
Spectra Averaged: 100 (USB2E7196)
Boxcar Smoothing: 10 (USB2E7196)
Correct for Electrical Dark: No (USB2E7196)
Strobe/Lamp Enabled: No (USB2E7196)
Correct for Detector Non-linearity: No (USB2E7196)
Correct for Stray Light: No (USB2E7196)
Number of Pixels in Processed Spectrum: 2048
>>>>>Begin Processed Spectral Data<<<<<
339.09	0.00
339.48	202.99
339.86	203.49
340.24	205.08
340.63	206.93
341.01	211.85
341.39	209.77
341.78	210.54
342.16	212.81
342.54	212.66
342.93	201.75
343.31	211.95
343.69	212.46
344.07	212.95
344.46	213.42
344.84	213.81
345.22	213.95
345.60	214.17
345.99	214.41
346.37	214.55
346.75	214.64
347.13	214.71
347.52	214.80
347.90	214.93
348.28	214.94
348.66	215.02
349.05	215.03
349.43	215.11
349.81	215.15
350.19	215.19
350.57	215.27
350.96	215.38
351.34	215.50
351.72	215.60
352.10	215.72
352.48	215.75
352.87	215.81
353.25	215.91
353.63	215.98
354.01	216.04
354.39	216.09
354.77	216.22
355.15	216.39
355.54	216.46
355.92	216.44
356.30	216.51
356.68	216.71
357.06	216.77
357.44	216.82
357.82	216.90
358.20	217.02
358.58	217.06
358.97	217.11
359.35	217.21
359.73	217.32
360.11	217.37
360.49	217.46
360.87	217.51
361.25	217.59
361.63	217.72
362.01	217.78
362.39	217.81
362.77	217.86
363.15	217.86
363.53	217.87
363.91	217.93
364.29	218.02
364.67	217.86
365.05	217.85
365.43	217.90
365.81	217.92
366.19	218.00
366.57	218.09
366.95	218.08
367.33	218.04
367.71	218.01
368.09	218.05
368.47	218.05
368.85	218.06
369.23	218.06
369.61	218.01
369.99	218.07
370.37	218.06
370.75	218.14
371.13	218.10
371.51	218.08
371.89	218.08
372.27	218.06
372.65	218.08
373.03	218.08
373.41	218.00
373.78	218.00
374.16	217.86
374.54	217.78
374.92	217.73
375.30	217.71
375.68	217.66
376.06	217.64
376.44	217.56
376.82	217.52
377.19	217.45
377.57	217.38
377.95	217.25
378.33	217.23
378.71	217.07
379.09	217.04
379.47	216.96
379.84	216.87
380.22	216.81
380.60	216.70
380.98	216.63
381.36	216.62
381.73	216.51
382.11	216.52
382.49	216.48
382.87	216.41
383.25	216.33
383.62	216.52
384.00	216.42
384.38	216.41
384.76	216.42
385.13	216.47
385.51	216.46
385.89	216.38
386.27	216.33
386.64	216.33
387.02	216.29
387.40	216.28
387.78	216.27
388.15	216.23
388.53	216.20
388.91	216.18
389.29	216.12
389.66	216.16
390.04	216.11
390.42	216.14
390.79	216.14
391.17	216.15
391.55	215.93
391.92	215.96
392.30	215.97
392.68	215.91
393.05	215.88
393.43	215.88
393.81	215.91
394.18	215.90
394.56	215.88
394.94	215.92
395.31	215.90
395.69	216.00
396.06	216.02
396.44	216.06
396.82	216.06
397.19	216.19
397.57	216.17
397.95	216.23
398.32	216.16
398.70	216.24
399.07	216.31
399.45	216.31
399.82	216.36
400.20	216.39
400.58	216.45
400.95	216.45
401.33	216.53
401.70	216.76
402.08	216.86
402.45	216.94
402.83	217.03
403.20	217.15
403.58	217.22
403.95	217.37
404.33	217.51
404.71	217.64
405.08	217.89
405.46	218.06
405.83	218.20
406.21	218.41
406.58	218.62
406.96	218.81
407.33	219.09
407.70	219.36
408.08	219.82
408.45	220.17
408.83	220.52
409.20	220.90
409.58	221.11
409.95	221.54
410.33	222.02
410.70	222.47
411.08	222.98
411.45	223.52
411.82	224.07
412.20	224.75
412.57	225.57
412.95	226.11
413.32	226.94
413.69	227.78
414.07	228.63
414.44	229.58
414.82	230.59
415.19	231.73
415.56	232.84
415.94	233.95
416.31	235.31
416.68	236.69
417.06	238.21
417.43	239.73
417.81	241.39
418.18	243.11
418.55	245.01
418.93	246.95
419.30	248.98
419.67	251.12
420.04	253.31
420.42	255.60
420.79	258.36
421.16	261.05
421.54	263.89
421.91	266.84
422.28	269.82
422.66	272.99
423.03	276.14
423.40	279.39
423.77	282.89
424.15	286.43
424.52	290.12
424.89	294.16
425.26	298.12
425.64	301.90
426.01	306.02
426.38	310.33
426.75	314.79
427.13	319.36
427.50	324.18
427.87	329.22
428.24	334.28
428.61	339.07
428.99	344.36
429.36	350.14
429.73	355.76
430.10	361.46
430.47	367.31
430.85	373.36
431.22	379.84
431.59	386.68
431.96	393.23
432.33	400.48
432.70	407.48
433.08	415.72
433.45	423.50
433.82	431.26
434.19	439.82
434.56	448.17
434.93	456.24
435.30	464.22
435.68	472.99
436.05	481.70
436.42	490.28
436.79	498.15
437.16	506.59
437.53	515.56
437.90	524.30
438.27	532.96
438.64	541.83
439.01	550.09
439.38	557.37
439.75	564.46
440.13	572.60
440.50	580.30
440.87	586.44
441.24	592.84
441.61	599.89
441.98	605.06
442.35	611.20
442.72	617.27
443.09	623.07
443.46	626.69
443.83	629.04
444.20	631.18
444.57	634.20
444.94	635.60
445.31	636.95
445.68	638.38
446.05	639.00
446.42	638.31
446.79	637.43
447.16	636.44
447.53	635.67
447.90	632.41
448.27	629.14
448.64	624.71
449.01	621.46
449.37	615.83
449.74	610.37
450.11	603.67
450.48	596.52
450.85	589.33
451.22	583.08
451.59	577.24
451.96	571.58
452.33	563.96
452.70	557.15
453.07	548.99
453.43	540.63
453.80	532.60
454.17	524.87
454.54	517.55
454.91	509.67
455.28	501.96
455.65	494.88
456.02	487.68
456.38	481.59
456.75	474.13
457.12	467.76
457.49	461.53
457.86	455.58
458.23	450.43
458.59	444.80
458.96	439.03
459.33	433.91
459.70	428.75
460.07	424.71
460.43	420.04
460.80	415.67
461.17	411.84
461.54	407.83
461.91	403.98
462.27	399.97
462.64	396.69
463.01	393.10
463.38	389.46
463.74	385.91
464.11	382.76
464.48	379.93
464.85	376.90
465.21	374.52
465.58	372.04
465.95	368.95
466.32	366.41
466.68	363.92
467.05	361.43
467.42	358.99
467.78	356.40
468.15	353.87
468.52	352.04
468.88	349.68
469.25	347.54
469.62	345.81
469.98	343.95
470.35	342.17
470.72	340.54
471.08	338.87
471.45	337.47
471.82	336.01
472.18	334.41
472.55	333.33
472.92	332.03
473.28	330.85
473.65	329.84
474.02	328.75
474.38	327.88
474.75	327.11
475.11	326.36
475.48	325.83
475.85	325.45
476.21	324.96
476.58	324.60
476.94	324.39
477.31	324.10
477.67	323.89
478.04	323.77
478.41	323.73
478.77	323.90
479.14	323.87
479.50	324.03
479.87	324.40
480.23	324.74
480.60	325.00
480.96	325.29
481.33	325.93
481.69	326.55
482.06	327.09
482.42	327.61
482.79	328.19
483.15	328.99
483.52	329.93
483.88	330.91
484.25	331.84
484.61	332.89
484.98	333.96
485.34	335.29
485.71	336.67
486.07	338.11
486.44	339.43
486.80	341.02
487.17	342.70
487.53	344.44
487.90	346.30
488.26	348.29
488.62	350.44
488.99	352.44
489.35	354.59
489.72	357.01
490.08	359.50
490.44	362.10
490.81	364.78
491.17	367.45
491.54	370.37
491.90	373.39
492.26	376.56
492.63	379.96
492.99	383.45
493.36	387.15
493.72	391.00
494.08	394.95
494.45	399.12
494.81	403.47
495.17	407.90
495.54	412.56
495.90	417.42
496.26	422.34
496.63	427.49
496.99	432.85
497.35	438.38
497.72	444.16
498.08	449.98
498.44	456.01
498.80	462.42
499.17	468.87
499.53	475.60
499.89	482.47
500.26	489.44
500.62	496.48
500.98	503.77
501.34	511.18
501.71	518.93
502.07	526.76
502.43	534.70
502.79	542.85
503.16	551.20
503.52	559.71
503.88	568.35
504.24	577.32
504.60	586.36
504.97	595.53
505.33	604.81
505.69	614.67
506.05	624.56
506.41	634.37
506.78	644.38
507.14	654.53
507.50	664.97
507.86	675.60
508.22	686.31
508.59	696.91
508.95	707.96
509.31	719.13
509.67	730.45
510.03	741.82
510.39	753.56
510.75	765.33
511.12	777.15
511.48	789.17
511.84	801.28
512.20	813.46
512.56	826.00
512.92	838.57
513.28	851.02
513.64	863.65
514.00	876.35
514.37	889.26
514.73	902.25
515.09	915.06
515.45	927.75
515.81	940.56
516.17	953.82
516.53	966.80
516.89	979.73
517.25	992.85
517.61	1006.17
517.97	1019.35
518.33	1032.29
518.69	1045.66
519.05	1059.21
519.41	1072.67
519.77	1086.39
520.13	1099.49
520.49	1112.59
520.85	1125.89
521.21	1138.99
521.57	1152.48
521.93	1165.32
522.29	1178.82
522.65	1192.33
523.01	1205.88
523.37	1218.89
523.73	1231.91
524.09	1245.03
524.45	1258.29
524.81	1271.43
525.17	1284.58
525.53	1297.43
525.89	1310.43
526.25	1323.25
526.61	1335.82
526.97	1348.68
527.33	1361.41
527.68	1374.58
528.04	1387.72
528.40	1400.62
528.76	1413.62
529.12	1426.13
529.48	1439.19
529.84	1451.16
530.20	1463.50
530.56	1475.72
530.91	1488.74
531.27	1501.24
531.63	1513.65
531.99	1526.10
532.35	1538.06
532.71	1550.04
533.07	1562.56
533.42	1574.56
533.78	1586.35
534.14	1598.08
534.50	1609.05
534.86	1620.21
535.21	1630.75
535.57	1642.03
535.93	1652.90
536.29	1663.70
536.65	1674.91
537.00	1685.45
537.36	1696.55
537.72	1707.34
538.08	1718.37
538.44	1729.01
538.79	1739.80
539.15	1750.33
539.51	1760.69
539.87	1771.74
540.22	1782.27
540.58	1792.93
540.94	1803.48
541.29	1813.41
541.65	1822.89
542.01	1833.06
542.37	1842.83
542.72	1852.81
543.08	1862.12
543.44	1872.31
543.79	1881.46
544.15	1890.62
544.51	1900.42
544.87	1909.92
545.22	1918.75
545.58	1927.43
545.94	1936.01
546.29	1944.28
546.65	1952.42
547.01	1960.42
547.36	1967.71
547.72	1975.16
548.07	1982.55
548.43	1989.97
548.79	1997.68
549.14	2005.61
549.50	2013.66
549.86	2021.32
550.21	2028.49
550.57	2036.17
550.92	2042.67
551.28	2049.96
551.64	2057.08
551.99	2064.32
552.35	2071.41
552.70	2078.05
553.06	2084.45
553.41	2090.51
553.77	2096.88
554.13	2102.99
554.48	2109.82
554.84	2116.80
555.19	2123.30
555.55	2129.71
555.90	2135.90
556.26	2142.56
556.61	2148.36
556.97	2153.25
557.32	2158.93
557.68	2165.15
558.03	2170.71
558.39	2176.01
558.74	2181.83
559.10	2187.20
559.45	2192.66
559.81	2197.91
560.16	2203.54
560.52	2209.42
560.87	2215.84
561.23	2221.68
561.58	2228.33
561.94	2233.49
562.29	2238.30
562.64	2244.45
563.00	2249.81
563.35	2255.54
563.71	2261.28
564.06	2267.00
564.42	2272.90
564.77	2278.07
565.12	2283.26
565.48	2288.55
565.83	2294.05
566.19	2299.57
566.54	2305.16
566.89	2309.88
567.25	2314.62
567.60	2320.32
567.96	2325.59
568.31	2330.08
568.66	2334.45
569.02	2338.42
569.37	2342.26
569.72	2346.77
570.08	2350.24
570.43	2353.49
570.78	2356.49
571.14	2359.01
571.49	2362.22
571.84	2365.81
572.20	2368.86
572.55	2372.09
572.90	2374.29
573.26	2377.35
573.61	2379.88
573.96	2381.94
574.31	2383.99
574.67	2386.12
575.02	2386.98
575.37	2388.30
575.72	2389.38
576.08	2390.89
576.43	2391.16
576.78	2392.07
577.13	2393.74
577.49	2395.01
577.84	2396.49
578.19	2398.20
578.54	2399.15
578.90	2400.30
579.25	2400.45
579.60	2400.56
579.95	2399.98
580.30	2400.41
580.66	2399.76
581.01	2398.26
581.36	2396.18
581.71	2395.02
582.06	2394.11
582.42	2393.48
582.77	2391.63
583.12	2390.22
583.47	2389.29
583.82	2389.00
584.17	2387.77
584.53	2385.81
584.88	2383.85
585.23	2382.04
585.58	2379.85
585.93	2377.85
586.28	2375.80
586.63	2373.63
586.98	2371.62
587.34	2369.87
587.69	2367.67
588.04	2365.90
588.39	2364.50
588.74	2362.26
589.09	2359.75
589.44	2356.79
589.79	2354.59
590.14	2352.84
590.49	2350.10
590.84	2346.30
591.19	2343.44
591.54	2340.28
591.89	2336.39
592.25	2333.44
592.60	2329.17
592.95	2325.20
593.30	2321.25
593.65	2316.89
594.00	2312.69
594.35	2309.74
594.70	2305.13
595.05	2300.59
595.40	2295.23
595.75	2290.01
596.10	2286.56
596.45	2281.82
596.80	2277.36
597.15	2272.20
597.50	2266.44
597.85	2261.57
598.19	2256.42
598.54	2250.63
598.89	2245.70
599.24	2241.34
599.59	2235.25
599.94	2229.86
600.29	2224.06
600.64	2218.37
600.99	2211.88
601.34	2206.38
601.69	2199.47
602.04	2193.28
602.39	2186.64
602.74	2180.65
603.08	2174.90
603.43	2168.28
603.78	2161.60
604.13	2154.60
604.48	2147.50
604.83	2141.57
605.18	2135.25
605.53	2128.49
605.87	2121.73
606.22	2114.88
606.57	2106.94
606.92	2099.17
607.27	2092.23
607.62	2085.69
607.96	2078.61
608.31	2072.12
608.66	2064.39
609.01	2056.89
609.36	2049.81
609.70	2042.34
610.05	2034.75
610.40	2026.64
610.75	2018.58
611.10	2010.92
611.44	2002.23
611.79	1993.42
612.14	1983.39
612.49	1973.10
612.83	1963.95
613.18	1954.73
613.53	1945.44
613.88	1935.99
614.22	1927.52
614.57	1917.69
614.92	1907.24
615.27	1897.29
615.61	1887.35
615.96	1877.73
616.31	1868.18
616.65	1858.79
617.00	1848.92
617.35	1839.20
617.70	1829.54
618.04	1819.44
618.39	1809.28
618.74	1799.52
619.08	1790.06
619.43	1781.29
619.78	1773.06
620.12	1764.28
620.47	1754.57
620.82	1744.39
621.16	1734.65
621.51	1724.60
621.85	1714.71
622.20	1704.12
622.55	1693.41
622.89	1683.50
623.24	1673.75
623.59	1664.16
623.93	1654.08
624.28	1644.46
624.62	1634.32
624.97	1624.04
625.32	1614.27
625.66	1605.57
626.01	1596.80
626.35	1587.36
626.70	1577.38
627.04	1567.28
627.39	1557.30
627.73	1548.02
628.08	1538.92
628.43	1529.31
628.77	1519.99
629.12	1511.18
629.46	1503.41
629.81	1495.13
630.15	1485.59
630.50	1475.78
630.84	1465.09
631.19	1455.20
631.53	1445.87
631.88	1435.79
632.22	1425.79
632.57	1416.57
632.91	1406.28
633.26	1396.42
633.60	1386.87
633.95	1377.53
634.29	1368.08
634.64	1358.70
634.98	1348.77
635.32	1339.51
635.67	1331.03
636.01	1321.95
636.36	1312.11
636.70	1302.65
637.05	1293.29
637.39	1284.26
637.73	1275.74
638.08	1268.23
638.42	1259.95
638.77	1251.08
639.11	1242.84
639.45	1234.98
639.80	1226.36
640.14	1217.69
640.49	1208.85
640.83	1200.11
641.17	1192.02
641.52	1183.74
641.86	1175.10
642.20	1167.29
642.55	1158.76
642.89	1149.86
643.23	1141.11
643.58	1133.08
643.92	1124.00
644.26	1115.31
644.61	1106.93
644.95	1098.14
645.29	1088.90
645.64	1079.89
645.98	1071.58
646.32	1063.68
646.66	1055.21
647.01	1046.78
647.35	1038.68
647.69	1030.28
648.04	1021.89
648.38	1013.01
648.72	1004.30
649.06	995.99
649.41	987.90
649.75	979.97
650.09	972.13
650.43	964.23
650.78	956.03
651.12	948.47
651.46	941.11
651.80	933.91
652.14	926.65
652.49	919.18
652.83	911.80
653.17	904.07
653.51	896.46
653.85	889.18
654.20	882.05
654.54	874.59
654.88	867.54
655.22	860.46
655.56	853.45
655.90	846.77
656.25	840.10
656.59	833.18
656.93	826.20
657.27	819.23
657.61	812.34
657.95	806.27
658.29	800.39
658.64	794.26
658.98	787.79
659.32	781.19
659.66	775.08
660.00	768.82
660.34	762.84
660.68	756.84
661.02	750.63
661.36	744.73
661.70	738.99
662.05	733.37
662.39	727.86
662.73	722.62
663.07	717.26
663.41	711.74
663.75	706.08
664.09	700.50
664.43	695.13
664.77	689.78
665.11	683.98
665.45	678.16
665.79	672.44
666.13	666.87
666.47	661.48
666.81	656.10
667.15	650.84
667.49	645.67
667.83	640.43
668.17	635.34
668.51	630.35
668.85	625.49
669.19	620.65
669.53	615.76
669.87	610.69
670.21	606.05
670.55	601.29
670.89	596.91
671.23	592.67
671.57	588.36
671.91	584.20
672.25	580.20
672.58	576.05
672.92	572.06
673.26	568.23
673.60	564.47
673.94	560.71
674.28	557.09
674.62	553.43
674.96	549.78
675.30	546.30
675.64	542.68
675.97	539.14
676.31	535.54
676.65	532.01
676.99	528.61
677.33	524.77
677.67	521.27
678.01	517.51
678.34	513.86
678.68	510.37
679.02	506.78
679.36	503.12
679.70	499.58
680.04	496.13
680.37	492.69
680.71	489.44
681.05	486.26
681.39	483.14
681.73	480.04
682.06	477.04
682.40	473.97
682.74	470.84
683.08	467.72
683.42	464.66
683.75	461.73
684.09	458.79
684.43	456.05
684.77	453.18
685.10	450.37
685.44	447.52
685.78	444.59
686.12	441.89
686.45	439.17
686.79	436.54
687.13	433.99
687.46	431.42
687.80	428.75
688.14	425.94
688.48	423.31
688.81	420.66
689.15	418.13
689.49	415.56
689.82	413.03
690.16	410.52
690.50	408.08
690.83	405.62
691.17	403.15
691.51	400.75
691.84	398.60
692.18	396.46
692.52	394.34
692.85	392.26
693.19	390.20
693.52	388.09
693.86	385.94
694.20	383.81
694.53	381.74
694.87	379.62
695.21	377.58
695.54	375.54
695.88	373.44
696.21	371.25
696.55	369.19
696.88	367.19
697.22	365.23
697.56	363.37
697.89	361.49
698.23	359.77
698.56	358.01
698.90	356.24
699.23	354.31
699.57	352.49
699.90	350.72
700.24	348.91
700.58	347.22
700.91	345.62
701.25	344.10
701.58	342.53
701.92	340.99
702.25	339.45
702.59	337.82
702.92	336.35
703.26	334.87
703.59	333.46
703.93	332.26
704.26	330.86
704.60	329.43
704.93	328.02
705.26	326.55
705.60	325.14
705.93	323.67
706.27	322.40
706.60	321.14
706.94	319.93
707.27	318.58
707.61	317.27
707.94	315.94
708.27	314.48
708.61	313.10
708.94	311.78
709.28	310.54
709.61	309.35
709.94	308.17
710.28	307.03
710.61	305.83
710.95	304.42
711.28	303.39
711.61	302.20
711.95	301.11
712.28	299.97
712.61	298.80
712.95	297.76
713.28	296.78
713.61	295.67
713.95	294.54
714.28	293.52
714.61	292.46
714.95	291.47
715.28	290.46
715.61	289.44
715.95	288.48
716.28	287.53
716.61	286.63
716.95	285.67
717.28	284.74
717.61	283.84
717.94	282.97
718.28	281.99
718.61	281.15
718.94	280.26
719.27	279.41
719.61	278.62
719.94	277.78
720.27	276.79
720.60	275.98
720.94	275.21
721.27	274.52
721.60	273.85
721.93	273.15
722.27	272.51
722.60	271.86
722.93	271.19
723.26	270.55
723.59	269.82
723.93	269.21
724.26	268.53
724.59	267.88
724.92	267.33
725.25	266.75
725.59	266.15
725.92	265.66
726.25	265.12
726.58	264.56
726.91	263.95
727.24	263.47
727.57	262.90
727.91	262.32
728.24	261.74
728.57	261.18
728.90	260.67
729.23	260.07
729.56	259.64
729.89	259.11
730.22	258.53
730.55	258.04
730.89	257.52
731.22	257.03
731.55	256.52
731.88	256.00
732.21	255.48
732.54	254.97
732.87	254.45
733.20	253.98
733.53	253.51
733.86	253.09
734.19	252.61
734.52	252.20
734.85	251.93
735.18	251.49
735.51	251.13
735.84	250.70
736.17	250.34
736.50	249.83
736.83	249.67
737.16	249.31
737.49	248.94
737.82	248.54
738.15	248.22
738.48	247.85
738.81	247.48
739.14	247.10
739.47	246.76
739.80	246.39
740.13	246.05
740.46	245.65
740.79	245.26
741.12	244.93
741.45	244.58
741.78	244.13
742.11	243.85
742.44	243.48
742.77	243.21
743.10	242.84
743.43	242.49
743.75	241.92
744.08	241.88
744.41	241.52
744.74	241.22
745.07	240.80
745.40	240.51
745.73	240.26
746.06	239.93
746.39	239.64
746.71	239.33
747.04	238.95
747.37	238.67
747.70	238.43
748.03	238.14
748.36	237.92
748.68	237.60
749.01	237.26
749.34	236.95
749.67	236.64
750.00	236.41
750.33	236.29
750.65	236.06
750.98	235.52
751.31	235.30
751.64	235.07
751.97	234.98
752.29	234.75
752.62	234.40
752.95	234.18
753.28	233.90
753.60	233.70
753.93	233.56
754.26	233.36
754.59	233.09
754.91	232.82
755.24	232.55
755.57	232.35
755.90	232.17
756.22	231.96
756.55	231.75
756.88	231.49
757.20	231.17
757.53	230.93
757.86	230.70
758.19	230.51
758.51	230.27
758.84	229.98
759.17	229.80
759.49	229.67
759.82	229.63
760.15	229.50
760.47	229.29
760.80	229.07
761.13	228.89
761.45	228.70
761.78	228.53
762.11	228.34
762.43	228.15
762.76	227.97
763.08	227.81
763.41	227.66
763.74	227.51
764.06	227.36
764.39	227.22
764.71	227.07
765.04	226.91
765.37	226.76
765.69	226.60
766.02	226.43
766.34	226.25
766.67	226.00
767.00	225.90
767.32	225.89
767.65	225.86
767.97	225.73
768.30	225.65
768.62	225.55
768.95	225.42
769.27	225.34
769.60	225.25
769.92	225.11
770.25	224.95
770.57	224.79
770.90	224.65
771.22	224.53
771.55	224.47
771.87	224.38
772.20	224.25
772.52	224.33
772.85	224.46
773.17	224.38
773.50	224.25
773.82	224.13
774.15	223.91
774.47	223.69
774.80	223.61
775.12	223.51
775.45	223.39
775.77	223.32
776.09	223.24
776.42	223.17
776.74	223.19
777.07	223.11
777.39	223.06
777.72	223.00
778.04	222.93
778.36	222.81
778.69	222.74
779.01	222.68
779.33	222.41
779.66	222.12
779.98	221.99
780.31	221.95
780.63	221.94
780.95	221.91
781.28	221.87
781.60	221.78
781.92	221.71
782.25	221.67
782.57	221.60
782.89	221.54
783.22	221.44
783.54	221.30
783.86	221.24
784.19	221.14
784.51	221.14
784.83	221.08
785.16	221.04
785.48	220.97
785.80	220.95
786.12	220.92
