SpectraSuite Data File
++++++++++++++++++++++++++++++++++++
Date: Tue Jan 29 16:37:30 EST 2013
User: group
Dark Spectrum Present: No
Reference Spectrum Present: No
Number of Sampled Component Spectra: 1
Spectrometers: USB2E7196
Integration Time (usec): 65000 (USB2E7196)
Spectra Averaged: 100 (USB2E7196)
Boxcar Smoothing: 10 (USB2E7196)
Correct for Electrical Dark: No (USB2E7196)
Strobe/Lamp Enabled: No (USB2E7196)
Correct for Detector Non-linearity: No (USB2E7196)
Correct for Stray Light: No (USB2E7196)
Number of Pixels in Processed Spectrum: 2048
>>>>>Begin Processed Spectral Data<<<<<
339.09	0.00
339.48	201.85
339.86	203.10
340.24	204.83
340.63	206.10
341.01	210.66
341.39	208.51
341.78	210.24
342.16	212.02
342.54	211.53
342.93	201.08
343.31	211.23
343.69	211.79
344.07	212.27
344.46	212.70
344.84	213.09
345.22	213.24
345.60	213.52
345.99	213.73
346.37	213.84
346.75	213.96
347.13	214.00
347.52	214.08
347.90	214.20
348.28	214.21
348.66	214.29
349.05	214.23
349.43	214.30
349.81	214.35
350.19	214.39
350.57	214.44
350.96	214.51
351.34	214.60
351.72	214.66
352.10	214.71
352.48	214.78
352.87	214.84
353.25	214.92
353.63	214.98
354.01	215.04
354.39	215.08
354.77	215.17
355.15	215.35
355.54	215.42
355.92	215.45
356.30	215.56
356.68	215.72
357.06	215.82
357.44	215.87
357.82	215.92
358.20	216.01
358.58	216.08
358.97	216.14
359.35	216.26
359.73	216.36
360.11	216.44
360.49	216.50
360.87	216.54
361.25	216.62
361.63	216.75
362.01	216.82
362.39	216.92
362.77	216.96
363.15	216.97
363.53	216.97
363.91	216.99
364.29	217.00
364.67	216.85
365.05	216.91
365.43	216.92
365.81	216.99
366.19	217.07
366.57	217.18
366.95	217.20
367.33	217.19
367.71	217.22
368.09	217.25
368.47	217.28
368.85	217.29
369.23	217.31
369.61	217.22
369.99	217.28
370.37	217.24
370.75	217.31
371.13	217.25
371.51	217.23
371.89	217.23
372.27	217.22
372.65	217.21
373.03	217.17
373.41	217.14
373.78	217.11
374.16	216.99
374.54	216.91
374.92	216.84
375.30	216.78
375.68	216.66
376.06	216.67
376.44	216.59
376.82	216.56
377.19	216.49
377.57	216.45
377.95	216.32
378.33	216.30
378.71	216.15
379.09	216.14
379.47	216.09
379.84	216.02
380.22	215.98
380.60	215.87
380.98	215.81
381.36	215.76
381.73	215.66
382.11	215.67
382.49	215.63
382.87	215.59
383.25	215.56
383.62	215.78
384.00	215.69
384.38	215.69
384.76	215.68
385.13	215.73
385.51	215.69
385.89	215.60
386.27	215.56
386.64	215.58
387.02	215.53
387.40	215.51
387.78	215.51
388.15	215.50
388.53	215.49
388.91	215.46
389.29	215.42
389.66	215.45
390.04	215.39
390.42	215.37
390.79	215.36
391.17	215.32
391.55	215.07
391.92	215.04
392.30	215.04
392.68	214.98
393.05	214.97
393.43	214.96
393.81	215.01
394.18	214.99
394.56	214.98
394.94	215.00
395.31	214.96
395.69	215.00
396.06	215.02
396.44	215.09
396.82	215.09
397.19	215.22
397.57	215.24
397.95	215.29
398.32	215.29
398.70	215.35
399.07	215.45
399.45	215.50
399.82	215.60
400.20	215.61
400.58	215.68
400.95	215.62
401.33	215.76
401.70	215.97
402.08	216.09
402.45	216.17
402.83	216.30
403.20	216.49
403.58	216.60
403.95	216.76
404.33	216.88
404.71	217.04
405.08	217.28
405.46	217.43
405.83	217.61
406.21	217.82
406.58	218.04
406.96	218.26
407.33	218.51
407.70	218.81
408.08	219.28
408.45	219.64
408.83	220.03
409.20	220.37
409.58	220.65
409.95	221.06
410.33	221.57
410.70	222.01
411.08	222.55
411.45	223.14
411.82	223.71
412.20	224.42
412.57	225.26
412.95	225.84
413.32	226.71
413.69	227.53
414.07	228.46
414.44	229.45
414.82	230.46
415.19	231.65
415.56	232.84
415.94	234.05
416.31	235.50
416.68	236.93
417.06	238.52
417.43	240.06
417.81	241.84
418.18	243.63
418.55	245.58
418.93	247.60
419.30	249.65
419.67	251.88
420.04	254.17
420.42	256.53
420.79	259.37
421.16	262.16
421.54	265.05
421.91	268.01
422.28	271.12
422.66	274.41
423.03	277.68
423.40	281.04
423.77	284.62
424.15	288.28
424.52	292.11
424.89	296.28
425.26	300.37
425.64	304.25
426.01	308.50
426.38	313.00
426.75	317.58
427.13	322.39
427.50	327.38
427.87	332.60
428.24	337.82
428.61	342.78
428.99	348.34
429.36	354.42
429.73	360.33
430.10	366.21
430.47	372.34
430.85	378.62
431.22	385.36
431.59	392.52
431.96	399.34
432.33	406.93
432.70	414.17
433.08	422.77
433.45	430.77
433.82	438.85
434.19	447.75
434.56	456.44
434.93	464.72
435.30	473.00
435.68	482.15
436.05	491.19
436.42	500.14
436.79	508.26
437.16	517.05
437.53	526.36
437.90	535.52
438.27	544.49
438.64	553.72
439.01	562.27
439.38	569.82
439.75	577.14
440.13	585.54
440.50	593.56
440.87	599.93
441.24	606.69
441.61	614.05
441.98	619.38
442.35	625.78
442.72	632.16
443.09	638.34
443.46	642.04
443.83	644.52
444.20	646.67
444.57	649.87
444.94	651.32
445.31	652.74
445.68	654.22
446.05	654.83
446.42	654.11
446.79	653.13
447.16	652.03
447.53	651.31
447.90	647.93
448.27	644.63
448.64	640.03
449.01	636.67
449.37	630.76
449.74	625.14
450.11	618.24
450.48	610.85
450.85	603.29
451.22	596.83
451.59	590.72
451.96	584.96
452.33	577.06
452.70	569.87
453.07	561.40
453.43	552.70
453.80	544.41
454.17	536.40
454.54	528.81
454.91	520.66
455.28	512.62
455.65	505.20
456.02	497.64
456.38	491.25
456.75	483.34
457.12	476.74
457.49	470.15
457.86	463.88
458.23	458.43
458.59	452.47
458.96	446.41
459.33	441.03
459.70	435.61
460.07	431.33
460.43	426.46
460.80	421.88
461.17	417.86
461.54	413.62
461.91	409.57
462.27	405.44
462.64	401.97
463.01	398.15
463.38	394.41
463.74	390.74
464.11	387.51
464.48	384.70
464.85	381.60
465.21	379.19
465.58	376.57
465.95	373.46
466.32	370.87
466.68	368.28
467.05	365.71
467.42	363.16
467.78	360.48
468.15	357.93
468.52	355.98
468.88	353.49
469.25	351.27
469.62	349.46
469.98	347.51
470.35	345.72
470.72	344.10
471.08	342.34
471.45	340.78
471.82	339.23
472.18	337.54
472.55	336.33
472.92	334.92
473.28	333.70
473.65	332.53
474.02	331.36
474.38	330.51
474.75	329.77
475.11	328.95
475.48	328.35
475.85	327.86
476.21	327.43
476.58	327.06
476.94	326.81
477.31	326.49
477.67	326.25
478.04	326.04
478.41	325.99
478.77	326.12
479.14	326.12
479.50	326.24
479.87	326.51
480.23	326.87
480.60	327.16
480.96	327.43
481.33	328.03
481.69	328.62
482.06	329.10
482.42	329.56
482.79	330.08
483.15	330.87
483.52	331.83
483.88	332.64
484.25	333.59
484.61	334.59
484.98	335.66
485.34	336.94
485.71	338.38
486.07	339.75
486.44	341.10
486.80	342.71
487.17	344.36
487.53	346.19
487.90	348.00
488.26	349.99
488.62	352.11
488.99	354.19
489.35	356.35
489.72	358.70
490.08	361.23
490.44	363.87
490.81	366.57
491.17	369.27
491.54	372.26
491.90	375.30
492.26	378.57
492.63	381.98
492.99	385.48
493.36	389.12
493.72	393.05
494.08	397.08
494.45	401.26
494.81	405.68
495.17	410.15
495.54	414.92
495.90	419.79
496.26	424.80
496.63	430.02
496.99	435.44
497.35	441.07
497.72	446.87
498.08	452.78
498.44	458.94
498.80	465.43
499.17	471.96
499.53	478.67
499.89	485.57
500.26	492.57
500.62	499.66
500.98	507.07
501.34	514.50
501.71	522.31
502.07	530.15
502.43	538.18
502.79	546.34
503.16	554.72
503.52	563.31
503.88	572.06
504.24	580.98
504.60	590.06
504.97	599.34
505.33	608.71
505.69	618.66
506.05	628.56
506.41	638.46
506.78	648.56
507.14	658.82
507.50	669.33
507.86	680.13
508.22	690.94
508.59	701.60
508.95	712.75
509.31	724.02
509.67	735.54
510.03	746.97
510.39	758.74
510.75	770.63
511.12	782.57
511.48	794.62
511.84	806.86
512.20	819.22
512.56	831.82
512.92	844.68
513.28	857.38
513.64	870.15
514.00	883.03
514.37	896.07
514.73	909.24
515.09	922.31
515.45	935.20
515.81	948.39
516.17	961.92
516.53	975.18
516.89	988.38
517.25	1001.65
517.61	1015.30
517.97	1028.79
518.33	1041.98
518.69	1055.60
519.05	1069.53
519.41	1083.39
519.77	1097.43
520.13	1110.92
520.49	1124.12
520.85	1137.53
521.21	1150.94
521.57	1164.65
521.93	1177.75
522.29	1191.51
522.65	1205.25
523.01	1219.04
523.37	1232.25
523.73	1245.60
524.09	1258.87
524.45	1272.45
524.81	1286.04
525.17	1299.47
525.53	1312.80
525.89	1326.27
526.25	1339.56
526.61	1352.42
526.97	1365.56
527.33	1378.49
527.68	1392.01
528.04	1405.56
528.40	1418.76
528.76	1432.29
529.12	1445.30
529.48	1458.74
529.84	1471.15
530.20	1483.93
530.56	1496.56
530.91	1509.89
531.27	1522.84
531.63	1535.74
531.99	1548.62
532.35	1560.91
532.71	1573.37
533.07	1586.28
533.42	1598.66
533.78	1610.89
534.14	1623.11
534.50	1634.61
534.86	1646.35
535.21	1657.25
535.57	1668.95
535.93	1680.45
536.29	1691.53
536.65	1702.99
537.00	1714.07
537.36	1725.61
537.72	1736.70
538.08	1748.20
538.44	1759.25
538.79	1770.58
539.15	1781.72
539.51	1792.54
539.87	1804.04
540.22	1814.96
540.58	1826.05
540.94	1836.96
541.29	1847.38
541.65	1857.15
542.01	1867.70
542.37	1877.85
542.72	1888.22
543.08	1898.10
543.44	1908.70
543.79	1918.20
544.15	1927.87
544.51	1937.87
544.87	1947.83
545.22	1957.31
545.58	1966.30
545.94	1975.32
546.29	1983.77
546.65	1992.15
547.01	2000.40
547.36	2008.13
547.72	2016.03
548.07	2023.72
548.43	2031.61
548.79	2039.43
549.14	2047.71
549.50	2056.13
549.86	2064.10
550.21	2071.43
550.57	2079.26
550.92	2086.03
551.28	2093.54
551.64	2100.88
551.99	2108.54
552.35	2115.78
552.70	2122.63
553.06	2129.36
553.41	2135.83
553.77	2142.55
554.13	2149.03
554.48	2156.10
554.84	2163.29
555.19	2169.78
555.55	2176.30
555.90	2182.66
556.26	2189.57
556.61	2195.77
556.97	2200.65
557.32	2206.51
557.68	2213.21
558.03	2218.88
558.39	2224.20
558.74	2230.23
559.10	2235.84
559.45	2241.46
559.81	2246.97
560.16	2252.55
560.52	2258.31
560.87	2264.60
561.23	2270.42
561.58	2277.10
561.94	2282.37
562.29	2286.99
562.64	2293.07
563.00	2298.70
563.35	2304.17
563.71	2309.93
564.06	2315.61
564.42	2321.60
564.77	2326.76
565.12	2331.94
565.48	2337.19
565.83	2342.86
566.19	2348.26
566.54	2353.57
566.89	2358.12
567.25	2362.81
567.60	2368.48
567.96	2373.68
568.31	2378.15
568.66	2382.36
569.02	2386.15
569.37	2389.89
569.72	2394.36
570.08	2397.85
570.43	2400.91
570.78	2403.93
571.14	2406.55
571.49	2409.48
571.84	2412.94
572.20	2415.76
572.55	2418.70
572.90	2420.84
573.26	2423.46
573.61	2425.91
573.96	2428.01
574.31	2430.02
574.67	2431.79
575.02	2432.50
575.37	2434.03
575.72	2434.69
576.08	2436.17
576.43	2436.26
576.78	2436.71
577.13	2438.08
577.49	2439.15
577.84	2440.05
578.19	2441.38
578.54	2441.62
578.90	2442.35
579.25	2442.16
579.60	2441.98
579.95	2441.15
580.30	2441.10
580.66	2440.37
581.01	2438.65
581.36	2436.25
581.71	2434.66
582.06	2433.43
582.42	2432.52
582.77	2429.96
583.12	2428.38
583.47	2426.84
583.82	2426.24
584.17	2424.76
584.53	2422.60
584.88	2420.46
585.23	2418.51
585.58	2415.92
585.93	2413.83
586.28	2411.54
586.63	2408.99
586.98	2406.64
587.34	2404.51
587.69	2402.06
588.04	2399.88
588.39	2398.25
588.74	2395.57
589.09	2392.82
589.44	2389.36
589.79	2386.65
590.14	2384.77
590.49	2381.70
590.84	2377.87
591.19	2374.52
591.54	2371.25
591.89	2367.11
592.25	2363.79
592.60	2359.54
592.95	2355.49
593.30	2351.21
593.65	2346.80
594.00	2342.27
594.35	2339.03
594.70	2334.30
595.05	2329.70
595.40	2324.07
595.75	2318.12
596.10	2314.51
596.45	2309.51
596.80	2305.04
597.15	2299.78
597.50	2293.70
597.85	2288.72
598.19	2283.43
598.54	2277.63
598.89	2272.15
599.24	2267.61
599.59	2261.32
599.94	2255.33
600.29	2249.27
600.64	2243.38
600.99	2236.42
601.34	2230.94
601.69	2224.05
602.04	2217.59
602.39	2210.84
602.74	2204.75
603.08	2199.32
603.43	2192.68
603.78	2185.75
604.13	2178.60
604.48	2171.29
604.83	2165.01
605.18	2158.77
605.53	2151.65
605.87	2144.54
606.22	2137.87
606.57	2129.87
606.92	2121.85
607.27	2115.01
607.62	2108.37
607.96	2101.22
608.31	2094.67
608.66	2086.77
609.01	2079.04
609.36	2071.97
609.70	2064.21
610.05	2056.39
610.40	2047.96
610.75	2039.60
611.10	2031.99
611.44	2023.12
611.79	2014.48
612.14	2004.60
612.49	1993.87
612.83	1984.62
613.18	1975.30
613.53	1965.88
613.88	1956.17
614.22	1947.54
614.57	1937.62
614.92	1927.13
615.27	1916.92
615.61	1906.94
615.96	1897.34
616.31	1887.77
616.65	1878.33
617.00	1868.54
617.35	1858.85
617.70	1849.21
618.04	1839.07
618.39	1828.85
618.74	1819.14
619.08	1809.32
619.43	1800.55
619.78	1792.34
620.12	1783.70
620.47	1774.08
620.82	1763.81
621.16	1754.21
621.51	1744.34
621.85	1734.42
622.20	1723.88
622.55	1713.34
622.89	1703.30
623.24	1693.51
623.59	1683.78
623.93	1673.66
624.28	1663.88
624.62	1653.80
624.97	1643.49
625.32	1633.86
625.66	1624.96
626.01	1616.21
626.35	1606.88
626.70	1596.83
627.04	1586.74
627.39	1576.55
627.73	1567.27
628.08	1558.43
628.43	1548.71
628.77	1539.46
629.12	1530.61
629.46	1522.85
629.81	1514.48
630.15	1505.10
630.50	1495.45
630.84	1484.91
631.19	1474.99
631.53	1465.64
631.88	1455.53
632.22	1445.52
632.57	1436.14
632.91	1426.01
633.26	1416.20
633.60	1406.75
633.95	1397.52
634.29	1388.11
634.64	1378.82
634.98	1368.86
635.32	1359.51
635.67	1351.13
636.01	1341.87
636.36	1332.13
636.70	1322.56
637.05	1313.25
637.39	1304.25
637.73	1295.51
638.08	1287.96
638.42	1279.64
638.77	1270.90
639.11	1262.66
639.45	1254.86
639.80	1246.26
640.14	1237.48
640.49	1228.56
640.83	1219.67
641.17	1211.52
641.52	1203.32
641.86	1194.87
642.20	1187.08
642.55	1178.40
642.89	1169.46
643.23	1160.74
643.58	1152.63
643.92	1143.63
644.26	1134.88
644.61	1126.42
644.95	1117.58
645.29	1108.34
645.64	1099.21
645.98	1090.69
646.32	1082.80
646.66	1074.25
647.01	1065.98
647.35	1057.89
647.69	1049.56
648.04	1041.24
648.38	1032.31
648.72	1023.58
649.06	1014.97
649.41	1006.71
649.75	998.80
650.09	990.85
650.43	982.92
650.78	974.55
651.12	966.81
651.46	959.44
651.80	952.19
652.14	944.91
652.49	937.41
652.83	930.11
653.17	922.36
653.51	914.65
653.85	907.45
654.20	900.15
654.54	892.69
654.88	885.49
655.22	878.37
655.56	871.35
655.90	864.46
656.25	857.85
656.59	850.90
656.93	843.80
657.27	836.69
657.61	829.65
657.95	823.49
658.29	817.63
658.64	811.47
658.98	804.94
659.32	798.41
659.66	792.13
660.00	785.72
660.34	779.67
660.68	773.49
661.02	767.08
661.36	761.13
661.70	755.32
662.05	749.55
662.39	743.92
662.73	738.48
663.07	733.08
663.41	727.33
663.75	721.59
664.09	715.89
664.43	710.47
664.77	705.09
665.11	699.27
665.45	693.27
665.79	687.40
666.13	681.66
666.47	676.13
666.81	670.58
667.15	665.17
667.49	659.96
667.83	654.69
668.17	649.40
668.51	644.22
668.85	639.25
669.19	634.33
669.53	629.34
669.87	624.23
670.21	619.39
670.55	614.65
670.89	610.19
671.23	605.91
671.57	601.42
671.91	597.07
672.25	592.91
672.58	588.77
672.92	584.70
673.26	580.76
673.60	576.85
673.94	573.04
674.28	569.37
674.62	565.58
674.96	561.83
675.30	558.30
675.64	554.53
675.97	550.89
676.31	547.24
676.65	543.60
676.99	540.11
677.33	536.21
677.67	532.59
678.01	528.72
678.34	524.95
678.68	521.41
679.02	517.80
679.36	514.08
679.70	510.36
680.04	506.79
680.37	503.28
680.71	499.89
681.05	496.64
681.39	493.35
681.73	490.17
682.06	487.07
682.40	483.93
682.74	480.75
683.08	477.47
683.42	474.22
683.75	471.16
684.09	468.18
684.43	465.38
684.77	462.40
685.10	459.50
685.44	456.54
685.78	453.59
686.12	450.78
686.45	447.98
686.79	445.28
687.13	442.69
687.46	440.05
687.80	437.35
688.14	434.52
688.48	431.86
688.81	429.12
689.15	426.54
689.49	423.90
689.82	421.34
690.16	418.76
690.50	416.29
690.83	413.75
691.17	411.06
691.51	408.56
691.84	406.25
692.18	404.02
692.52	401.81
692.85	399.62
693.19	397.43
693.52	395.23
693.86	392.97
694.20	390.75
694.53	388.55
694.87	386.28
695.21	384.10
695.54	381.94
695.88	379.75
696.21	377.49
696.55	375.36
696.88	373.25
697.22	371.22
697.56	369.30
697.89	367.40
698.23	365.64
698.56	363.79
698.90	361.98
699.23	360.07
699.57	358.18
699.90	356.31
700.24	354.47
700.58	352.73
700.91	351.06
701.25	349.48
701.58	347.87
701.92	346.25
702.25	344.63
702.59	342.95
702.92	341.40
703.26	339.84
703.59	338.33
703.93	337.04
704.26	335.57
704.60	334.04
704.93	332.54
705.26	331.03
705.60	329.54
705.93	328.00
706.27	326.64
706.60	325.28
706.94	324.03
707.27	322.65
707.61	321.27
707.94	319.90
708.27	318.36
708.61	316.85
708.94	315.50
709.28	314.23
709.61	312.98
709.94	311.69
710.28	310.42
710.61	309.18
710.95	307.74
711.28	306.66
711.61	305.44
711.95	304.29
712.28	303.11
712.61	301.95
712.95	300.92
713.28	299.86
713.61	298.74
713.95	297.54
714.28	296.49
714.61	295.42
714.95	294.40
715.28	293.36
715.61	292.32
715.95	291.31
716.28	290.28
716.61	289.32
716.95	288.34
717.28	287.42
717.61	286.47
717.94	285.59
718.28	284.51
718.61	283.61
718.94	282.67
719.27	281.78
719.61	280.93
719.94	280.04
720.27	279.06
720.60	278.20
720.94	277.36
721.27	276.59
721.60	275.89
721.93	275.17
722.27	274.50
722.60	273.88
722.93	273.17
723.26	272.50
723.59	271.78
723.93	271.16
724.26	270.49
724.59	269.80
724.92	269.21
725.25	268.67
725.59	268.09
725.92	267.58
726.25	267.00
726.58	266.42
726.91	265.78
727.24	265.23
727.57	264.67
727.91	264.10
728.24	263.52
728.57	262.89
728.90	262.31
729.23	261.69
729.56	261.23
729.89	260.70
730.22	260.14
730.55	259.55
730.89	258.97
731.22	258.43
731.55	257.89
731.88	257.35
732.21	256.79
732.54	256.23
732.87	255.68
733.20	255.17
733.53	254.65
733.86	254.18
734.19	253.70
734.52	253.28
734.85	252.98
735.18	252.50
735.51	252.13
735.84	251.71
736.17	251.33
736.50	250.76
736.83	250.61
737.16	250.21
737.49	249.88
737.82	249.49
738.15	249.14
738.48	248.79
738.81	248.39
739.14	247.94
739.47	247.58
739.80	247.19
740.13	246.85
740.46	246.47
740.79	246.08
741.12	245.68
741.45	245.30
741.78	244.80
742.11	244.54
742.44	244.13
742.77	243.79
743.10	243.44
743.43	243.14
743.75	242.56
744.08	242.44
744.41	242.04
744.74	241.69
745.07	241.31
745.40	240.96
745.73	240.70
746.06	240.44
746.39	240.11
746.71	239.81
747.04	239.46
747.37	239.10
747.70	238.87
748.03	238.57
748.36	238.30
748.68	238.04
749.01	237.68
749.34	237.40
749.67	237.10
750.00	236.82
750.33	236.65
750.65	236.37
750.98	235.89
751.31	235.66
751.64	235.44
751.97	235.29
752.29	235.03
752.62	234.69
752.95	234.45
753.28	234.19
753.60	233.92
753.93	233.74
754.26	233.57
754.59	233.25
754.91	233.01
755.24	232.76
755.57	232.49
755.90	232.24
756.22	231.99
756.55	231.74
756.88	231.50
757.20	231.16
757.53	230.90
757.86	230.71
758.19	230.50
758.51	230.27
758.84	229.96
759.17	229.75
759.49	229.56
759.82	229.45
760.15	229.30
760.47	229.15
760.80	228.90
761.13	228.72
761.45	228.51
761.78	228.33
762.11	228.15
762.43	227.97
762.76	227.81
763.08	227.66
763.41	227.51
763.74	227.34
764.06	227.14
764.39	227.01
764.71	226.82
765.04	226.66
765.37	226.50
765.69	226.39
766.02	226.26
766.34	226.13
766.67	225.86
767.00	225.77
767.32	225.70
767.65	225.66
767.97	225.51
768.30	225.42
768.62	225.30
768.95	225.12
769.27	225.02
769.60	224.93
769.92	224.74
770.25	224.59
770.57	224.44
770.90	224.37
771.22	224.24
771.55	224.12
771.87	224.01
772.20	223.89
772.52	223.92
772.85	224.04
773.17	223.94
773.50	223.82
773.82	223.66
774.15	223.46
774.47	223.24
774.80	223.13
775.12	223.02
775.45	222.92
775.77	222.84
776.09	222.76
776.42	222.65
776.74	222.66
777.07	222.59
777.39	222.51
777.72	222.39
778.04	222.29
778.36	222.19
778.69	222.12
779.01	222.07
779.33	221.84
779.66	221.53
779.98	221.43
780.31	221.36
780.63	221.38
780.95	221.33
781.28	221.27
781.60	221.18
781.92	221.13
782.25	221.06
782.57	221.02
782.89	220.92
783.22	220.86
783.54	220.75
783.86	220.70
784.19	220.63
784.51	220.63
784.83	220.57
785.16	220.48
785.48	220.43
785.80	220.32
786.12	220.25
