SpectraSuite Data File
++++++++++++++++++++++++++++++++++++
Date: Tue Jan 29 16:28:07 EST 2013
User: group
Dark Spectrum Present: No
Reference Spectrum Present: No
Number of Sampled Component Spectra: 1
Spectrometers: USB2E7196
Integration Time (usec): 65000 (USB2E7196)
Spectra Averaged: 100 (USB2E7196)
Boxcar Smoothing: 10 (USB2E7196)
Correct for Electrical Dark: No (USB2E7196)
Strobe/Lamp Enabled: No (USB2E7196)
Correct for Detector Non-linearity: No (USB2E7196)
Correct for Stray Light: No (USB2E7196)
Number of Pixels in Processed Spectrum: 2048
>>>>>Begin Processed Spectral Data<<<<<
339.09	0.00
339.48	202.48
339.86	203.77
340.24	204.68
340.63	206.60
341.01	211.30
341.39	209.04
341.78	210.49
342.16	212.22
342.54	212.38
342.93	201.44
343.31	211.62
343.69	212.13
344.07	212.57
344.46	213.04
344.84	213.43
345.22	213.58
345.60	213.86
345.99	214.08
346.37	214.19
346.75	214.29
347.13	214.37
347.52	214.41
347.90	214.56
348.28	214.62
348.66	214.67
349.05	214.66
349.43	214.69
349.81	214.77
350.19	214.81
350.57	214.88
350.96	214.94
351.34	215.05
351.72	215.17
352.10	215.30
352.48	215.37
352.87	215.42
353.25	215.49
353.63	215.52
354.01	215.56
354.39	215.66
354.77	215.72
355.15	215.84
355.54	215.90
355.92	215.87
356.30	215.93
356.68	216.13
357.06	216.20
357.44	216.23
357.82	216.33
358.20	216.41
358.58	216.46
358.97	216.55
359.35	216.65
359.73	216.77
360.11	216.82
360.49	216.90
360.87	216.95
361.25	217.04
361.63	217.17
362.01	217.23
362.39	217.25
362.77	217.32
363.15	217.34
363.53	217.36
363.91	217.41
364.29	217.43
364.67	217.30
365.05	217.33
365.43	217.40
365.81	217.42
366.19	217.54
366.57	217.63
366.95	217.65
367.33	217.61
367.71	217.59
368.09	217.64
368.47	217.62
368.85	217.59
369.23	217.63
369.61	217.57
369.99	217.66
370.37	217.66
370.75	217.74
371.13	217.69
371.51	217.66
371.89	217.68
372.27	217.66
372.65	217.63
373.03	217.60
373.41	217.56
373.78	217.53
374.16	217.35
374.54	217.28
374.92	217.25
375.30	217.22
375.68	217.13
376.06	217.09
376.44	217.03
376.82	216.99
377.19	216.93
377.57	216.87
377.95	216.73
378.33	216.70
378.71	216.52
379.09	216.55
379.47	216.55
379.84	216.44
380.22	216.40
380.60	216.34
380.98	216.29
381.36	216.24
381.73	216.14
382.11	216.16
382.49	216.09
382.87	216.00
383.25	215.97
383.62	216.15
384.00	216.06
384.38	216.03
384.76	216.07
385.13	216.09
385.51	216.05
385.89	216.00
386.27	215.98
386.64	215.98
387.02	215.90
387.40	215.82
387.78	215.84
388.15	215.83
388.53	215.79
388.91	215.77
389.29	215.72
389.66	215.71
390.04	215.67
390.42	215.72
390.79	215.73
391.17	215.71
391.55	215.48
391.92	215.47
392.30	215.48
392.68	215.40
393.05	215.36
393.43	215.39
393.81	215.40
394.18	215.37
394.56	215.37
394.94	215.43
395.31	215.44
395.69	215.49
396.06	215.52
396.44	215.55
396.82	215.57
397.19	215.71
397.57	215.73
397.95	215.80
398.32	215.74
398.70	215.76
399.07	215.82
399.45	215.87
399.82	215.91
400.20	215.95
400.58	216.02
400.95	216.01
401.33	216.12
401.70	216.33
402.08	216.42
402.45	216.51
402.83	216.61
403.20	216.72
403.58	216.79
403.95	216.93
404.33	217.07
404.71	217.18
405.08	217.44
405.46	217.60
405.83	217.79
406.21	218.01
406.58	218.25
406.96	218.47
407.33	218.74
407.70	219.05
408.08	219.53
408.45	219.88
408.83	220.26
409.20	220.57
409.58	220.84
409.95	221.30
410.33	221.76
410.70	222.19
411.08	222.74
411.45	223.34
411.82	223.92
412.20	224.61
412.57	225.47
412.95	226.02
413.32	226.87
413.69	227.69
414.07	228.58
414.44	229.57
414.82	230.61
415.19	231.75
415.56	232.93
415.94	234.07
416.31	235.51
416.68	236.95
417.06	238.55
417.43	240.10
417.81	241.80
418.18	243.61
418.55	245.54
418.93	247.54
419.30	249.64
419.67	251.88
420.04	254.18
420.42	256.55
420.79	259.38
421.16	262.17
421.54	265.07
421.91	268.07
422.28	271.15
422.66	274.41
423.03	277.66
423.40	281.00
423.77	284.65
424.15	288.26
424.52	292.11
424.89	296.32
425.26	300.39
425.64	304.29
426.01	308.54
426.38	313.04
426.75	317.61
427.13	322.29
427.50	327.22
427.87	332.41
428.24	337.62
428.61	342.60
428.99	348.11
429.36	354.13
429.73	360.01
430.10	365.84
430.47	371.92
430.85	378.28
431.22	384.98
431.59	392.06
431.96	398.87
432.33	406.34
432.70	413.55
433.08	422.03
433.45	430.07
433.82	438.16
434.19	447.00
434.56	455.72
434.93	464.08
435.30	472.38
435.68	481.49
436.05	490.44
436.42	499.29
436.79	507.40
437.16	516.16
437.53	525.41
437.90	534.56
438.27	543.49
438.64	552.68
439.01	561.23
439.38	568.73
439.75	576.00
440.13	584.39
440.50	592.27
440.87	598.72
441.24	605.33
441.61	612.53
441.98	617.86
442.35	624.11
442.72	630.40
443.09	636.42
443.46	640.05
443.83	642.52
444.20	644.70
444.57	647.93
444.94	649.34
445.31	650.78
445.68	652.19
446.05	652.85
446.42	652.02
446.79	651.07
447.16	650.06
447.53	649.37
447.90	645.96
448.27	642.76
448.64	638.15
449.01	634.87
449.37	629.06
449.74	623.46
450.11	616.59
450.48	609.21
450.85	601.77
451.22	595.38
451.59	589.32
451.96	583.53
452.33	575.63
452.70	568.57
453.07	560.09
453.43	551.50
453.80	543.16
454.17	535.21
454.54	527.65
454.91	519.45
455.28	511.51
455.65	504.21
456.02	496.74
456.38	490.42
456.75	482.57
457.12	476.00
457.49	469.52
457.86	463.34
458.23	458.01
458.59	452.12
458.96	446.14
459.33	440.80
459.70	435.46
460.07	431.21
460.43	426.30
460.80	421.76
461.17	417.81
461.54	413.68
461.91	409.64
462.27	405.51
462.64	402.11
463.01	398.26
463.38	394.53
463.74	390.83
464.11	387.57
464.48	384.71
464.85	381.61
465.21	379.15
465.58	376.52
465.95	373.36
466.32	370.74
466.68	368.15
467.05	365.61
467.42	363.06
467.78	360.34
468.15	357.79
468.52	355.87
468.88	353.32
469.25	351.05
469.62	349.28
469.98	347.36
470.35	345.53
470.72	343.89
471.08	342.10
471.45	340.58
471.82	339.02
472.18	337.40
472.55	336.18
472.92	334.83
473.28	333.66
473.65	332.54
474.02	331.46
474.38	330.54
474.75	329.78
475.11	328.95
475.48	328.40
475.85	327.93
476.21	327.46
476.58	327.12
476.94	326.90
477.31	326.60
477.67	326.35
478.04	326.23
478.41	326.20
478.77	326.39
479.14	326.34
479.50	326.49
479.87	326.76
480.23	327.09
480.60	327.29
480.96	327.54
481.33	328.13
481.69	328.64
482.06	329.21
482.42	329.67
482.79	330.29
483.15	331.07
483.52	332.05
483.88	332.91
484.25	333.87
484.61	334.84
484.98	335.92
485.34	337.22
485.71	338.56
486.07	340.00
486.44	341.30
486.80	342.88
487.17	344.56
487.53	346.39
487.90	348.26
488.26	350.32
488.62	352.51
488.99	354.53
489.35	356.71
489.72	359.08
490.08	361.61
490.44	364.15
490.81	366.85
491.17	369.57
491.54	372.59
491.90	375.62
492.26	378.88
492.63	382.34
492.99	385.77
493.36	389.49
493.72	393.29
494.08	397.32
494.45	401.56
494.81	405.95
495.17	410.43
495.54	415.19
495.90	420.06
496.26	424.92
496.63	430.20
496.99	435.61
497.35	441.18
497.72	446.97
498.08	452.95
498.44	459.06
498.80	465.51
499.17	471.98
499.53	478.77
499.89	485.73
500.26	492.69
500.62	499.84
500.98	507.26
501.34	514.85
501.71	522.66
502.07	530.48
502.43	538.51
502.79	546.66
503.16	555.01
503.52	563.60
503.88	572.35
504.24	581.28
504.60	590.41
504.97	599.69
505.33	609.07
505.69	618.99
506.05	628.93
506.41	638.83
506.78	649.01
507.14	659.32
507.50	669.82
507.86	680.61
508.22	691.45
508.59	702.23
508.95	713.31
509.31	724.67
509.67	736.19
510.03	747.71
510.39	759.57
510.75	771.53
511.12	783.62
511.48	795.83
511.84	808.24
512.20	820.67
512.56	833.39
512.92	846.38
513.28	859.13
513.64	872.00
514.00	884.93
514.37	897.96
514.73	911.19
515.09	924.29
515.45	937.31
515.81	950.45
516.17	964.00
516.53	977.37
516.89	990.54
517.25	1003.91
517.61	1017.50
517.97	1030.89
518.33	1044.14
518.69	1057.77
519.05	1071.73
519.41	1085.54
519.77	1099.54
520.13	1112.94
520.49	1126.22
520.85	1139.80
521.21	1153.28
521.57	1167.12
521.93	1180.29
522.29	1194.16
522.65	1207.91
523.01	1221.68
523.37	1235.09
523.73	1248.50
524.09	1261.85
524.45	1275.41
524.81	1289.08
525.17	1302.56
525.53	1316.02
525.89	1329.41
526.25	1342.73
526.61	1355.66
526.97	1368.85
527.33	1381.91
527.68	1395.59
528.04	1409.11
528.40	1422.30
528.76	1435.77
529.12	1448.74
529.48	1462.31
529.84	1474.59
530.20	1487.46
530.56	1500.14
530.91	1513.48
531.27	1526.37
531.63	1539.27
531.99	1552.17
532.35	1564.42
532.71	1576.92
533.07	1589.95
533.42	1602.40
533.78	1614.52
534.14	1626.60
534.50	1637.86
534.86	1649.56
535.21	1660.53
535.57	1672.22
535.93	1683.58
536.29	1694.68
536.65	1706.27
537.00	1717.17
537.36	1728.73
537.72	1739.86
538.08	1751.33
538.44	1762.28
538.79	1773.44
539.15	1784.44
539.51	1795.39
539.87	1806.85
540.22	1817.89
540.58	1828.84
540.94	1839.82
541.29	1850.21
541.65	1860.12
542.01	1870.94
542.37	1881.04
542.72	1891.22
543.08	1900.94
543.44	1911.58
543.79	1921.00
544.15	1930.46
544.51	1940.51
544.87	1950.51
545.22	1959.78
545.58	1968.81
545.94	1977.96
546.29	1986.48
546.65	1994.86
547.01	2003.08
547.36	2010.96
547.72	2018.72
548.07	2026.32
548.43	2034.20
548.79	2042.10
549.14	2050.39
549.50	2058.75
549.86	2066.70
550.21	2074.31
550.57	2082.17
550.92	2089.07
551.28	2096.59
551.64	2103.91
551.99	2111.50
552.35	2118.66
552.70	2125.65
553.06	2132.36
553.41	2138.62
553.77	2145.23
554.13	2151.79
554.48	2158.88
554.84	2165.87
555.19	2172.37
555.55	2178.89
555.90	2185.27
556.26	2192.30
556.61	2198.34
556.97	2203.21
557.32	2209.07
557.68	2215.53
558.03	2221.45
558.39	2226.87
558.74	2232.90
559.10	2238.54
559.45	2244.12
559.81	2249.69
560.16	2255.23
560.52	2261.07
560.87	2267.56
561.23	2273.64
561.58	2280.28
561.94	2285.54
562.29	2290.38
562.64	2296.61
563.00	2302.33
563.35	2307.89
563.71	2313.59
564.06	2319.33
564.42	2325.33
564.77	2330.56
565.12	2335.85
565.48	2340.91
565.83	2346.28
566.19	2351.78
566.54	2357.13
566.89	2361.84
567.25	2366.45
567.60	2372.25
567.96	2377.41
568.31	2381.87
568.66	2386.12
569.02	2390.10
569.37	2393.94
569.72	2398.42
570.08	2401.90
570.43	2404.98
570.78	2408.06
571.14	2410.52
571.49	2413.70
571.84	2417.26
572.20	2420.21
572.55	2423.13
572.90	2425.42
573.26	2428.26
573.61	2430.77
573.96	2433.01
574.31	2435.08
574.67	2437.14
575.02	2437.86
575.37	2439.32
575.72	2440.18
576.08	2441.69
576.43	2441.77
576.78	2442.13
577.13	2443.47
577.49	2444.59
577.84	2445.70
578.19	2447.08
578.54	2447.72
578.90	2448.49
579.25	2448.47
579.60	2448.32
579.95	2447.59
580.30	2447.67
580.66	2447.11
581.01	2445.49
581.36	2443.07
581.71	2441.72
582.06	2440.54
582.42	2439.82
582.77	2437.60
583.12	2435.98
583.47	2434.64
583.82	2434.07
584.17	2432.82
584.53	2430.92
584.88	2428.85
585.23	2426.95
585.58	2424.78
585.93	2422.87
586.28	2420.56
586.63	2418.06
586.98	2415.85
587.34	2413.94
587.69	2411.47
588.04	2409.46
588.39	2408.00
588.74	2405.71
589.09	2402.82
589.44	2399.61
589.79	2396.92
590.14	2394.87
590.49	2391.99
590.84	2388.07
591.19	2384.84
591.54	2381.60
591.89	2377.47
592.25	2374.19
592.60	2369.97
592.95	2365.66
593.30	2361.39
593.65	2357.05
594.00	2352.57
594.35	2349.56
594.70	2344.65
595.05	2340.17
595.40	2334.57
595.75	2328.76
596.10	2324.93
596.45	2320.20
596.80	2315.64
597.15	2310.40
597.50	2304.53
597.85	2299.59
598.19	2294.36
598.54	2288.60
598.89	2283.40
599.24	2278.75
599.59	2272.46
599.94	2266.62
600.29	2260.53
600.64	2254.52
600.99	2247.68
601.34	2242.22
601.69	2235.15
602.04	2228.96
602.39	2222.24
602.74	2216.09
603.08	2210.45
603.43	2204.00
603.78	2197.07
604.13	2189.80
604.48	2182.56
604.83	2176.46
605.18	2170.22
605.53	2163.20
605.87	2156.07
606.22	2149.19
606.57	2141.24
606.92	2133.26
607.27	2126.15
607.62	2119.50
607.96	2112.46
608.31	2105.95
608.66	2098.01
609.01	2090.26
609.36	2083.14
609.70	2075.33
610.05	2067.45
610.40	2059.23
610.75	2050.69
611.10	2042.92
611.44	2034.00
611.79	2025.21
612.14	2015.10
612.49	2004.21
612.83	1994.74
613.18	1985.46
613.53	1976.04
613.88	1966.30
614.22	1957.67
614.57	1947.88
614.92	1937.18
615.27	1926.82
615.61	1916.55
615.96	1906.85
616.31	1897.21
616.65	1887.60
617.00	1877.85
617.35	1868.07
617.70	1858.20
618.04	1848.23
618.39	1837.98
618.74	1828.25
619.08	1818.56
619.43	1809.91
619.78	1801.63
620.12	1793.05
620.47	1783.39
620.82	1772.98
621.16	1763.25
621.51	1753.35
621.85	1743.38
622.20	1733.01
622.55	1722.43
622.89	1712.44
623.24	1702.71
623.59	1692.90
623.93	1682.67
624.28	1672.74
624.62	1662.62
624.97	1652.22
625.32	1642.26
625.66	1633.25
626.01	1624.41
626.35	1614.92
626.70	1604.73
627.04	1594.57
627.39	1584.40
627.73	1575.11
628.08	1566.23
628.43	1556.56
628.77	1547.12
629.12	1538.17
629.46	1530.42
629.81	1521.92
630.15	1512.36
630.50	1502.45
630.84	1491.83
631.19	1481.89
631.53	1472.49
631.88	1462.17
632.22	1452.14
632.57	1442.88
632.91	1432.71
633.26	1422.76
633.60	1413.22
633.95	1403.81
634.29	1394.35
634.64	1384.91
634.98	1374.68
635.32	1365.28
635.67	1356.76
636.01	1347.49
636.36	1337.72
636.70	1328.00
637.05	1318.54
637.39	1309.60
637.73	1300.91
638.08	1293.36
638.42	1285.18
638.77	1276.44
639.11	1268.22
639.45	1260.33
639.80	1251.66
640.14	1242.93
640.49	1234.01
640.83	1224.99
641.17	1216.78
641.52	1208.41
641.86	1199.74
642.20	1192.03
642.55	1183.15
642.89	1174.23
643.23	1165.52
643.58	1157.28
643.92	1148.19
644.26	1139.49
644.61	1130.97
644.95	1122.05
645.29	1112.75
645.64	1103.51
645.98	1094.83
646.32	1086.81
646.66	1078.25
647.01	1069.79
647.35	1061.52
647.69	1053.16
648.04	1044.87
648.38	1035.89
648.72	1027.06
649.06	1018.52
649.41	1010.13
649.75	1002.19
650.09	994.16
650.43	986.04
650.78	977.67
651.12	969.87
651.46	962.31
651.80	954.90
652.14	947.58
652.49	939.97
652.83	932.54
653.17	924.78
653.51	917.08
653.85	909.71
654.20	902.38
654.54	894.83
654.88	887.51
655.22	880.16
655.56	873.04
655.90	866.20
656.25	859.45
656.59	852.50
656.93	845.43
657.27	838.29
657.61	831.24
657.95	825.09
658.29	819.04
658.64	812.95
658.98	806.50
659.32	799.84
659.66	793.53
660.00	787.08
660.34	781.03
660.68	774.84
661.02	768.42
661.36	762.39
661.70	756.52
662.05	750.80
662.39	745.30
662.73	739.90
663.07	734.49
663.41	728.76
663.75	722.98
664.09	717.29
664.43	711.77
664.77	706.32
665.11	700.46
665.45	694.53
665.79	688.56
666.13	682.74
666.47	677.26
666.81	671.75
667.15	666.34
667.49	661.06
667.83	655.77
668.17	650.54
668.51	645.42
668.85	640.50
669.19	635.54
669.53	630.46
669.87	625.23
670.21	620.42
670.55	615.76
670.89	611.25
671.23	606.81
671.57	602.34
671.91	598.00
672.25	593.76
672.58	589.60
672.92	585.57
673.26	581.62
673.60	577.67
673.94	573.76
674.28	570.09
674.62	566.30
674.96	562.48
675.30	558.91
675.64	555.15
675.97	551.47
676.31	547.73
676.65	544.03
676.99	540.61
677.33	536.69
677.67	532.92
678.01	529.01
678.34	525.36
678.68	521.82
679.02	518.23
679.36	514.48
679.70	510.76
680.04	507.13
680.37	503.61
680.71	500.24
681.05	497.03
681.39	493.69
681.73	490.42
682.06	487.33
682.40	484.13
682.74	480.86
683.08	477.57
683.42	474.34
683.75	471.34
684.09	468.22
684.43	465.44
684.77	462.50
685.10	459.62
685.44	456.62
685.78	453.63
686.12	450.74
686.45	447.89
686.79	445.26
687.13	442.67
687.46	440.03
687.80	437.25
688.14	434.35
688.48	431.61
688.81	428.89
689.15	426.27
689.49	423.66
689.82	421.13
690.16	418.51
690.50	416.04
690.83	413.53
691.17	411.02
691.51	408.46
691.84	406.13
692.18	403.86
692.52	401.62
692.85	399.49
693.19	397.36
693.52	395.22
693.86	392.93
694.20	390.73
694.53	388.53
694.87	386.33
695.21	384.18
695.54	382.05
695.88	379.85
696.21	377.57
696.55	375.40
696.88	373.33
697.22	371.34
697.56	369.47
697.89	367.56
698.23	365.73
698.56	363.94
698.90	362.15
699.23	360.26
699.57	358.37
699.90	356.47
700.24	354.57
700.58	352.81
700.91	351.12
701.25	349.47
701.58	347.86
701.92	346.25
702.25	344.59
702.59	342.94
702.92	341.39
703.26	339.86
703.59	338.39
703.93	337.06
704.26	335.60
704.60	334.04
704.93	332.54
705.26	331.05
705.60	329.57
705.93	328.03
706.27	326.67
706.60	325.34
706.94	324.08
707.27	322.68
707.61	321.31
707.94	319.92
708.27	318.42
708.61	316.95
708.94	315.57
709.28	314.25
709.61	312.99
709.94	311.80
710.28	310.59
710.61	309.36
710.95	307.94
711.28	306.84
711.61	305.64
711.95	304.47
712.28	303.23
712.61	302.00
712.95	300.93
713.28	299.86
713.61	298.74
713.95	297.60
714.28	296.59
714.61	295.53
714.95	294.51
715.28	293.44
715.61	292.38
715.95	291.39
716.28	290.45
716.61	289.46
716.95	288.40
717.28	287.41
717.61	286.42
717.94	285.51
718.28	284.53
718.61	283.65
718.94	282.71
719.27	281.85
719.61	281.02
719.94	280.14
720.27	279.16
720.60	278.24
720.94	277.42
721.27	276.63
721.60	275.95
721.93	275.26
722.27	274.63
722.60	273.98
722.93	273.27
723.26	272.60
723.59	271.91
723.93	271.30
724.26	270.67
724.59	270.03
724.92	269.43
725.25	268.84
725.59	268.23
725.92	267.70
726.25	267.10
726.58	266.51
726.91	265.90
727.24	265.37
727.57	264.82
727.91	264.19
728.24	263.64
728.57	263.01
728.90	262.42
729.23	261.81
729.56	261.36
729.89	260.82
730.22	260.26
730.55	259.73
730.89	259.18
731.22	258.63
731.55	258.11
731.88	257.56
732.21	256.96
732.54	256.43
732.87	255.88
733.20	255.37
733.53	254.90
733.86	254.45
734.19	253.95
734.52	253.52
734.85	253.22
735.18	252.74
735.51	252.37
735.84	251.92
736.17	251.52
736.50	250.98
736.83	250.81
737.16	250.39
737.49	249.97
737.82	249.57
738.15	249.19
738.48	248.79
738.81	248.44
739.14	248.06
739.47	247.70
739.80	247.36
740.13	247.04
740.46	246.63
740.79	246.23
741.12	245.86
741.45	245.52
741.78	245.09
742.11	244.81
742.44	244.41
742.77	244.13
743.10	243.75
743.43	243.37
743.75	242.78
744.08	242.73
744.41	242.42
744.74	242.06
745.07	241.71
745.40	241.44
745.73	241.17
746.06	240.85
746.39	240.49
746.71	240.10
747.04	239.75
747.37	239.42
747.70	239.15
748.03	238.88
748.36	238.58
748.68	238.26
749.01	237.89
749.34	237.64
749.67	237.33
750.00	237.10
750.33	236.99
750.65	236.74
750.98	236.21
751.31	235.96
751.64	235.70
751.97	235.57
752.29	235.30
752.62	234.93
752.95	234.65
753.28	234.40
753.60	234.16
753.93	233.98
754.26	233.76
754.59	233.49
754.91	233.23
755.24	232.99
755.57	232.75
755.90	232.52
756.22	232.22
756.55	231.97
756.88	231.73
757.20	231.35
757.53	231.10
757.86	230.88
758.19	230.66
758.51	230.44
758.84	230.11
759.17	229.85
759.49	229.69
759.82	229.62
760.15	229.46
760.47	229.28
760.80	229.04
761.13	228.89
761.45	228.69
761.78	228.47
762.11	228.26
762.43	228.07
762.76	227.88
763.08	227.77
763.41	227.62
763.74	227.47
764.06	227.36
764.39	227.23
764.71	227.06
765.04	226.88
765.37	226.74
765.69	226.60
766.02	226.46
766.34	226.32
766.67	226.07
767.00	225.96
767.32	225.94
767.65	225.90
767.97	225.76
768.30	225.66
768.62	225.55
768.95	225.42
769.27	225.32
769.60	225.25
769.92	225.08
770.25	224.90
770.57	224.70
770.90	224.54
771.22	224.37
771.55	224.25
771.87	224.15
772.20	224.01
772.52	224.06
772.85	224.22
773.17	224.07
773.50	223.99
773.82	223.88
774.15	223.69
774.47	223.45
774.80	223.33
775.12	223.22
775.45	223.11
775.77	223.01
776.09	222.95
776.42	222.86
776.74	222.84
777.07	222.74
777.39	222.67
777.72	222.57
778.04	222.53
778.36	222.42
778.69	222.35
779.01	222.31
779.33	222.05
779.66	221.74
779.98	221.65
780.31	221.54
780.63	221.54
780.95	221.50
781.28	221.45
781.60	221.36
781.92	221.28
782.25	221.23
782.57	221.15
782.89	221.07
783.22	220.98
783.54	220.89
783.86	220.87
784.19	220.79
784.51	220.80
784.83	220.70
785.16	220.64
785.48	220.59
785.80	220.55
786.12	220.50
