SpectraSuite Data File
++++++++++++++++++++++++++++++++++++
Date: Tue Jan 29 16:25:47 EST 2013
User: group
Dark Spectrum Present: No
Reference Spectrum Present: No
Number of Sampled Component Spectra: 1
Spectrometers: USB2E7196
Integration Time (usec): 65000 (USB2E7196)
Spectra Averaged: 100 (USB2E7196)
Boxcar Smoothing: 10 (USB2E7196)
Correct for Electrical Dark: No (USB2E7196)
Strobe/Lamp Enabled: No (USB2E7196)
Correct for Detector Non-linearity: No (USB2E7196)
Correct for Stray Light: No (USB2E7196)
Number of Pixels in Processed Spectrum: 2048
>>>>>Begin Processed Spectral Data<<<<<
339.09	0.00
339.48	201.85
339.86	203.21
340.24	204.74
340.63	206.51
341.01	210.96
341.39	208.74
341.78	210.90
342.16	212.32
342.54	211.89
342.93	201.42
343.31	211.57
343.69	212.16
344.07	212.66
344.46	213.12
344.84	213.50
345.22	213.69
345.60	213.97
345.99	214.14
346.37	214.27
346.75	214.39
347.13	214.45
347.52	214.54
347.90	214.66
348.28	214.66
348.66	214.74
349.05	214.72
349.43	214.80
349.81	214.89
350.19	214.94
350.57	214.99
350.96	215.07
351.34	215.23
351.72	215.29
352.10	215.41
352.48	215.47
352.87	215.54
353.25	215.60
353.63	215.66
354.01	215.74
354.39	215.85
354.77	215.96
355.15	216.12
355.54	216.14
355.92	216.16
356.30	216.29
356.68	216.47
357.06	216.53
357.44	216.58
357.82	216.62
358.20	216.71
358.58	216.79
358.97	216.85
359.35	216.92
359.73	217.06
360.11	217.10
360.49	217.16
360.87	217.22
361.25	217.31
361.63	217.44
362.01	217.53
362.39	217.54
362.77	217.58
363.15	217.60
363.53	217.65
363.91	217.68
364.29	217.67
364.67	217.52
365.05	217.57
365.43	217.60
365.81	217.66
366.19	217.73
366.57	217.81
366.95	217.81
367.33	217.74
367.71	217.71
368.09	217.76
368.47	217.76
368.85	217.74
369.23	217.77
369.61	217.71
369.99	217.73
370.37	217.75
370.75	217.84
371.13	217.77
371.51	217.75
371.89	217.77
372.27	217.77
372.65	217.76
373.03	217.74
373.41	217.71
373.78	217.66
374.16	217.52
374.54	217.44
374.92	217.40
375.30	217.40
375.68	217.31
376.06	217.26
376.44	217.21
376.82	217.20
377.19	217.10
377.57	217.03
377.95	216.91
378.33	216.83
378.71	216.63
379.09	216.59
379.47	216.54
379.84	216.43
380.22	216.37
380.60	216.30
380.98	216.19
381.36	216.14
381.73	216.06
382.11	216.06
382.49	216.00
382.87	215.92
383.25	215.88
383.62	216.10
384.00	216.04
384.38	216.03
384.76	216.00
385.13	216.08
385.51	216.05
385.89	215.97
386.27	215.94
386.64	215.94
387.02	215.89
387.40	215.86
387.78	215.87
388.15	215.85
388.53	215.84
388.91	215.84
389.29	215.80
389.66	215.81
390.04	215.73
390.42	215.76
390.79	215.75
391.17	215.74
391.55	215.48
391.92	215.43
392.30	215.44
392.68	215.39
393.05	215.35
393.43	215.36
393.81	215.37
394.18	215.34
394.56	215.38
394.94	215.42
395.31	215.43
395.69	215.44
396.06	215.44
396.44	215.46
396.82	215.46
397.19	215.60
397.57	215.62
397.95	215.71
398.32	215.65
398.70	215.71
399.07	215.79
399.45	215.84
399.82	215.89
400.20	215.94
400.58	216.01
400.95	215.99
401.33	216.07
401.70	216.30
402.08	216.41
402.45	216.48
402.83	216.64
403.20	216.71
403.58	216.81
403.95	217.01
404.33	217.17
404.71	217.33
405.08	217.60
405.46	217.76
405.83	217.93
406.21	218.19
406.58	218.41
406.96	218.64
407.33	218.91
407.70	219.20
408.08	219.65
408.45	219.98
408.83	220.40
409.20	220.77
409.58	221.04
409.95	221.47
410.33	221.96
410.70	222.40
411.08	222.98
411.45	223.55
411.82	224.12
412.20	224.80
412.57	225.61
412.95	226.16
413.32	226.99
413.69	227.82
414.07	228.69
414.44	229.67
414.82	230.66
415.19	231.80
415.56	232.98
415.94	234.15
416.31	235.53
416.68	236.90
417.06	238.51
417.43	240.06
417.81	241.76
418.18	243.51
418.55	245.45
418.93	247.48
419.30	249.63
419.67	251.84
420.04	254.08
420.42	256.46
420.79	259.28
421.16	262.05
421.54	264.96
421.91	267.96
422.28	271.08
422.66	274.35
423.03	277.59
423.40	280.95
423.77	284.49
424.15	288.16
424.52	291.97
424.89	296.06
425.26	300.12
425.64	304.03
426.01	308.29
426.38	312.76
426.75	317.22
427.13	321.87
427.50	326.79
427.87	332.00
428.24	337.19
428.61	342.17
428.99	347.65
429.36	353.60
429.73	359.49
430.10	365.36
430.47	371.44
430.85	377.73
431.22	384.46
431.59	391.54
431.96	398.37
432.33	405.83
432.70	413.11
433.08	421.57
433.45	429.60
433.82	437.57
434.19	446.37
434.56	455.08
434.93	463.36
435.30	471.59
435.68	480.69
436.05	489.64
436.42	498.47
436.79	506.63
437.16	515.36
437.53	524.56
437.90	533.61
438.27	542.50
438.64	551.70
439.01	560.13
439.38	567.70
439.75	574.90
440.13	583.33
440.50	591.21
440.87	597.60
441.24	604.24
441.61	611.56
441.98	616.95
442.35	623.28
442.72	629.72
443.09	635.83
443.46	639.51
443.83	641.99
444.20	644.24
444.57	647.37
444.94	648.86
445.31	650.26
445.68	651.70
446.05	652.30
446.42	651.54
446.79	650.64
447.16	649.58
447.53	648.93
447.90	645.60
448.27	642.37
448.64	637.73
449.01	634.40
449.37	628.57
449.74	622.91
450.11	615.97
450.48	608.51
450.85	601.03
451.22	594.61
451.59	588.49
451.96	582.61
452.33	574.77
452.70	567.70
453.07	559.26
453.43	550.67
453.80	542.41
454.17	534.37
454.54	526.82
454.91	518.67
455.28	510.67
455.65	503.27
456.02	495.77
456.38	489.50
456.75	481.68
457.12	475.10
457.49	468.61
457.86	462.46
458.23	457.10
458.59	451.18
458.96	445.22
459.33	439.96
459.70	434.63
460.07	430.34
460.43	425.43
460.80	420.90
461.17	416.88
461.54	412.72
461.91	408.77
462.27	404.68
462.64	401.27
463.01	397.50
463.38	393.82
463.74	390.13
464.11	386.90
464.48	384.10
464.85	381.00
465.21	378.61
465.58	375.99
465.95	372.84
466.32	370.25
466.68	367.62
467.05	365.02
467.42	362.44
467.78	359.83
468.15	357.30
468.52	355.40
468.88	352.92
469.25	350.73
469.62	348.94
469.98	346.95
470.35	345.15
470.72	343.48
471.08	341.69
471.45	340.21
471.82	338.68
472.18	336.99
472.55	335.83
472.92	334.44
473.28	333.24
473.65	332.09
474.02	330.98
474.38	330.14
474.75	329.39
475.11	328.62
475.48	328.04
475.85	327.59
476.21	327.08
476.58	326.75
476.94	326.49
477.31	326.21
477.67	325.98
478.04	325.83
478.41	325.80
478.77	325.95
479.14	325.88
479.50	326.01
479.87	326.28
480.23	326.56
480.60	326.80
480.96	327.08
481.33	327.73
481.69	328.31
482.06	328.82
482.42	329.29
482.79	329.89
483.15	330.68
483.52	331.65
483.88	332.54
484.25	333.48
484.61	334.48
484.98	335.48
485.34	336.83
485.71	338.21
486.07	339.62
486.44	340.95
486.80	342.60
487.17	344.31
487.53	346.17
487.90	348.12
488.26	350.19
488.62	352.37
488.99	354.41
489.35	356.58
489.72	358.95
490.08	361.52
490.44	364.09
490.81	366.79
491.17	369.51
491.54	372.51
491.90	375.54
492.26	378.85
492.63	382.32
492.99	385.77
493.36	389.45
493.72	393.36
494.08	397.42
494.45	401.61
494.81	405.96
495.17	410.42
495.54	415.08
495.90	419.89
496.26	424.76
496.63	430.00
496.99	435.45
497.35	441.10
497.72	446.93
498.08	452.90
498.44	459.06
498.80	465.48
499.17	472.03
499.53	478.80
499.89	485.67
500.26	492.70
500.62	499.84
500.98	507.30
501.34	514.78
501.71	522.56
502.07	530.45
502.43	538.50
502.79	546.69
503.16	555.11
503.52	563.75
503.88	572.57
504.24	581.63
504.60	590.73
504.97	600.01
505.33	609.35
505.69	619.28
506.05	629.20
506.41	639.17
506.78	649.30
507.14	659.59
507.50	670.21
507.86	680.96
508.22	691.91
508.59	702.65
508.95	713.86
509.31	725.22
509.67	736.82
510.03	748.38
510.39	760.26
510.75	772.17
511.12	784.18
511.48	796.34
511.84	808.57
512.20	821.02
512.56	833.76
512.92	846.62
513.28	859.39
513.64	872.24
514.00	885.16
514.37	898.28
514.73	911.55
515.09	924.58
515.45	937.67
515.81	950.68
516.17	964.17
516.53	977.51
516.89	990.74
517.25	1003.93
517.61	1017.47
517.97	1030.95
518.33	1044.18
518.69	1057.84
519.05	1071.72
519.41	1085.61
519.77	1099.64
520.13	1113.03
520.49	1126.35
520.85	1139.81
521.21	1153.30
521.57	1167.11
521.93	1180.28
522.29	1194.27
522.65	1208.06
523.01	1221.80
523.37	1235.20
523.73	1248.58
524.09	1261.83
524.45	1275.39
524.81	1289.09
525.17	1302.68
525.53	1316.05
525.89	1329.56
526.25	1342.79
526.61	1355.79
526.97	1369.03
527.33	1382.07
527.68	1395.69
528.04	1409.27
528.40	1422.50
528.76	1435.99
529.12	1449.01
529.48	1462.42
529.84	1474.60
530.20	1487.50
530.56	1500.17
530.91	1513.52
531.27	1526.60
531.63	1539.43
531.99	1552.29
532.35	1564.62
532.71	1577.10
533.07	1590.02
533.42	1602.37
533.78	1614.64
534.14	1626.77
534.50	1638.09
534.86	1649.81
535.21	1660.74
535.57	1672.36
535.93	1683.67
536.29	1694.79
536.65	1706.37
537.00	1717.45
537.36	1728.94
537.72	1739.91
538.08	1751.38
538.44	1762.38
538.79	1773.46
539.15	1784.49
539.51	1795.32
539.87	1806.74
540.22	1817.70
540.58	1828.70
540.94	1839.75
541.29	1850.15
541.65	1859.99
542.01	1870.41
542.37	1880.43
542.72	1890.60
543.08	1900.53
543.44	1911.33
543.79	1920.74
544.15	1930.25
544.51	1940.25
544.87	1950.21
545.22	1959.61
545.58	1968.49
545.94	1977.41
546.29	1985.97
546.65	1994.38
547.01	2002.77
547.36	2010.41
547.72	2018.17
548.07	2025.77
548.43	2033.51
548.79	2041.37
549.14	2049.64
549.50	2058.36
549.86	2066.44
550.21	2074.03
550.57	2081.77
550.92	2088.47
551.28	2096.06
551.64	2103.35
551.99	2110.91
552.35	2118.20
552.70	2125.03
553.06	2131.92
553.41	2138.39
553.77	2144.94
554.13	2151.43
554.48	2158.37
554.84	2165.57
555.19	2172.11
555.55	2178.67
555.90	2185.11
556.26	2192.10
556.61	2198.25
556.97	2202.94
557.32	2208.75
557.68	2215.27
558.03	2221.03
558.39	2226.41
558.74	2232.40
559.10	2237.91
559.45	2243.46
559.81	2248.93
560.16	2254.53
560.52	2260.37
560.87	2266.82
561.23	2272.94
561.58	2279.63
561.94	2284.93
562.29	2289.70
562.64	2295.87
563.00	2301.71
563.35	2307.26
563.71	2312.96
564.06	2318.66
564.42	2324.74
564.77	2329.84
565.12	2335.18
565.48	2340.37
565.83	2346.03
566.19	2351.35
566.54	2356.89
566.89	2361.45
567.25	2366.21
567.60	2371.99
567.96	2377.21
568.31	2381.83
568.66	2386.18
569.02	2390.15
569.37	2394.00
569.72	2398.52
570.08	2402.02
570.43	2404.97
570.78	2408.21
571.14	2410.71
571.49	2413.80
571.84	2417.46
572.20	2420.46
572.55	2423.37
572.90	2425.72
573.26	2428.54
573.61	2431.31
573.96	2433.51
574.31	2435.78
574.67	2437.75
575.02	2438.69
575.37	2440.17
575.72	2440.76
576.08	2442.21
576.43	2442.45
576.78	2442.90
577.13	2444.56
577.49	2445.73
577.84	2446.85
578.19	2448.14
578.54	2448.79
578.90	2449.60
579.25	2449.41
579.60	2449.54
579.95	2448.84
580.30	2448.95
580.66	2448.14
581.01	2446.46
581.36	2444.09
581.71	2442.75
582.06	2441.53
582.42	2440.55
582.77	2438.37
583.12	2436.96
583.47	2435.49
583.82	2434.94
584.17	2433.64
584.53	2431.49
584.88	2429.54
585.23	2427.81
585.58	2425.55
585.93	2423.53
586.28	2421.42
586.63	2419.04
586.98	2416.67
587.34	2414.80
587.69	2412.35
588.04	2410.38
588.39	2408.78
588.74	2406.40
589.09	2403.71
589.44	2400.56
589.79	2398.19
590.14	2396.26
590.49	2393.38
590.84	2389.51
591.19	2386.35
591.54	2383.41
591.89	2379.35
592.25	2375.92
592.60	2371.63
592.95	2367.40
593.30	2363.23
593.65	2358.80
594.00	2354.37
594.35	2351.35
594.70	2346.54
595.05	2341.98
595.40	2336.59
595.75	2331.01
596.10	2327.31
596.45	2322.40
596.80	2317.88
597.15	2312.68
597.50	2306.64
597.85	2301.61
598.19	2296.40
598.54	2290.64
598.89	2285.19
599.24	2280.63
599.59	2274.52
599.94	2268.66
600.29	2262.71
600.64	2256.91
600.99	2249.98
601.34	2244.54
601.69	2237.39
602.04	2231.05
602.39	2224.37
602.74	2218.19
603.08	2212.56
603.43	2205.99
603.78	2199.07
604.13	2191.83
604.48	2184.31
604.83	2178.22
605.18	2172.16
605.53	2165.29
605.87	2158.19
606.22	2151.35
606.57	2143.20
606.92	2135.31
607.27	2128.30
607.62	2121.69
607.96	2114.60
608.31	2108.19
608.66	2100.34
609.01	2092.90
609.36	2085.63
609.70	2077.78
610.05	2070.10
610.40	2061.66
610.75	2053.30
611.10	2045.57
611.44	2036.70
611.79	2028.12
612.14	2017.96
612.49	2007.05
612.83	1997.47
613.18	1988.10
613.53	1978.82
613.88	1969.26
614.22	1960.56
614.57	1950.73
614.92	1940.01
615.27	1929.61
615.61	1919.39
615.96	1909.60
616.31	1899.77
616.65	1890.32
617.00	1880.57
617.35	1870.64
617.70	1860.86
618.04	1850.64
618.39	1840.31
618.74	1830.54
619.08	1820.74
619.43	1812.10
619.78	1803.75
620.12	1795.25
620.47	1785.53
620.82	1775.10
621.16	1765.28
621.51	1755.26
621.85	1745.25
622.20	1734.88
622.55	1724.26
622.89	1714.35
623.24	1704.62
623.59	1694.76
623.93	1684.55
624.28	1674.69
624.62	1664.45
624.97	1654.11
625.32	1644.24
625.66	1635.37
626.01	1626.55
626.35	1617.05
626.70	1606.72
627.04	1596.58
627.39	1586.25
627.73	1576.88
628.08	1567.83
628.43	1558.11
628.77	1548.83
629.12	1539.85
629.46	1531.89
629.81	1523.49
630.15	1513.77
630.50	1503.81
630.84	1493.24
631.19	1483.24
631.53	1473.88
631.88	1463.70
632.22	1453.57
632.57	1444.21
632.91	1433.88
633.26	1423.87
633.60	1414.26
633.95	1404.97
634.29	1395.38
634.64	1386.05
634.98	1375.96
635.32	1366.58
635.67	1358.05
636.01	1348.66
636.36	1338.79
636.70	1329.15
637.05	1319.64
637.39	1310.73
637.73	1302.04
638.08	1294.35
638.42	1286.05
638.77	1277.16
639.11	1268.90
639.45	1261.04
639.80	1252.37
640.14	1243.64
640.49	1234.75
640.83	1225.83
641.17	1217.60
641.52	1209.38
641.86	1200.76
642.20	1192.83
642.55	1184.05
642.89	1175.04
643.23	1166.26
643.58	1158.05
643.92	1148.93
644.26	1140.19
644.61	1131.62
644.95	1122.71
645.29	1113.39
645.64	1104.14
645.98	1095.45
646.32	1087.48
646.66	1078.86
647.01	1070.50
647.35	1062.26
647.69	1053.90
648.04	1045.53
648.38	1036.53
648.72	1027.64
649.06	1018.99
649.41	1010.60
649.75	1002.60
650.09	994.62
650.43	986.46
650.78	978.07
651.12	970.23
651.46	962.73
651.80	955.29
652.14	947.88
652.49	940.29
652.83	932.88
653.17	925.17
653.51	917.35
653.85	910.07
654.20	902.72
654.54	895.12
654.88	887.70
655.22	880.39
655.56	873.26
655.90	866.37
656.25	859.60
656.59	852.72
656.93	845.57
657.27	838.38
657.61	831.25
657.95	825.07
658.29	819.12
658.64	812.83
658.98	806.32
659.32	799.70
659.66	793.40
660.00	786.98
660.34	780.88
660.68	774.63
661.02	768.24
661.36	762.13
661.70	756.27
662.05	750.57
662.39	745.05
662.73	739.65
663.07	734.30
663.41	728.61
663.75	722.91
664.09	717.12
664.43	711.60
664.77	706.23
665.11	700.37
665.45	694.33
665.79	688.53
666.13	682.80
666.47	677.25
666.81	671.73
667.15	666.28
667.49	660.93
667.83	655.65
668.17	650.23
668.51	645.04
668.85	639.98
669.19	634.97
669.53	629.89
669.87	624.69
670.21	619.77
670.55	615.01
670.89	610.40
671.23	606.14
671.57	601.72
671.91	597.42
672.25	593.16
672.58	589.03
672.92	584.82
673.26	580.82
673.60	576.90
673.94	573.01
674.28	569.31
674.62	565.64
674.96	561.79
675.30	558.28
675.64	554.58
675.97	551.00
676.31	547.37
676.65	543.65
676.99	540.18
677.33	536.26
677.67	532.57
678.01	528.68
678.34	524.94
678.68	521.38
679.02	517.74
679.36	514.03
679.70	510.27
680.04	506.71
680.37	503.22
680.71	499.81
681.05	496.57
681.39	493.26
681.73	489.96
682.06	486.88
682.40	483.75
682.74	480.55
683.08	477.26
683.42	474.03
683.75	470.98
684.09	467.90
684.43	465.09
684.77	462.14
685.10	459.26
685.44	456.27
685.78	453.29
686.12	450.49
686.45	447.66
686.79	445.02
687.13	442.45
687.46	439.73
687.80	437.02
688.14	434.18
688.48	431.51
688.81	428.79
689.15	426.22
689.49	423.52
689.82	420.94
690.16	418.29
690.50	415.87
690.83	413.38
691.17	410.81
691.51	408.30
691.84	406.01
692.18	403.77
692.52	401.51
692.85	399.30
693.19	397.12
693.52	394.96
693.86	392.71
694.20	390.45
694.53	388.28
694.87	386.04
695.21	383.85
695.54	381.67
695.88	379.51
696.21	377.25
696.55	375.09
696.88	373.01
697.22	371.02
697.56	369.08
697.89	367.11
698.23	365.33
698.56	363.48
698.90	361.70
699.23	359.76
699.57	357.86
699.90	355.99
700.24	354.17
700.58	352.40
700.91	350.66
701.25	349.09
701.58	347.54
701.92	345.92
702.25	344.30
702.59	342.64
702.92	341.06
703.26	339.55
703.59	338.11
703.93	336.81
704.26	335.33
704.60	333.76
704.93	332.28
705.26	330.77
705.60	329.28
705.93	327.73
706.27	326.35
706.60	325.09
706.94	323.83
707.27	322.43
707.61	321.08
707.94	319.75
708.27	318.21
708.61	316.70
708.94	315.31
709.28	314.01
709.61	312.75
709.94	311.53
710.28	310.28
710.61	309.04
710.95	307.64
711.28	306.56
711.61	305.41
711.95	304.28
712.28	303.04
712.61	301.85
712.95	300.77
713.28	299.72
713.61	298.53
713.95	297.38
714.28	296.33
714.61	295.24
714.95	294.16
715.28	293.12
715.61	292.08
715.95	291.11
716.28	290.13
716.61	289.14
716.95	288.12
717.28	287.15
717.61	286.19
717.94	285.25
718.28	284.17
718.61	283.24
718.94	282.34
719.27	281.49
719.61	280.67
719.94	279.81
720.27	278.82
720.60	277.98
720.94	277.18
721.27	276.41
721.60	275.73
721.93	275.05
722.27	274.41
722.60	273.74
722.93	273.01
723.26	272.37
723.59	271.67
723.93	271.05
724.26	270.40
724.59	269.72
724.92	269.11
725.25	268.59
725.59	267.99
725.92	267.40
726.25	266.80
726.58	266.24
726.91	265.62
727.24	265.11
727.57	264.54
727.91	263.92
728.24	263.36
728.57	262.78
728.90	262.20
729.23	261.59
729.56	261.17
729.89	260.64
730.22	260.04
730.55	259.53
730.89	259.02
731.22	258.50
731.55	258.00
731.88	257.48
732.21	256.94
732.54	256.39
732.87	255.89
733.20	255.39
733.53	254.87
733.86	254.43
734.19	253.91
734.52	253.50
734.85	253.23
735.18	252.73
735.51	252.33
735.84	251.92
736.17	251.56
736.50	250.97
736.83	250.81
737.16	250.45
737.49	250.05
737.82	249.60
738.15	249.22
738.48	248.82
738.81	248.40
739.14	247.96
739.47	247.59
739.80	247.20
740.13	246.85
740.46	246.45
740.79	246.03
741.12	245.68
741.45	245.28
741.78	244.81
742.11	244.56
742.44	244.19
742.77	243.85
743.10	243.46
743.43	243.16
743.75	242.57
744.08	242.52
744.41	242.16
744.74	241.81
745.07	241.41
745.40	241.10
745.73	240.84
746.06	240.55
746.39	240.25
746.71	239.91
747.04	239.58
747.37	239.27
747.70	239.02
748.03	238.73
748.36	238.48
748.68	238.16
749.01	237.78
749.34	237.46
749.67	237.15
750.00	236.89
750.33	236.73
750.65	236.47
750.98	235.91
751.31	235.66
751.64	235.42
751.97	235.32
752.29	235.09
752.62	234.76
752.95	234.49
753.28	234.20
753.60	233.98
753.93	233.83
754.26	233.62
754.59	233.29
754.91	233.01
755.24	232.78
755.57	232.55
755.90	232.35
756.22	232.14
756.55	231.93
756.88	231.66
757.20	231.33
757.53	231.08
757.86	230.87
758.19	230.65
758.51	230.45
758.84	230.14
759.17	229.88
759.49	229.70
759.82	229.62
760.15	229.48
760.47	229.26
760.80	229.01
761.13	228.84
761.45	228.69
761.78	228.55
762.11	228.32
762.43	228.16
762.76	227.97
763.08	227.82
763.41	227.67
763.74	227.57
764.06	227.41
764.39	227.25
764.71	227.13
765.04	226.97
765.37	226.79
765.69	226.70
766.02	226.57
766.34	226.42
766.67	226.22
767.00	226.13
767.32	226.15
767.65	226.11
767.97	225.95
768.30	225.82
768.62	225.71
768.95	225.58
769.27	225.41
769.60	225.30
769.92	225.10
770.25	224.90
770.57	224.74
770.90	224.61
771.22	224.47
771.55	224.32
771.87	224.22
772.20	224.12
772.52	224.12
772.85	224.28
773.17	224.17
773.50	224.05
773.82	223.87
774.15	223.64
774.47	223.43
774.80	223.30
775.12	223.20
775.45	223.07
775.77	222.98
776.09	222.95
776.42	222.89
776.74	222.86
777.07	222.80
777.39	222.68
777.72	222.59
778.04	222.53
778.36	222.43
778.69	222.36
779.01	222.29
779.33	222.04
779.66	221.70
779.98	221.60
780.31	221.50
780.63	221.52
780.95	221.51
781.28	221.40
781.60	221.33
781.92	221.27
782.25	221.23
782.57	221.19
782.89	221.09
783.22	220.99
783.54	220.90
783.86	220.84
784.19	220.79
784.51	220.76
784.83	220.69
785.16	220.67
785.48	220.61
785.80	220.53
786.12	220.48
