SpectraSuite Data File
++++++++++++++++++++++++++++++++++++
Date: Tue Jan 29 16:22:46 EST 2013
User: group
Dark Spectrum Present: No
Reference Spectrum Present: No
Number of Sampled Component Spectra: 1
Spectrometers: USB2E7196
Integration Time (usec): 65000 (USB2E7196)
Spectra Averaged: 100 (USB2E7196)
Boxcar Smoothing: 10 (USB2E7196)
Correct for Electrical Dark: No (USB2E7196)
Strobe/Lamp Enabled: No (USB2E7196)
Correct for Detector Non-linearity: No (USB2E7196)
Correct for Stray Light: No (USB2E7196)
Number of Pixels in Processed Spectrum: 2048
>>>>>Begin Processed Spectral Data<<<<<
339.09	0.00
339.48	201.96
339.86	203.45
340.24	204.72
340.63	206.90
341.01	210.64
341.39	209.07
341.78	210.06
342.16	212.16
342.54	211.75
342.93	201.16
343.31	211.32
343.69	211.87
344.07	212.36
344.46	212.79
344.84	213.14
345.22	213.31
345.60	213.59
345.99	213.79
346.37	213.88
346.75	214.00
347.13	214.05
347.52	214.11
347.90	214.26
348.28	214.30
348.66	214.38
349.05	214.33
349.43	214.40
349.81	214.46
350.19	214.49
350.57	214.60
350.96	214.72
351.34	214.82
351.72	214.89
352.10	214.98
352.48	215.08
352.87	215.12
353.25	215.25
353.63	215.30
354.01	215.41
354.39	215.51
354.77	215.59
355.15	215.72
355.54	215.76
355.92	215.80
356.30	215.88
356.68	216.10
357.06	216.20
357.44	216.24
357.82	216.32
358.20	216.42
358.58	216.45
358.97	216.53
359.35	216.69
359.73	216.84
360.11	216.90
360.49	216.97
360.87	217.05
361.25	217.11
361.63	217.23
362.01	217.26
362.39	217.33
362.77	217.40
363.15	217.42
363.53	217.49
363.91	217.52
364.29	217.55
364.67	217.38
365.05	217.42
365.43	217.46
365.81	217.51
366.19	217.63
366.57	217.71
366.95	217.70
367.33	217.63
367.71	217.60
368.09	217.65
368.47	217.64
368.85	217.64
369.23	217.65
369.61	217.57
369.99	217.65
370.37	217.64
370.75	217.73
371.13	217.68
371.51	217.69
371.89	217.66
372.27	217.67
372.65	217.65
373.03	217.63
373.41	217.61
373.78	217.56
374.16	217.41
374.54	217.34
374.92	217.28
375.30	217.25
375.68	217.19
376.06	217.14
376.44	217.08
376.82	217.05
377.19	217.01
377.57	216.96
377.95	216.85
378.33	216.79
378.71	216.64
379.09	216.64
379.47	216.56
379.84	216.51
380.22	216.44
380.60	216.36
380.98	216.30
381.36	216.24
381.73	216.19
382.11	216.18
382.49	216.13
382.87	216.07
383.25	216.01
383.62	216.21
384.00	216.14
384.38	216.12
384.76	216.09
385.13	216.11
385.51	216.09
385.89	216.00
386.27	215.98
386.64	215.96
387.02	215.89
387.40	215.89
387.78	215.87
388.15	215.83
388.53	215.79
388.91	215.78
389.29	215.74
389.66	215.75
390.04	215.69
390.42	215.71
390.79	215.70
391.17	215.69
391.55	215.45
391.92	215.46
392.30	215.50
392.68	215.44
393.05	215.43
393.43	215.40
393.81	215.42
394.18	215.36
394.56	215.37
394.94	215.43
395.31	215.38
395.69	215.44
396.06	215.46
396.44	215.48
396.82	215.46
397.19	215.58
397.57	215.59
397.95	215.68
398.32	215.61
398.70	215.70
399.07	215.77
399.45	215.79
399.82	215.81
400.20	215.81
400.58	215.87
400.95	215.86
401.33	215.97
401.70	216.19
402.08	216.32
402.45	216.41
402.83	216.56
403.20	216.69
403.58	216.76
403.95	216.93
404.33	217.13
404.71	217.28
405.08	217.52
405.46	217.68
405.83	217.84
406.21	218.07
406.58	218.28
406.96	218.50
407.33	218.78
407.70	219.08
408.08	219.52
408.45	219.87
408.83	220.24
409.20	220.61
409.58	220.89
409.95	221.35
410.33	221.81
410.70	222.18
411.08	222.74
411.45	223.35
411.82	223.95
412.20	224.60
412.57	225.45
412.95	226.04
413.32	226.90
413.69	227.71
414.07	228.62
414.44	229.62
414.82	230.65
415.19	231.81
415.56	233.00
415.94	234.19
416.31	235.62
416.68	237.02
417.06	238.60
417.43	240.16
417.81	241.82
418.18	243.57
418.55	245.51
418.93	247.53
419.30	249.62
419.67	251.83
420.04	254.11
420.42	256.50
420.79	259.31
421.16	262.07
421.54	264.97
421.91	267.98
422.28	271.02
422.66	274.30
423.03	277.50
423.40	280.87
423.77	284.39
424.15	288.06
424.52	291.88
424.89	296.02
425.26	300.05
425.64	303.97
426.01	308.27
426.38	312.75
426.75	317.27
427.13	321.95
427.50	326.86
427.87	332.05
428.24	337.21
428.61	342.13
428.99	347.63
429.36	353.61
429.73	359.45
430.10	365.35
430.47	371.35
430.85	377.66
431.22	384.31
431.59	391.46
431.96	398.22
432.33	405.73
432.70	412.94
433.08	421.43
433.45	429.46
433.82	437.45
434.19	446.24
434.56	454.90
434.93	463.19
435.30	471.50
435.68	480.51
436.05	489.41
436.42	498.30
436.79	506.44
437.16	515.14
437.53	524.37
437.90	533.47
438.27	542.36
438.64	551.48
439.01	560.00
439.38	567.50
439.75	574.74
440.13	583.10
440.50	591.02
440.87	597.42
441.24	604.01
441.61	611.24
441.98	616.65
442.35	622.91
442.72	629.20
443.09	635.12
443.46	638.85
443.83	641.38
444.20	643.58
444.57	646.67
444.94	648.12
445.31	649.55
445.68	650.90
446.05	651.56
446.42	650.84
446.79	649.89
447.16	648.85
447.53	648.08
447.90	644.75
448.27	641.53
448.64	636.86
449.01	633.51
449.37	627.69
449.74	622.03
450.11	615.20
450.48	607.81
450.85	600.48
451.22	594.08
451.59	587.97
451.96	582.12
452.33	574.26
452.70	567.18
453.07	558.74
453.43	550.15
453.80	541.88
454.17	533.89
454.54	526.31
454.91	518.10
455.28	510.20
455.65	502.84
456.02	495.36
456.38	489.08
456.75	481.24
457.12	474.74
457.49	468.29
457.86	462.11
458.23	456.75
458.59	450.84
458.96	444.87
459.33	439.58
459.70	434.24
460.07	430.07
460.43	425.25
460.80	420.66
461.17	416.67
461.54	412.49
461.91	408.50
462.27	404.44
462.64	401.09
463.01	397.27
463.38	393.59
463.74	389.90
464.11	386.67
464.48	383.86
464.85	380.76
465.21	378.33
465.58	375.73
465.95	372.66
466.32	370.04
466.68	367.47
467.05	364.97
467.42	362.43
467.78	359.72
468.15	357.20
468.52	355.36
468.88	352.89
469.25	350.70
469.62	348.88
469.98	346.96
470.35	345.15
470.72	343.50
471.08	341.70
471.45	340.19
471.82	338.69
472.18	337.03
472.55	335.83
472.92	334.42
473.28	333.18
473.65	332.02
474.02	330.92
474.38	330.04
474.75	329.26
475.11	328.47
475.48	327.91
475.85	327.40
476.21	326.91
476.58	326.59
476.94	326.41
477.31	326.12
477.67	325.89
478.04	325.77
478.41	325.73
478.77	325.90
479.14	325.90
479.50	326.00
479.87	326.36
480.23	326.67
480.60	326.95
480.96	327.25
481.33	327.89
481.69	328.42
482.06	328.87
482.42	329.36
482.79	329.98
483.15	330.80
483.52	331.78
483.88	332.65
484.25	333.61
484.61	334.59
484.98	335.66
485.34	336.97
485.71	338.26
486.07	339.67
486.44	340.98
486.80	342.58
487.17	344.29
487.53	346.13
487.90	347.99
488.26	350.00
488.62	352.12
488.99	354.14
489.35	356.36
489.72	358.79
490.08	361.29
490.44	363.84
490.81	366.55
491.17	369.27
491.54	372.27
491.90	375.28
492.26	378.59
492.63	382.03
492.99	385.50
493.36	389.26
493.72	393.18
494.08	397.28
494.45	401.48
494.81	405.90
495.17	410.35
495.54	415.13
495.90	419.93
496.26	424.92
496.63	430.19
496.99	435.61
497.35	441.19
497.72	447.08
498.08	453.13
498.44	459.25
498.80	465.74
499.17	472.27
499.53	479.07
499.89	486.05
500.26	493.10
500.62	500.28
500.98	507.73
501.34	515.26
501.71	523.02
502.07	530.91
502.43	539.00
502.79	547.21
503.16	555.59
503.52	564.34
503.88	573.23
504.24	582.27
504.60	591.43
504.97	600.75
505.33	610.06
505.69	619.90
506.05	629.90
506.41	639.80
506.78	649.98
507.14	660.34
507.50	670.82
507.86	681.56
508.22	692.42
508.59	703.15
508.95	714.33
509.31	725.71
509.67	737.31
510.03	748.80
510.39	760.62
510.75	772.61
511.12	784.63
511.48	796.77
511.84	809.10
512.20	821.47
512.56	834.18
512.92	847.15
513.28	859.96
513.64	872.76
514.00	885.74
514.37	898.83
514.73	911.93
515.09	924.96
515.45	937.96
515.81	951.17
516.17	964.70
516.53	977.99
516.89	991.18
517.25	1004.50
517.61	1018.09
517.97	1031.59
518.33	1044.84
518.69	1058.51
519.05	1072.32
519.41	1086.13
519.77	1100.16
520.13	1113.68
520.49	1126.88
520.85	1140.33
521.21	1153.82
521.57	1167.64
521.93	1180.81
522.29	1194.73
522.65	1208.51
523.01	1222.24
523.37	1235.58
523.73	1249.01
524.09	1262.32
524.45	1275.84
524.81	1289.46
525.17	1303.01
525.53	1316.32
525.89	1329.74
526.25	1342.94
526.61	1355.98
526.97	1369.13
527.33	1382.10
527.68	1395.55
528.04	1409.28
528.40	1422.44
528.76	1435.92
529.12	1448.76
529.48	1462.24
529.84	1474.65
530.20	1487.42
530.56	1500.21
530.91	1513.45
531.27	1526.30
531.63	1539.23
531.99	1552.11
532.35	1564.33
532.71	1576.70
533.07	1589.66
533.42	1601.95
533.78	1614.12
534.14	1626.08
534.50	1637.38
534.86	1649.11
535.21	1660.11
535.57	1671.55
535.93	1682.91
536.29	1694.10
536.65	1705.65
537.00	1716.46
537.36	1727.88
537.72	1739.08
538.08	1750.57
538.44	1761.60
538.79	1772.90
539.15	1783.77
539.51	1794.55
539.87	1806.03
540.22	1816.92
540.58	1827.91
540.94	1838.80
541.29	1849.12
541.65	1859.11
542.01	1869.57
542.37	1879.70
542.72	1889.95
543.08	1899.68
543.44	1910.31
543.79	1919.62
544.15	1929.25
544.51	1939.30
544.87	1949.11
545.22	1958.43
545.58	1967.11
545.94	1976.18
546.29	1984.72
546.65	1993.06
547.01	2001.27
547.36	2008.92
547.72	2016.65
548.07	2024.10
548.43	2032.00
548.79	2039.98
549.14	2047.97
549.50	2056.51
549.86	2064.49
550.21	2071.91
550.57	2079.70
550.92	2086.34
551.28	2093.70
551.64	2100.83
551.99	2108.47
552.35	2115.66
552.70	2122.41
553.06	2129.25
553.41	2135.40
553.77	2141.93
554.13	2148.41
554.48	2155.50
554.84	2162.57
555.19	2169.28
555.55	2175.85
555.90	2182.09
556.26	2188.85
556.61	2195.06
556.97	2199.99
557.32	2205.79
557.68	2212.15
558.03	2218.06
558.39	2223.58
558.74	2229.73
559.10	2235.35
559.45	2240.99
559.81	2246.69
560.16	2252.35
560.52	2258.34
560.87	2264.77
561.23	2270.61
561.58	2277.33
561.94	2282.71
562.29	2287.54
562.64	2293.73
563.00	2299.53
563.35	2305.25
563.71	2311.15
564.06	2316.98
564.42	2323.03
564.77	2328.16
565.12	2333.54
565.48	2338.59
565.83	2344.11
566.19	2349.62
566.54	2355.21
566.89	2359.85
567.25	2364.42
567.60	2370.21
567.96	2375.41
568.31	2380.05
568.66	2384.46
569.02	2388.40
569.37	2392.22
569.72	2396.71
570.08	2400.20
570.43	2403.36
570.78	2406.55
571.14	2409.05
571.49	2412.19
571.84	2415.88
572.20	2418.88
572.55	2421.92
572.90	2424.49
573.26	2427.32
573.61	2430.01
573.96	2432.31
574.31	2434.45
574.67	2436.37
575.02	2437.29
575.37	2438.69
575.72	2439.41
576.08	2440.80
576.43	2441.05
576.78	2441.54
577.13	2443.22
577.49	2444.42
577.84	2445.56
578.19	2447.03
578.54	2447.61
578.90	2448.30
579.25	2448.30
579.60	2448.26
579.95	2447.72
580.30	2447.79
580.66	2447.21
581.01	2445.57
581.36	2443.13
581.71	2441.77
582.06	2440.82
582.42	2439.91
582.77	2437.79
583.12	2436.41
583.47	2435.29
583.82	2434.79
584.17	2433.60
584.53	2431.52
584.88	2429.54
585.23	2427.71
585.58	2425.40
585.93	2423.53
586.28	2421.55
586.63	2418.97
586.98	2416.99
587.34	2414.97
587.69	2412.55
588.04	2410.78
588.39	2409.35
588.74	2406.95
589.09	2404.34
589.44	2401.14
589.79	2398.74
590.14	2397.00
590.49	2394.14
590.84	2390.22
591.19	2387.10
591.54	2383.92
591.89	2379.89
592.25	2376.64
592.60	2372.61
592.95	2368.49
593.30	2364.49
593.65	2360.18
594.00	2355.87
594.35	2352.68
594.70	2348.00
595.05	2343.46
595.40	2337.86
595.75	2332.09
596.10	2328.36
596.45	2323.47
596.80	2318.96
597.15	2313.85
597.50	2307.85
597.85	2302.88
598.19	2297.65
598.54	2291.81
598.89	2286.69
599.24	2282.14
599.59	2275.98
599.94	2270.09
600.29	2264.20
600.64	2258.08
600.99	2251.17
601.34	2245.72
601.69	2238.82
602.04	2232.49
602.39	2225.90
602.74	2219.65
603.08	2214.07
603.43	2207.59
603.78	2200.65
604.13	2193.48
604.48	2186.04
604.83	2179.90
605.18	2173.67
605.53	2166.82
605.87	2159.89
606.22	2153.01
606.57	2144.94
606.92	2136.95
607.27	2130.01
607.62	2123.17
607.96	2116.17
608.31	2109.70
608.66	2101.76
609.01	2094.04
609.36	2086.84
609.70	2079.14
610.05	2071.47
610.40	2063.17
610.75	2054.83
611.10	2047.12
611.44	2038.34
611.79	2029.57
612.14	2019.43
612.49	2008.78
612.83	1999.36
613.18	1989.95
613.53	1980.56
613.88	1970.94
614.22	1962.18
614.57	1952.15
614.92	1941.49
615.27	1931.14
615.61	1920.89
615.96	1911.14
616.31	1901.47
616.65	1892.10
617.00	1882.12
617.35	1872.33
617.70	1862.44
618.04	1852.26
618.39	1842.02
618.74	1832.16
619.08	1822.44
619.43	1813.71
619.78	1805.38
620.12	1796.55
620.47	1786.82
620.82	1776.36
621.16	1766.53
621.51	1756.55
621.85	1746.74
622.20	1736.37
622.55	1725.70
622.89	1715.67
623.24	1705.91
623.59	1696.10
623.93	1685.82
624.28	1675.98
624.62	1665.75
624.97	1655.48
625.32	1645.65
625.66	1636.66
626.01	1627.89
626.35	1618.38
626.70	1608.18
627.04	1597.83
627.39	1587.72
627.73	1578.42
628.08	1569.33
628.43	1559.64
628.77	1550.40
629.12	1541.11
629.46	1533.13
629.81	1524.84
630.15	1515.21
630.50	1505.31
630.84	1494.69
631.19	1484.66
631.53	1475.19
631.88	1464.94
632.22	1454.75
632.57	1445.32
632.91	1435.01
633.26	1424.86
633.60	1415.27
633.95	1405.92
634.29	1396.44
634.64	1386.97
634.98	1376.86
635.32	1367.37
635.67	1358.77
636.01	1349.34
636.36	1339.63
636.70	1330.04
637.05	1320.60
637.39	1311.61
637.73	1302.75
638.08	1295.00
638.42	1286.71
638.77	1277.81
639.11	1269.45
639.45	1261.53
639.80	1252.84
640.14	1244.01
640.49	1235.11
640.83	1226.15
641.17	1217.83
641.52	1209.49
641.86	1200.80
642.20	1192.88
642.55	1184.27
642.89	1175.27
643.23	1166.45
643.58	1158.17
643.92	1148.85
644.26	1139.87
644.61	1131.23
644.95	1122.37
645.29	1112.97
645.64	1103.64
645.98	1095.14
646.32	1087.07
646.66	1078.41
647.01	1069.93
647.35	1061.76
647.69	1053.30
648.04	1044.80
648.38	1035.82
648.72	1026.94
649.06	1018.33
649.41	1009.97
649.75	1001.89
650.09	993.88
650.43	985.77
650.78	977.42
651.12	969.71
651.46	962.23
651.80	954.89
652.14	947.42
652.49	939.82
652.83	932.36
653.17	924.52
653.51	916.80
653.85	909.45
654.20	902.08
654.54	894.42
654.88	887.01
655.22	879.72
655.56	872.61
655.90	865.75
656.25	859.02
656.59	852.02
656.93	844.86
657.27	837.72
657.61	830.65
657.95	824.35
658.29	818.33
658.64	812.09
658.98	805.55
659.32	798.94
659.66	792.69
660.00	786.29
660.34	780.16
660.68	773.93
661.02	767.54
661.36	761.49
661.70	755.61
662.05	749.96
662.39	744.36
662.73	738.88
663.07	733.38
663.41	727.67
663.75	721.86
664.09	716.08
664.43	710.47
664.77	705.01
665.11	699.19
665.45	693.23
665.79	687.34
666.13	681.54
666.47	676.02
666.81	670.44
667.15	664.96
667.49	659.69
667.83	654.33
668.17	648.98
668.51	643.81
668.85	638.84
669.19	633.88
669.53	628.83
669.87	623.62
670.21	618.81
670.55	614.02
670.89	609.48
671.23	605.18
671.57	600.73
671.91	596.41
672.25	592.15
672.58	587.98
672.92	583.89
673.26	579.97
673.60	575.99
673.94	572.14
674.28	568.48
674.62	564.59
674.96	560.89
675.30	557.36
675.64	553.60
675.97	549.98
676.31	546.32
676.65	542.66
676.99	539.20
677.33	535.32
677.67	531.64
678.01	527.71
678.34	523.97
678.68	520.43
679.02	516.81
679.36	513.12
679.70	509.44
680.04	505.81
680.37	502.23
680.71	498.88
681.05	495.69
681.39	492.38
681.73	489.20
682.06	486.15
682.40	482.98
682.74	479.74
683.08	476.43
683.42	473.19
683.75	470.16
684.09	467.06
684.43	464.22
684.77	461.26
685.10	458.44
685.44	455.52
685.78	452.55
686.12	449.65
686.45	446.88
686.79	444.14
687.13	441.61
687.46	439.04
687.80	436.31
688.14	433.38
688.48	430.71
688.81	427.98
689.15	425.30
689.49	422.68
689.82	420.15
690.16	417.56
690.50	415.12
690.83	412.61
691.17	410.06
691.51	407.54
691.84	405.23
692.18	403.00
692.52	400.77
692.85	398.65
693.19	396.54
693.52	394.29
693.86	392.08
694.20	389.86
694.53	387.70
694.87	385.48
695.21	383.37
695.54	381.20
695.88	379.02
696.21	376.81
696.55	374.66
696.88	372.54
697.22	370.52
697.56	368.58
697.89	366.63
698.23	364.87
698.56	363.09
698.90	361.31
699.23	359.37
699.57	357.47
699.90	355.58
700.24	353.72
700.58	352.00
700.91	350.30
701.25	348.72
701.58	347.05
701.92	345.48
702.25	343.83
702.59	342.16
702.92	340.60
703.26	339.03
703.59	337.52
703.93	336.28
704.26	334.85
704.60	333.32
704.93	331.85
705.26	330.30
705.60	328.74
705.93	327.19
706.27	325.88
706.60	324.56
706.94	323.29
707.27	321.92
707.61	320.56
707.94	319.18
708.27	317.66
708.61	316.23
708.94	314.83
709.28	313.54
709.61	312.31
709.94	311.10
710.28	309.88
710.61	308.69
710.95	307.26
711.28	306.19
711.61	305.01
711.95	303.89
712.28	302.71
712.61	301.56
712.95	300.53
713.28	299.43
713.61	298.35
713.95	297.17
714.28	296.11
714.61	295.03
714.95	294.04
715.28	292.99
715.61	291.97
715.95	290.98
716.28	289.99
716.61	289.01
716.95	287.99
717.28	287.08
717.61	286.08
717.94	285.15
718.28	284.07
718.61	283.18
718.94	282.23
719.27	281.34
719.61	280.52
719.94	279.62
720.27	278.66
720.60	277.78
720.94	277.03
721.27	276.33
721.60	275.68
721.93	274.90
722.27	274.27
722.60	273.56
722.93	272.90
723.26	272.28
723.59	271.61
723.93	270.98
724.26	270.33
724.59	269.71
724.92	269.12
725.25	268.57
725.59	267.98
725.92	267.46
726.25	266.93
726.58	266.31
726.91	265.73
727.24	265.21
727.57	264.64
727.91	264.01
728.24	263.41
728.57	262.79
728.90	262.26
729.23	261.59
729.56	261.17
729.89	260.59
730.22	259.99
730.55	259.37
730.89	258.82
731.22	258.26
731.55	257.73
731.88	257.17
732.21	256.64
732.54	256.09
732.87	255.56
733.20	255.07
733.53	254.63
733.86	254.19
734.19	253.68
734.52	253.24
734.85	252.95
735.18	252.45
735.51	252.07
735.84	251.66
736.17	251.32
736.50	250.75
736.83	250.59
737.16	250.23
737.49	249.92
737.82	249.50
738.15	249.13
738.48	248.77
738.81	248.37
739.14	247.93
739.47	247.54
739.80	247.17
740.13	246.82
740.46	246.38
740.79	245.97
741.12	245.60
741.45	245.21
741.78	244.72
742.11	244.49
742.44	244.09
742.77	243.79
743.10	243.38
743.43	243.03
743.75	242.45
744.08	242.35
744.41	241.97
744.74	241.63
745.07	241.25
745.40	240.92
745.73	240.70
746.06	240.43
746.39	240.13
746.71	239.79
747.04	239.46
747.37	239.14
747.70	238.85
748.03	238.55
748.36	238.28
748.68	237.99
749.01	237.62
749.34	237.34
749.67	237.02
750.00	236.79
750.33	236.68
750.65	236.41
750.98	235.89
751.31	235.66
751.64	235.45
751.97	235.32
752.29	235.07
752.62	234.72
752.95	234.44
753.28	234.21
753.60	233.95
753.93	233.78
754.26	233.61
754.59	233.32
754.91	233.07
755.24	232.82
755.57	232.60
755.90	232.37
756.22	232.10
756.55	231.89
756.88	231.60
757.20	231.25
757.53	231.02
757.86	230.80
758.19	230.57
758.51	230.36
758.84	230.05
759.17	229.84
759.49	229.67
759.82	229.57
760.15	229.42
760.47	229.25
760.80	228.96
761.13	228.77
761.45	228.61
761.78	228.43
762.11	228.27
762.43	228.06
762.76	227.86
763.08	227.73
763.41	227.56
763.74	227.43
764.06	227.28
764.39	227.12
764.71	226.96
765.04	226.81
765.37	226.66
765.69	226.54
766.02	226.41
766.34	226.27
766.67	226.07
767.00	225.95
767.32	225.92
767.65	225.93
767.97	225.81
768.30	225.70
768.62	225.58
768.95	225.44
769.27	225.32
769.60	225.26
769.92	225.10
770.25	224.92
770.57	224.79
770.90	224.66
771.22	224.51
771.55	224.41
771.87	224.32
772.20	224.18
772.52	224.22
772.85	224.34
773.17	224.23
773.50	224.10
773.82	223.95
774.15	223.75
774.47	223.51
774.80	223.37
775.12	223.26
775.45	223.14
775.77	223.07
776.09	223.02
776.42	222.91
776.74	222.88
777.07	222.76
777.39	222.64
777.72	222.56
778.04	222.53
778.36	222.44
778.69	222.33
779.01	222.29
779.33	222.01
779.66	221.71
779.98	221.60
780.31	221.57
780.63	221.58
780.95	221.53
781.28	221.46
781.60	221.41
781.92	221.33
782.25	221.31
782.57	221.25
782.89	221.12
783.22	221.06
783.54	220.95
783.86	220.95
784.19	220.87
784.51	220.87
784.83	220.78
785.16	220.70
785.48	220.63
785.80	220.58
786.12	220.55
