SpectraSuite Data File
++++++++++++++++++++++++++++++++++++
Date: Tue Jan 29 16:36:29 EST 2013
User: group
Dark Spectrum Present: No
Reference Spectrum Present: No
Number of Sampled Component Spectra: 1
Spectrometers: USB2E7196
Integration Time (usec): 65000 (USB2E7196)
Spectra Averaged: 100 (USB2E7196)
Boxcar Smoothing: 10 (USB2E7196)
Correct for Electrical Dark: No (USB2E7196)
Strobe/Lamp Enabled: No (USB2E7196)
Correct for Detector Non-linearity: No (USB2E7196)
Correct for Stray Light: No (USB2E7196)
Number of Pixels in Processed Spectrum: 2048
>>>>>Begin Processed Spectral Data<<<<<
339.09	0.00
339.48	201.50
339.86	203.38
340.24	204.82
340.63	206.04
341.01	210.78
341.39	209.21
341.78	210.81
342.16	212.13
342.54	211.88
342.93	201.13
343.31	211.27
343.69	211.84
344.07	212.27
344.46	212.72
344.84	213.13
345.22	213.27
345.60	213.53
345.99	213.71
346.37	213.80
346.75	213.93
347.13	214.00
347.52	214.04
347.90	214.16
348.28	214.21
348.66	214.30
349.05	214.26
349.43	214.35
349.81	214.40
350.19	214.47
350.57	214.55
350.96	214.66
351.34	214.79
351.72	214.91
352.10	215.08
352.48	215.14
352.87	215.17
353.25	215.25
353.63	215.32
354.01	215.38
354.39	215.51
354.77	215.57
355.15	215.69
355.54	215.76
355.92	215.75
356.30	215.84
356.68	216.06
357.06	216.15
357.44	216.18
357.82	216.24
358.20	216.33
358.58	216.38
358.97	216.43
359.35	216.49
359.73	216.57
360.11	216.64
360.49	216.70
360.87	216.75
361.25	216.86
361.63	216.97
362.01	217.05
362.39	217.09
362.77	217.16
363.15	217.22
363.53	217.26
363.91	217.33
364.29	217.37
364.67	217.20
365.05	217.24
365.43	217.29
365.81	217.32
366.19	217.41
366.57	217.53
366.95	217.53
367.33	217.52
367.71	217.52
368.09	217.50
368.47	217.49
368.85	217.51
369.23	217.52
369.61	217.41
369.99	217.45
370.37	217.41
370.75	217.48
371.13	217.43
371.51	217.34
371.89	217.34
372.27	217.32
372.65	217.30
373.03	217.29
373.41	217.22
373.78	217.21
374.16	217.07
374.54	216.95
374.92	216.92
375.30	216.88
375.68	216.78
376.06	216.77
376.44	216.74
376.82	216.69
377.19	216.62
377.57	216.58
377.95	216.47
378.33	216.43
378.71	216.24
379.09	216.19
379.47	216.18
379.84	216.08
380.22	216.01
380.60	215.92
380.98	215.84
381.36	215.79
381.73	215.70
382.11	215.71
382.49	215.67
382.87	215.57
383.25	215.52
383.62	215.73
384.00	215.64
384.38	215.60
384.76	215.62
385.13	215.66
385.51	215.64
385.89	215.56
386.27	215.52
386.64	215.55
387.02	215.52
387.40	215.45
387.78	215.43
388.15	215.44
388.53	215.42
388.91	215.40
389.29	215.38
389.66	215.37
390.04	215.29
390.42	215.33
390.79	215.34
391.17	215.30
391.55	215.06
391.92	215.08
392.30	215.08
392.68	215.01
393.05	215.02
393.43	215.00
393.81	215.01
394.18	215.00
394.56	214.98
394.94	215.03
395.31	215.03
395.69	215.10
396.06	215.11
396.44	215.16
396.82	215.15
397.19	215.28
397.57	215.28
397.95	215.32
398.32	215.27
398.70	215.33
399.07	215.42
399.45	215.47
399.82	215.52
400.20	215.55
400.58	215.61
400.95	215.58
401.33	215.69
401.70	215.91
402.08	216.01
402.45	216.10
402.83	216.23
403.20	216.35
403.58	216.47
403.95	216.63
404.33	216.74
404.71	216.89
405.08	217.15
405.46	217.35
405.83	217.55
406.21	217.75
406.58	217.96
406.96	218.17
407.33	218.45
407.70	218.73
408.08	219.18
408.45	219.51
408.83	219.88
409.20	220.23
409.58	220.51
409.95	220.98
410.33	221.47
410.70	221.91
411.08	222.48
411.45	223.06
411.82	223.65
412.20	224.40
412.57	225.23
412.95	225.80
413.32	226.64
413.69	227.48
414.07	228.41
414.44	229.42
414.82	230.46
415.19	231.64
415.56	232.82
415.94	234.02
416.31	235.46
416.68	236.86
417.06	238.49
417.43	240.03
417.81	241.78
418.18	243.55
418.55	245.47
418.93	247.48
419.30	249.56
419.67	251.81
420.04	254.03
420.42	256.42
420.79	259.23
421.16	262.02
421.54	264.95
421.91	267.94
422.28	271.03
422.66	274.36
423.03	277.59
423.40	280.95
423.77	284.57
424.15	288.24
424.52	292.07
424.89	296.26
425.26	300.36
425.64	304.24
426.01	308.54
426.38	313.04
426.75	317.59
427.13	322.30
427.50	327.29
427.87	332.51
428.24	337.72
428.61	342.75
428.99	348.30
429.36	354.31
429.73	360.21
430.10	366.12
430.47	372.19
430.85	378.54
431.22	385.27
431.59	392.38
431.96	399.22
432.33	406.76
432.70	414.00
433.08	422.53
433.45	430.61
433.82	438.60
434.19	447.48
434.56	456.23
434.93	464.64
435.30	472.88
435.68	482.05
436.05	491.03
436.42	499.96
436.79	508.08
437.16	516.85
437.53	526.15
437.90	535.31
438.27	544.30
438.64	553.49
439.01	562.06
439.38	569.63
439.75	577.05
440.13	585.51
440.50	593.42
440.87	599.84
441.24	606.63
441.61	614.01
441.98	619.41
442.35	625.80
442.72	632.09
443.09	638.22
443.46	641.91
443.83	644.49
444.20	646.60
444.57	649.79
444.94	651.29
445.31	652.74
445.68	654.13
446.05	654.75
446.42	653.94
446.79	653.07
447.16	652.04
447.53	651.16
447.90	647.79
448.27	644.58
448.64	639.99
449.01	636.56
449.37	630.72
449.74	625.05
450.11	618.11
450.48	610.75
450.85	603.23
451.22	596.73
451.59	590.58
451.96	584.85
452.33	576.96
452.70	569.84
453.07	561.40
453.43	552.76
453.80	544.46
454.17	536.51
454.54	528.87
454.91	520.65
455.28	512.70
455.65	505.25
456.02	497.69
456.38	491.35
456.75	483.42
457.12	476.75
457.49	470.21
457.86	463.97
458.23	458.54
458.59	452.61
458.96	446.63
459.33	441.27
459.70	435.82
460.07	431.59
460.43	426.63
460.80	421.97
461.17	417.93
461.54	413.68
461.91	409.63
462.27	405.51
462.64	402.08
463.01	398.24
463.38	394.56
463.74	390.86
464.11	387.57
464.48	384.72
464.85	381.62
465.21	379.17
465.58	376.53
465.95	373.41
466.32	370.78
466.68	368.21
467.05	365.60
467.42	363.04
467.78	360.28
468.15	357.77
468.52	355.83
468.88	353.37
469.25	351.19
469.62	349.36
469.98	347.39
470.35	345.55
470.72	343.88
471.08	342.07
471.45	340.53
471.82	338.99
472.18	337.32
472.55	336.08
472.92	334.70
473.28	333.52
473.65	332.33
474.02	331.23
474.38	330.30
474.75	329.54
475.11	328.71
475.48	328.16
475.85	327.65
476.21	327.18
476.58	326.82
476.94	326.57
477.31	326.30
477.67	326.06
478.04	325.91
478.41	325.83
478.77	326.03
479.14	326.00
479.50	326.09
479.87	326.41
480.23	326.70
480.60	326.93
480.96	327.18
481.33	327.81
481.69	328.32
482.06	328.84
482.42	329.33
482.79	329.98
483.15	330.74
483.52	331.69
483.88	332.60
484.25	333.58
484.61	334.59
484.98	335.61
485.34	336.89
485.71	338.24
486.07	339.66
486.44	340.98
486.80	342.59
487.17	344.30
487.53	346.08
487.90	347.99
488.26	350.06
488.62	352.24
488.99	354.27
489.35	356.49
489.72	358.88
490.08	361.43
490.44	363.98
490.81	366.67
491.17	369.39
491.54	372.35
491.90	375.35
492.26	378.60
492.63	382.02
492.99	385.48
493.36	389.17
493.72	393.12
494.08	397.11
494.45	401.32
494.81	405.74
495.17	410.24
495.54	414.97
495.90	419.75
496.26	424.70
496.63	429.90
496.99	435.31
497.35	440.94
497.72	446.74
498.08	452.70
498.44	458.82
498.80	465.31
499.17	471.86
499.53	478.56
499.89	485.52
500.26	492.56
500.62	499.68
500.98	507.11
501.34	514.56
501.71	522.34
502.07	530.19
502.43	538.20
502.79	546.42
503.16	554.87
503.52	563.56
503.88	572.27
504.24	581.26
504.60	590.39
504.97	599.59
505.33	608.92
505.69	618.81
506.05	628.77
506.41	638.64
506.78	648.68
507.14	659.00
507.50	669.46
507.86	680.18
508.22	691.00
508.59	701.73
508.95	712.82
509.31	724.16
509.67	735.69
510.03	747.19
510.39	758.92
510.75	770.73
511.12	782.63
511.48	794.76
511.84	807.08
512.20	819.41
512.56	832.13
512.92	844.98
513.28	857.59
513.64	870.31
514.00	883.28
514.37	896.41
514.73	909.48
515.09	922.52
515.45	935.53
515.81	948.66
516.17	962.10
516.53	975.47
516.89	988.64
517.25	1001.88
517.61	1015.35
517.97	1028.83
518.33	1042.13
518.69	1055.78
519.05	1069.52
519.41	1083.26
519.77	1097.24
520.13	1110.67
520.49	1123.96
520.85	1137.60
521.21	1151.09
521.57	1164.76
521.93	1177.87
522.29	1191.83
522.65	1205.63
523.01	1219.35
523.37	1232.60
523.73	1246.05
524.09	1259.31
524.45	1272.87
524.81	1286.43
525.17	1299.92
525.53	1313.12
525.89	1326.41
526.25	1339.71
526.61	1352.67
526.97	1365.96
527.33	1379.03
527.68	1392.62
528.04	1406.14
528.40	1419.31
528.76	1432.66
529.12	1445.58
529.48	1458.99
529.84	1471.36
530.20	1484.12
530.56	1496.82
530.91	1510.22
531.27	1523.10
531.63	1535.92
531.99	1548.77
532.35	1561.13
532.71	1573.77
533.07	1586.89
533.42	1599.34
533.78	1611.47
534.14	1623.70
534.50	1634.95
534.86	1646.58
535.21	1657.47
535.57	1669.19
535.93	1680.61
536.29	1691.94
536.65	1703.63
537.00	1714.71
537.36	1726.25
537.72	1737.35
538.08	1748.92
538.44	1760.04
538.79	1771.26
539.15	1782.37
539.51	1793.28
539.87	1804.71
540.22	1815.55
540.58	1826.45
540.94	1837.55
541.29	1847.87
541.65	1857.81
542.01	1868.38
542.37	1878.56
542.72	1888.87
543.08	1898.58
543.44	1909.11
543.79	1918.43
544.15	1927.90
544.51	1937.95
544.87	1947.78
545.22	1957.11
545.58	1965.93
545.94	1974.77
546.29	1983.37
546.65	1991.71
547.01	2000.01
547.36	2007.71
547.72	2015.59
548.07	2023.34
548.43	2031.22
548.79	2039.28
549.14	2047.57
549.50	2056.21
549.86	2064.32
550.21	2071.80
550.57	2079.68
550.92	2086.71
551.28	2094.43
551.64	2101.78
551.99	2109.42
552.35	2116.74
552.70	2123.75
553.06	2130.53
553.41	2136.96
553.77	2143.57
554.13	2149.96
554.48	2156.93
554.84	2164.13
555.19	2170.74
555.55	2177.22
555.90	2183.56
556.26	2190.40
556.61	2196.52
556.97	2201.28
557.32	2207.04
557.68	2213.68
558.03	2219.46
558.39	2224.70
558.74	2230.48
559.10	2236.01
559.45	2241.54
559.81	2247.19
560.16	2252.74
560.52	2258.65
560.87	2265.08
561.23	2271.01
561.58	2277.71
561.94	2282.92
562.29	2287.60
562.64	2293.72
563.00	2299.52
563.35	2304.96
563.71	2310.72
564.06	2316.27
564.42	2322.38
564.77	2327.30
565.12	2332.36
565.48	2337.45
565.83	2342.75
566.19	2348.22
566.54	2353.69
566.89	2358.28
567.25	2362.64
567.60	2368.30
567.96	2373.34
568.31	2377.81
568.66	2382.11
569.02	2386.08
569.37	2389.98
569.72	2394.38
570.08	2397.76
570.43	2400.76
570.78	2403.76
571.14	2406.26
571.49	2409.42
571.84	2412.84
572.20	2415.90
572.55	2418.91
572.90	2421.19
573.26	2424.06
573.61	2426.64
573.96	2428.66
574.31	2430.77
574.67	2432.66
575.02	2433.38
575.37	2434.73
575.72	2435.42
576.08	2436.69
576.43	2436.87
576.78	2437.18
577.13	2438.70
577.49	2439.86
577.84	2440.75
578.19	2442.00
578.54	2442.45
578.90	2442.93
579.25	2442.66
579.60	2442.38
579.95	2441.46
580.30	2441.45
580.66	2440.64
581.01	2438.80
581.36	2436.24
581.71	2434.67
582.06	2433.36
582.42	2432.34
582.77	2430.04
583.12	2428.24
583.47	2426.83
583.82	2426.06
584.17	2424.61
584.53	2422.35
584.88	2420.12
585.23	2418.14
585.58	2415.78
585.93	2413.65
586.28	2411.46
586.63	2408.92
586.98	2406.64
587.34	2404.55
587.69	2402.09
588.04	2399.95
588.39	2398.57
588.74	2396.14
589.09	2393.26
589.44	2390.12
589.79	2387.63
590.14	2385.62
590.49	2382.77
590.84	2378.73
591.19	2375.36
591.54	2372.01
591.89	2367.82
592.25	2364.49
592.60	2360.08
592.95	2355.87
593.30	2351.63
593.65	2347.16
594.00	2342.67
594.35	2339.56
594.70	2334.86
595.05	2330.18
595.40	2324.66
595.75	2318.75
596.10	2315.03
596.45	2310.17
596.80	2305.49
597.15	2300.28
597.50	2294.37
597.85	2289.38
598.19	2284.27
598.54	2278.44
598.89	2273.23
599.24	2268.71
599.59	2262.40
599.94	2256.68
600.29	2250.70
600.64	2244.80
600.99	2237.96
601.34	2232.44
601.69	2225.50
602.04	2219.16
602.39	2212.39
602.74	2206.16
603.08	2200.51
603.43	2194.05
603.78	2186.97
604.13	2179.78
604.48	2172.27
604.83	2166.06
605.18	2159.85
605.53	2152.72
605.87	2145.69
606.22	2138.94
606.57	2130.96
606.92	2122.97
607.27	2115.80
607.62	2109.17
607.96	2102.01
608.31	2095.47
608.66	2087.67
609.01	2079.93
609.36	2072.65
609.70	2064.99
610.05	2057.35
610.40	2049.01
610.75	2040.51
611.10	2032.85
611.44	2024.00
611.79	2015.33
612.14	2005.29
612.49	1994.45
612.83	1985.13
613.18	1975.77
613.53	1966.41
613.88	1956.81
614.22	1948.12
614.57	1938.37
614.92	1927.75
615.27	1917.48
615.61	1907.34
615.96	1897.74
616.31	1888.11
616.65	1878.68
617.00	1868.91
617.35	1859.16
617.70	1849.44
618.04	1839.49
618.39	1829.31
618.74	1819.71
619.08	1810.07
619.43	1801.35
619.78	1793.18
620.12	1784.61
620.47	1775.11
620.82	1764.72
621.16	1754.85
621.51	1745.06
621.85	1735.23
622.20	1724.77
622.55	1714.29
622.89	1704.42
623.24	1694.62
623.59	1684.88
623.93	1674.72
624.28	1664.89
624.62	1654.79
624.97	1644.40
625.32	1634.44
625.66	1625.63
626.01	1616.80
626.35	1607.38
626.70	1597.35
627.04	1587.25
627.39	1577.10
627.73	1567.90
628.08	1559.04
628.43	1549.49
628.77	1540.24
629.12	1531.38
629.46	1523.61
629.81	1515.37
630.15	1505.83
630.50	1496.06
630.84	1485.49
631.19	1475.64
631.53	1466.28
631.88	1456.15
632.22	1446.20
632.57	1437.04
632.91	1427.07
633.26	1417.15
633.60	1407.61
633.95	1398.26
634.29	1388.82
634.64	1379.50
634.98	1369.45
635.32	1359.96
635.67	1351.59
636.01	1342.28
636.36	1332.48
636.70	1322.82
637.05	1313.43
637.39	1304.52
637.73	1295.84
638.08	1288.31
638.42	1280.17
638.77	1271.47
639.11	1263.25
639.45	1255.42
639.80	1246.78
640.14	1237.92
640.49	1229.17
640.83	1220.39
641.17	1212.26
641.52	1204.13
641.86	1195.53
642.20	1187.72
642.55	1179.21
642.89	1170.19
643.23	1161.56
643.58	1153.42
643.92	1144.54
644.26	1135.71
644.61	1127.24
644.95	1118.44
645.29	1109.23
645.64	1099.97
645.98	1091.42
646.32	1083.47
646.66	1074.98
647.01	1066.69
647.35	1058.52
647.69	1050.09
648.04	1041.79
648.38	1032.93
648.72	1024.01
649.06	1015.55
649.41	1007.29
649.75	999.30
650.09	991.60
650.43	983.46
650.78	975.15
651.12	967.38
651.46	959.96
651.80	952.67
652.14	945.41
652.49	937.77
652.83	930.42
653.17	922.77
653.51	915.10
653.85	907.87
654.20	900.58
654.54	893.08
654.88	885.81
655.22	878.55
655.56	871.47
655.90	864.68
656.25	857.97
656.59	851.11
656.93	844.08
657.27	836.86
657.61	829.94
657.95	823.73
658.29	817.75
658.64	811.60
658.98	805.17
659.32	798.54
659.66	792.29
660.00	786.01
660.34	779.88
660.68	773.67
661.02	767.25
661.36	761.20
661.70	755.37
662.05	749.76
662.39	744.18
662.73	738.82
663.07	733.40
663.41	727.68
663.75	721.91
664.09	716.16
664.43	710.61
664.77	705.22
665.11	699.42
665.45	693.45
665.79	687.63
666.13	681.84
666.47	676.30
666.81	670.85
667.15	665.31
667.49	660.08
667.83	654.86
668.17	649.60
668.51	644.42
668.85	639.42
669.19	634.44
669.53	629.45
669.87	624.25
670.21	619.45
670.55	614.82
670.89	610.32
671.23	605.98
671.57	601.58
671.91	597.26
672.25	593.14
672.58	588.96
672.92	584.88
673.26	580.91
673.60	577.03
673.94	573.17
674.28	569.59
674.62	565.80
674.96	561.98
675.30	558.43
675.64	554.81
675.97	551.15
676.31	547.54
676.65	543.88
676.99	540.39
677.33	536.51
677.67	532.74
678.01	528.86
678.34	525.18
678.68	521.63
679.02	518.00
679.36	514.22
679.70	510.56
680.04	506.94
680.37	503.46
680.71	500.02
681.05	496.80
681.39	493.45
681.73	490.25
682.06	487.15
682.40	484.01
682.74	480.78
683.08	477.59
683.42	474.34
683.75	471.26
684.09	468.22
684.43	465.42
684.77	462.47
685.10	459.61
685.44	456.65
685.78	453.69
686.12	450.89
686.45	448.15
686.79	445.45
687.13	442.88
687.46	440.18
687.80	437.46
688.14	434.56
688.48	431.92
688.81	429.24
689.15	426.63
689.49	423.96
689.82	421.36
690.16	418.65
690.50	416.16
690.83	413.64
691.17	411.07
691.51	408.51
691.84	406.19
692.18	403.91
692.52	401.67
692.85	399.53
693.19	397.35
693.52	395.13
693.86	392.89
694.20	390.66
694.53	388.54
694.87	386.38
695.21	384.23
695.54	382.01
695.88	379.80
696.21	377.58
696.55	375.44
696.88	373.34
697.22	371.37
697.56	369.49
697.89	367.60
698.23	365.81
698.56	364.05
698.90	362.27
699.23	360.35
699.57	358.47
699.90	356.54
700.24	354.68
700.58	352.94
700.91	351.26
701.25	349.63
701.58	347.95
701.92	346.34
702.25	344.71
702.59	343.12
702.92	341.55
703.26	339.97
703.59	338.48
703.93	337.21
704.26	335.74
704.60	334.13
704.93	332.62
705.26	331.10
705.60	329.61
705.93	328.07
706.27	326.72
706.60	325.39
706.94	324.15
707.27	322.75
707.61	321.40
707.94	320.01
708.27	318.49
708.61	317.02
708.94	315.57
709.28	314.29
709.61	312.97
709.94	311.71
710.28	310.50
710.61	309.31
710.95	307.90
711.28	306.79
711.61	305.60
711.95	304.44
712.28	303.21
712.61	302.00
712.95	300.91
713.28	299.83
713.61	298.66
713.95	297.50
714.28	296.47
714.61	295.39
714.95	294.36
715.28	293.32
715.61	292.29
715.95	291.36
716.28	290.31
716.61	289.32
716.95	288.33
717.28	287.33
717.61	286.35
717.94	285.41
718.28	284.40
718.61	283.50
718.94	282.60
719.27	281.74
719.61	280.88
719.94	280.03
720.27	279.06
720.60	278.22
720.94	277.38
721.27	276.57
721.60	275.80
721.93	275.10
722.27	274.47
722.60	273.82
722.93	273.08
723.26	272.44
723.59	271.74
723.93	271.09
724.26	270.47
724.59	269.80
724.92	269.21
725.25	268.64
725.59	268.07
725.92	267.50
726.25	266.91
726.58	266.34
726.91	265.73
727.24	265.19
727.57	264.64
727.91	263.99
728.24	263.44
728.57	262.87
728.90	262.28
729.23	261.62
729.56	261.15
729.89	260.64
730.22	260.07
730.55	259.52
730.89	258.98
731.22	258.40
731.55	257.90
731.88	257.36
732.21	256.78
732.54	256.23
732.87	255.71
733.20	255.22
733.53	254.72
733.86	254.24
734.19	253.77
734.52	253.33
734.85	253.07
735.18	252.61
735.51	252.23
735.84	251.79
736.17	251.44
736.50	250.93
736.83	250.72
737.16	250.34
737.49	249.97
737.82	249.51
738.15	249.12
738.48	248.75
738.81	248.34
739.14	247.96
739.47	247.55
739.80	247.16
740.13	246.82
740.46	246.41
740.79	246.02
741.12	245.63
741.45	245.26
741.78	244.82
742.11	244.55
742.44	244.16
742.77	243.89
743.10	243.53
743.43	243.16
743.75	242.60
744.08	242.52
744.41	242.17
744.74	241.87
745.07	241.52
745.40	241.19
745.73	240.94
746.06	240.63
746.39	240.32
746.71	240.02
747.04	239.65
747.37	239.34
747.70	239.06
748.03	238.77
748.36	238.47
748.68	238.12
749.01	237.71
749.34	237.39
749.67	237.07
750.00	236.78
750.33	236.63
750.65	236.37
750.98	235.82
751.31	235.55
751.64	235.30
751.97	235.19
752.29	234.91
752.62	234.55
752.95	234.28
753.28	234.02
753.60	233.76
753.93	233.59
754.26	233.36
754.59	233.05
754.91	232.77
755.24	232.53
755.57	232.32
755.90	232.10
756.22	231.87
756.55	231.63
756.88	231.38
757.20	231.05
757.53	230.77
757.86	230.57
758.19	230.39
758.51	230.16
758.84	229.84
759.17	229.63
759.49	229.49
759.82	229.42
760.15	229.23
760.47	229.02
760.80	228.77
761.13	228.65
761.45	228.47
761.78	228.35
762.11	228.18
762.43	227.99
762.76	227.83
763.08	227.68
763.41	227.50
763.74	227.37
764.06	227.20
764.39	227.08
764.71	226.91
765.04	226.72
765.37	226.59
765.69	226.44
766.02	226.29
766.34	226.12
766.67	225.87
767.00	225.78
767.32	225.77
767.65	225.76
767.97	225.55
768.30	225.47
768.62	225.30
768.95	225.12
769.27	224.99
769.60	224.88
769.92	224.70
770.25	224.53
770.57	224.38
770.90	224.28
771.22	224.12
771.55	224.00
771.87	223.92
772.20	223.77
772.52	223.82
772.85	223.95
773.17	223.82
773.50	223.73
773.82	223.63
774.15	223.42
774.47	223.19
774.80	223.07
775.12	222.98
775.45	222.87
775.77	222.79
776.09	222.70
776.42	222.59
776.74	222.56
777.07	222.50
777.39	222.42
777.72	222.30
778.04	222.25
778.36	222.15
778.69	222.05
779.01	221.96
779.33	221.70
779.66	221.35
779.98	221.26
780.31	221.17
780.63	221.17
780.95	221.12
781.28	221.08
781.60	221.01
781.92	220.93
782.25	220.87
782.57	220.78
782.89	220.69
783.22	220.62
783.54	220.53
783.86	220.49
784.19	220.41
784.51	220.42
784.83	220.34
785.16	220.28
785.48	220.20
785.80	220.19
786.12	220.16
