SpectraSuite Data File
++++++++++++++++++++++++++++++++++++
Date: Tue Jan 29 16:46:12 EST 2013
User: group
Dark Spectrum Present: No
Reference Spectrum Present: No
Number of Sampled Component Spectra: 1
Spectrometers: USB2E7196
Integration Time (usec): 65000 (USB2E7196)
Spectra Averaged: 100 (USB2E7196)
Boxcar Smoothing: 10 (USB2E7196)
Correct for Electrical Dark: No (USB2E7196)
Strobe/Lamp Enabled: No (USB2E7196)
Correct for Detector Non-linearity: No (USB2E7196)
Correct for Stray Light: No (USB2E7196)
Number of Pixels in Processed Spectrum: 2048
>>>>>Begin Processed Spectral Data<<<<<
339.09	0.00
339.48	201.96
339.86	202.99
340.24	205.14
340.63	206.09
341.01	210.38
341.39	208.44
341.78	210.84
342.16	211.41
342.54	211.99
342.93	201.03
343.31	211.21
343.69	211.74
344.07	212.20
344.46	212.62
344.84	213.01
345.22	213.18
345.60	213.47
345.99	213.64
346.37	213.77
346.75	213.86
347.13	213.94
347.52	213.99
347.90	214.10
348.28	214.13
348.66	214.20
349.05	214.15
349.43	214.16
349.81	214.20
350.19	214.26
350.57	214.32
350.96	214.40
351.34	214.48
351.72	214.60
352.10	214.73
352.48	214.81
352.87	214.85
353.25	214.92
353.63	214.95
354.01	215.02
354.39	215.13
354.77	215.19
355.15	215.33
355.54	215.39
355.92	215.38
356.30	215.43
356.68	215.60
357.06	215.68
357.44	215.74
357.82	215.80
358.20	215.87
358.58	215.93
358.97	216.00
359.35	216.10
359.73	216.16
360.11	216.17
360.49	216.20
360.87	216.29
361.25	216.36
361.63	216.48
362.01	216.51
362.39	216.51
362.77	216.58
363.15	216.59
363.53	216.60
363.91	216.63
364.29	216.65
364.67	216.48
365.05	216.52
365.43	216.57
365.81	216.62
366.19	216.70
366.57	216.77
366.95	216.74
367.33	216.67
367.71	216.64
368.09	216.73
368.47	216.70
368.85	216.66
369.23	216.67
369.61	216.59
369.99	216.65
370.37	216.65
370.75	216.73
371.13	216.69
371.51	216.68
371.89	216.70
372.27	216.73
372.65	216.75
373.03	216.72
373.41	216.66
373.78	216.62
374.16	216.52
374.54	216.44
374.92	216.41
375.30	216.40
375.68	216.36
376.06	216.30
376.44	216.28
376.82	216.26
377.19	216.21
377.57	216.18
377.95	216.06
378.33	216.00
378.71	215.84
379.09	215.84
379.47	215.83
379.84	215.73
380.22	215.67
380.60	215.60
380.98	215.56
381.36	215.52
381.73	215.47
382.11	215.48
382.49	215.44
382.87	215.36
383.25	215.32
383.62	215.52
384.00	215.43
384.38	215.41
384.76	215.44
385.13	215.48
385.51	215.42
385.89	215.36
386.27	215.33
386.64	215.32
387.02	215.26
387.40	215.22
387.78	215.24
388.15	215.22
388.53	215.20
388.91	215.18
389.29	215.16
389.66	215.13
390.04	215.07
390.42	215.11
390.79	215.12
391.17	215.15
391.55	214.92
391.92	214.97
392.30	214.97
392.68	214.89
393.05	214.87
393.43	214.91
393.81	214.93
394.18	214.92
394.56	214.94
394.94	214.99
395.31	214.97
395.69	214.99
396.06	215.05
396.44	215.07
396.82	215.05
397.19	215.17
397.57	215.17
397.95	215.23
398.32	215.17
398.70	215.21
399.07	215.25
399.45	215.28
399.82	215.33
400.20	215.35
400.58	215.41
400.95	215.40
401.33	215.47
401.70	215.69
402.08	215.82
402.45	215.90
402.83	216.06
403.20	216.18
403.58	216.28
403.95	216.42
404.33	216.60
404.71	216.77
405.08	217.02
405.46	217.21
405.83	217.38
406.21	217.58
406.58	217.84
406.96	218.05
407.33	218.30
407.70	218.57
408.08	219.06
408.45	219.41
408.83	219.84
409.20	220.19
409.58	220.48
409.95	220.94
410.33	221.42
410.70	221.85
411.08	222.40
411.45	222.99
411.82	223.55
412.20	224.25
412.57	225.07
412.95	225.68
413.32	226.50
413.69	227.37
414.07	228.31
414.44	229.29
414.82	230.30
415.19	231.53
415.56	232.70
415.94	233.88
416.31	235.30
416.68	236.71
417.06	238.35
417.43	239.90
417.81	241.62
418.18	243.42
418.55	245.35
418.93	247.40
419.30	249.53
419.67	251.76
420.04	254.06
420.42	256.45
420.79	259.26
421.16	262.10
421.54	265.06
421.91	268.09
422.28	271.17
422.66	274.51
423.03	277.76
423.40	281.16
423.77	284.81
424.15	288.51
424.52	292.34
424.89	296.52
425.26	300.62
425.64	304.53
426.01	308.84
426.38	313.37
426.75	317.93
427.13	322.70
427.50	327.70
427.87	332.95
428.24	338.12
428.61	343.12
428.99	348.65
429.36	354.61
429.73	360.45
430.10	366.40
430.47	372.50
430.85	378.83
431.22	385.56
431.59	392.64
431.96	399.48
432.33	407.04
432.70	414.31
433.08	422.86
433.45	430.91
433.82	438.96
434.19	447.84
434.56	456.58
434.93	464.88
435.30	473.15
435.68	482.33
436.05	491.36
436.42	500.31
436.79	508.43
437.16	517.22
437.53	526.58
437.90	535.77
438.27	544.74
438.64	553.99
439.01	562.60
439.38	570.27
439.75	577.55
440.13	585.97
440.50	593.96
440.87	600.44
441.24	607.14
441.61	614.50
441.98	619.90
442.35	626.25
442.72	632.64
443.09	638.74
443.46	642.41
443.83	645.00
444.20	647.18
444.57	650.36
444.94	651.89
445.31	653.34
445.68	654.73
446.05	655.37
446.42	654.61
446.79	653.69
447.16	652.60
447.53	651.94
447.90	648.67
448.27	645.38
448.64	640.74
449.01	637.49
449.37	631.59
449.74	625.98
450.11	619.03
450.48	611.62
450.85	604.23
451.22	597.78
451.59	591.63
451.96	585.81
452.33	577.95
452.70	570.83
453.07	562.33
453.43	553.74
453.80	545.41
454.17	537.34
454.54	529.72
454.91	521.46
455.28	513.37
455.65	505.82
456.02	498.27
456.38	491.91
456.75	483.92
457.12	477.29
457.49	470.68
457.86	464.47
458.23	459.07
458.59	453.02
458.96	447.00
459.33	441.69
459.70	436.30
460.07	432.02
460.43	427.05
460.80	422.42
461.17	418.33
461.54	414.14
461.91	410.12
462.27	405.95
462.64	402.52
463.01	398.70
463.38	395.07
463.74	391.37
464.11	388.09
464.48	385.26
464.85	382.14
465.21	379.71
465.58	377.05
465.95	373.92
466.32	371.31
466.68	368.66
467.05	366.04
467.42	363.43
467.78	360.68
468.15	358.15
468.52	356.24
468.88	353.77
469.25	351.51
469.62	349.69
469.98	347.73
470.35	345.89
470.72	344.17
471.08	342.33
471.45	340.79
471.82	339.24
472.18	337.57
472.55	336.36
472.92	334.96
473.28	333.76
473.65	332.62
474.02	331.48
474.38	330.61
474.75	329.83
475.11	329.05
475.48	328.52
475.85	328.01
476.21	327.46
476.58	327.09
476.94	326.83
477.31	326.51
477.67	326.27
478.04	326.07
478.41	326.07
478.77	326.24
479.14	326.18
479.50	326.34
479.87	326.58
480.23	326.84
480.60	327.03
480.96	327.31
481.33	327.85
481.69	328.40
482.06	328.86
482.42	329.30
482.79	329.88
483.15	330.62
483.52	331.58
483.88	332.46
484.25	333.40
484.61	334.46
484.98	335.51
485.34	336.82
485.71	338.22
486.07	339.68
486.44	340.97
486.80	342.63
487.17	344.27
487.53	346.17
487.90	348.06
488.26	350.15
488.62	352.30
488.99	354.38
489.35	356.55
489.72	358.96
490.08	361.48
490.44	364.03
490.81	366.74
491.17	369.47
491.54	372.46
491.90	375.45
492.26	378.67
492.63	382.10
492.99	385.55
493.36	389.25
493.72	393.11
494.08	397.09
494.45	401.27
494.81	405.63
495.17	410.04
495.54	414.76
495.90	419.54
496.26	424.50
496.63	429.71
496.99	435.13
497.35	440.76
497.72	446.61
498.08	452.57
498.44	458.68
498.80	465.08
499.17	471.61
499.53	478.41
499.89	485.28
500.26	492.22
500.62	499.33
500.98	506.72
501.34	514.20
501.71	522.02
502.07	529.87
502.43	537.89
502.79	545.98
503.16	554.37
503.52	562.99
503.88	571.63
504.24	580.58
504.60	589.61
504.97	598.82
505.33	608.07
505.69	617.92
506.05	627.77
506.41	637.70
506.78	647.74
507.14	657.97
507.50	668.45
507.86	679.20
508.22	689.97
508.59	700.53
508.95	711.60
509.31	722.82
509.67	734.22
510.03	745.57
510.39	757.32
510.75	769.11
511.12	781.01
511.48	793.14
511.84	805.38
512.20	817.71
512.56	830.36
512.92	843.16
513.28	855.81
513.64	868.60
514.00	881.40
514.37	894.36
514.73	907.41
515.09	920.39
515.45	933.30
515.81	946.35
516.17	959.87
516.53	973.10
516.89	986.21
517.25	999.43
517.61	1013.01
517.97	1026.56
518.33	1039.87
518.69	1053.44
519.05	1067.14
519.41	1080.84
519.77	1094.80
520.13	1108.07
520.49	1121.34
520.85	1134.78
521.21	1148.13
521.57	1161.77
521.93	1174.98
522.29	1188.81
522.65	1202.54
523.01	1216.19
523.37	1229.54
523.73	1242.82
524.09	1256.07
524.45	1269.55
524.81	1283.14
525.17	1296.52
525.53	1309.64
525.89	1323.02
526.25	1336.20
526.61	1349.10
526.97	1362.22
527.33	1375.05
527.68	1388.49
528.04	1401.98
528.40	1415.14
528.76	1428.65
529.12	1441.66
529.48	1454.96
529.84	1467.19
530.20	1480.04
530.56	1492.65
530.91	1505.87
531.27	1518.91
531.63	1531.62
531.99	1544.40
532.35	1556.65
532.71	1569.19
533.07	1582.27
533.42	1594.42
533.78	1606.67
534.14	1618.96
534.50	1630.27
534.86	1642.01
535.21	1653.09
535.57	1664.61
535.93	1675.86
536.29	1686.90
536.65	1698.46
537.00	1709.54
537.36	1721.10
537.72	1732.11
538.08	1743.70
538.44	1754.87
538.79	1765.97
539.15	1777.03
539.51	1788.03
539.87	1799.35
540.22	1810.27
540.58	1821.19
540.94	1832.27
541.29	1842.69
541.65	1852.54
542.01	1863.08
542.37	1873.35
542.72	1883.65
543.08	1893.65
543.44	1904.34
543.79	1913.69
544.15	1923.16
544.51	1933.10
544.87	1943.04
545.22	1952.40
545.58	1961.36
545.94	1970.13
546.29	1978.73
546.65	1987.24
547.01	1995.57
547.36	2003.41
547.72	2011.25
548.07	2018.86
548.43	2026.61
548.79	2034.46
549.14	2042.70
549.50	2051.19
549.86	2059.09
550.21	2066.59
550.57	2074.35
550.92	2081.14
551.28	2088.75
551.64	2096.02
551.99	2103.63
552.35	2110.70
552.70	2117.49
553.06	2124.15
553.41	2130.61
553.77	2137.19
554.13	2143.58
554.48	2150.43
554.84	2157.64
555.19	2164.04
555.55	2170.52
555.90	2176.89
556.26	2183.66
556.61	2189.66
556.97	2194.80
557.32	2200.56
557.68	2206.89
558.03	2212.67
558.39	2218.14
558.74	2224.13
559.10	2229.64
559.45	2235.27
559.81	2240.77
560.16	2246.34
560.52	2252.10
560.87	2258.33
561.23	2264.10
561.58	2270.67
561.94	2276.01
562.29	2280.55
562.64	2286.59
563.00	2292.20
563.35	2297.70
563.71	2303.36
564.06	2308.97
564.42	2314.62
564.77	2319.49
565.12	2324.84
565.48	2329.78
565.83	2335.08
566.19	2340.27
566.54	2345.60
566.89	2349.99
567.25	2354.74
567.60	2360.44
567.96	2365.56
568.31	2370.07
568.66	2374.35
569.02	2378.18
569.37	2381.85
569.72	2386.20
570.08	2389.49
570.43	2392.54
570.78	2395.57
571.14	2398.01
571.49	2400.92
571.84	2404.37
572.20	2407.26
572.55	2410.01
572.90	2412.19
573.26	2414.79
573.61	2417.35
573.96	2419.45
574.31	2421.36
574.67	2423.06
575.02	2423.53
575.37	2424.99
575.72	2425.56
576.08	2426.96
576.43	2427.05
576.78	2427.31
577.13	2428.63
577.49	2429.88
577.84	2430.78
578.19	2431.84
578.54	2432.20
578.90	2432.81
579.25	2432.50
579.60	2432.42
579.95	2431.46
580.30	2431.31
580.66	2430.60
581.01	2428.88
581.36	2426.31
581.71	2424.86
582.06	2423.53
582.42	2422.60
582.77	2419.99
583.12	2418.20
583.47	2416.51
583.82	2415.76
584.17	2414.29
584.53	2412.10
584.88	2409.83
585.23	2407.81
585.58	2405.39
585.93	2403.41
586.28	2401.02
586.63	2398.44
586.98	2396.09
587.34	2394.06
587.69	2391.49
588.04	2389.26
588.39	2387.56
588.74	2384.93
589.09	2381.97
589.44	2378.59
589.79	2375.84
590.14	2373.82
590.49	2370.95
590.84	2367.02
591.19	2363.51
591.54	2360.18
591.89	2356.04
592.25	2352.67
592.60	2348.31
592.95	2344.07
593.30	2339.74
593.65	2335.32
594.00	2330.79
594.35	2327.53
594.70	2322.67
595.05	2318.02
595.40	2312.61
595.75	2306.69
596.10	2302.95
596.45	2298.09
596.80	2293.55
597.15	2288.45
597.50	2282.45
597.85	2277.37
598.19	2271.94
598.54	2266.38
598.89	2261.06
599.24	2256.48
599.59	2250.20
599.94	2244.28
600.29	2238.22
600.64	2232.24
600.99	2225.32
601.34	2219.83
601.69	2212.95
602.04	2206.56
602.39	2199.85
602.74	2193.58
603.08	2188.02
603.43	2181.74
603.78	2174.81
604.13	2167.72
604.48	2160.42
604.83	2154.24
605.18	2148.03
605.53	2141.24
605.87	2134.00
606.22	2127.24
606.57	2119.24
606.92	2111.26
607.27	2104.35
607.62	2097.87
607.96	2090.95
608.31	2084.67
608.66	2076.94
609.01	2069.25
609.36	2062.13
609.70	2054.61
610.05	2046.86
610.40	2038.53
610.75	2030.00
611.10	2022.23
611.44	2013.28
611.79	2004.37
612.14	1994.47
612.49	1983.80
612.83	1974.40
613.18	1965.00
613.53	1955.80
613.88	1946.29
614.22	1937.75
614.57	1927.90
614.92	1917.21
615.27	1906.91
615.61	1896.73
615.96	1887.02
616.31	1877.39
616.65	1867.94
617.00	1858.12
617.35	1848.46
617.70	1838.83
618.04	1828.93
618.39	1818.87
618.74	1809.38
619.08	1800.02
619.43	1791.35
619.78	1783.14
620.12	1774.75
620.47	1765.49
620.82	1755.10
621.16	1745.36
621.51	1735.54
621.85	1725.83
622.20	1715.66
622.55	1705.10
622.89	1695.22
623.24	1685.64
623.59	1676.01
623.93	1665.98
624.28	1656.30
624.62	1646.23
624.97	1635.92
625.32	1626.07
625.66	1617.26
626.01	1608.46
626.35	1599.06
626.70	1589.08
627.04	1579.01
627.39	1568.77
627.73	1559.47
628.08	1550.72
628.43	1541.25
628.77	1532.06
629.12	1523.15
629.46	1515.22
629.81	1507.08
630.15	1497.72
630.50	1487.85
630.84	1477.37
631.19	1467.48
631.53	1458.34
631.88	1448.34
632.22	1438.58
632.57	1429.44
632.91	1419.42
633.26	1409.66
633.60	1400.16
633.95	1390.93
634.29	1381.60
634.64	1372.55
634.98	1362.72
635.32	1353.38
635.67	1344.99
636.01	1335.74
636.36	1326.09
636.70	1316.75
637.05	1307.27
637.39	1298.47
637.73	1290.06
638.08	1282.58
638.42	1274.53
638.77	1265.79
639.11	1257.64
639.45	1249.93
639.80	1241.39
640.14	1232.64
640.49	1223.89
640.83	1215.17
641.17	1207.03
641.52	1199.00
641.86	1190.43
642.20	1182.60
642.55	1174.03
642.89	1165.16
643.23	1156.61
643.58	1148.61
643.92	1139.61
644.26	1131.02
644.61	1122.43
644.95	1113.57
645.29	1104.36
645.64	1095.29
645.98	1086.73
646.32	1078.85
646.66	1070.29
647.01	1061.99
647.35	1053.96
647.69	1045.64
648.04	1037.35
648.38	1028.51
648.72	1019.76
649.06	1011.34
649.41	1003.09
649.75	995.33
650.09	987.53
650.43	979.52
650.78	971.16
651.12	963.53
651.46	956.17
651.80	949.13
652.14	941.94
652.49	934.44
652.83	927.24
653.17	919.64
653.51	912.01
653.85	904.88
654.20	897.75
654.54	890.40
654.88	883.15
655.22	876.06
655.56	869.07
655.90	862.24
656.25	855.57
656.59	848.78
656.93	841.76
657.27	834.58
657.61	827.62
657.95	821.53
658.29	815.52
658.64	809.48
658.98	802.93
659.32	796.40
659.66	790.30
660.00	783.88
660.34	777.81
660.68	771.65
661.02	765.23
661.36	759.17
661.70	753.35
662.05	747.68
662.39	742.13
662.73	736.75
663.07	731.37
663.41	725.77
663.75	720.07
664.09	714.28
664.43	708.89
664.77	703.55
665.11	697.80
665.45	691.95
665.79	686.07
666.13	680.43
666.47	674.94
666.81	669.40
667.15	663.89
667.49	658.68
667.83	653.49
668.17	648.27
668.51	643.16
668.85	638.19
669.19	633.37
669.53	628.33
669.87	623.23
670.21	618.45
670.55	613.72
670.89	609.22
671.23	604.91
671.57	600.49
671.91	596.19
672.25	591.98
672.58	587.83
672.92	583.79
673.26	579.79
673.60	575.89
673.94	572.04
674.28	568.52
674.62	564.73
674.96	560.92
675.30	557.42
675.64	553.74
675.97	550.17
676.31	546.51
676.65	542.92
676.99	539.52
677.33	535.62
677.67	531.97
678.01	528.13
678.34	524.45
678.68	520.89
679.02	517.32
679.36	513.62
679.70	509.95
680.04	506.35
680.37	502.88
680.71	499.54
681.05	496.34
681.39	493.00
681.73	489.89
682.06	486.85
682.40	483.69
682.74	480.41
683.08	477.13
683.42	473.85
683.75	470.80
684.09	467.68
684.43	464.92
684.77	461.98
685.10	459.09
685.44	456.19
685.78	453.28
686.12	450.46
686.45	447.74
686.79	445.06
687.13	442.52
687.46	439.89
687.80	437.18
688.14	434.32
688.48	431.74
688.81	429.00
689.15	426.35
689.49	423.73
689.82	421.24
690.16	418.62
690.50	416.18
690.83	413.67
691.17	411.11
691.51	408.55
691.84	406.23
692.18	403.99
692.52	401.75
692.85	399.58
693.19	397.40
693.52	395.14
693.86	392.89
694.20	390.67
694.53	388.54
694.87	386.30
695.21	384.14
695.54	381.91
695.88	379.68
696.21	377.46
696.55	375.30
696.88	373.19
697.22	371.16
697.56	369.24
697.89	367.30
698.23	365.51
698.56	363.72
698.90	361.98
699.23	360.10
699.57	358.24
699.90	356.33
700.24	354.43
700.58	352.71
700.91	351.02
701.25	349.37
701.58	347.70
701.92	346.09
702.25	344.47
702.59	342.83
702.92	341.26
703.26	339.68
703.59	338.19
703.93	336.93
704.26	335.48
704.60	333.93
704.93	332.46
705.26	330.98
705.60	329.48
705.93	327.88
706.27	326.50
706.60	325.15
706.94	323.91
707.27	322.54
707.61	321.18
707.94	319.85
708.27	318.35
708.61	316.93
708.94	315.54
709.28	314.21
709.61	312.96
709.94	311.76
710.28	310.54
710.61	309.34
710.95	307.90
711.28	306.85
711.61	305.64
711.95	304.50
712.28	303.26
712.61	302.06
712.95	301.01
713.28	299.98
713.61	298.81
713.95	297.63
714.28	296.60
714.61	295.53
714.95	294.49
715.28	293.44
715.61	292.37
715.95	291.38
716.28	290.43
716.61	289.43
716.95	288.43
717.28	287.46
717.61	286.43
717.94	285.51
718.28	284.45
718.61	283.59
718.94	282.69
719.27	281.82
719.61	281.00
719.94	280.12
720.27	279.08
720.60	278.19
720.94	277.37
721.27	276.59
721.60	275.83
721.93	275.05
722.27	274.43
722.60	273.79
722.93	273.07
723.26	272.38
723.59	271.64
723.93	271.00
724.26	270.34
724.59	269.69
724.92	269.10
725.25	268.56
725.59	267.95
725.92	267.40
726.25	266.83
726.58	266.21
726.91	265.60
727.24	265.05
727.57	264.50
727.91	263.85
728.24	263.30
728.57	262.72
728.90	262.18
729.23	261.53
729.56	261.06
729.89	260.50
730.22	259.92
730.55	259.39
730.89	258.79
731.22	258.25
731.55	257.77
731.88	257.23
732.21	256.65
732.54	256.11
732.87	255.55
733.20	255.04
733.53	254.57
733.86	254.11
734.19	253.61
734.52	253.19
734.85	252.94
735.18	252.45
735.51	252.10
735.84	251.67
736.17	251.25
736.50	250.71
736.83	250.57
737.16	250.16
737.49	249.78
737.82	249.35
738.15	248.95
738.48	248.54
738.81	248.14
739.14	247.73
739.47	247.33
739.80	246.94
740.13	246.62
740.46	246.22
740.79	245.84
741.12	245.47
741.45	245.08
741.78	244.62
742.11	244.32
742.44	243.93
742.77	243.60
743.10	243.29
743.43	242.90
743.75	242.31
744.08	242.24
744.41	241.88
744.74	241.59
745.07	241.25
745.40	240.95
745.73	240.71
746.06	240.37
746.39	240.07
746.71	239.73
747.04	239.34
747.37	239.02
747.70	238.73
748.03	238.45
748.36	238.16
748.68	237.82
749.01	237.46
749.34	237.12
749.67	236.78
750.00	236.51
750.33	236.38
750.65	236.15
750.98	235.65
751.31	235.43
751.64	235.17
751.97	235.02
752.29	234.73
752.62	234.38
752.95	234.12
753.28	233.85
753.60	233.61
753.93	233.46
754.26	233.22
754.59	232.90
754.91	232.65
755.24	232.42
755.57	232.23
755.90	231.98
756.22	231.75
756.55	231.53
756.88	231.25
757.20	230.92
757.53	230.65
757.86	230.43
758.19	230.19
758.51	229.96
758.84	229.69
759.17	229.48
759.49	229.33
759.82	229.24
760.15	229.07
760.47	228.88
760.80	228.61
761.13	228.49
761.45	228.30
761.78	228.12
762.11	227.95
762.43	227.74
762.76	227.57
763.08	227.44
763.41	227.28
763.74	227.11
764.06	226.95
764.39	226.79
764.71	226.61
765.04	226.43
765.37	226.28
765.69	226.10
766.02	225.97
766.34	225.76
766.67	225.56
767.00	225.44
767.32	225.39
767.65	225.38
767.97	225.23
768.30	225.14
768.62	225.01
768.95	224.83
769.27	224.70
769.60	224.67
769.92	224.52
770.25	224.38
770.57	224.23
770.90	224.10
771.22	223.98
771.55	223.92
771.87	223.84
772.20	223.71
772.52	223.77
772.85	223.89
773.17	223.80
773.50	223.66
773.82	223.55
774.15	223.34
774.47	223.10
774.80	222.95
775.12	222.82
775.45	222.70
775.77	222.64
776.09	222.58
776.42	222.46
776.74	222.42
777.07	222.32
777.39	222.25
777.72	222.16
778.04	222.08
778.36	221.95
778.69	221.89
779.01	221.84
779.33	221.58
779.66	221.26
779.98	221.16
780.31	221.09
780.63	221.07
780.95	221.05
781.28	220.99
781.60	220.88
781.92	220.82
782.25	220.77
782.57	220.72
782.89	220.58
783.22	220.51
783.54	220.37
783.86	220.34
784.19	220.28
784.51	220.28
784.83	220.18
785.16	220.10
785.48	220.05
785.80	220.00
786.12	219.94
