SpectraSuite Data File
++++++++++++++++++++++++++++++++++++
Date: Tue Jan 29 16:01:20 EST 2013
User: group
Dark Spectrum Present: No
Reference Spectrum Present: No
Number of Sampled Component Spectra: 1
Spectrometers: USB2E7196
Integration Time (usec): 65000 (USB2E7196)
Spectra Averaged: 100 (USB2E7196)
Boxcar Smoothing: 10 (USB2E7196)
Correct for Electrical Dark: No (USB2E7196)
Strobe/Lamp Enabled: No (USB2E7196)
Correct for Detector Non-linearity: No (USB2E7196)
Correct for Stray Light: No (USB2E7196)
Number of Pixels in Processed Spectrum: 2048
>>>>>Begin Processed Spectral Data<<<<<
339.09	0.00
339.48	201.88
339.86	204.16
340.24	205.87
340.63	207.57
341.01	212.01
341.39	210.50
341.78	211.66
342.16	212.96
342.54	213.05
342.93	202.13
343.31	212.32
343.69	212.91
344.07	213.39
344.46	213.83
344.84	214.20
345.22	214.34
345.60	214.57
345.99	214.75
346.37	214.87
346.75	214.99
347.13	215.07
347.52	215.14
347.90	215.24
348.28	215.25
348.66	215.30
349.05	215.26
349.43	215.33
349.81	215.40
350.19	215.45
350.57	215.50
350.96	215.57
351.34	215.68
351.72	215.77
352.10	215.84
352.48	215.88
352.87	215.93
353.25	216.01
353.63	216.06
354.01	216.14
354.39	216.20
354.77	216.27
355.15	216.37
355.54	216.38
355.92	216.38
356.30	216.47
356.68	216.64
357.06	216.74
357.44	216.77
357.82	216.80
358.20	216.83
358.58	216.91
358.97	217.00
359.35	217.10
359.73	217.20
360.11	217.28
360.49	217.36
360.87	217.42
361.25	217.49
361.63	217.58
362.01	217.58
362.39	217.64
362.77	217.70
363.15	217.71
363.53	217.77
363.91	217.84
364.29	217.88
364.67	217.74
365.05	217.77
365.43	217.84
365.81	217.90
366.19	218.00
366.57	218.06
366.95	218.05
367.33	218.01
367.71	218.00
368.09	218.06
368.47	218.04
368.85	218.03
369.23	218.05
369.61	217.98
369.99	218.06
370.37	218.03
370.75	218.09
371.13	218.04
371.51	217.98
371.89	217.97
372.27	217.94
372.65	217.91
373.03	217.90
373.41	217.82
373.78	217.75
374.16	217.65
374.54	217.58
374.92	217.53
375.30	217.50
375.68	217.41
376.06	217.35
376.44	217.28
376.82	217.26
377.19	217.18
377.57	217.13
377.95	217.01
378.33	216.97
378.71	216.79
379.09	216.80
379.47	216.80
379.84	216.70
380.22	216.68
380.60	216.57
380.98	216.50
381.36	216.48
381.73	216.40
382.11	216.38
382.49	216.34
382.87	216.26
383.25	216.21
383.62	216.44
384.00	216.39
384.38	216.40
384.76	216.43
385.13	216.51
385.51	216.49
385.89	216.45
386.27	216.43
386.64	216.45
387.02	216.41
387.40	216.39
387.78	216.39
388.15	216.35
388.53	216.36
388.91	216.32
389.29	216.31
389.66	216.32
390.04	216.25
390.42	216.26
390.79	216.32
391.17	216.32
391.55	216.04
391.92	216.04
392.30	216.03
392.68	215.96
393.05	215.93
393.43	215.91
393.81	215.90
394.18	215.89
394.56	215.88
394.94	215.92
395.31	215.87
395.69	215.95
396.06	216.00
396.44	216.04
396.82	216.07
397.19	216.18
397.57	216.17
397.95	216.28
398.32	216.27
398.70	216.31
399.07	216.38
399.45	216.43
399.82	216.45
400.20	216.51
400.58	216.54
400.95	216.52
401.33	216.62
401.70	216.86
402.08	216.93
402.45	217.00
402.83	217.10
403.20	217.25
403.58	217.30
403.95	217.41
404.33	217.56
404.71	217.70
405.08	217.94
405.46	218.11
405.83	218.27
406.21	218.46
406.58	218.66
406.96	218.87
407.33	219.14
407.70	219.44
408.08	219.87
408.45	220.22
408.83	220.58
409.20	220.93
409.58	221.18
409.95	221.62
410.33	222.10
410.70	222.54
411.08	223.07
411.45	223.64
411.82	224.18
412.20	224.87
412.57	225.67
412.95	226.20
413.32	227.02
413.69	227.83
414.07	228.71
414.44	229.68
414.82	230.67
415.19	231.81
415.56	232.92
415.94	234.04
416.31	235.43
416.68	236.80
417.06	238.36
417.43	239.82
417.81	241.49
418.18	243.18
418.55	245.02
418.93	246.97
419.30	249.00
419.67	251.16
420.04	253.31
420.42	255.59
420.79	258.35
421.16	261.03
421.54	263.87
421.91	266.76
422.28	269.72
422.66	272.90
423.03	276.01
423.40	279.26
423.77	282.72
424.15	286.21
424.52	289.90
424.89	293.89
425.26	297.83
425.64	301.62
426.01	305.76
426.38	310.08
426.75	314.47
427.13	319.00
427.50	323.82
427.87	328.87
428.24	333.88
428.61	338.65
428.99	344.00
429.36	349.77
429.73	355.42
430.10	361.09
430.47	366.88
430.85	373.00
431.22	379.45
431.59	386.33
431.96	392.91
432.33	400.18
432.70	407.24
433.08	415.47
433.45	423.26
433.82	431.01
434.19	439.63
434.56	448.02
434.93	456.09
435.30	464.06
435.68	472.82
436.05	481.45
436.42	490.05
436.79	497.84
437.16	506.24
437.53	515.16
437.90	523.93
438.27	532.62
438.64	541.45
439.01	549.63
439.38	556.91
439.75	564.04
440.13	572.13
440.50	579.67
440.87	585.85
441.24	592.20
441.61	599.25
441.98	604.37
442.35	610.40
442.72	616.39
443.09	622.21
443.46	625.81
443.83	628.31
444.20	630.35
444.57	633.40
444.94	634.78
445.31	636.17
445.68	637.49
446.05	638.00
446.42	637.25
446.79	636.32
447.16	635.27
447.53	634.42
447.90	631.13
448.27	628.00
448.64	623.48
449.01	620.21
449.37	614.51
449.74	609.04
450.11	602.39
450.48	595.31
450.85	588.11
451.22	581.87
451.59	575.89
451.96	570.28
452.33	562.71
452.70	555.85
453.07	547.71
453.43	539.48
453.80	531.59
454.17	523.90
454.54	516.67
454.91	508.79
455.28	501.17
455.65	494.10
456.02	486.93
456.38	480.92
456.75	473.43
457.12	467.13
457.49	460.89
457.86	454.98
458.23	449.82
458.59	444.16
458.96	438.42
459.33	433.39
459.70	428.28
460.07	424.22
460.43	419.58
460.80	415.19
461.17	411.35
461.54	407.28
461.91	403.45
462.27	399.52
462.64	396.23
463.01	392.54
463.38	389.02
463.74	385.47
464.11	382.31
464.48	379.61
464.85	376.65
465.21	374.27
465.58	371.76
465.95	368.77
466.32	366.25
466.68	363.75
467.05	361.26
467.42	358.77
467.78	356.16
468.15	353.71
468.52	351.87
468.88	349.51
469.25	347.38
469.62	345.69
469.98	343.88
470.35	342.16
470.72	340.61
471.08	338.90
471.45	337.42
471.82	336.01
472.18	334.36
472.55	333.20
472.92	331.91
473.28	330.74
473.65	329.68
474.02	328.62
474.38	327.80
474.75	327.07
475.11	326.32
475.48	325.80
475.85	325.40
476.21	324.92
476.58	324.56
476.94	324.36
477.31	324.06
477.67	323.81
478.04	323.67
478.41	323.62
478.77	323.80
479.14	323.87
479.50	324.02
479.87	324.38
480.23	324.76
480.60	325.05
480.96	325.40
481.33	326.00
481.69	326.64
482.06	327.16
482.42	327.67
482.79	328.29
483.15	329.12
483.52	330.05
483.88	330.96
484.25	331.95
484.61	332.99
484.98	334.05
485.34	335.37
485.71	336.71
486.07	338.10
486.44	339.38
486.80	341.01
487.17	342.64
487.53	344.45
487.90	346.29
488.26	348.28
488.62	350.39
488.99	352.43
489.35	354.60
489.72	356.96
490.08	359.44
490.44	362.02
490.81	364.72
491.17	367.43
491.54	370.40
491.90	373.42
492.26	376.66
492.63	380.10
492.99	383.58
493.36	387.30
493.72	391.19
494.08	395.20
494.45	399.28
494.81	403.63
495.17	408.07
495.54	412.75
495.90	417.56
496.26	422.53
496.63	427.69
496.99	433.00
497.35	438.56
497.72	444.39
498.08	450.28
498.44	456.35
498.80	462.73
499.17	469.25
499.53	475.97
499.89	482.89
500.26	489.80
500.62	496.84
500.98	504.23
501.34	511.66
501.71	519.41
502.07	527.23
502.43	535.27
502.79	543.33
503.16	551.70
503.52	560.26
503.88	568.91
504.24	577.82
504.60	586.87
504.97	596.09
505.33	605.32
505.69	615.21
506.05	625.07
506.41	634.95
506.78	644.96
507.14	655.11
507.50	665.48
507.86	676.11
508.22	686.92
508.59	697.53
508.95	708.58
509.31	719.78
509.67	731.28
510.03	742.65
510.39	754.41
510.75	766.26
511.12	778.19
511.48	790.30
511.84	802.51
512.20	814.81
512.56	827.36
512.92	840.06
513.28	852.50
513.64	865.25
514.00	877.96
514.37	890.83
514.73	903.91
515.09	916.71
515.45	929.44
515.81	942.28
516.17	955.49
516.53	968.56
516.89	981.59
517.25	994.58
517.61	1007.93
517.97	1021.10
518.33	1034.10
518.69	1047.37
519.05	1060.80
519.41	1074.29
519.77	1087.90
520.13	1101.02
520.49	1114.04
520.85	1127.27
521.21	1140.38
521.57	1153.79
521.93	1166.76
522.29	1180.20
522.65	1193.81
523.01	1207.24
523.37	1220.21
523.73	1233.28
524.09	1246.24
524.45	1259.36
524.81	1272.50
525.17	1285.68
525.53	1298.59
525.89	1311.60
526.25	1324.59
526.61	1337.29
526.97	1350.14
527.33	1362.86
527.68	1375.99
528.04	1389.24
528.40	1402.20
528.76	1415.13
529.12	1427.76
529.48	1440.69
529.84	1452.63
530.20	1464.94
530.56	1477.41
530.91	1490.44
531.27	1503.07
531.63	1515.62
531.99	1528.04
532.35	1540.12
532.71	1552.11
533.07	1564.67
533.42	1576.53
533.78	1588.27
534.14	1599.93
534.50	1610.79
534.86	1622.18
535.21	1632.83
535.57	1643.91
535.93	1654.85
536.29	1665.66
536.65	1676.78
537.00	1687.57
537.36	1698.75
537.72	1709.45
538.08	1720.42
538.44	1731.00
538.79	1741.61
539.15	1752.11
539.51	1762.51
539.87	1773.48
540.22	1784.04
540.58	1794.73
540.94	1805.23
541.29	1815.27
541.65	1824.81
542.01	1835.11
542.37	1844.72
542.72	1854.60
543.08	1864.19
543.44	1874.33
543.79	1883.49
544.15	1892.70
544.51	1902.39
544.87	1912.03
545.22	1920.94
545.58	1929.56
545.94	1938.05
546.29	1946.48
546.65	1954.73
547.01	1962.84
547.36	1970.29
547.72	1977.79
548.07	1985.18
548.43	1992.79
548.79	2000.22
549.14	2008.08
549.50	2016.12
549.86	2023.79
550.21	2031.00
550.57	2038.47
550.92	2045.03
551.28	2052.26
551.64	2059.30
551.99	2066.58
552.35	2073.43
552.70	2080.12
553.06	2086.49
553.41	2092.71
553.77	2099.04
554.13	2105.18
554.48	2111.95
554.84	2118.79
555.19	2125.11
555.55	2131.48
555.90	2137.60
556.26	2144.27
556.61	2149.94
556.97	2154.90
557.32	2160.60
557.68	2166.84
558.03	2172.34
558.39	2177.48
558.74	2183.25
559.10	2188.88
559.45	2194.20
559.81	2199.64
560.16	2205.19
560.52	2211.16
560.87	2217.54
561.23	2223.46
561.58	2230.03
561.94	2235.27
562.29	2240.12
562.64	2246.21
563.00	2251.72
563.35	2257.42
563.71	2263.39
564.06	2269.18
564.42	2275.06
564.77	2280.28
565.12	2285.50
565.48	2290.92
565.83	2296.60
566.19	2302.21
566.54	2307.56
566.89	2312.34
567.25	2317.05
567.60	2322.74
567.96	2327.97
568.31	2332.53
568.66	2336.78
569.02	2340.71
569.37	2344.64
569.72	2349.13
570.08	2352.84
570.43	2355.82
570.78	2358.83
571.14	2361.40
571.49	2364.69
571.84	2368.30
572.20	2371.17
572.55	2374.40
572.90	2376.57
573.26	2379.51
573.61	2381.90
573.96	2384.11
574.31	2386.20
574.67	2388.22
575.02	2389.31
575.37	2390.76
575.72	2391.71
576.08	2393.31
576.43	2393.71
576.78	2394.52
577.13	2396.43
577.49	2397.62
577.84	2399.16
578.19	2400.93
578.54	2401.87
578.90	2403.17
579.25	2403.33
579.60	2403.73
579.95	2403.30
580.30	2403.86
580.66	2403.39
581.01	2402.13
581.36	2400.24
581.71	2399.25
582.06	2398.54
582.42	2397.92
582.77	2396.26
583.12	2395.07
583.47	2394.16
583.82	2393.80
584.17	2392.73
584.53	2390.57
584.88	2388.96
585.23	2387.28
585.58	2385.19
585.93	2383.15
586.28	2381.13
586.63	2378.88
586.98	2376.76
587.34	2375.06
587.69	2372.96
588.04	2371.22
588.39	2369.88
588.74	2367.62
589.09	2365.18
589.44	2362.14
589.79	2359.86
590.14	2358.02
590.49	2355.18
590.84	2351.53
591.19	2348.79
591.54	2345.52
591.89	2341.74
592.25	2338.51
592.60	2334.51
592.95	2330.56
593.30	2326.66
593.65	2322.32
594.00	2318.11
594.35	2315.26
594.70	2310.61
595.05	2305.99
595.40	2300.73
595.75	2295.32
596.10	2291.56
596.45	2286.70
596.80	2282.27
597.15	2277.01
597.50	2271.21
597.85	2266.42
598.19	2261.27
598.54	2255.62
598.89	2250.75
599.24	2246.44
599.59	2240.46
599.94	2234.98
600.29	2229.18
600.64	2223.39
600.99	2216.80
601.34	2211.59
601.69	2204.54
602.04	2198.25
602.39	2191.80
602.74	2185.79
603.08	2180.36
603.43	2174.12
603.78	2167.44
604.13	2160.42
604.48	2153.49
604.83	2147.47
605.18	2141.27
605.53	2134.43
605.87	2127.34
606.22	2120.58
606.57	2112.63
606.92	2104.88
607.27	2097.81
607.62	2091.22
607.96	2084.25
608.31	2077.64
608.66	2069.83
609.01	2062.46
609.36	2055.42
609.70	2047.81
610.05	2040.09
610.40	2031.79
610.75	2023.52
611.10	2015.92
611.44	2007.32
611.79	1998.63
612.14	1988.67
612.49	1978.39
612.83	1969.18
613.18	1960.17
613.53	1950.83
613.88	1941.30
614.22	1932.60
614.57	1922.72
614.92	1912.33
615.27	1902.28
615.61	1892.38
615.96	1882.66
616.31	1873.05
616.65	1863.75
617.00	1853.81
617.35	1844.27
617.70	1834.59
618.04	1824.58
618.39	1814.20
618.74	1804.41
619.08	1794.70
619.43	1785.98
619.78	1777.51
620.12	1768.69
620.47	1758.66
620.82	1748.41
621.16	1738.68
621.51	1728.74
621.85	1718.79
622.20	1708.21
622.55	1697.47
622.89	1687.70
623.24	1678.04
623.59	1668.23
623.93	1658.17
624.28	1648.49
624.62	1638.16
624.97	1627.88
625.32	1618.18
625.66	1609.54
626.01	1600.70
626.35	1591.18
626.70	1581.07
627.04	1570.98
627.39	1561.00
627.73	1551.93
628.08	1542.82
628.43	1533.11
628.77	1523.91
629.12	1515.19
629.46	1507.23
629.81	1498.87
630.15	1489.12
630.50	1479.24
630.84	1468.87
631.19	1458.89
631.53	1449.42
631.88	1439.34
632.22	1429.29
632.57	1419.91
632.91	1409.53
633.26	1399.69
633.60	1390.16
633.95	1380.82
634.29	1371.40
634.64	1362.06
634.98	1352.08
635.32	1342.79
635.67	1334.29
636.01	1324.98
636.36	1315.11
636.70	1305.64
637.05	1296.24
637.39	1287.23
637.73	1278.59
638.08	1270.81
638.42	1262.37
638.77	1253.56
639.11	1245.23
639.45	1237.38
639.80	1228.62
640.14	1220.02
640.49	1211.05
640.83	1202.23
641.17	1194.18
641.52	1185.89
641.86	1177.23
642.20	1169.28
642.55	1160.61
642.89	1151.75
643.23	1143.01
643.58	1134.87
643.92	1125.69
644.26	1117.01
644.61	1108.61
644.95	1099.77
645.29	1090.53
645.64	1081.39
645.98	1073.12
646.32	1065.13
646.66	1056.61
647.01	1048.25
647.35	1040.02
647.69	1031.60
648.04	1023.30
648.38	1014.24
648.72	1005.45
649.06	996.94
649.41	988.84
649.75	980.84
650.09	972.93
650.43	964.82
650.78	956.56
651.12	948.98
651.46	941.70
651.80	934.44
652.14	927.17
652.49	919.68
652.83	912.49
653.17	904.71
653.51	897.19
653.85	889.95
654.20	882.66
654.54	875.14
654.88	868.05
655.22	860.91
655.56	853.99
655.90	847.25
656.25	840.60
656.59	833.57
656.93	826.63
657.27	819.57
657.61	812.75
657.95	806.83
658.29	800.97
658.64	794.72
658.98	788.32
659.32	781.80
659.66	775.63
660.00	769.20
660.34	763.23
660.68	757.14
661.02	750.91
661.36	745.10
661.70	739.36
662.05	733.68
662.39	728.18
662.73	722.90
663.07	717.52
663.41	712.02
663.75	706.44
664.09	700.77
664.43	695.42
664.77	690.07
665.11	684.13
665.45	678.31
665.79	672.63
666.13	666.94
666.47	661.53
666.81	656.23
667.15	650.97
667.49	645.73
667.83	640.48
668.17	635.31
668.51	630.21
668.85	625.38
669.19	620.58
669.53	615.65
669.87	610.57
670.21	605.87
670.55	601.17
670.89	596.81
671.23	592.66
671.57	588.33
671.91	584.15
672.25	580.16
672.58	576.03
672.92	571.99
673.26	568.16
673.60	564.33
673.94	560.48
674.28	556.90
674.62	553.22
674.96	549.58
675.30	546.07
675.64	542.45
675.97	538.87
676.31	535.30
676.65	531.67
676.99	528.28
677.33	524.50
677.67	520.88
678.01	517.10
678.34	513.46
678.68	510.04
679.02	506.44
679.36	502.75
679.70	499.17
680.04	495.73
680.37	492.40
680.71	489.14
681.05	486.05
681.39	482.88
681.73	479.79
682.06	476.75
682.40	473.77
682.74	470.62
683.08	467.53
683.42	464.36
683.75	461.52
684.09	458.60
684.43	455.84
684.77	452.95
685.10	450.15
685.44	447.27
685.78	444.33
686.12	441.65
686.45	438.97
686.79	436.41
687.13	433.88
687.46	431.20
687.80	428.54
688.14	425.77
688.48	423.16
688.81	420.57
689.15	418.07
689.49	415.42
689.82	412.97
690.16	410.39
690.50	407.96
690.83	405.46
691.17	403.00
691.51	400.55
691.84	398.41
692.18	396.24
692.52	394.08
692.85	392.02
693.19	389.93
693.52	387.83
693.86	385.62
694.20	383.49
694.53	381.43
694.87	379.33
695.21	377.27
695.54	375.18
695.88	373.03
696.21	370.88
696.55	368.81
696.88	366.80
697.22	364.91
697.56	363.11
697.89	361.33
698.23	359.64
698.56	357.93
698.90	356.17
699.23	354.27
699.57	352.47
699.90	350.64
700.24	348.88
700.58	347.14
700.91	345.53
701.25	344.02
701.58	342.48
701.92	340.90
702.25	339.31
702.59	337.73
702.92	336.22
703.26	334.69
703.59	333.31
703.93	332.07
704.26	330.67
704.60	329.23
704.93	327.78
705.26	326.28
705.60	324.86
705.93	323.39
706.27	322.13
706.60	320.88
706.94	319.68
707.27	318.31
707.61	317.03
707.94	315.73
708.27	314.22
708.61	312.77
708.94	311.45
709.28	310.20
709.61	308.99
709.94	307.80
710.28	306.62
710.61	305.41
710.95	304.02
711.28	302.95
711.61	301.77
711.95	300.68
712.28	299.53
712.61	298.37
712.95	297.37
713.28	296.37
713.61	295.28
713.95	294.16
714.28	293.14
714.61	292.12
714.95	291.10
715.28	290.16
715.61	289.16
715.95	288.22
716.28	287.30
716.61	286.37
716.95	285.40
717.28	284.55
717.61	283.63
717.94	282.77
718.28	281.75
718.61	280.89
718.94	279.95
719.27	279.11
719.61	278.29
719.94	277.41
720.27	276.43
720.60	275.58
720.94	274.85
721.27	274.13
721.60	273.45
721.93	272.78
722.27	272.13
722.60	271.50
722.93	270.83
723.26	270.17
723.59	269.51
723.93	268.91
724.26	268.28
724.59	267.68
724.92	267.09
725.25	266.60
725.59	266.06
725.92	265.55
726.25	264.98
726.58	264.43
726.91	263.90
727.24	263.41
727.57	262.87
727.91	262.28
728.24	261.74
728.57	261.13
728.90	260.59
729.23	260.02
729.56	259.61
729.89	259.09
730.22	258.56
730.55	258.03
730.89	257.55
731.22	256.99
731.55	256.49
731.88	255.98
732.21	255.42
732.54	254.88
732.87	254.40
733.20	253.91
733.53	253.46
733.86	253.01
734.19	252.55
734.52	252.17
734.85	251.87
735.18	251.42
735.51	251.08
735.84	250.65
736.17	250.27
736.50	249.72
736.83	249.56
737.16	249.18
737.49	248.79
737.82	248.37
738.15	248.04
738.48	247.67
738.81	247.30
739.14	246.95
739.47	246.61
739.80	246.27
740.13	245.97
740.46	245.57
740.79	245.19
741.12	244.86
741.45	244.50
741.78	244.06
742.11	243.76
742.44	243.40
742.77	243.14
743.10	242.79
743.43	242.45
743.75	241.91
744.08	241.83
744.41	241.50
744.74	241.17
745.07	240.78
745.40	240.52
745.73	240.27
746.06	239.93
746.39	239.62
746.71	239.26
747.04	238.87
747.37	238.59
747.70	238.31
748.03	238.00
748.36	237.74
748.68	237.46
749.01	237.15
749.34	236.86
749.67	236.59
750.00	236.35
750.33	236.25
750.65	236.03
750.98	235.53
751.31	235.29
751.64	235.07
751.97	235.03
752.29	234.74
752.62	234.42
752.95	234.21
753.28	233.95
753.60	233.74
753.93	233.63
754.26	233.42
754.59	233.15
754.91	232.90
755.24	232.66
755.57	232.41
755.90	232.19
756.22	231.95
756.55	231.69
756.88	231.46
757.20	231.11
757.53	230.85
757.86	230.66
758.19	230.48
758.51	230.26
758.84	229.93
759.17	229.69
759.49	229.53
759.82	229.46
760.15	229.30
760.47	229.12
760.80	228.86
761.13	228.68
761.45	228.49
761.78	228.35
762.11	228.20
762.43	228.06
762.76	227.91
763.08	227.77
763.41	227.66
763.74	227.50
764.06	227.36
764.39	227.25
764.71	227.07
765.04	226.95
765.37	226.82
765.69	226.71
766.02	226.61
766.34	226.46
766.67	226.25
767.00	226.20
767.32	226.19
767.65	226.19
767.97	226.09
768.30	226.03
768.62	225.87
768.95	225.70
769.27	225.57
769.60	225.47
769.92	225.35
770.25	225.16
770.57	224.99
770.90	224.88
771.22	224.72
771.55	224.63
771.87	224.53
772.20	224.39
772.52	224.42
772.85	224.57
773.17	224.45
773.50	224.31
773.82	224.16
774.15	223.93
774.47	223.72
774.80	223.63
775.12	223.49
775.45	223.41
775.77	223.37
776.09	223.29
776.42	223.19
776.74	223.16
777.07	223.06
777.39	223.04
777.72	222.93
778.04	222.88
778.36	222.78
778.69	222.68
779.01	222.62
779.33	222.38
779.66	222.05
779.98	221.99
780.31	221.92
780.63	221.91
780.95	221.88
781.28	221.79
781.60	221.68
781.92	221.62
782.25	221.56
782.57	221.47
782.89	221.37
783.22	221.30
783.54	221.19
783.86	221.15
784.19	221.07
784.51	221.06
784.83	220.97
785.16	220.90
785.48	220.82
785.80	220.74
786.12	220.70
