SpectraSuite Data File
++++++++++++++++++++++++++++++++++++
Date: Tue Jan 29 16:31:35 EST 2013
User: group
Dark Spectrum Present: No
Reference Spectrum Present: No
Number of Sampled Component Spectra: 1
Spectrometers: USB2E7196
Integration Time (usec): 65000 (USB2E7196)
Spectra Averaged: 100 (USB2E7196)
Boxcar Smoothing: 10 (USB2E7196)
Correct for Electrical Dark: No (USB2E7196)
Strobe/Lamp Enabled: No (USB2E7196)
Correct for Detector Non-linearity: No (USB2E7196)
Correct for Stray Light: No (USB2E7196)
Number of Pixels in Processed Spectrum: 2048
>>>>>Begin Processed Spectral Data<<<<<
339.09	0.00
339.48	202.20
339.86	203.51
340.24	204.15
340.63	206.67
341.01	211.29
341.39	208.62
341.78	210.48
342.16	211.37
342.54	211.98
342.93	201.07
343.31	211.24
343.69	211.77
344.07	212.22
344.46	212.70
344.84	213.09
345.22	213.24
345.60	213.55
345.99	213.78
346.37	213.92
346.75	214.04
347.13	214.16
347.52	214.24
347.90	214.37
348.28	214.39
348.66	214.53
349.05	214.54
349.43	214.64
349.81	214.72
350.19	214.77
350.57	214.85
350.96	214.96
351.34	215.05
351.72	215.16
352.10	215.28
352.48	215.34
352.87	215.39
353.25	215.44
353.63	215.48
354.01	215.51
354.39	215.62
354.77	215.65
355.15	215.79
355.54	215.86
355.92	215.86
356.30	215.95
356.68	216.10
357.06	216.15
357.44	216.20
357.82	216.27
358.20	216.39
358.58	216.44
358.97	216.51
359.35	216.63
359.73	216.74
360.11	216.80
360.49	216.87
360.87	216.95
361.25	217.05
361.63	217.14
362.01	217.23
362.39	217.29
362.77	217.37
363.15	217.36
363.53	217.40
363.91	217.42
364.29	217.48
364.67	217.34
365.05	217.38
365.43	217.40
365.81	217.46
366.19	217.52
366.57	217.62
366.95	217.65
367.33	217.60
367.71	217.59
368.09	217.65
368.47	217.65
368.85	217.64
369.23	217.68
369.61	217.62
369.99	217.63
370.37	217.60
370.75	217.70
371.13	217.68
371.51	217.62
371.89	217.61
372.27	217.58
372.65	217.57
373.03	217.52
373.41	217.46
373.78	217.39
374.16	217.28
374.54	217.15
374.92	217.07
375.30	217.00
375.68	216.94
376.06	216.89
376.44	216.86
376.82	216.83
377.19	216.72
377.57	216.67
377.95	216.58
378.33	216.52
378.71	216.36
379.09	216.33
379.47	216.33
379.84	216.28
380.22	216.22
380.60	216.15
380.98	216.11
381.36	216.07
381.73	215.99
382.11	215.99
382.49	216.00
382.87	215.94
383.25	215.92
383.62	216.11
384.00	216.00
384.38	215.94
384.76	215.91
385.13	215.97
385.51	215.93
385.89	215.85
386.27	215.83
386.64	215.84
387.02	215.78
387.40	215.74
387.78	215.71
388.15	215.67
388.53	215.63
388.91	215.61
389.29	215.58
389.66	215.60
390.04	215.55
390.42	215.55
390.79	215.55
391.17	215.54
391.55	215.29
391.92	215.29
392.30	215.30
392.68	215.25
393.05	215.25
393.43	215.25
393.81	215.27
394.18	215.23
394.56	215.22
394.94	215.27
395.31	215.26
395.69	215.32
396.06	215.37
396.44	215.43
396.82	215.41
397.19	215.54
397.57	215.55
397.95	215.64
398.32	215.62
398.70	215.67
399.07	215.72
399.45	215.75
399.82	215.83
400.20	215.88
400.58	215.96
400.95	215.94
401.33	216.05
401.70	216.29
402.08	216.39
402.45	216.48
402.83	216.62
403.20	216.73
403.58	216.81
403.95	216.97
404.33	217.13
404.71	217.28
405.08	217.52
405.46	217.68
405.83	217.82
406.21	218.04
406.58	218.28
406.96	218.53
407.33	218.83
407.70	219.11
408.08	219.55
408.45	219.92
408.83	220.31
409.20	220.64
409.58	220.92
409.95	221.40
410.33	221.87
410.70	222.28
411.08	222.86
411.45	223.45
411.82	223.99
412.20	224.65
412.57	225.55
412.95	226.09
413.32	226.95
413.69	227.82
414.07	228.70
414.44	229.67
414.82	230.70
415.19	231.87
415.56	233.05
415.94	234.23
416.31	235.59
416.68	237.00
417.06	238.63
417.43	240.16
417.81	241.87
418.18	243.68
418.55	245.65
418.93	247.67
419.30	249.77
419.67	252.02
420.04	254.26
420.42	256.59
420.79	259.43
421.16	262.19
421.54	265.10
421.91	268.10
422.28	271.18
422.66	274.47
423.03	277.71
423.40	281.07
423.77	284.67
424.15	288.37
424.52	292.18
424.89	296.36
425.26	300.48
425.64	304.39
426.01	308.66
426.38	313.12
426.75	317.68
427.13	322.42
427.50	327.33
427.87	332.60
428.24	337.82
428.61	342.79
428.99	348.35
429.36	354.37
429.73	360.27
430.10	366.15
430.47	372.22
430.85	378.55
431.22	385.29
431.59	392.42
431.96	399.23
432.33	406.74
432.70	413.98
433.08	422.45
433.45	430.51
433.82	438.50
434.19	447.33
434.56	456.02
434.93	464.35
435.30	472.73
435.68	481.79
436.05	490.72
436.42	499.62
436.79	507.75
437.16	516.46
437.53	525.69
437.90	534.82
438.27	543.72
438.64	552.89
439.01	561.34
439.38	568.91
439.75	576.21
440.13	584.63
440.50	592.59
440.87	599.03
441.24	605.70
441.61	613.06
441.98	618.44
442.35	624.79
442.72	631.06
443.09	637.02
443.46	640.80
443.83	643.38
444.20	645.62
444.57	648.75
444.94	650.25
445.31	651.72
445.68	653.13
446.05	653.78
446.42	653.03
446.79	652.17
447.16	651.14
447.53	650.39
447.90	647.10
448.27	643.78
448.64	639.15
449.01	635.76
449.37	629.85
449.74	624.24
450.11	617.32
450.48	609.98
450.85	602.58
451.22	596.10
451.59	589.98
451.96	584.09
452.33	576.20
452.70	569.10
453.07	560.58
453.43	551.94
453.80	543.62
454.17	535.65
454.54	528.03
454.91	519.82
455.28	511.82
455.65	504.32
456.02	496.83
456.38	490.50
456.75	482.71
457.12	476.14
457.49	469.59
457.86	463.40
458.23	457.97
458.59	452.04
458.96	446.00
459.33	440.71
459.70	435.37
460.07	431.16
460.43	426.28
460.80	421.73
461.17	417.77
461.54	413.62
461.91	409.61
462.27	405.51
462.64	402.03
463.01	398.25
463.38	394.59
463.74	390.88
464.11	387.60
464.48	384.72
464.85	381.63
465.21	379.20
465.58	376.57
465.95	373.47
466.32	370.84
466.68	368.28
467.05	365.64
467.42	363.09
467.78	360.36
468.15	357.79
468.52	355.86
468.88	353.36
469.25	351.10
469.62	349.29
469.98	347.33
470.35	345.53
470.72	343.81
471.08	342.02
471.45	340.56
471.82	339.00
472.18	337.34
472.55	336.12
472.92	334.73
473.28	333.54
473.65	332.38
474.02	331.28
474.38	330.39
474.75	329.66
475.11	328.83
475.48	328.25
475.85	327.74
476.21	327.23
476.58	326.89
476.94	326.69
477.31	326.33
477.67	326.09
478.04	325.93
478.41	325.92
478.77	326.14
479.14	326.00
479.50	326.13
479.87	326.42
480.23	326.76
480.60	327.01
480.96	327.24
481.33	327.84
481.69	328.38
482.06	328.88
482.42	329.34
482.79	329.94
483.15	330.76
483.52	331.73
483.88	332.65
484.25	333.60
484.61	334.64
484.98	335.75
485.34	337.04
485.71	338.41
486.07	339.88
486.44	341.10
486.80	342.74
487.17	344.42
487.53	346.29
487.90	348.16
488.26	350.20
488.62	352.39
488.99	354.39
489.35	356.55
489.72	358.95
490.08	361.48
490.44	364.07
490.81	366.82
491.17	369.53
491.54	372.49
491.90	375.53
492.26	378.77
492.63	382.19
492.99	385.67
493.36	389.34
493.72	393.20
494.08	397.29
494.45	401.51
494.81	405.93
495.17	410.36
495.54	415.11
495.90	419.90
496.26	424.85
496.63	430.15
496.99	435.58
497.35	441.18
497.72	446.99
498.08	452.97
498.44	459.07
498.80	465.56
499.17	472.15
499.53	478.87
499.89	485.80
500.26	492.80
500.62	499.95
500.98	507.36
501.34	514.84
501.71	522.63
502.07	530.45
502.43	538.48
502.79	546.66
503.16	555.05
503.52	563.71
503.88	572.41
504.24	581.37
504.60	590.42
504.97	599.65
505.33	608.97
505.69	618.86
506.05	628.72
506.41	638.54
506.78	648.64
507.14	658.93
507.50	669.40
507.86	680.12
508.22	690.90
508.59	701.63
508.95	712.77
509.31	724.03
509.67	735.67
510.03	747.13
510.39	758.97
510.75	770.83
511.12	782.78
511.48	794.97
511.84	807.36
512.20	819.82
512.56	832.65
512.92	845.57
513.28	858.30
513.64	871.14
514.00	884.12
514.37	897.08
514.73	910.25
515.09	923.38
515.45	936.35
515.81	949.60
516.17	963.17
516.53	976.40
516.89	989.73
517.25	1002.93
517.61	1016.57
517.97	1029.98
518.33	1043.19
518.69	1056.93
519.05	1070.76
519.41	1084.44
519.77	1098.46
520.13	1111.81
520.49	1125.10
520.85	1138.59
521.21	1152.09
521.57	1165.83
521.93	1179.11
522.29	1192.91
522.65	1206.56
523.01	1220.39
523.37	1233.68
523.73	1247.10
524.09	1260.49
524.45	1274.01
524.81	1287.61
525.17	1301.19
525.53	1314.49
525.89	1328.02
526.25	1341.17
526.61	1354.08
526.97	1367.34
527.33	1380.37
527.68	1393.92
528.04	1407.48
528.40	1420.73
528.76	1434.23
529.12	1447.20
529.48	1460.65
529.84	1473.15
530.20	1486.02
530.56	1498.72
530.91	1512.08
531.27	1525.04
531.63	1537.89
531.99	1550.74
532.35	1563.05
532.71	1575.48
533.07	1588.52
533.42	1600.91
533.78	1613.16
534.14	1625.48
534.50	1636.83
534.86	1648.56
535.21	1659.63
535.57	1671.35
535.93	1682.79
536.29	1693.87
536.65	1705.60
537.00	1716.55
537.36	1728.09
537.72	1739.26
538.08	1750.86
538.44	1761.87
538.79	1772.99
539.15	1784.04
539.51	1794.92
539.87	1806.39
540.22	1817.31
540.58	1828.46
540.94	1839.46
541.29	1849.88
541.65	1859.63
542.01	1870.27
542.37	1880.50
542.72	1890.72
543.08	1900.57
543.44	1911.10
543.79	1920.59
544.15	1930.10
544.51	1940.29
544.87	1950.27
545.22	1959.49
545.58	1968.30
545.94	1977.27
546.29	1985.91
546.65	1994.39
547.01	2002.78
547.36	2010.50
547.72	2018.42
548.07	2025.86
548.43	2033.73
548.79	2041.60
549.14	2049.93
549.50	2058.59
549.86	2066.52
550.21	2073.99
550.57	2081.76
550.92	2088.57
551.28	2096.22
551.64	2103.51
551.99	2111.13
552.35	2118.23
552.70	2125.18
553.06	2132.00
553.41	2138.41
553.77	2145.01
554.13	2151.33
554.48	2158.44
554.84	2165.71
555.19	2172.22
555.55	2178.89
555.90	2185.19
556.26	2192.12
556.61	2198.25
556.97	2202.99
557.32	2208.87
557.68	2215.45
558.03	2221.22
558.39	2226.75
558.74	2232.65
559.10	2238.20
559.45	2243.83
559.81	2249.42
560.16	2255.10
560.52	2261.04
560.87	2267.27
561.23	2273.30
561.58	2280.07
561.94	2285.25
562.29	2290.11
562.64	2296.11
563.00	2301.64
563.35	2307.13
563.71	2312.96
564.06	2318.71
564.42	2324.65
564.77	2329.69
565.12	2334.93
565.48	2340.08
565.83	2345.39
566.19	2350.79
566.54	2356.21
566.89	2360.72
567.25	2365.36
567.60	2371.16
567.96	2376.28
568.31	2380.95
568.66	2385.22
569.02	2389.14
569.37	2392.65
569.72	2396.81
570.08	2400.37
570.43	2403.55
570.78	2406.60
571.14	2409.06
571.49	2412.09
571.84	2415.63
572.20	2418.54
572.55	2421.51
572.90	2423.68
573.26	2426.53
573.61	2429.17
573.96	2431.42
574.31	2433.45
574.67	2435.33
575.02	2435.92
575.37	2437.28
575.72	2438.08
576.08	2439.46
576.43	2439.51
576.78	2440.13
577.13	2441.80
577.49	2442.98
577.84	2444.07
578.19	2445.54
578.54	2446.06
578.90	2446.78
579.25	2446.59
579.60	2446.42
579.95	2445.54
580.30	2445.71
580.66	2444.93
581.01	2443.22
581.36	2440.76
581.71	2439.13
582.06	2437.88
582.42	2437.03
582.77	2434.78
583.12	2433.09
583.47	2431.63
583.82	2431.03
584.17	2429.87
584.53	2427.75
584.88	2425.76
585.23	2423.81
585.58	2421.53
585.93	2419.50
586.28	2417.27
586.63	2414.81
586.98	2412.72
587.34	2410.78
587.69	2408.18
588.04	2406.17
588.39	2404.53
588.74	2402.00
589.09	2399.39
589.44	2396.15
589.79	2393.74
590.14	2391.64
590.49	2388.65
590.84	2384.75
591.19	2381.61
591.54	2378.18
591.89	2373.99
592.25	2370.60
592.60	2366.28
592.95	2361.98
593.30	2357.65
593.65	2353.14
594.00	2348.61
594.35	2345.48
594.70	2340.68
595.05	2336.14
595.40	2330.50
595.75	2324.77
596.10	2321.08
596.45	2316.08
596.80	2311.42
597.15	2306.00
597.50	2300.10
597.85	2295.24
598.19	2289.98
598.54	2284.16
598.89	2278.97
599.24	2274.32
599.59	2267.89
599.94	2261.91
600.29	2255.86
600.64	2249.99
600.99	2243.21
601.34	2237.65
601.69	2230.63
602.04	2224.21
602.39	2217.54
602.74	2211.50
603.08	2205.84
603.43	2199.28
603.78	2192.30
604.13	2185.33
604.48	2178.03
604.83	2171.84
605.18	2165.43
605.53	2158.35
605.87	2151.20
606.22	2144.27
606.57	2136.39
606.92	2128.56
607.27	2121.71
607.62	2115.11
607.96	2108.06
608.31	2101.54
608.66	2093.76
609.01	2085.98
609.36	2078.80
609.70	2071.07
610.05	2063.26
610.40	2054.96
610.75	2046.46
611.10	2038.90
611.44	2029.87
611.79	2021.13
612.14	2011.09
612.49	2000.27
612.83	1990.94
613.18	1981.68
613.53	1972.28
613.88	1962.62
614.22	1953.97
614.57	1944.08
614.92	1933.38
615.27	1923.15
615.61	1912.96
615.96	1903.24
616.31	1893.54
616.65	1884.09
617.00	1874.30
617.35	1864.59
617.70	1854.94
618.04	1844.99
618.39	1834.78
618.74	1825.07
619.08	1815.36
619.43	1806.71
619.78	1798.64
620.12	1789.97
620.47	1780.24
620.82	1769.88
621.16	1759.99
621.51	1749.92
621.85	1739.98
622.20	1729.60
622.55	1718.91
622.89	1708.98
623.24	1699.16
623.59	1689.38
623.93	1679.17
624.28	1669.29
624.62	1659.18
624.97	1648.75
625.32	1638.83
625.66	1630.02
626.01	1621.28
626.35	1611.87
626.70	1601.68
627.04	1591.55
627.39	1581.39
627.73	1572.08
628.08	1563.20
628.43	1553.65
628.77	1544.49
629.12	1535.56
629.46	1527.67
629.81	1519.38
630.15	1509.80
630.50	1500.08
630.84	1489.66
631.19	1479.75
631.53	1470.41
631.88	1460.25
632.22	1450.15
632.57	1440.84
632.91	1430.55
633.26	1420.63
633.60	1410.98
633.95	1401.68
634.29	1392.16
634.64	1382.91
634.98	1373.02
635.32	1363.66
635.67	1355.07
636.01	1345.74
636.36	1335.97
636.70	1326.40
637.05	1316.89
637.39	1308.01
637.73	1299.29
638.08	1291.60
638.42	1283.40
638.77	1274.61
639.11	1266.16
639.45	1258.31
639.80	1249.70
640.14	1240.93
640.49	1231.96
640.83	1223.14
641.17	1214.95
641.52	1206.78
641.86	1198.14
642.20	1190.20
642.55	1181.46
642.89	1172.56
643.23	1163.86
643.58	1155.58
643.92	1146.45
644.26	1137.67
644.61	1129.09
644.95	1120.37
645.29	1111.07
645.64	1101.87
645.98	1093.27
646.32	1085.38
646.66	1076.87
647.01	1068.51
647.35	1060.29
647.69	1052.03
648.04	1043.67
648.38	1034.74
648.72	1025.89
649.06	1017.29
649.41	1009.01
649.75	1001.07
650.09	993.16
650.43	985.06
650.78	976.81
651.12	969.10
651.46	961.67
651.80	954.43
652.14	946.99
652.49	939.36
652.83	931.93
653.17	924.17
653.51	916.47
653.85	909.14
654.20	901.77
654.54	894.25
654.88	886.85
655.22	879.54
655.56	872.48
655.90	865.57
656.25	858.89
656.59	851.88
656.93	844.75
657.27	837.62
657.61	830.57
657.95	824.42
658.29	818.45
658.64	812.33
658.98	805.79
659.32	799.14
659.66	792.94
660.00	786.55
660.34	780.47
660.68	774.27
661.02	767.86
661.36	761.88
661.70	755.98
662.05	750.31
662.39	744.79
662.73	739.33
663.07	733.98
663.41	728.32
663.75	722.57
664.09	716.82
664.43	711.28
664.77	705.85
665.11	699.96
665.45	693.92
665.79	687.96
666.13	682.25
666.47	676.71
666.81	671.19
667.15	665.71
667.49	660.49
667.83	655.24
668.17	649.95
668.51	644.76
668.85	639.85
669.19	634.93
669.53	629.86
669.87	624.67
670.21	619.78
670.55	615.02
670.89	610.56
671.23	606.22
671.57	601.84
671.91	597.59
672.25	593.37
672.58	589.25
672.92	585.22
673.26	581.17
673.60	577.21
673.94	573.34
674.28	569.77
674.62	565.93
674.96	562.15
675.30	558.66
675.64	554.93
675.97	551.28
676.31	547.63
676.65	544.03
676.99	540.56
677.33	536.69
677.67	532.98
678.01	529.06
678.34	525.34
678.68	521.77
679.02	518.07
679.36	514.35
679.70	510.66
680.04	507.09
680.37	503.56
680.71	500.24
681.05	497.03
681.39	493.65
681.73	490.47
682.06	487.43
682.40	484.25
682.74	481.01
683.08	477.80
683.42	474.48
683.75	471.44
684.09	468.39
684.43	465.53
684.77	462.62
685.10	459.79
685.44	456.84
685.78	453.84
686.12	451.02
686.45	448.31
686.79	445.58
687.13	442.96
687.46	440.34
687.80	437.63
688.14	434.73
688.48	432.09
688.81	429.36
689.15	426.71
689.49	424.04
689.82	421.45
690.16	418.78
690.50	416.37
690.83	413.85
691.17	411.24
691.51	408.69
691.84	406.34
692.18	404.05
692.52	401.83
692.85	399.66
693.19	397.50
693.52	395.24
693.86	393.03
694.20	390.80
694.53	388.59
694.87	386.35
695.21	384.22
695.54	382.00
695.88	379.78
696.21	377.54
696.55	375.41
696.88	373.36
697.22	371.34
697.56	369.39
697.89	367.43
698.23	365.64
698.56	363.88
698.90	362.06
699.23	360.13
699.57	358.20
699.90	356.29
700.24	354.46
700.58	352.64
700.91	350.92
701.25	349.35
701.58	347.78
701.92	346.18
702.25	344.54
702.59	342.90
702.92	341.36
703.26	339.79
703.59	338.26
703.93	336.96
704.26	335.53
704.60	334.02
704.93	332.56
705.26	331.06
705.60	329.54
705.93	328.04
706.27	326.76
706.60	325.49
706.94	324.23
707.27	322.79
707.61	321.47
707.94	320.11
708.27	318.58
708.61	317.08
708.94	315.70
709.28	314.38
709.61	313.14
709.94	311.88
710.28	310.67
710.61	309.49
710.95	308.03
711.28	306.91
711.61	305.66
711.95	304.51
712.28	303.33
712.61	302.14
712.95	301.06
713.28	299.94
713.61	298.78
713.95	297.61
714.28	296.58
714.61	295.51
714.95	294.44
715.28	293.43
715.61	292.41
715.95	291.41
716.28	290.43
716.61	289.46
716.95	288.47
717.28	287.46
717.61	286.49
717.94	285.61
718.28	284.58
718.61	283.70
718.94	282.74
719.27	281.87
719.61	281.05
719.94	280.15
720.27	279.16
720.60	278.28
720.94	277.48
721.27	276.68
721.60	276.01
721.93	275.29
722.27	274.62
722.60	273.91
722.93	273.21
723.26	272.52
723.59	271.82
723.93	271.20
724.26	270.56
724.59	269.90
724.92	269.29
725.25	268.75
725.59	268.17
725.92	267.67
726.25	267.06
726.58	266.46
726.91	265.86
727.24	265.33
727.57	264.80
727.91	264.18
728.24	263.61
728.57	263.01
728.90	262.43
729.23	261.78
729.56	261.36
729.89	260.80
730.22	260.24
730.55	259.69
730.89	259.12
731.22	258.55
731.55	258.03
731.88	257.46
732.21	256.89
732.54	256.34
732.87	255.82
733.20	255.31
733.53	254.83
733.86	254.40
734.19	253.90
734.52	253.43
734.85	253.14
735.18	252.69
735.51	252.30
735.84	251.93
736.17	251.56
736.50	250.98
736.83	250.83
737.16	250.43
737.49	250.00
737.82	249.59
738.15	249.22
738.48	248.83
738.81	248.46
739.14	248.03
739.47	247.64
739.80	247.20
740.13	246.86
740.46	246.47
740.79	246.04
741.12	245.67
741.45	245.34
741.78	244.86
742.11	244.57
742.44	244.18
742.77	243.85
743.10	243.52
743.43	243.17
743.75	242.58
744.08	242.51
744.41	242.14
744.74	241.78
745.07	241.38
745.40	241.10
745.73	240.83
746.06	240.50
746.39	240.21
746.71	239.90
747.04	239.51
747.37	239.17
747.70	238.91
748.03	238.59
748.36	238.30
748.68	238.01
749.01	237.64
749.34	237.33
749.67	237.03
750.00	236.74
750.33	236.60
750.65	236.36
750.98	235.84
751.31	235.63
751.64	235.41
751.97	235.31
752.29	235.03
752.62	234.68
752.95	234.46
753.28	234.19
753.60	233.94
753.93	233.79
754.26	233.54
754.59	233.22
754.91	232.98
755.24	232.75
755.57	232.49
755.90	232.28
756.22	232.01
756.55	231.75
756.88	231.49
757.20	231.14
757.53	230.90
757.86	230.64
758.19	230.46
758.51	230.28
758.84	229.97
759.17	229.76
759.49	229.60
759.82	229.48
760.15	229.32
760.47	229.14
760.80	228.92
761.13	228.81
761.45	228.65
761.78	228.47
762.11	228.25
762.43	228.06
762.76	227.90
763.08	227.75
763.41	227.60
763.74	227.46
764.06	227.30
764.39	227.09
764.71	226.93
765.04	226.74
765.37	226.55
765.69	226.40
766.02	226.22
766.34	226.06
766.67	225.86
767.00	225.74
767.32	225.74
767.65	225.73
767.97	225.51
768.30	225.39
768.62	225.29
768.95	225.17
769.27	225.07
769.60	224.98
769.92	224.83
770.25	224.65
770.57	224.47
770.90	224.37
771.22	224.27
771.55	224.18
771.87	224.07
772.20	223.94
772.52	224.00
772.85	224.17
773.17	224.06
773.50	223.96
773.82	223.81
774.15	223.59
774.47	223.35
774.80	223.31
775.12	223.22
775.45	223.12
775.77	222.99
776.09	222.92
776.42	222.80
776.74	222.80
777.07	222.74
777.39	222.65
777.72	222.55
778.04	222.52
778.36	222.43
778.69	222.36
779.01	222.27
779.33	222.01
779.66	221.68
779.98	221.58
780.31	221.48
780.63	221.51
780.95	221.47
781.28	221.41
781.60	221.29
781.92	221.21
782.25	221.14
782.57	221.07
782.89	220.96
783.22	220.88
783.54	220.73
783.86	220.68
784.19	220.66
784.51	220.66
784.83	220.58
785.16	220.50
785.48	220.45
785.80	220.41
786.12	220.39
