SpectraSuite Data File
++++++++++++++++++++++++++++++++++++
Date: Tue Jan 29 15:55:51 EST 2013
User: group
Dark Spectrum Present: No
Reference Spectrum Present: No
Number of Sampled Component Spectra: 1
Spectrometers: USB2E7196
Integration Time (usec): 65000 (USB2E7196)
Spectra Averaged: 100 (USB2E7196)
Boxcar Smoothing: 10 (USB2E7196)
Correct for Electrical Dark: No (USB2E7196)
Strobe/Lamp Enabled: No (USB2E7196)
Correct for Detector Non-linearity: No (USB2E7196)
Correct for Stray Light: No (USB2E7196)
Number of Pixels in Processed Spectrum: 2048
>>>>>Begin Processed Spectral Data<<<<<
339.09	0.00
339.48	203.04
339.86	204.03
340.24	205.76
340.63	207.31
341.01	212.03
341.39	210.04
341.78	211.16
342.16	213.34
342.54	212.76
342.93	202.02
343.31	212.23
343.69	212.76
344.07	213.23
344.46	213.66
344.84	214.03
345.22	214.18
345.60	214.42
345.99	214.62
346.37	214.71
346.75	214.83
347.13	214.93
347.52	214.98
347.90	215.13
348.28	215.18
348.66	215.25
349.05	215.22
349.43	215.27
349.81	215.30
350.19	215.35
350.57	215.40
350.96	215.49
351.34	215.61
351.72	215.67
352.10	215.79
352.48	215.85
352.87	215.89
353.25	215.95
353.63	216.02
354.01	216.08
354.39	216.19
354.77	216.27
355.15	216.42
355.54	216.50
355.92	216.49
356.30	216.58
356.68	216.80
357.06	216.91
357.44	216.95
357.82	217.03
358.20	217.14
358.58	217.20
358.97	217.28
359.35	217.37
359.73	217.50
360.11	217.57
360.49	217.64
360.87	217.71
361.25	217.79
361.63	217.89
362.01	217.96
362.39	217.98
362.77	218.06
363.15	218.09
363.53	218.16
363.91	218.18
364.29	218.21
364.67	218.03
365.05	218.05
365.43	218.09
365.81	218.17
366.19	218.27
366.57	218.36
366.95	218.34
367.33	218.29
367.71	218.31
368.09	218.35
368.47	218.37
368.85	218.37
369.23	218.39
369.61	218.35
369.99	218.40
370.37	218.42
370.75	218.47
371.13	218.41
371.51	218.33
371.89	218.34
372.27	218.33
372.65	218.36
373.03	218.34
373.41	218.31
373.78	218.24
374.16	218.09
374.54	217.99
374.92	217.95
375.30	217.94
375.68	217.86
376.06	217.84
376.44	217.76
376.82	217.74
377.19	217.68
377.57	217.63
377.95	217.52
378.33	217.44
378.71	217.29
379.09	217.26
379.47	217.25
379.84	217.18
380.22	217.11
380.60	216.99
380.98	216.89
381.36	216.82
381.73	216.76
382.11	216.78
382.49	216.79
382.87	216.75
383.25	216.71
383.62	216.89
384.00	216.79
384.38	216.82
384.76	216.83
385.13	216.88
385.51	216.84
385.89	216.77
386.27	216.78
386.64	216.77
387.02	216.69
387.40	216.65
387.78	216.63
388.15	216.63
388.53	216.63
388.91	216.63
389.29	216.62
389.66	216.62
390.04	216.56
390.42	216.54
390.79	216.55
391.17	216.51
391.55	216.26
391.92	216.25
392.30	216.22
392.68	216.16
393.05	216.15
393.43	216.16
393.81	216.18
394.18	216.13
394.56	216.13
394.94	216.21
395.31	216.20
395.69	216.27
396.06	216.31
396.44	216.32
396.82	216.31
397.19	216.42
397.57	216.43
397.95	216.51
398.32	216.48
398.70	216.51
399.07	216.59
399.45	216.62
399.82	216.66
400.20	216.68
400.58	216.73
400.95	216.70
401.33	216.79
401.70	217.02
402.08	217.12
402.45	217.22
402.83	217.35
403.20	217.44
403.58	217.50
403.95	217.63
404.33	217.78
404.71	217.93
405.08	218.16
405.46	218.32
405.83	218.48
406.21	218.66
406.58	218.84
406.96	219.06
407.33	219.33
407.70	219.66
408.08	220.12
408.45	220.47
408.83	220.88
409.20	221.22
409.58	221.44
409.95	221.85
410.33	222.31
410.70	222.69
411.08	223.26
411.45	223.82
411.82	224.39
412.20	225.04
412.57	225.81
412.95	226.35
413.32	227.13
413.69	227.94
414.07	228.82
414.44	229.80
414.82	230.78
415.19	231.93
415.56	233.01
415.94	234.15
416.31	235.46
416.68	236.77
417.06	238.29
417.43	239.78
417.81	241.48
418.18	243.17
418.55	245.05
418.93	246.94
419.30	248.97
419.67	251.07
420.04	253.27
420.42	255.58
420.79	258.30
421.16	260.99
421.54	263.75
421.91	266.62
422.28	269.62
422.66	272.77
423.03	275.87
423.40	279.12
423.77	282.53
424.15	286.05
424.52	289.73
424.89	293.74
425.26	297.66
425.64	301.37
426.01	305.47
426.38	309.69
426.75	314.08
427.13	318.62
427.50	323.41
427.87	328.40
428.24	333.41
428.61	338.17
428.99	343.45
429.36	349.24
429.73	354.85
430.10	360.41
430.47	366.24
430.85	372.26
431.22	378.66
431.59	385.53
431.96	392.10
432.33	399.33
432.70	406.24
433.08	414.39
433.45	422.15
433.82	429.86
434.19	438.41
434.56	446.77
434.93	454.69
435.30	462.59
435.68	471.30
436.05	479.89
436.42	488.48
436.79	496.30
437.16	504.69
437.53	513.68
437.90	522.47
438.27	531.02
438.64	539.87
439.01	548.12
439.38	555.38
439.75	562.37
440.13	570.40
440.50	578.03
440.87	584.20
441.24	590.54
441.61	597.52
441.98	602.64
442.35	608.64
442.72	614.74
443.09	620.56
443.46	624.15
443.83	626.55
444.20	628.56
444.57	631.57
444.94	632.85
445.31	634.14
445.68	635.49
446.05	636.03
446.42	635.20
446.79	634.24
447.16	633.17
447.53	632.43
447.90	629.23
448.27	626.05
448.64	621.57
449.01	618.33
449.37	612.75
449.74	607.35
450.11	600.79
450.48	593.73
450.85	586.63
451.22	580.45
451.59	574.56
451.96	569.01
452.33	561.42
452.70	554.71
453.07	546.56
453.43	538.35
453.80	530.48
454.17	522.88
454.54	515.64
454.91	507.88
455.28	500.28
455.65	493.28
456.02	486.19
456.38	480.22
456.75	472.71
457.12	466.44
457.49	460.23
457.86	454.28
458.23	449.20
458.59	443.50
458.96	437.78
459.33	432.75
459.70	427.64
460.07	423.65
460.43	418.98
460.80	414.65
461.17	410.82
461.54	406.78
461.91	402.98
462.27	399.07
462.64	395.74
463.01	392.11
463.38	388.53
463.74	384.98
464.11	381.83
464.48	379.13
464.85	376.13
465.21	373.77
465.58	371.27
465.95	368.24
466.32	365.72
466.68	363.25
467.05	360.75
467.42	358.30
467.78	355.67
468.15	353.25
468.52	351.46
468.88	349.06
469.25	346.98
469.62	345.29
469.98	343.49
470.35	341.80
470.72	340.20
471.08	338.46
471.45	337.00
471.82	335.57
472.18	334.00
472.55	332.87
472.92	331.60
473.28	330.49
473.65	329.41
474.02	328.39
474.38	327.53
474.75	326.87
475.11	326.09
475.48	325.58
475.85	325.21
476.21	324.75
476.58	324.48
476.94	324.27
477.31	323.98
477.67	323.73
478.04	323.58
478.41	323.56
478.77	323.75
479.14	323.76
479.50	323.92
479.87	324.27
480.23	324.60
480.60	324.90
480.96	325.20
481.33	325.82
481.69	326.40
482.06	326.95
482.42	327.43
482.79	328.11
483.15	328.95
483.52	329.87
483.88	330.84
484.25	331.76
484.61	332.77
484.98	333.84
485.34	335.18
485.71	336.54
486.07	338.01
486.44	339.36
486.80	341.00
487.17	342.65
487.53	344.44
487.90	346.33
488.26	348.34
488.62	350.51
488.99	352.52
489.35	354.69
489.72	357.05
490.08	359.57
490.44	362.10
490.81	364.79
491.17	367.46
491.54	370.34
491.90	373.39
492.26	376.70
492.63	380.08
492.99	383.57
493.36	387.24
493.72	391.08
494.08	395.13
494.45	399.30
494.81	403.69
495.17	408.16
495.54	412.88
495.90	417.69
496.26	422.60
496.63	427.78
496.99	433.13
497.35	438.72
497.72	444.56
498.08	450.47
498.44	456.49
498.80	462.91
499.17	469.42
499.53	476.09
499.89	482.94
500.26	489.91
500.62	496.94
500.98	504.30
501.34	511.75
501.71	519.45
502.07	527.22
502.43	535.12
502.79	543.25
503.16	551.59
503.52	560.14
503.88	568.81
504.24	577.78
504.60	586.81
504.97	595.96
505.33	605.16
505.69	614.97
506.05	624.88
506.41	634.63
506.78	644.64
507.14	654.89
507.50	665.27
507.86	675.88
508.22	686.61
508.59	697.20
508.95	708.25
509.31	719.39
509.67	730.84
510.03	742.20
510.39	753.96
510.75	765.67
511.12	777.51
511.48	789.52
511.84	801.67
512.20	813.85
512.56	826.39
512.92	839.15
513.28	851.67
513.64	864.17
514.00	876.91
514.37	889.77
514.73	902.62
515.09	915.38
515.45	928.08
515.81	940.96
516.17	954.20
516.53	967.20
516.89	980.18
517.25	993.08
517.61	1006.39
517.97	1019.37
518.33	1032.29
518.69	1045.64
519.05	1059.13
519.41	1072.56
519.77	1086.22
520.13	1099.30
520.49	1112.18
520.85	1125.40
521.21	1138.58
521.57	1152.05
521.93	1164.97
522.29	1178.56
522.65	1192.02
523.01	1205.43
523.37	1218.26
523.73	1231.27
524.09	1244.15
524.45	1257.21
524.81	1270.39
525.17	1283.48
525.53	1296.38
525.89	1309.44
526.25	1322.18
526.61	1334.78
526.97	1347.53
527.33	1360.16
527.68	1373.34
528.04	1386.46
528.40	1399.23
528.76	1412.21
529.12	1424.77
529.48	1437.57
529.84	1449.29
530.20	1461.75
530.56	1474.01
530.91	1486.95
531.27	1499.41
531.63	1511.80
531.99	1524.26
532.35	1536.22
532.71	1548.26
533.07	1560.84
533.42	1572.69
533.78	1584.47
534.14	1596.03
534.50	1606.95
534.86	1618.11
535.21	1628.58
535.57	1639.73
535.93	1650.66
536.29	1661.43
536.65	1672.43
537.00	1683.13
537.36	1694.14
537.72	1704.65
538.08	1715.59
538.44	1726.20
538.79	1736.95
539.15	1747.52
539.51	1757.96
539.87	1768.87
540.22	1779.38
540.58	1789.90
540.94	1800.27
541.29	1810.18
541.65	1819.56
542.01	1829.77
542.37	1839.62
542.72	1849.42
543.08	1858.81
543.44	1868.81
543.79	1877.78
544.15	1886.92
544.51	1896.46
544.87	1906.14
545.22	1915.04
545.58	1923.58
545.94	1932.08
546.29	1940.10
546.65	1948.03
547.01	1955.66
547.36	1963.06
547.72	1970.38
548.07	1977.55
548.43	1985.06
548.79	1992.48
549.14	2000.37
549.50	2008.32
549.86	2015.77
550.21	2022.83
550.57	2030.19
550.92	2036.59
551.28	2043.66
551.64	2050.67
551.99	2057.84
552.35	2064.63
552.70	2071.15
553.06	2077.57
553.41	2083.58
553.77	2090.07
554.13	2096.29
554.48	2103.07
554.84	2109.85
555.19	2116.19
555.55	2122.46
555.90	2128.60
556.26	2135.24
556.61	2140.99
556.97	2145.71
557.32	2151.46
557.68	2157.83
558.03	2163.49
558.39	2168.72
558.74	2174.59
559.10	2180.09
559.45	2185.61
559.81	2191.07
560.16	2196.56
560.52	2202.27
560.87	2208.71
561.23	2214.47
561.58	2221.09
561.94	2226.44
562.29	2231.33
562.64	2237.64
563.00	2243.42
563.35	2249.15
563.71	2255.07
564.06	2260.73
564.42	2266.76
564.77	2271.80
565.12	2276.96
565.48	2282.06
565.83	2287.79
566.19	2293.44
566.54	2298.72
566.89	2303.31
567.25	2308.14
567.60	2313.88
567.96	2319.21
568.31	2323.74
568.66	2328.09
569.02	2332.02
569.37	2335.80
569.72	2340.12
570.08	2343.53
570.43	2346.53
570.78	2349.47
571.14	2352.17
571.49	2355.64
571.84	2359.27
572.20	2362.29
572.55	2365.44
572.90	2367.93
573.26	2370.93
573.61	2373.61
573.96	2375.99
574.31	2378.10
574.67	2380.02
575.02	2381.09
575.37	2382.66
575.72	2383.67
576.08	2385.34
576.43	2385.66
576.78	2386.56
577.13	2388.44
577.49	2389.63
577.84	2391.21
578.19	2392.96
578.54	2393.85
578.90	2394.97
579.25	2395.13
579.60	2395.38
579.95	2395.04
580.30	2395.61
580.66	2395.28
581.01	2393.73
581.36	2391.85
581.71	2390.94
582.06	2390.32
582.42	2389.78
582.77	2387.91
583.12	2386.63
583.47	2385.71
583.82	2385.43
584.17	2384.56
584.53	2382.77
584.88	2381.13
585.23	2379.57
585.58	2377.55
585.93	2375.71
586.28	2373.70
586.63	2371.57
586.98	2369.65
587.34	2368.00
587.69	2365.73
588.04	2363.84
588.39	2362.65
588.74	2360.38
589.09	2358.02
589.44	2354.97
589.79	2352.79
590.14	2351.22
590.49	2348.64
590.84	2344.94
591.19	2342.26
591.54	2339.29
591.89	2335.28
592.25	2332.34
592.60	2328.25
592.95	2324.37
593.30	2320.27
593.65	2315.91
594.00	2311.76
594.35	2308.88
594.70	2304.45
595.05	2300.08
595.40	2294.75
595.75	2289.46
596.10	2286.02
596.45	2281.31
596.80	2277.08
597.15	2271.87
597.50	2266.00
597.85	2261.18
598.19	2256.04
598.54	2250.30
598.89	2245.12
599.24	2240.84
599.59	2234.80
599.94	2229.25
600.29	2223.50
600.64	2217.86
600.99	2211.36
601.34	2205.98
601.69	2199.18
602.04	2192.93
602.39	2186.49
602.74	2180.58
603.08	2174.96
603.43	2168.43
603.78	2161.68
604.13	2154.49
604.48	2147.48
604.83	2141.61
605.18	2135.39
605.53	2128.68
605.87	2121.87
606.22	2115.28
606.57	2107.53
606.92	2099.68
607.27	2092.83
607.62	2086.24
607.96	2079.29
608.31	2072.96
608.66	2065.32
609.01	2057.91
609.36	2050.79
609.70	2043.12
610.05	2035.55
610.40	2027.54
610.75	2019.51
611.10	2011.92
611.44	2003.32
611.79	1994.70
612.14	1984.67
612.49	1974.28
612.83	1965.05
613.18	1955.89
613.53	1946.53
613.88	1936.97
614.22	1928.39
614.57	1918.55
614.92	1908.10
615.27	1897.99
615.61	1888.07
615.96	1878.45
616.31	1868.83
616.65	1859.47
617.00	1849.68
617.35	1839.97
617.70	1830.18
618.04	1819.98
618.39	1809.75
618.74	1800.10
619.08	1790.61
619.43	1782.04
619.78	1773.75
620.12	1765.13
620.47	1755.36
620.82	1744.99
621.16	1735.24
621.51	1725.39
621.85	1715.40
622.20	1704.89
622.55	1694.38
622.89	1684.44
623.24	1674.65
623.59	1664.76
623.93	1654.71
624.28	1644.98
624.62	1634.71
624.97	1624.36
625.32	1614.62
625.66	1605.83
626.01	1596.87
626.35	1587.36
626.70	1577.17
627.04	1567.08
627.39	1556.96
627.73	1547.75
628.08	1538.76
628.43	1529.20
628.77	1520.01
629.12	1511.21
629.46	1503.46
629.81	1494.95
630.15	1485.32
630.50	1475.49
630.84	1465.12
631.19	1455.19
631.53	1445.82
631.88	1435.75
632.22	1425.70
632.57	1416.35
632.91	1406.18
633.26	1396.36
633.60	1386.76
633.95	1377.46
634.29	1367.93
634.64	1358.57
634.98	1348.58
635.32	1339.38
635.67	1330.80
636.01	1321.37
636.36	1311.54
636.70	1301.82
637.05	1292.59
637.39	1283.58
637.73	1274.97
638.08	1267.32
638.42	1258.97
638.77	1250.06
639.11	1241.82
639.45	1233.99
639.80	1225.44
640.14	1216.67
640.49	1207.79
640.83	1198.93
641.17	1190.81
641.52	1182.70
641.86	1174.17
642.20	1166.36
642.55	1157.68
642.89	1148.77
643.23	1140.14
643.58	1132.05
643.92	1123.07
644.26	1114.33
644.61	1105.88
644.95	1097.01
645.29	1087.79
645.64	1078.70
645.98	1070.34
646.32	1062.38
646.66	1053.89
647.01	1045.46
647.35	1037.29
647.69	1028.91
648.04	1020.59
648.38	1011.70
648.72	1002.89
649.06	994.29
649.41	986.07
649.75	978.05
650.09	970.22
650.43	962.22
650.78	953.96
651.12	946.38
651.46	938.98
651.80	931.77
652.14	924.52
652.49	917.04
652.83	909.64
653.17	901.93
653.51	894.36
653.85	887.13
654.20	879.99
654.54	872.57
654.88	865.39
655.22	858.29
655.56	851.35
655.90	844.53
656.25	838.04
656.59	831.16
656.93	824.18
657.27	817.14
657.61	810.29
657.95	804.29
658.29	798.48
658.64	792.36
658.98	785.92
659.32	779.41
659.66	773.13
660.00	766.94
660.34	760.98
660.68	754.89
661.02	748.61
661.36	742.69
661.70	737.02
662.05	731.45
662.39	725.97
662.73	720.65
663.07	715.39
663.41	709.78
663.75	704.09
664.09	698.57
664.43	693.20
664.77	687.88
665.11	682.15
665.45	676.19
665.79	670.45
666.13	664.83
666.47	659.41
666.81	654.18
667.15	648.89
667.49	643.74
667.83	638.57
668.17	633.43
668.51	628.34
668.85	623.45
669.19	618.63
669.53	613.76
669.87	608.70
670.21	604.02
670.55	599.36
670.89	595.03
671.23	590.81
671.57	586.46
671.91	582.21
672.25	578.03
672.58	573.98
672.92	569.99
673.26	566.12
673.60	562.34
673.94	558.54
674.28	554.93
674.62	551.24
674.96	547.56
675.30	544.10
675.64	540.48
675.97	536.91
676.31	533.43
676.65	529.84
676.99	526.49
677.33	522.78
677.67	519.25
678.01	515.45
678.34	511.86
678.68	508.40
679.02	504.89
679.36	501.31
679.70	497.76
680.04	494.31
680.37	490.92
680.71	487.64
681.05	484.50
681.39	481.38
681.73	478.31
682.06	475.37
682.40	472.30
682.74	469.18
683.08	466.01
683.42	462.89
683.75	459.96
684.09	456.97
684.43	454.20
684.77	451.29
685.10	448.49
685.44	445.62
685.78	442.75
686.12	440.09
686.45	437.38
686.79	434.76
687.13	432.25
687.46	429.70
687.80	427.16
688.14	424.43
688.48	421.83
688.81	419.20
689.15	416.71
689.49	414.22
689.82	411.81
690.16	409.32
690.50	406.92
690.83	404.44
691.17	401.97
691.51	399.51
691.84	397.39
692.18	395.33
692.52	393.18
692.85	391.16
693.19	389.03
693.52	386.94
693.86	384.80
694.20	382.67
694.53	380.59
694.87	378.43
695.21	376.35
695.54	374.22
695.88	372.13
696.21	369.96
696.55	367.83
696.88	365.84
697.22	363.90
697.56	362.07
697.89	360.27
698.23	358.60
698.56	356.87
698.90	355.11
699.23	353.21
699.57	351.36
699.90	349.54
700.24	347.82
700.58	346.12
700.91	344.49
701.25	343.00
701.58	341.46
701.92	339.92
702.25	338.37
702.59	336.82
702.92	335.37
703.26	333.84
703.59	332.50
703.93	331.27
704.26	329.93
704.60	328.48
704.93	327.07
705.26	325.59
705.60	324.17
705.93	322.68
706.27	321.38
706.60	320.16
706.94	318.95
707.27	317.54
707.61	316.23
707.94	314.93
708.27	313.44
708.61	312.05
708.94	310.75
709.28	309.51
709.61	308.34
709.94	307.16
710.28	306.00
710.61	304.83
710.95	303.45
711.28	302.40
711.61	301.25
711.95	300.17
712.28	299.05
712.61	297.87
712.95	296.87
713.28	295.88
713.61	294.78
713.95	293.66
714.28	292.70
714.61	291.71
714.95	290.72
715.28	289.73
715.61	288.79
715.95	287.88
716.28	286.97
716.61	286.02
716.95	285.09
717.28	284.20
717.61	283.24
717.94	282.42
718.28	281.39
718.61	280.53
718.94	279.63
719.27	278.83
719.61	278.11
719.94	277.29
720.27	276.33
720.60	275.56
720.94	274.79
721.27	274.11
721.60	273.46
721.93	272.76
722.27	272.16
722.60	271.48
722.93	270.75
723.26	270.09
723.59	269.45
723.93	268.83
724.26	268.20
724.59	267.63
724.92	267.02
725.25	266.50
725.59	265.97
725.92	265.49
726.25	264.94
726.58	264.40
726.91	263.78
727.24	263.33
727.57	262.74
727.91	262.17
728.24	261.63
728.57	261.07
728.90	260.58
729.23	259.98
729.56	259.56
729.89	259.05
730.22	258.49
730.55	257.94
730.89	257.41
731.22	256.89
731.55	256.38
731.88	255.91
732.21	255.38
732.54	254.85
732.87	254.33
733.20	253.85
733.53	253.36
733.86	252.96
734.19	252.44
734.52	252.07
734.85	251.81
735.18	251.36
735.51	250.96
735.84	250.57
736.17	250.21
736.50	249.71
736.83	249.57
737.16	249.22
737.49	248.88
737.82	248.49
738.15	248.17
738.48	247.80
738.81	247.40
739.14	247.01
739.47	246.66
739.80	246.29
740.13	245.94
740.46	245.55
740.79	245.18
741.12	244.85
741.45	244.50
741.78	244.08
742.11	243.79
742.44	243.43
742.77	243.11
743.10	242.76
743.43	242.44
743.75	241.89
744.08	241.85
744.41	241.49
744.74	241.14
745.07	240.73
745.40	240.44
745.73	240.21
746.06	239.93
746.39	239.66
746.71	239.33
747.04	239.02
747.37	238.71
747.70	238.41
748.03	238.11
748.36	237.82
748.68	237.50
749.01	237.17
749.34	236.88
749.67	236.58
750.00	236.35
750.33	236.19
750.65	235.95
750.98	235.42
751.31	235.19
751.64	235.01
751.97	234.90
752.29	234.68
752.62	234.35
752.95	234.09
753.28	233.81
753.60	233.60
753.93	233.43
754.26	233.25
754.59	233.00
754.91	232.77
755.24	232.57
755.57	232.35
755.90	232.17
756.22	231.92
756.55	231.71
756.88	231.45
757.20	231.17
757.53	230.92
757.86	230.69
758.19	230.50
758.51	230.30
758.84	230.02
759.17	229.79
759.49	229.64
759.82	229.60
760.15	229.47
760.47	229.30
760.80	229.04
761.13	228.90
761.45	228.74
761.78	228.57
762.11	228.41
762.43	228.26
762.76	228.08
763.08	227.93
763.41	227.79
763.74	227.65
764.06	227.48
764.39	227.36
764.71	227.24
765.04	227.08
765.37	226.92
765.69	226.77
766.02	226.62
766.34	226.46
766.67	226.21
767.00	226.11
767.32	226.07
767.65	226.06
767.97	225.90
768.30	225.78
768.62	225.68
768.95	225.53
769.27	225.41
769.60	225.33
769.92	225.23
770.25	225.09
770.57	224.95
770.90	224.84
771.22	224.72
771.55	224.59
771.87	224.49
772.20	224.36
772.52	224.44
772.85	224.61
773.17	224.52
773.50	224.44
773.82	224.31
774.15	224.12
774.47	223.90
774.80	223.81
775.12	223.72
775.45	223.63
775.77	223.53
776.09	223.40
776.42	223.30
776.74	223.26
777.07	223.14
777.39	223.11
777.72	223.01
778.04	222.94
778.36	222.88
778.69	222.81
779.01	222.75
779.33	222.50
779.66	222.15
779.98	222.05
780.31	221.97
780.63	221.98
780.95	221.93
781.28	221.90
781.60	221.82
781.92	221.75
782.25	221.63
782.57	221.60
782.89	221.59
783.22	221.54
783.54	221.42
783.86	221.37
784.19	221.25
784.51	221.23
784.83	221.12
785.16	221.05
785.48	220.99
785.80	220.95
786.12	220.92
