SpectraSuite Data File
++++++++++++++++++++++++++++++++++++
Date: Tue Jan 29 16:54:01 EST 2013
User: group
Dark Spectrum Present: No
Reference Spectrum Present: No
Number of Sampled Component Spectra: 1
Spectrometers: USB2E7196
Integration Time (usec): 65000 (USB2E7196)
Spectra Averaged: 100 (USB2E7196)
Boxcar Smoothing: 10 (USB2E7196)
Correct for Electrical Dark: No (USB2E7196)
Strobe/Lamp Enabled: No (USB2E7196)
Correct for Detector Non-linearity: No (USB2E7196)
Correct for Stray Light: No (USB2E7196)
Number of Pixels in Processed Spectrum: 2048
>>>>>Begin Processed Spectral Data<<<<<
339.09	0.00
339.48	200.45
339.86	202.98
340.24	204.03
340.63	205.66
341.01	209.86
341.39	209.31
341.78	210.40
342.16	211.26
342.54	211.83
342.93	200.72
343.31	210.86
343.69	211.44
344.07	211.89
344.46	212.34
344.84	212.76
345.22	212.94
345.60	213.17
345.99	213.37
346.37	213.52
346.75	213.61
347.13	213.69
347.52	213.76
347.90	213.89
348.28	213.93
348.66	214.02
349.05	214.00
349.43	214.09
349.81	214.16
350.19	214.21
350.57	214.26
350.96	214.35
351.34	214.47
351.72	214.58
352.10	214.69
352.48	214.78
352.87	214.80
353.25	214.89
353.63	214.95
354.01	214.97
354.39	215.05
354.77	215.14
355.15	215.29
355.54	215.36
355.92	215.36
356.30	215.45
356.68	215.67
357.06	215.78
357.44	215.79
357.82	215.84
358.20	215.95
358.58	216.05
358.97	216.12
359.35	216.24
359.73	216.33
360.11	216.38
360.49	216.44
360.87	216.51
361.25	216.59
361.63	216.73
362.01	216.79
362.39	216.84
362.77	216.88
363.15	216.87
363.53	216.92
363.91	216.97
364.29	216.99
364.67	216.77
365.05	216.75
365.43	216.81
365.81	216.85
366.19	216.92
366.57	216.99
366.95	216.99
367.33	216.92
367.71	216.92
368.09	216.95
368.47	216.91
368.85	216.92
369.23	216.94
369.61	216.83
369.99	216.90
370.37	216.89
370.75	217.00
371.13	216.95
371.51	216.90
371.89	216.87
372.27	216.86
372.65	216.86
373.03	216.85
373.41	216.82
373.78	216.75
374.16	216.62
374.54	216.51
374.92	216.45
375.30	216.39
375.68	216.32
376.06	216.30
376.44	216.26
376.82	216.20
377.19	216.15
377.57	216.09
377.95	215.97
378.33	215.93
378.71	215.72
379.09	215.71
379.47	215.68
379.84	215.64
380.22	215.59
380.60	215.53
380.98	215.47
381.36	215.40
381.73	215.34
382.11	215.31
382.49	215.27
382.87	215.19
383.25	215.15
383.62	215.39
384.00	215.32
384.38	215.30
384.76	215.34
385.13	215.40
385.51	215.38
385.89	215.30
386.27	215.25
386.64	215.31
387.02	215.25
387.40	215.21
387.78	215.17
388.15	215.12
388.53	215.06
388.91	215.07
389.29	215.02
389.66	215.05
390.04	215.01
390.42	215.03
390.79	215.04
391.17	215.04
391.55	214.76
391.92	214.74
392.30	214.75
392.68	214.67
393.05	214.62
393.43	214.64
393.81	214.67
394.18	214.64
394.56	214.59
394.94	214.66
395.31	214.63
395.69	214.72
396.06	214.77
396.44	214.83
396.82	214.81
397.19	214.97
397.57	214.99
397.95	215.06
398.32	215.01
398.70	215.08
399.07	215.16
399.45	215.21
399.82	215.24
400.20	215.27
400.58	215.32
400.95	215.30
401.33	215.39
401.70	215.64
402.08	215.74
402.45	215.88
402.83	216.02
403.20	216.16
403.58	216.22
403.95	216.41
404.33	216.54
404.71	216.69
405.08	216.95
405.46	217.04
405.83	217.24
406.21	217.47
406.58	217.69
406.96	217.91
407.33	218.19
407.70	218.54
408.08	219.03
408.45	219.40
408.83	219.78
409.20	220.11
409.58	220.38
409.95	220.85
410.33	221.30
410.70	221.75
411.08	222.32
411.45	222.91
411.82	223.48
412.20	224.18
412.57	225.01
412.95	225.57
413.32	226.46
413.69	227.33
414.07	228.25
414.44	229.24
414.82	230.25
415.19	231.44
415.56	232.65
415.94	233.84
416.31	235.27
416.68	236.72
417.06	238.36
417.43	239.92
417.81	241.67
418.18	243.48
418.55	245.44
418.93	247.48
419.30	249.61
419.67	251.85
420.04	254.16
420.42	256.58
420.79	259.45
421.16	262.25
421.54	265.16
421.91	268.18
422.28	271.30
422.66	274.67
423.03	277.92
423.40	281.29
423.77	284.86
424.15	288.52
424.52	292.36
424.89	296.58
425.26	300.70
425.64	304.59
426.01	308.93
426.38	313.39
426.75	317.96
427.13	322.66
427.50	327.67
427.87	332.89
428.24	338.11
428.61	343.12
428.99	348.68
429.36	354.68
429.73	360.63
430.10	366.50
430.47	372.60
430.85	378.93
431.22	385.68
431.59	392.86
431.96	399.71
432.33	407.20
432.70	414.43
433.08	422.96
433.45	431.05
433.82	439.12
434.19	448.03
434.56	456.76
434.93	465.17
435.30	473.45
435.68	482.57
436.05	491.61
436.42	500.52
436.79	508.70
437.16	517.55
437.53	526.83
437.90	536.07
438.27	544.94
438.64	554.16
439.01	562.63
439.38	570.18
439.75	577.50
440.13	586.03
440.50	593.99
440.87	600.50
441.24	607.18
441.61	614.49
441.98	619.92
442.35	626.26
442.72	632.65
443.09	638.79
443.46	642.63
443.83	645.20
444.20	647.48
444.57	650.65
444.94	652.07
445.31	653.53
445.68	655.01
446.05	655.81
446.42	655.10
446.79	654.31
447.16	653.32
447.53	652.61
447.90	649.29
448.27	646.04
448.64	641.40
449.01	638.08
449.37	632.19
449.74	626.53
450.11	619.61
450.48	612.21
450.85	604.71
451.22	598.17
451.59	591.99
451.96	586.14
452.33	578.26
452.70	571.17
453.07	562.66
453.43	553.90
453.80	545.51
454.17	537.46
454.54	529.79
454.91	521.55
455.28	513.54
455.65	506.05
456.02	498.49
456.38	492.07
456.75	484.16
457.12	477.49
457.49	470.87
457.86	464.64
458.23	459.15
458.59	453.21
458.96	447.14
459.33	441.76
459.70	436.30
460.07	432.01
460.43	427.07
460.80	422.42
461.17	418.43
461.54	414.19
461.91	410.15
462.27	406.03
462.64	402.60
463.01	398.76
463.38	395.06
463.74	391.34
464.11	388.10
464.48	385.22
464.85	382.16
465.21	379.73
465.58	377.11
465.95	373.97
466.32	371.32
466.68	368.72
467.05	366.14
467.42	363.59
467.78	360.88
468.15	358.31
468.52	356.40
468.88	353.89
469.25	351.64
469.62	349.82
469.98	347.84
470.35	345.97
470.72	344.25
471.08	342.41
471.45	340.91
471.82	339.32
472.18	337.63
472.55	336.43
472.92	335.00
473.28	333.73
473.65	332.57
474.02	331.45
474.38	330.54
474.75	329.76
475.11	328.89
475.48	328.25
475.85	327.77
476.21	327.24
476.58	326.85
476.94	326.59
477.31	326.26
477.67	326.01
478.04	325.87
478.41	325.85
478.77	326.02
479.14	325.97
479.50	326.09
479.87	326.36
480.23	326.64
480.60	326.89
480.96	327.16
481.33	327.72
481.69	328.26
482.06	328.78
482.42	329.27
482.79	329.86
483.15	330.66
483.52	331.62
483.88	332.51
484.25	333.43
484.61	334.44
484.98	335.48
485.34	336.76
485.71	338.11
486.07	339.51
486.44	340.89
486.80	342.48
487.17	344.18
487.53	346.04
487.90	347.92
488.26	349.96
488.62	352.13
488.99	354.18
489.35	356.34
489.72	358.71
490.08	361.25
490.44	363.79
490.81	366.50
491.17	369.19
491.54	372.22
491.90	375.29
492.26	378.48
492.63	381.90
492.99	385.39
493.36	389.04
493.72	392.96
494.08	396.93
494.45	401.14
494.81	405.43
495.17	409.86
495.54	414.54
495.90	419.33
496.26	424.28
496.63	429.49
496.99	434.91
497.35	440.45
497.72	446.24
498.08	452.20
498.44	458.26
498.80	464.70
499.17	471.17
499.53	477.82
499.89	484.71
500.26	491.65
500.62	498.74
500.98	506.08
501.34	513.46
501.71	521.12
502.07	528.83
502.43	536.85
502.79	544.95
503.16	553.32
503.52	561.91
503.88	570.57
504.24	579.49
504.60	588.44
504.97	597.60
505.33	606.78
505.69	616.56
506.05	626.43
506.41	636.20
506.78	646.24
507.14	656.51
507.50	666.97
507.86	677.64
508.22	688.34
508.59	698.99
508.95	710.03
509.31	721.39
509.67	732.88
510.03	744.22
510.39	755.87
510.75	767.61
511.12	779.48
511.48	791.49
511.84	803.69
512.20	816.10
512.56	828.87
512.92	841.77
513.28	854.42
513.64	867.08
514.00	879.91
514.37	892.79
514.73	905.85
515.09	918.85
515.45	931.69
515.81	944.74
516.17	958.16
516.53	971.44
516.89	984.47
517.25	997.58
517.61	1011.09
517.97	1024.46
518.33	1037.78
518.69	1051.47
519.05	1065.29
519.41	1079.02
519.77	1092.88
520.13	1106.01
520.49	1119.18
520.85	1132.58
521.21	1146.00
521.57	1159.72
521.93	1172.76
522.29	1186.45
522.65	1200.01
523.01	1213.68
523.37	1226.83
523.73	1240.15
524.09	1253.25
524.45	1266.62
524.81	1280.18
525.17	1293.50
525.53	1306.81
525.89	1320.02
526.25	1333.02
526.61	1345.83
526.97	1358.89
527.33	1371.86
527.68	1385.36
528.04	1398.79
528.40	1411.93
528.76	1425.35
529.12	1438.26
529.48	1451.71
529.84	1464.02
530.20	1476.85
530.56	1489.40
530.91	1502.73
531.27	1515.63
531.63	1528.49
531.99	1541.36
532.35	1553.72
532.71	1566.23
533.07	1579.12
533.42	1591.46
533.78	1603.51
534.14	1615.72
534.50	1626.96
534.86	1638.54
535.21	1649.52
535.57	1661.13
535.93	1672.45
536.29	1683.55
536.65	1695.04
537.00	1705.98
537.36	1717.51
537.72	1728.63
538.08	1740.30
538.44	1751.49
538.79	1762.72
539.15	1773.80
539.51	1784.74
539.87	1796.09
540.22	1807.14
540.58	1818.13
540.94	1829.13
541.29	1839.69
541.65	1849.49
542.01	1860.14
542.37	1870.35
542.72	1880.47
543.08	1890.11
543.44	1900.70
543.79	1909.99
544.15	1919.52
544.51	1929.59
544.87	1939.43
545.22	1948.79
545.58	1957.68
545.94	1966.48
546.29	1974.94
546.65	1983.25
547.01	1991.42
547.36	1999.07
547.72	2006.61
548.07	2014.31
548.43	2021.96
548.79	2029.83
549.14	2037.86
549.50	2046.45
549.86	2054.44
550.21	2062.02
550.57	2069.91
550.92	2076.64
551.28	2084.27
551.64	2091.52
551.99	2098.98
552.35	2106.40
552.70	2113.18
553.06	2119.88
553.41	2126.12
553.77	2132.70
554.13	2139.03
554.48	2145.92
554.84	2153.04
555.19	2159.67
555.55	2166.10
555.90	2172.44
556.26	2179.12
556.61	2185.54
556.97	2190.36
557.32	2195.97
557.68	2202.33
558.03	2208.03
558.39	2213.50
558.74	2219.44
559.10	2224.94
559.45	2230.48
559.81	2235.80
560.16	2241.29
560.52	2247.05
560.87	2253.40
561.23	2259.08
561.58	2265.75
561.94	2271.04
562.29	2275.60
562.64	2281.56
563.00	2287.09
563.35	2292.59
563.71	2298.27
564.06	2303.77
564.42	2309.55
564.77	2314.64
565.12	2319.82
565.48	2324.84
565.83	2330.19
566.19	2335.38
566.54	2340.69
566.89	2345.08
567.25	2349.48
567.60	2355.16
567.96	2360.17
568.31	2364.61
568.66	2368.89
569.02	2372.56
569.37	2376.24
569.72	2380.63
570.08	2384.06
570.43	2387.13
570.78	2390.26
571.14	2392.63
571.49	2395.52
571.84	2398.83
572.20	2401.62
572.55	2404.50
572.90	2406.68
573.26	2409.30
573.61	2411.74
573.96	2413.73
574.31	2415.85
574.67	2417.80
575.02	2418.24
575.37	2419.56
575.72	2420.09
576.08	2421.49
576.43	2421.53
576.78	2421.77
577.13	2423.09
577.49	2424.26
577.84	2425.05
578.19	2425.99
578.54	2426.46
578.90	2426.95
579.25	2426.70
579.60	2426.35
579.95	2425.41
580.30	2425.27
580.66	2424.47
581.01	2422.82
581.36	2420.22
581.71	2418.48
582.06	2417.00
582.42	2415.97
582.77	2413.38
583.12	2411.66
583.47	2409.90
583.82	2409.07
584.17	2407.56
584.53	2405.27
584.88	2402.82
585.23	2400.67
585.58	2398.11
585.93	2395.86
586.28	2393.58
586.63	2390.87
586.98	2388.49
587.34	2386.21
587.69	2383.54
588.04	2381.25
588.39	2379.36
588.74	2376.70
589.09	2373.83
589.44	2370.50
589.79	2367.88
590.14	2365.83
590.49	2362.85
590.84	2358.83
591.19	2355.53
591.54	2352.28
591.89	2348.12
592.25	2344.73
592.60	2340.45
592.95	2336.30
593.30	2332.16
593.65	2327.60
594.00	2323.14
594.35	2320.00
594.70	2315.23
595.05	2310.60
595.40	2304.98
595.75	2299.09
596.10	2295.41
596.45	2290.43
596.80	2285.67
597.15	2280.40
597.50	2274.50
597.85	2269.39
598.19	2264.17
598.54	2258.42
598.89	2253.09
599.24	2248.49
599.59	2242.25
599.94	2236.41
600.29	2230.42
600.64	2224.25
600.99	2217.27
601.34	2211.65
601.69	2204.60
602.04	2198.31
602.39	2191.59
602.74	2185.48
603.08	2180.05
603.43	2173.50
603.78	2166.79
604.13	2159.95
604.48	2152.62
604.83	2146.43
605.18	2140.32
605.53	2133.50
605.87	2126.45
606.22	2119.73
606.57	2111.78
606.92	2103.91
607.27	2097.03
607.62	2090.38
607.96	2083.47
608.31	2077.26
608.66	2069.62
609.01	2062.06
609.36	2054.87
609.70	2047.20
610.05	2039.46
610.40	2031.17
610.75	2022.88
611.10	2014.99
611.44	2005.97
611.79	1997.36
612.14	1987.49
612.49	1976.76
612.83	1967.34
613.18	1958.06
613.53	1948.63
613.88	1939.17
614.22	1930.50
614.57	1920.57
614.92	1910.11
615.27	1899.81
615.61	1889.51
615.96	1879.91
616.31	1870.39
616.65	1860.99
617.00	1851.50
617.35	1841.84
617.70	1832.25
618.04	1822.41
618.39	1812.46
618.74	1802.88
619.08	1793.22
619.43	1784.54
619.78	1776.40
620.12	1767.95
620.47	1758.55
620.82	1748.33
621.16	1738.61
621.51	1728.84
621.85	1719.19
622.20	1708.98
622.55	1698.70
622.89	1688.99
623.24	1679.39
623.59	1669.62
623.93	1659.70
624.28	1649.97
624.62	1640.03
624.97	1629.87
625.32	1620.08
625.66	1611.27
626.01	1602.69
626.35	1593.55
626.70	1583.62
627.04	1573.63
627.39	1563.56
627.73	1554.40
628.08	1545.74
628.43	1536.16
628.77	1527.07
629.12	1518.24
629.46	1510.46
629.81	1502.23
630.15	1492.83
630.50	1483.12
630.84	1472.82
631.19	1463.10
631.53	1453.98
631.88	1443.99
632.22	1434.07
632.57	1424.86
632.91	1414.77
633.26	1404.91
633.60	1395.55
633.95	1386.46
634.29	1377.14
634.64	1367.99
634.98	1358.05
635.32	1348.69
635.67	1340.47
636.01	1331.27
636.36	1321.67
636.70	1312.27
637.05	1302.92
637.39	1294.17
637.73	1285.63
638.08	1278.09
638.42	1270.10
638.77	1261.38
639.11	1253.22
639.45	1245.55
639.80	1237.15
640.14	1228.63
640.49	1219.92
640.83	1211.08
641.17	1202.95
641.52	1194.98
641.86	1186.51
642.20	1178.85
642.55	1170.37
642.89	1161.49
643.23	1153.08
643.58	1145.04
643.92	1136.15
644.26	1127.58
644.61	1119.27
644.95	1110.58
645.29	1101.53
645.64	1092.36
645.98	1083.85
646.32	1076.10
646.66	1067.59
647.01	1059.40
647.35	1051.42
647.69	1043.26
648.04	1035.06
648.38	1026.27
648.72	1017.57
649.06	1009.26
649.41	1001.12
649.75	993.29
650.09	985.62
650.43	977.56
650.78	969.32
651.12	961.68
651.46	954.36
651.80	947.08
652.14	939.86
652.49	932.39
652.83	925.17
653.17	917.66
653.51	910.05
653.85	902.89
654.20	895.68
654.54	888.24
654.88	880.96
655.22	873.85
655.56	866.94
655.90	860.14
656.25	853.37
656.59	846.55
656.93	839.65
657.27	832.53
657.61	825.53
657.95	819.49
658.29	813.53
658.64	807.40
658.98	801.08
659.32	794.62
659.66	788.46
660.00	782.15
660.34	776.12
660.68	770.03
661.02	763.74
661.36	757.79
661.70	752.03
662.05	746.49
662.39	741.06
662.73	735.59
663.07	730.26
663.41	724.78
663.75	719.05
664.09	713.34
664.43	707.93
664.77	702.69
665.11	696.88
665.45	691.05
665.79	685.36
666.13	679.67
666.47	674.19
666.81	668.69
667.15	663.30
667.49	658.10
667.83	652.85
668.17	647.64
668.51	642.50
668.85	637.56
669.19	632.70
669.53	627.68
669.87	622.61
670.21	617.83
670.55	613.11
670.89	608.67
671.23	604.36
671.57	599.98
671.91	595.72
672.25	591.58
672.58	587.44
672.92	583.35
673.26	579.45
673.60	575.56
673.94	571.77
674.28	568.15
674.62	564.38
674.96	560.62
675.30	557.09
675.64	553.40
675.97	549.82
676.31	546.18
676.65	542.51
676.99	539.07
677.33	535.24
677.67	531.59
678.01	527.80
678.34	524.10
678.68	520.62
679.02	516.95
679.36	513.25
679.70	509.57
680.04	505.97
680.37	502.42
680.71	499.04
681.05	495.85
681.39	492.53
681.73	489.35
682.06	486.28
682.40	483.14
682.74	479.98
683.08	476.70
683.42	473.49
683.75	470.45
684.09	467.41
684.43	464.63
684.77	461.71
685.10	458.76
685.44	455.85
685.78	452.89
686.12	450.11
686.45	447.36
686.79	444.69
687.13	442.17
687.46	439.57
687.80	436.89
688.14	434.04
688.48	431.41
688.81	428.69
689.15	426.11
689.49	423.52
689.82	420.95
690.16	418.38
690.50	415.88
690.83	413.42
691.17	410.86
691.51	408.29
691.84	405.97
692.18	403.75
692.52	401.54
692.85	399.36
693.19	397.19
693.52	395.03
693.86	392.76
694.20	390.51
694.53	388.35
694.87	386.15
695.21	384.01
695.54	381.84
695.88	379.64
696.21	377.40
696.55	375.28
696.88	373.21
697.22	371.19
697.56	369.31
697.89	367.38
698.23	365.62
698.56	363.78
698.90	362.01
699.23	360.11
699.57	358.24
699.90	356.35
700.24	354.49
700.58	352.70
700.91	351.02
701.25	349.43
701.58	347.78
701.92	346.14
702.25	344.53
702.59	342.89
702.92	341.37
703.26	339.80
703.59	338.30
703.93	337.01
704.26	335.58
704.60	334.02
704.93	332.48
705.26	330.94
705.60	329.50
705.93	327.94
706.27	326.58
706.60	325.21
706.94	323.95
707.27	322.58
707.61	321.22
707.94	319.86
708.27	318.30
708.61	316.81
708.94	315.42
709.28	314.09
709.61	312.84
709.94	311.56
710.28	310.33
710.61	309.10
710.95	307.63
711.28	306.53
711.61	305.32
711.95	304.20
712.28	303.00
712.61	301.74
712.95	300.68
713.28	299.63
713.61	298.48
713.95	297.31
714.28	296.27
714.61	295.17
714.95	294.11
715.28	293.07
715.61	292.03
715.95	291.06
716.28	290.05
716.61	289.05
716.95	288.08
717.28	287.15
717.61	286.15
717.94	285.26
718.28	284.20
718.61	283.31
718.94	282.39
719.27	281.51
719.61	280.72
719.94	279.84
720.27	278.87
720.60	277.95
720.94	277.14
721.27	276.37
721.60	275.68
721.93	275.01
722.27	274.38
722.60	273.74
722.93	273.01
723.26	272.39
723.59	271.67
723.93	271.02
724.26	270.34
724.59	269.67
724.92	269.03
725.25	268.50
725.59	267.91
725.92	267.37
726.25	266.79
726.58	266.19
726.91	265.59
727.24	265.01
727.57	264.51
727.91	263.89
728.24	263.30
728.57	262.68
728.90	262.10
729.23	261.45
729.56	260.97
729.89	260.42
730.22	259.81
730.55	259.28
730.89	258.72
731.22	258.17
731.55	257.69
731.88	257.18
732.21	256.61
732.54	256.05
732.87	255.53
733.20	255.05
733.53	254.58
733.86	254.08
734.19	253.59
734.52	253.15
734.85	252.83
735.18	252.35
735.51	251.98
735.84	251.56
736.17	251.17
736.50	250.63
736.83	250.49
737.16	250.15
737.49	249.76
737.82	249.31
738.15	248.93
738.48	248.54
738.81	248.12
739.14	247.69
739.47	247.34
739.80	246.94
740.13	246.54
740.46	246.13
740.79	245.75
741.12	245.36
741.45	245.00
741.78	244.55
742.11	244.28
742.44	243.94
742.77	243.59
743.10	243.22
743.43	242.87
743.75	242.28
744.08	242.14
744.41	241.82
744.74	241.47
745.07	241.08
745.40	240.75
745.73	240.48
746.06	240.15
746.39	239.84
746.71	239.50
747.04	239.16
747.37	238.83
747.70	238.55
748.03	238.28
748.36	237.99
748.68	237.68
749.01	237.30
749.34	236.98
749.67	236.69
750.00	236.44
750.33	236.30
750.65	236.02
750.98	235.51
751.31	235.21
751.64	234.98
751.97	234.88
752.29	234.56
752.62	234.22
752.95	234.01
753.28	233.71
753.60	233.45
753.93	233.27
754.26	233.08
754.59	232.81
754.91	232.56
755.24	232.32
755.57	232.09
755.90	231.91
756.22	231.68
756.55	231.46
756.88	231.20
757.20	230.87
757.53	230.60
757.86	230.40
758.19	230.23
758.51	230.01
758.84	229.70
759.17	229.57
759.49	229.42
759.82	229.29
760.15	229.13
760.47	228.95
760.80	228.69
761.13	228.50
761.45	228.29
761.78	228.09
762.11	227.91
762.43	227.71
762.76	227.51
763.08	227.33
763.41	227.19
763.74	227.04
764.06	226.88
764.39	226.78
764.71	226.62
765.04	226.42
765.37	226.29
765.69	226.13
766.02	225.97
766.34	225.83
766.67	225.62
767.00	225.53
767.32	225.53
767.65	225.53
767.97	225.39
768.30	225.28
768.62	225.18
768.95	224.99
769.27	224.87
769.60	224.77
769.92	224.62
770.25	224.43
770.57	224.26
770.90	224.15
771.22	224.00
771.55	223.87
771.87	223.78
772.20	223.62
772.52	223.69
772.85	223.81
773.17	223.67
773.50	223.53
773.82	223.42
774.15	223.20
774.47	222.98
774.80	222.91
775.12	222.79
775.45	222.67
775.77	222.64
776.09	222.57
776.42	222.46
776.74	222.44
777.07	222.34
777.39	222.25
777.72	222.14
778.04	222.06
778.36	221.97
778.69	221.90
779.01	221.84
779.33	221.58
779.66	221.24
779.98	221.14
780.31	221.08
780.63	221.05
780.95	221.00
781.28	220.91
781.60	220.80
781.92	220.72
782.25	220.67
782.57	220.58
782.89	220.48
783.22	220.39
783.54	220.27
783.86	220.21
784.19	220.16
784.51	220.13
784.83	220.06
785.16	220.00
785.48	219.91
785.80	219.84
786.12	219.81
