SpectraSuite Data File
++++++++++++++++++++++++++++++++++++
Date: Tue Jan 29 16:10:09 EST 2013
User: group
Dark Spectrum Present: No
Reference Spectrum Present: No
Number of Sampled Component Spectra: 1
Spectrometers: USB2E7196
Integration Time (usec): 65000 (USB2E7196)
Spectra Averaged: 100 (USB2E7196)
Boxcar Smoothing: 10 (USB2E7196)
Correct for Electrical Dark: No (USB2E7196)
Strobe/Lamp Enabled: No (USB2E7196)
Correct for Detector Non-linearity: No (USB2E7196)
Correct for Stray Light: No (USB2E7196)
Number of Pixels in Processed Spectrum: 2048
>>>>>Begin Processed Spectral Data<<<<<
339.09	0.00
339.48	202.67
339.86	204.04
340.24	205.52
340.63	207.23
341.01	211.35
341.39	209.53
341.78	211.20
342.16	211.60
342.54	212.53
342.93	201.71
343.31	211.90
343.69	212.41
344.07	212.86
344.46	213.27
344.84	213.67
345.22	213.85
345.60	214.12
345.99	214.32
346.37	214.51
346.75	214.62
347.13	214.70
347.52	214.80
347.90	214.96
348.28	214.99
348.66	215.08
349.05	215.01
349.43	215.07
349.81	215.10
350.19	215.17
350.57	215.26
350.96	215.33
351.34	215.43
351.72	215.56
352.10	215.68
352.48	215.78
352.87	215.80
353.25	215.86
353.63	215.88
354.01	215.93
354.39	215.97
354.77	216.05
355.15	216.19
355.54	216.22
355.92	216.21
356.30	216.28
356.68	216.48
357.06	216.58
357.44	216.61
357.82	216.67
358.20	216.73
358.58	216.79
358.97	216.85
359.35	216.97
359.73	217.06
360.11	217.13
360.49	217.16
360.87	217.19
361.25	217.26
361.63	217.42
362.01	217.47
362.39	217.52
362.77	217.56
363.15	217.57
363.53	217.59
363.91	217.62
364.29	217.64
364.67	217.46
365.05	217.50
365.43	217.55
365.81	217.60
366.19	217.69
366.57	217.75
366.95	217.74
367.33	217.66
367.71	217.59
368.09	217.61
368.47	217.61
368.85	217.61
369.23	217.64
369.61	217.56
369.99	217.64
370.37	217.63
370.75	217.75
371.13	217.70
371.51	217.66
371.89	217.69
372.27	217.67
372.65	217.69
373.03	217.67
373.41	217.63
373.78	217.57
374.16	217.48
374.54	217.41
374.92	217.36
375.30	217.34
375.68	217.33
376.06	217.30
376.44	217.26
376.82	217.24
377.19	217.20
377.57	217.13
377.95	217.00
378.33	216.95
378.71	216.74
379.09	216.75
379.47	216.76
379.84	216.70
380.22	216.67
380.60	216.58
380.98	216.52
381.36	216.47
381.73	216.42
382.11	216.42
382.49	216.43
382.87	216.37
383.25	216.34
383.62	216.55
384.00	216.44
384.38	216.42
384.76	216.42
385.13	216.45
385.51	216.43
385.89	216.39
386.27	216.37
386.64	216.36
387.02	216.32
387.40	216.27
387.78	216.27
388.15	216.23
388.53	216.19
388.91	216.16
389.29	216.11
389.66	216.12
390.04	216.03
390.42	216.00
390.79	216.03
391.17	216.01
391.55	215.76
391.92	215.78
392.30	215.82
392.68	215.77
393.05	215.74
393.43	215.74
393.81	215.77
394.18	215.73
394.56	215.78
394.94	215.78
395.31	215.75
395.69	215.79
396.06	215.81
396.44	215.84
396.82	215.86
397.19	216.00
397.57	216.00
397.95	216.10
398.32	216.08
398.70	216.12
399.07	216.21
399.45	216.25
399.82	216.29
400.20	216.28
400.58	216.33
400.95	216.31
401.33	216.42
401.70	216.63
402.08	216.74
402.45	216.81
402.83	216.93
403.20	217.08
403.58	217.17
403.95	217.36
404.33	217.53
404.71	217.67
405.08	217.91
405.46	218.10
405.83	218.26
406.21	218.46
406.58	218.68
406.96	218.89
407.33	219.13
407.70	219.43
408.08	219.87
408.45	220.24
408.83	220.65
409.20	220.98
409.58	221.21
409.95	221.66
410.33	222.11
410.70	222.56
411.08	223.06
411.45	223.61
411.82	224.12
412.20	224.81
412.57	225.65
412.95	226.13
413.32	226.91
413.69	227.75
414.07	228.62
414.44	229.57
414.82	230.54
415.19	231.69
415.56	232.85
415.94	233.99
416.31	235.34
416.68	236.66
417.06	238.20
417.43	239.69
417.81	241.38
418.18	243.10
418.55	244.99
418.93	246.97
419.30	248.96
419.67	251.09
420.04	253.26
420.42	255.52
420.79	258.31
421.16	261.01
421.54	263.79
421.91	266.70
422.28	269.71
422.66	272.90
423.03	276.03
423.40	279.26
423.77	282.74
424.15	286.27
424.52	289.95
424.89	293.97
425.26	297.95
425.64	301.70
426.01	305.81
426.38	310.09
426.75	314.45
427.13	319.05
427.50	323.89
427.87	328.93
428.24	333.93
428.61	338.76
428.99	344.08
429.36	349.87
429.73	355.53
430.10	361.19
430.47	367.06
430.85	373.15
431.22	379.63
431.59	386.49
431.96	393.09
432.33	400.37
432.70	407.33
433.08	415.52
433.45	423.32
433.82	431.08
434.19	439.65
434.56	448.07
434.93	456.15
435.30	464.16
435.68	472.94
436.05	481.62
436.42	490.17
436.79	498.04
437.16	506.51
437.53	515.42
437.90	524.21
438.27	532.87
438.64	541.78
439.01	549.99
439.38	557.36
439.75	564.39
440.13	572.51
440.50	580.23
440.87	586.39
441.24	592.79
441.61	599.89
441.98	605.11
442.35	611.20
442.72	617.22
443.09	623.11
443.46	626.68
443.83	629.10
444.20	631.21
444.57	634.22
444.94	635.52
445.31	636.95
445.68	638.26
446.05	638.83
446.42	638.05
446.79	637.11
447.16	636.00
447.53	635.26
447.90	631.99
448.27	628.75
448.64	624.24
449.01	620.95
449.37	615.28
449.74	609.79
450.11	603.13
450.48	595.96
450.85	588.67
451.22	582.46
451.59	576.54
451.96	570.91
452.33	563.33
452.70	556.52
453.07	548.35
453.43	540.03
453.80	532.04
454.17	524.38
454.54	517.09
454.91	509.18
455.28	501.50
455.65	494.44
456.02	487.33
456.38	481.26
456.75	473.73
457.12	467.38
457.49	461.15
457.86	455.15
458.23	450.10
458.59	444.44
458.96	438.69
459.33	433.62
459.70	428.49
460.07	424.44
460.43	419.80
460.80	415.40
461.17	411.58
461.54	407.56
461.91	403.66
462.27	399.74
462.64	396.48
463.01	392.84
463.38	389.27
463.74	385.65
464.11	382.51
464.48	379.82
464.85	376.80
465.21	374.45
465.58	371.96
465.95	368.88
466.32	366.36
466.68	363.83
467.05	361.31
467.42	358.87
467.78	356.30
468.15	353.84
468.52	351.97
468.88	349.62
469.25	347.49
469.62	345.70
469.98	343.82
470.35	342.05
470.72	340.44
471.08	338.74
471.45	337.32
471.82	335.92
472.18	334.29
472.55	333.16
472.92	331.82
473.28	330.67
473.65	329.59
474.02	328.52
474.38	327.68
474.75	326.97
475.11	326.17
475.48	325.64
475.85	325.19
476.21	324.76
476.58	324.39
476.94	324.18
477.31	323.96
477.67	323.76
478.04	323.67
478.41	323.64
478.77	323.84
479.14	323.79
479.50	323.94
479.87	324.25
480.23	324.54
480.60	324.80
480.96	325.10
481.33	325.72
481.69	326.33
482.06	326.86
482.42	327.37
482.79	327.98
483.15	328.78
483.52	329.74
483.88	330.64
484.25	331.60
484.61	332.64
484.98	333.70
485.34	335.04
485.71	336.43
486.07	337.84
486.44	339.09
486.80	340.73
487.17	342.34
487.53	344.18
487.90	346.11
488.26	348.15
488.62	350.25
488.99	352.31
489.35	354.48
489.72	356.88
490.08	359.42
490.44	362.00
490.81	364.65
491.17	367.35
491.54	370.32
491.90	373.38
492.26	376.60
492.63	380.05
492.99	383.51
493.36	387.15
493.72	391.06
494.08	395.09
494.45	399.22
494.81	403.61
495.17	408.05
495.54	412.73
495.90	417.52
496.26	422.52
496.63	427.62
496.99	432.96
497.35	438.47
497.72	444.28
498.08	450.20
498.44	456.23
498.80	462.67
499.17	469.13
499.53	475.82
499.89	482.65
500.26	489.53
500.62	496.55
500.98	503.94
501.34	511.37
501.71	519.15
502.07	526.96
502.43	534.91
502.79	542.98
503.16	551.21
503.52	559.74
503.88	568.34
504.24	577.30
504.60	586.36
504.97	595.54
505.33	604.74
505.69	614.49
506.05	624.40
506.41	634.18
506.78	644.13
507.14	654.28
507.50	664.71
507.86	675.35
508.22	686.13
508.59	696.68
508.95	707.71
509.31	718.84
509.67	730.24
510.03	741.56
510.39	753.25
510.75	765.14
511.12	777.08
511.48	789.10
511.84	801.23
512.20	813.46
512.56	826.04
512.92	838.70
513.28	851.24
513.64	863.82
514.00	876.51
514.37	889.40
514.73	902.40
515.09	915.19
515.45	927.89
515.81	940.70
516.17	953.99
516.53	967.04
516.89	980.06
517.25	993.11
517.61	1006.52
517.97	1019.81
518.33	1032.67
518.69	1045.90
519.05	1059.36
519.41	1072.77
519.77	1086.41
520.13	1099.47
520.49	1112.46
520.85	1125.61
521.21	1138.79
521.57	1152.28
521.93	1165.17
522.29	1178.66
522.65	1192.15
523.01	1205.65
523.37	1218.60
523.73	1231.63
524.09	1244.53
524.45	1257.73
524.81	1270.85
525.17	1283.89
525.53	1296.59
525.89	1309.79
526.25	1322.61
526.61	1335.25
526.97	1348.14
527.33	1360.77
527.68	1373.91
528.04	1387.16
528.40	1400.00
528.76	1412.99
529.12	1425.49
529.48	1438.47
529.84	1450.38
530.20	1462.77
530.56	1475.02
530.91	1488.13
531.27	1500.62
531.63	1513.16
531.99	1525.50
532.35	1537.57
532.71	1549.71
533.07	1562.40
533.42	1574.16
533.78	1585.95
534.14	1597.65
534.50	1608.56
534.86	1619.90
535.21	1630.52
535.57	1641.64
535.93	1652.62
536.29	1663.41
536.65	1674.65
537.00	1685.40
537.36	1696.60
537.72	1707.35
538.08	1718.43
538.44	1728.90
538.79	1739.56
539.15	1749.96
539.51	1760.41
539.87	1771.41
540.22	1781.76
540.58	1792.27
540.94	1802.80
541.29	1812.89
541.65	1822.37
542.01	1832.71
542.37	1842.35
542.72	1852.24
543.08	1861.75
543.44	1871.82
543.79	1880.96
544.15	1890.06
544.51	1899.62
544.87	1909.13
545.22	1918.00
545.58	1926.62
545.94	1935.26
546.29	1943.57
546.65	1951.75
547.01	1959.76
547.36	1967.19
547.72	1974.74
548.07	1982.23
548.43	1989.77
548.79	1997.41
549.14	2005.28
549.50	2013.31
549.86	2020.98
550.21	2028.07
550.57	2035.48
550.92	2042.04
551.28	2049.23
551.64	2056.39
551.99	2063.68
552.35	2070.63
552.70	2077.29
553.06	2083.75
553.41	2089.85
553.77	2096.26
554.13	2102.50
554.48	2109.30
554.84	2116.08
555.19	2122.50
555.55	2128.77
555.90	2135.09
556.26	2141.61
556.61	2147.49
556.97	2152.22
557.32	2158.01
557.68	2164.33
558.03	2169.92
558.39	2175.10
558.74	2180.94
559.10	2186.34
559.45	2191.87
559.81	2197.35
560.16	2202.94
560.52	2208.84
560.87	2215.20
561.23	2221.32
561.58	2227.76
561.94	2232.86
562.29	2237.77
562.64	2243.86
563.00	2249.49
563.35	2255.08
563.71	2260.97
564.06	2266.61
564.42	2272.55
564.77	2277.65
565.12	2282.85
565.48	2288.12
565.83	2293.77
566.19	2299.21
566.54	2304.73
566.89	2309.40
567.25	2314.02
567.60	2319.67
567.96	2324.87
568.31	2329.49
568.66	2333.57
569.02	2337.70
569.37	2341.59
569.72	2346.04
570.08	2349.72
570.43	2352.81
570.78	2355.76
571.14	2358.32
571.49	2361.62
571.84	2365.40
572.20	2368.42
572.55	2371.56
572.90	2373.84
573.26	2376.94
573.61	2379.61
573.96	2381.79
574.31	2383.96
574.67	2386.03
575.02	2387.10
575.37	2388.53
575.72	2389.45
576.08	2391.05
576.43	2391.29
576.78	2392.08
577.13	2393.90
577.49	2395.08
577.84	2396.60
578.19	2398.23
578.54	2399.14
578.90	2400.23
579.25	2400.09
579.60	2400.12
579.95	2399.59
580.30	2400.10
580.66	2399.51
581.01	2397.97
581.36	2395.94
581.71	2394.80
582.06	2393.92
582.42	2393.16
582.77	2391.38
583.12	2389.96
583.47	2388.75
583.82	2388.53
584.17	2387.52
584.53	2385.44
584.88	2383.55
585.23	2381.69
585.58	2379.58
585.93	2377.56
586.28	2375.45
586.63	2373.40
586.98	2371.47
587.34	2369.82
587.69	2367.58
588.04	2365.77
588.39	2364.48
588.74	2362.11
589.09	2359.48
589.44	2356.39
589.79	2354.05
590.14	2352.12
590.49	2349.45
590.84	2345.96
591.19	2343.02
591.54	2339.87
591.89	2335.96
592.25	2332.96
592.60	2328.87
592.95	2324.99
593.30	2320.91
593.65	2316.77
594.00	2312.54
594.35	2309.60
594.70	2304.95
595.05	2300.52
595.40	2295.10
595.75	2289.74
596.10	2286.12
596.45	2281.30
596.80	2276.91
597.15	2271.84
597.50	2266.08
597.85	2261.23
598.19	2256.05
598.54	2250.26
598.89	2245.11
599.24	2240.65
599.59	2234.59
599.94	2228.99
600.29	2223.16
600.64	2217.48
600.99	2210.86
601.34	2205.35
601.69	2198.45
602.04	2192.25
602.39	2185.69
602.74	2179.85
603.08	2174.30
603.43	2167.90
603.78	2161.25
604.13	2154.28
604.48	2147.18
604.83	2141.29
605.18	2135.09
605.53	2128.11
605.87	2121.21
606.22	2114.56
606.57	2106.72
606.92	2098.92
607.27	2091.94
607.62	2085.24
607.96	2078.19
608.31	2071.67
608.66	2064.10
609.01	2056.48
609.36	2049.31
609.70	2041.72
610.05	2034.06
610.40	2025.78
610.75	2017.65
611.10	2010.14
611.44	2001.39
611.79	1992.60
612.14	1982.54
612.49	1972.00
612.83	1962.88
613.18	1953.73
613.53	1944.38
613.88	1934.86
614.22	1926.33
614.57	1916.46
614.92	1906.09
615.27	1896.15
615.61	1886.23
615.96	1876.50
616.31	1867.02
616.65	1857.80
617.00	1848.00
617.35	1838.31
617.70	1828.64
618.04	1818.55
618.39	1808.28
618.74	1798.63
619.08	1789.21
619.43	1780.62
619.78	1772.56
620.12	1763.96
620.47	1754.24
620.82	1743.97
621.16	1734.26
621.51	1724.27
621.85	1714.48
622.20	1704.05
622.55	1693.44
622.89	1683.71
623.24	1674.01
623.59	1664.29
623.93	1654.22
624.28	1644.46
624.62	1634.30
624.97	1624.14
625.32	1614.46
625.66	1605.74
626.01	1596.95
626.35	1587.46
626.70	1577.29
627.04	1567.09
627.39	1557.10
627.73	1547.80
628.08	1538.83
628.43	1529.34
628.77	1520.16
629.12	1511.40
629.46	1503.58
629.81	1495.13
630.15	1485.32
630.50	1475.57
630.84	1465.13
631.19	1455.21
631.53	1445.87
631.88	1435.78
632.22	1425.63
632.57	1416.29
632.91	1406.13
633.26	1396.26
633.60	1386.66
633.95	1377.28
634.29	1367.83
634.64	1358.49
634.98	1348.54
635.32	1339.32
635.67	1330.68
636.01	1321.49
636.36	1311.54
636.70	1302.00
637.05	1292.63
637.39	1283.66
637.73	1274.92
638.08	1267.34
638.42	1259.02
638.77	1250.26
639.11	1241.92
639.45	1234.16
639.80	1225.51
640.14	1216.77
640.49	1208.00
640.83	1199.28
641.17	1191.31
641.52	1183.07
641.86	1174.47
642.20	1166.66
642.55	1158.00
642.89	1149.19
643.23	1140.51
643.58	1132.55
643.92	1123.50
644.26	1114.92
644.61	1106.59
644.95	1097.95
645.29	1088.69
645.64	1079.59
645.98	1071.28
646.32	1063.43
646.66	1054.98
647.01	1046.66
647.35	1038.52
647.69	1030.02
648.04	1021.70
648.38	1012.73
648.72	1003.98
649.06	995.54
649.41	987.50
649.75	979.64
650.09	971.84
650.43	963.84
650.78	955.61
651.12	948.06
651.46	940.75
651.80	933.58
652.14	926.32
652.49	918.93
652.83	911.62
653.17	903.90
653.51	896.35
653.85	889.08
654.20	881.92
654.54	874.45
654.88	867.44
655.22	860.29
655.56	853.43
655.90	846.67
656.25	840.08
656.59	833.13
656.93	826.11
657.27	819.04
657.61	812.14
657.95	806.05
658.29	800.05
658.64	793.96
658.98	787.48
659.32	780.95
659.66	774.75
660.00	768.49
660.34	762.48
660.68	756.44
661.02	750.24
661.36	744.33
661.70	738.66
662.05	733.00
662.39	727.57
662.73	722.28
663.07	717.12
663.41	711.54
663.75	705.94
664.09	700.30
664.43	695.00
664.77	689.68
665.11	683.96
665.45	678.24
665.79	672.44
666.13	666.88
666.47	661.47
666.81	656.07
667.15	650.79
667.49	645.68
667.83	640.47
668.17	635.29
668.51	630.29
668.85	625.43
669.19	620.63
669.53	615.68
669.87	610.55
670.21	605.81
670.55	601.24
670.89	596.90
671.23	592.78
671.57	588.43
671.91	584.26
672.25	580.23
672.58	576.15
672.92	572.19
673.26	568.36
673.60	564.52
673.94	560.75
674.28	557.17
674.62	553.46
674.96	549.77
675.30	546.30
675.64	542.70
675.97	539.21
676.31	535.64
676.65	532.14
676.99	528.77
677.33	524.93
677.67	521.28
678.01	517.47
678.34	513.79
678.68	510.34
679.02	506.75
679.36	503.08
679.70	499.45
680.04	495.99
680.37	492.58
680.71	489.36
681.05	486.23
681.39	483.03
681.73	479.93
682.06	476.94
682.40	473.91
682.74	470.74
683.08	467.51
683.42	464.37
683.75	461.44
684.09	458.49
684.43	455.75
684.77	452.86
685.10	450.06
685.44	447.22
685.78	444.33
686.12	441.60
686.45	438.92
686.79	436.34
687.13	433.77
687.46	431.22
687.80	428.59
688.14	425.79
688.48	423.23
688.81	420.59
689.15	418.10
689.49	415.53
689.82	413.04
690.16	410.56
690.50	408.17
690.83	405.65
691.17	403.19
691.51	400.82
691.84	398.60
692.18	396.43
692.52	394.27
692.85	392.14
693.19	390.07
693.52	387.94
693.86	385.79
694.20	383.70
694.53	381.59
694.87	379.42
695.21	377.35
695.54	375.24
695.88	373.11
696.21	370.93
696.55	368.88
696.88	366.88
697.22	364.93
697.56	363.05
697.89	361.27
698.23	359.57
698.56	357.78
698.90	356.08
699.23	354.19
699.57	352.39
699.90	350.60
700.24	348.81
700.58	347.10
700.91	345.47
701.25	343.94
701.58	342.33
701.92	340.75
702.25	339.25
702.59	337.70
702.92	336.24
703.26	334.74
703.59	333.32
703.93	332.09
704.26	330.70
704.60	329.25
704.93	327.81
705.26	326.34
705.60	324.89
705.93	323.42
706.27	322.12
706.60	320.86
706.94	319.68
707.27	318.33
707.61	316.99
707.94	315.72
708.27	314.22
708.61	312.83
708.94	311.53
709.28	310.26
709.61	309.03
709.94	307.80
710.28	306.61
710.61	305.42
710.95	304.00
711.28	302.97
711.61	301.79
711.95	300.70
712.28	299.52
712.61	298.42
712.95	297.37
713.28	296.41
713.61	295.31
713.95	294.15
714.28	293.17
714.61	292.16
714.95	291.14
715.28	290.17
715.61	289.21
715.95	288.24
716.28	287.29
716.61	286.36
716.95	285.45
717.28	284.54
717.61	283.62
717.94	282.77
718.28	281.72
718.61	280.86
718.94	279.95
719.27	279.11
719.61	278.36
719.94	277.49
720.27	276.58
720.60	275.77
720.94	275.05
721.27	274.34
721.60	273.71
721.93	273.02
722.27	272.42
722.60	271.75
722.93	271.08
723.26	270.43
723.59	269.73
723.93	269.10
724.26	268.49
724.59	267.85
724.92	267.28
725.25	266.79
725.59	266.26
725.92	265.78
726.25	265.24
726.58	264.62
726.91	264.08
727.24	263.54
727.57	262.96
727.91	262.35
728.24	261.80
728.57	261.17
728.90	260.64
729.23	260.02
729.56	259.59
729.89	259.07
730.22	258.52
730.55	258.03
730.89	257.50
731.22	257.01
731.55	256.52
731.88	255.99
732.21	255.45
732.54	254.90
732.87	254.36
733.20	253.90
733.53	253.43
733.86	252.96
734.19	252.48
734.52	252.11
734.85	251.83
735.18	251.34
735.51	251.00
735.84	250.59
736.17	250.22
736.50	249.73
736.83	249.61
737.16	249.26
737.49	248.87
737.82	248.47
738.15	248.07
738.48	247.70
738.81	247.34
739.14	246.93
739.47	246.60
739.80	246.28
740.13	245.92
740.46	245.52
740.79	245.17
741.12	244.83
741.45	244.42
741.78	243.99
742.11	243.72
742.44	243.37
742.77	243.08
743.10	242.72
743.43	242.39
743.75	241.79
744.08	241.73
744.41	241.35
744.74	241.01
745.07	240.66
745.40	240.39
745.73	240.10
746.06	239.82
746.39	239.51
746.71	239.15
747.04	238.82
747.37	238.55
747.70	238.28
748.03	238.00
748.36	237.75
748.68	237.43
749.01	237.09
749.34	236.79
749.67	236.50
750.00	236.26
750.33	236.13
750.65	235.90
750.98	235.37
751.31	235.16
751.64	234.96
751.97	234.86
752.29	234.62
752.62	234.29
752.95	234.04
753.28	233.77
753.60	233.57
753.93	233.43
754.26	233.23
754.59	232.95
754.91	232.72
755.24	232.50
755.57	232.28
755.90	232.09
756.22	231.86
756.55	231.63
756.88	231.37
757.20	231.05
757.53	230.80
757.86	230.62
758.19	230.42
758.51	230.21
758.84	229.88
759.17	229.67
759.49	229.51
759.82	229.41
760.15	229.29
760.47	229.09
760.80	228.82
761.13	228.68
761.45	228.49
761.78	228.32
762.11	228.13
762.43	227.97
762.76	227.79
763.08	227.68
763.41	227.50
763.74	227.38
764.06	227.21
764.39	227.08
764.71	226.90
765.04	226.77
765.37	226.63
765.69	226.51
766.02	226.36
766.34	226.24
766.67	226.05
767.00	225.97
767.32	225.97
767.65	225.97
767.97	225.82
768.30	225.76
768.62	225.64
768.95	225.52
769.27	225.39
769.60	225.27
769.92	225.09
770.25	224.95
770.57	224.81
770.90	224.68
771.22	224.55
771.55	224.48
771.87	224.37
772.20	224.25
772.52	224.28
772.85	224.41
773.17	224.31
773.50	224.19
773.82	224.00
774.15	223.80
774.47	223.58
774.80	223.47
775.12	223.33
775.45	223.25
775.77	223.16
776.09	223.08
776.42	223.02
776.74	223.03
777.07	222.98
777.39	222.91
777.72	222.81
778.04	222.76
778.36	222.66
778.69	222.60
779.01	222.54
779.33	222.29
779.66	221.98
779.98	221.88
780.31	221.84
780.63	221.86
780.95	221.83
781.28	221.77
781.60	221.69
781.92	221.64
782.25	221.55
782.57	221.47
782.89	221.37
783.22	221.26
783.54	221.11
783.86	221.00
784.19	220.90
784.51	220.92
784.83	220.83
785.16	220.77
785.48	220.66
785.80	220.60
786.12	220.57
