SpectraSuite Data File
++++++++++++++++++++++++++++++++++++
Date: Tue Jan 29 16:42:24 EST 2013
User: group
Dark Spectrum Present: No
Reference Spectrum Present: No
Number of Sampled Component Spectra: 1
Spectrometers: USB2E7196
Integration Time (usec): 65000 (USB2E7196)
Spectra Averaged: 100 (USB2E7196)
Boxcar Smoothing: 10 (USB2E7196)
Correct for Electrical Dark: No (USB2E7196)
Strobe/Lamp Enabled: No (USB2E7196)
Correct for Detector Non-linearity: No (USB2E7196)
Correct for Stray Light: No (USB2E7196)
Number of Pixels in Processed Spectrum: 2048
>>>>>Begin Processed Spectral Data<<<<<
339.09	0.00
339.48	201.43
339.86	203.29
340.24	204.97
340.63	206.37
341.01	210.51
341.39	208.84
341.78	210.27
342.16	212.01
342.54	212.27
342.93	201.21
343.31	211.39
343.69	211.97
344.07	212.44
344.46	212.88
344.84	213.28
345.22	213.47
345.60	213.75
345.99	213.96
346.37	214.09
346.75	214.17
347.13	214.24
347.52	214.31
347.90	214.40
348.28	214.44
348.66	214.52
349.05	214.48
349.43	214.54
349.81	214.61
350.19	214.68
350.57	214.76
350.96	214.83
351.34	214.94
351.72	215.05
352.10	215.16
352.48	215.22
352.87	215.26
353.25	215.32
353.63	215.37
354.01	215.43
354.39	215.50
354.77	215.59
355.15	215.70
355.54	215.70
355.92	215.74
356.30	215.84
356.68	216.05
357.06	216.15
357.44	216.20
357.82	216.27
358.20	216.36
358.58	216.42
358.97	216.51
359.35	216.59
359.73	216.70
360.11	216.74
360.49	216.81
360.87	216.83
361.25	216.92
361.63	217.03
362.01	217.10
362.39	217.14
362.77	217.20
363.15	217.21
363.53	217.29
363.91	217.32
364.29	217.30
364.67	217.10
365.05	217.14
365.43	217.18
365.81	217.21
366.19	217.29
366.57	217.37
366.95	217.35
367.33	217.32
367.71	217.30
368.09	217.38
368.47	217.38
368.85	217.41
369.23	217.41
369.61	217.32
369.99	217.37
370.37	217.38
370.75	217.44
371.13	217.39
371.51	217.34
371.89	217.32
372.27	217.35
372.65	217.35
373.03	217.29
373.41	217.25
373.78	217.18
374.16	217.03
374.54	216.96
374.92	216.90
375.30	216.84
375.68	216.75
376.06	216.67
376.44	216.62
376.82	216.58
377.19	216.52
377.57	216.49
377.95	216.38
378.33	216.32
378.71	216.21
379.09	216.19
379.47	216.18
379.84	216.12
380.22	216.04
380.60	215.97
380.98	215.91
381.36	215.82
381.73	215.78
382.11	215.79
382.49	215.73
382.87	215.66
383.25	215.62
383.62	215.80
384.00	215.74
384.38	215.68
384.76	215.67
385.13	215.68
385.51	215.63
385.89	215.53
386.27	215.49
386.64	215.48
387.02	215.40
387.40	215.36
387.78	215.37
388.15	215.35
388.53	215.31
388.91	215.31
389.29	215.32
389.66	215.32
390.04	215.25
390.42	215.26
390.79	215.28
391.17	215.27
391.55	215.05
391.92	215.03
392.30	215.06
392.68	214.99
393.05	214.98
393.43	214.99
393.81	215.02
394.18	214.98
394.56	214.96
394.94	215.00
395.31	215.00
395.69	215.05
396.06	215.10
396.44	215.14
396.82	215.13
397.19	215.22
397.57	215.20
397.95	215.28
398.32	215.25
398.70	215.24
399.07	215.35
399.45	215.35
399.82	215.39
400.20	215.44
400.58	215.51
400.95	215.52
401.33	215.66
401.70	215.91
402.08	216.01
402.45	216.10
402.83	216.25
403.20	216.34
403.58	216.40
403.95	216.55
404.33	216.70
404.71	216.88
405.08	217.14
405.46	217.34
405.83	217.52
406.21	217.71
406.58	217.97
406.96	218.18
407.33	218.50
407.70	218.80
408.08	219.27
408.45	219.62
408.83	220.00
409.20	220.35
409.58	220.60
409.95	221.06
410.33	221.54
410.70	221.99
411.08	222.55
411.45	223.16
411.82	223.73
412.20	224.42
412.57	225.25
412.95	225.85
413.32	226.67
413.69	227.51
414.07	228.45
414.44	229.42
414.82	230.42
415.19	231.54
415.56	232.75
415.94	233.92
416.31	235.36
416.68	236.81
417.06	238.40
417.43	239.96
417.81	241.71
418.18	243.49
418.55	245.44
418.93	247.48
419.30	249.64
419.67	251.87
420.04	254.19
420.42	256.62
420.79	259.47
421.16	262.25
421.54	265.16
421.91	268.15
422.28	271.29
422.66	274.65
423.03	277.95
423.40	281.34
423.77	285.00
424.15	288.68
424.52	292.53
424.89	296.70
425.26	300.82
425.64	304.72
426.01	309.02
426.38	313.52
426.75	318.10
427.13	322.87
427.50	327.84
427.87	333.04
428.24	338.23
428.61	343.20
428.99	348.80
429.36	354.83
429.73	360.77
430.10	366.64
430.47	372.67
430.85	378.99
431.22	385.70
431.59	392.80
431.96	399.63
432.33	407.18
432.70	414.55
433.08	423.08
433.45	431.25
433.82	439.35
434.19	448.25
434.56	457.00
434.93	465.33
435.30	473.76
435.68	482.99
436.05	492.03
436.42	501.05
436.79	509.29
437.16	518.17
437.53	527.50
437.90	536.83
438.27	545.95
438.64	555.26
439.01	563.87
439.38	571.51
439.75	578.87
440.13	587.33
440.50	595.31
440.87	601.83
441.24	608.49
441.61	615.86
441.98	621.34
442.35	627.75
442.72	634.17
443.09	640.23
443.46	643.94
443.83	646.44
444.20	648.63
444.57	651.80
444.94	653.31
445.31	654.79
445.68	656.10
446.05	656.70
446.42	655.97
446.79	655.04
447.16	653.99
447.53	653.32
447.90	650.05
448.27	646.80
448.64	642.11
449.01	638.79
449.37	632.89
449.74	627.19
450.11	620.22
450.48	612.71
450.85	605.22
451.22	598.74
451.59	592.62
451.96	586.72
452.33	578.73
452.70	571.51
453.07	562.92
453.43	554.31
453.80	545.91
454.17	537.85
454.54	530.20
454.91	521.93
455.28	513.82
455.65	506.33
456.02	498.69
456.38	492.30
456.75	484.35
457.12	477.71
457.49	471.11
457.86	464.88
458.23	459.48
458.59	453.50
458.96	447.39
459.33	442.03
459.70	436.65
460.07	432.42
460.43	427.51
460.80	422.96
461.17	418.87
461.54	414.64
461.91	410.59
462.27	406.43
462.64	403.03
463.01	399.26
463.38	395.50
463.74	391.76
464.11	388.54
464.48	385.67
464.85	382.54
465.21	380.09
465.58	377.42
465.95	374.28
466.32	371.65
466.68	369.08
467.05	366.44
467.42	363.88
467.78	361.18
468.15	358.59
468.52	356.62
468.88	354.16
469.25	351.94
469.62	350.13
469.98	348.21
470.35	346.33
470.72	344.63
471.08	342.79
471.45	341.26
471.82	339.66
472.18	337.97
472.55	336.73
472.92	335.34
473.28	334.15
473.65	332.93
474.02	331.80
474.38	330.91
474.75	330.16
475.11	329.30
475.48	328.69
475.85	328.24
476.21	327.76
476.58	327.39
476.94	327.16
477.31	326.83
477.67	326.49
478.04	326.35
478.41	326.30
478.77	326.46
479.14	326.42
479.50	326.58
479.87	326.91
480.23	327.23
480.60	327.48
480.96	327.72
481.33	328.30
481.69	328.88
482.06	329.38
482.42	329.87
482.79	330.48
483.15	331.22
483.52	332.16
483.88	332.99
484.25	333.94
484.61	334.93
484.98	336.01
485.34	337.36
485.71	338.72
486.07	340.13
486.44	341.47
486.80	343.09
487.17	344.75
487.53	346.60
487.90	348.45
488.26	350.42
488.62	352.63
488.99	354.69
489.35	356.80
489.72	359.15
490.08	361.67
490.44	364.23
490.81	367.00
491.17	369.66
491.54	372.70
491.90	375.69
492.26	378.97
492.63	382.32
492.99	385.81
493.36	389.43
493.72	393.29
494.08	397.27
494.45	401.48
494.81	405.87
495.17	410.26
495.54	415.03
495.90	419.91
496.26	424.80
496.63	430.04
496.99	435.49
497.35	441.12
497.72	446.89
498.08	452.81
498.44	458.89
498.80	465.38
499.17	471.81
499.53	478.56
499.89	485.42
500.26	492.40
500.62	499.56
500.98	507.04
501.34	514.54
501.71	522.30
502.07	530.17
502.43	538.19
502.79	546.44
503.16	554.83
503.52	563.46
503.88	572.19
504.24	581.17
504.60	590.26
504.97	599.48
505.33	608.91
505.69	618.82
506.05	628.66
506.41	638.57
506.78	648.76
507.14	659.04
507.50	669.52
507.86	680.26
508.22	691.05
508.59	701.72
508.95	712.77
509.31	724.06
509.67	735.48
510.03	746.82
510.39	758.50
510.75	770.36
511.12	782.23
511.48	794.40
511.84	806.67
512.20	818.94
512.56	831.59
512.92	844.39
513.28	857.06
513.64	869.94
514.00	882.79
514.37	895.79
514.73	908.85
515.09	921.88
515.45	934.85
515.81	947.98
516.17	961.43
516.53	974.82
516.89	987.99
517.25	1001.34
517.61	1014.97
517.97	1028.49
518.33	1041.63
518.69	1055.31
519.05	1069.17
519.41	1082.96
519.77	1096.97
520.13	1110.44
520.49	1123.60
520.85	1137.06
521.21	1150.44
521.57	1164.22
521.93	1177.30
522.29	1191.18
522.65	1204.96
523.01	1218.68
523.37	1231.94
523.73	1245.31
524.09	1258.66
524.45	1272.26
524.81	1285.81
525.17	1299.31
525.53	1312.54
525.89	1326.02
526.25	1339.18
526.61	1352.06
526.97	1365.22
527.33	1378.29
527.68	1391.80
528.04	1405.36
528.40	1418.67
528.76	1432.20
529.12	1445.09
529.48	1458.50
529.84	1470.87
530.20	1483.80
530.56	1496.51
530.91	1509.83
531.27	1522.75
531.63	1535.35
531.99	1548.19
532.35	1560.44
532.71	1572.97
533.07	1585.87
533.42	1598.36
533.78	1610.57
534.14	1622.68
534.50	1634.06
534.86	1645.65
535.21	1656.57
535.57	1668.20
535.93	1679.42
536.29	1690.44
536.65	1702.07
537.00	1713.18
537.36	1724.75
537.72	1735.76
538.08	1747.40
538.44	1758.47
538.79	1769.79
539.15	1781.06
539.51	1791.83
539.87	1803.18
540.22	1814.10
540.58	1825.21
540.94	1836.05
541.29	1846.55
541.65	1856.47
542.01	1866.96
542.37	1877.15
542.72	1887.39
543.08	1897.28
543.44	1907.94
543.79	1917.38
544.15	1926.81
544.51	1936.87
544.87	1946.65
545.22	1956.02
545.58	1964.84
545.94	1973.75
546.29	1982.32
546.65	1990.63
547.01	1999.11
547.36	2006.93
547.72	2014.72
548.07	2022.37
548.43	2030.27
548.79	2038.07
549.14	2046.44
549.50	2055.05
549.86	2062.94
550.21	2070.45
550.57	2078.25
550.92	2084.99
551.28	2092.62
551.64	2100.07
551.99	2107.57
552.35	2114.96
552.70	2121.76
553.06	2128.41
553.41	2134.78
553.77	2141.30
554.13	2147.67
554.48	2154.63
554.84	2161.85
555.19	2168.37
555.55	2174.87
555.90	2181.06
556.26	2187.94
556.61	2193.73
556.97	2198.53
557.32	2204.34
557.68	2210.82
558.03	2216.62
558.39	2222.06
558.74	2228.17
559.10	2233.62
559.45	2239.23
559.81	2244.70
560.16	2250.26
560.52	2256.21
560.87	2262.61
561.23	2268.42
561.58	2275.15
561.94	2280.39
562.29	2285.00
562.64	2291.05
563.00	2296.57
563.35	2302.08
563.71	2307.71
564.06	2313.56
564.42	2319.53
564.77	2324.60
565.12	2329.81
565.48	2334.81
565.83	2340.26
566.19	2345.42
566.54	2350.67
566.89	2355.28
567.25	2359.80
567.60	2365.38
567.96	2370.39
568.31	2374.77
568.66	2378.97
569.02	2382.71
569.37	2386.36
569.72	2390.79
570.08	2394.36
570.43	2397.53
570.78	2400.82
571.14	2403.24
571.49	2406.31
571.84	2409.80
572.20	2412.76
572.55	2415.71
572.90	2417.95
573.26	2420.61
573.61	2423.22
573.96	2425.42
574.31	2427.31
574.67	2428.91
575.02	2429.61
575.37	2430.86
575.72	2431.50
576.08	2432.92
576.43	2433.00
576.78	2433.27
577.13	2434.54
577.49	2435.36
577.84	2436.23
578.19	2437.12
578.54	2437.68
578.90	2438.09
579.25	2437.66
579.60	2437.35
579.95	2436.46
580.30	2436.27
580.66	2435.53
581.01	2433.58
581.36	2430.98
581.71	2429.39
582.06	2428.28
582.42	2427.33
582.77	2425.06
583.12	2423.24
583.47	2421.57
583.82	2420.85
584.17	2419.55
584.53	2417.38
584.88	2415.26
585.23	2413.18
585.58	2410.90
585.93	2408.80
586.28	2406.51
586.63	2404.03
586.98	2401.72
587.34	2399.60
587.69	2397.07
588.04	2394.86
588.39	2393.22
588.74	2390.75
589.09	2388.01
589.44	2384.71
589.79	2382.12
590.14	2379.96
590.49	2377.16
590.84	2373.37
591.19	2369.98
591.54	2366.57
591.89	2362.42
592.25	2359.08
592.60	2354.85
592.95	2350.57
593.30	2346.31
593.65	2341.78
594.00	2337.28
594.35	2334.17
594.70	2329.32
595.05	2324.78
595.40	2319.18
595.75	2313.26
596.10	2309.46
596.45	2304.53
596.80	2299.92
597.15	2294.58
597.50	2288.72
597.85	2283.70
598.19	2278.34
598.54	2272.70
598.89	2267.33
599.24	2262.73
599.59	2256.42
599.94	2250.40
600.29	2244.40
600.64	2238.44
600.99	2231.61
601.34	2226.08
601.69	2218.93
602.04	2212.64
602.39	2206.00
602.74	2199.85
603.08	2194.47
603.43	2187.97
603.78	2181.15
604.13	2173.99
604.48	2166.72
604.83	2160.49
605.18	2154.26
605.53	2147.38
605.87	2140.11
606.22	2133.41
606.57	2125.52
606.92	2117.56
607.27	2110.65
607.62	2103.94
607.96	2096.91
608.31	2090.53
608.66	2082.74
609.01	2075.12
609.36	2067.89
609.70	2060.06
610.05	2052.25
610.40	2043.80
610.75	2035.36
611.10	2027.43
611.44	2018.50
611.79	2009.75
612.14	1999.82
612.49	1989.05
612.83	1979.70
613.18	1970.57
613.53	1961.17
613.88	1951.56
614.22	1943.01
614.57	1933.07
614.92	1922.47
615.27	1912.20
615.61	1901.95
615.96	1892.27
616.31	1882.62
616.65	1873.23
617.00	1863.51
617.35	1853.90
617.70	1844.20
618.04	1834.36
618.39	1824.19
618.74	1814.61
619.08	1804.85
619.43	1796.16
619.78	1787.99
620.12	1779.38
620.47	1769.83
620.82	1759.57
621.16	1749.78
621.51	1739.92
621.85	1730.09
622.20	1719.79
622.55	1709.14
622.89	1699.20
623.24	1689.63
623.59	1679.97
623.93	1669.85
624.28	1660.08
624.62	1650.12
624.97	1639.87
625.32	1629.95
625.66	1621.16
626.01	1612.40
626.35	1603.16
626.70	1593.02
627.04	1582.99
627.39	1572.89
627.73	1563.62
628.08	1554.75
628.43	1545.24
628.77	1536.01
629.12	1527.24
629.46	1519.52
629.81	1511.39
630.15	1502.14
630.50	1492.29
630.84	1481.86
631.19	1472.02
631.53	1462.83
631.88	1452.65
632.22	1442.68
632.57	1433.40
632.91	1423.29
633.26	1413.44
633.60	1404.03
633.95	1394.85
634.29	1385.34
634.64	1376.06
634.98	1366.13
635.32	1356.89
635.67	1348.37
636.01	1339.20
636.36	1329.56
636.70	1320.05
637.05	1310.73
637.39	1301.70
637.73	1293.09
638.08	1285.61
638.42	1277.51
638.77	1268.71
639.11	1260.46
639.45	1252.78
639.80	1244.32
640.14	1235.68
640.49	1226.97
640.83	1218.09
641.17	1209.97
641.52	1201.86
641.86	1193.27
642.20	1185.47
642.55	1176.83
642.89	1167.93
643.23	1159.28
643.58	1151.21
643.92	1142.16
644.26	1133.36
644.61	1125.01
644.95	1116.20
645.29	1106.93
645.64	1097.79
645.98	1089.19
646.32	1081.36
646.66	1072.88
647.01	1064.62
647.35	1056.43
647.69	1048.17
648.04	1039.90
648.38	1031.03
648.72	1022.29
649.06	1013.92
649.41	1005.61
649.75	997.67
650.09	989.95
650.43	981.88
650.78	973.50
651.12	965.83
651.46	958.37
651.80	951.06
652.14	943.83
652.49	936.26
652.83	928.95
653.17	921.41
653.51	913.68
653.85	906.36
654.20	899.08
654.54	891.68
654.88	884.30
655.22	877.09
655.56	870.14
655.90	863.34
656.25	856.54
656.59	849.77
656.93	842.69
657.27	835.49
657.61	828.49
657.95	822.35
658.29	816.37
658.64	810.35
658.98	803.87
659.32	797.25
659.66	791.09
660.00	784.72
660.34	778.69
660.68	772.61
661.02	766.19
661.36	760.17
661.70	754.35
662.05	748.70
662.39	743.20
662.73	737.75
663.07	732.38
663.41	726.79
663.75	721.01
664.09	715.34
664.43	709.89
664.77	704.58
665.11	698.82
665.45	692.92
665.79	687.12
666.13	681.47
666.47	676.08
666.81	670.56
667.15	665.10
667.49	659.75
667.83	654.52
668.17	649.39
668.51	644.29
668.85	639.35
669.19	634.51
669.53	629.36
669.87	624.16
670.21	619.38
670.55	614.71
670.89	610.22
671.23	605.91
671.57	601.54
671.91	597.16
672.25	592.98
672.58	588.83
672.92	584.69
673.26	580.77
673.60	576.86
673.94	573.04
674.28	569.41
674.62	565.77
674.96	561.96
675.30	558.39
675.64	554.67
675.97	551.00
676.31	547.35
676.65	543.78
676.99	540.42
677.33	536.51
677.67	532.82
678.01	528.93
678.34	525.24
678.68	521.69
679.02	518.09
679.36	514.33
679.70	510.64
680.04	507.02
680.37	503.51
680.71	500.04
681.05	496.81
681.39	493.49
681.73	490.25
682.06	487.19
682.40	484.10
682.74	480.88
683.08	477.59
683.42	474.34
683.75	471.32
684.09	468.27
684.43	465.45
684.77	462.51
685.10	459.70
685.44	456.75
685.78	453.72
686.12	450.92
686.45	448.23
686.79	445.54
687.13	442.98
687.46	440.30
687.80	437.58
688.14	434.66
688.48	432.04
688.81	429.34
689.15	426.70
689.49	424.04
689.82	421.46
690.16	418.88
690.50	416.39
690.83	413.88
691.17	411.30
691.51	408.81
691.84	406.47
692.18	404.18
692.52	401.93
692.85	399.84
693.19	397.65
693.52	395.45
693.86	393.19
694.20	390.99
694.53	388.78
694.87	386.60
695.21	384.49
695.54	382.30
695.88	380.10
696.21	377.85
696.55	375.67
696.88	373.57
697.22	371.55
697.56	369.64
697.89	367.70
698.23	365.89
698.56	364.06
698.90	362.29
699.23	360.36
699.57	358.50
699.90	356.59
700.24	354.76
700.58	352.95
700.91	351.25
701.25	349.67
701.58	348.07
701.92	346.47
702.25	344.82
702.59	343.19
702.92	341.61
703.26	340.02
703.59	338.53
703.93	337.21
704.26	335.76
704.60	334.20
704.93	332.72
705.26	331.16
705.60	329.67
705.93	328.14
706.27	326.78
706.60	325.43
706.94	324.17
707.27	322.74
707.61	321.38
707.94	320.03
708.27	318.46
708.61	316.97
708.94	315.56
709.28	314.28
709.61	313.00
709.94	311.79
710.28	310.60
710.61	309.39
710.95	307.95
711.28	306.90
711.61	305.71
711.95	304.57
712.28	303.37
712.61	302.13
712.95	301.04
713.28	299.99
713.61	298.88
713.95	297.69
714.28	296.71
714.61	295.65
714.95	294.62
715.28	293.61
715.61	292.59
715.95	291.59
716.28	290.60
716.61	289.62
716.95	288.53
717.28	287.58
717.61	286.62
717.94	285.73
718.28	284.66
718.61	283.76
718.94	282.85
719.27	281.97
719.61	281.20
719.94	280.28
720.27	279.30
720.60	278.39
720.94	277.57
721.27	276.75
721.60	276.06
721.93	275.34
722.27	274.71
722.60	274.06
722.93	273.36
723.26	272.70
723.59	272.02
723.93	271.44
724.26	270.75
724.59	270.07
724.92	269.47
725.25	268.91
725.59	268.28
725.92	267.69
726.25	267.12
726.58	266.50
726.91	265.92
727.24	265.40
727.57	264.85
727.91	264.22
728.24	263.65
728.57	262.98
728.90	262.41
729.23	261.74
729.56	261.28
729.89	260.74
730.22	260.13
730.55	259.56
730.89	258.98
731.22	258.48
731.55	257.96
731.88	257.42
732.21	256.86
732.54	256.33
732.87	255.81
733.20	255.34
733.53	254.88
733.86	254.44
734.19	253.89
734.52	253.47
734.85	253.20
735.18	252.76
735.51	252.42
735.84	251.97
736.17	251.55
736.50	250.99
736.83	250.78
737.16	250.41
737.49	250.03
737.82	249.62
738.15	249.23
738.48	248.87
738.81	248.46
739.14	248.04
739.47	247.66
739.80	247.29
740.13	246.89
740.46	246.47
740.79	246.06
741.12	245.70
741.45	245.30
741.78	244.83
742.11	244.51
742.44	244.10
742.77	243.80
743.10	243.47
743.43	243.10
743.75	242.57
744.08	242.47
744.41	242.09
744.74	241.75
745.07	241.33
745.40	240.99
745.73	240.75
746.06	240.41
746.39	240.11
746.71	239.74
747.04	239.41
747.37	239.10
747.70	238.79
748.03	238.50
748.36	238.25
748.68	237.99
749.01	237.65
749.34	237.35
749.67	237.03
750.00	236.76
750.33	236.63
750.65	236.39
750.98	235.85
751.31	235.63
751.64	235.40
751.97	235.31
752.29	235.02
752.62	234.68
752.95	234.44
753.28	234.14
753.60	233.91
753.93	233.73
754.26	233.49
754.59	233.23
754.91	232.98
755.24	232.72
755.57	232.42
755.90	232.19
756.22	231.95
756.55	231.69
756.88	231.45
757.20	231.10
757.53	230.80
757.86	230.61
758.19	230.42
758.51	230.18
758.84	229.85
759.17	229.68
759.49	229.50
759.82	229.42
760.15	229.29
760.47	229.11
760.80	228.86
761.13	228.70
761.45	228.50
761.78	228.30
762.11	228.10
762.43	227.96
762.76	227.78
763.08	227.60
763.41	227.46
763.74	227.29
764.06	227.10
764.39	226.94
764.71	226.76
765.04	226.57
765.37	226.41
765.69	226.30
766.02	226.14
766.34	225.99
766.67	225.76
767.00	225.65
767.32	225.64
767.65	225.64
767.97	225.49
768.30	225.39
768.62	225.30
768.95	225.18
769.27	225.07
769.60	224.97
769.92	224.84
770.25	224.71
770.57	224.57
770.90	224.47
771.22	224.32
771.55	224.24
771.87	224.13
772.20	223.98
772.52	224.02
772.85	224.16
773.17	224.01
773.50	223.88
773.82	223.72
774.15	223.51
774.47	223.27
774.80	223.16
775.12	223.04
775.45	222.96
775.77	222.86
776.09	222.75
776.42	222.63
776.74	222.61
777.07	222.49
777.39	222.44
777.72	222.35
778.04	222.32
778.36	222.21
778.69	222.15
779.01	222.13
779.33	221.87
779.66	221.54
779.98	221.46
780.31	221.42
780.63	221.45
780.95	221.41
781.28	221.35
781.60	221.26
781.92	221.18
782.25	221.08
782.57	220.98
782.89	220.87
783.22	220.82
783.54	220.69
783.86	220.66
784.19	220.56
784.51	220.56
784.83	220.43
785.16	220.36
785.48	220.27
785.80	220.18
786.12	220.15
