SpectraSuite Data File
++++++++++++++++++++++++++++++++++++
Date: Tue Jan 29 16:39:43 EST 2013
User: group
Dark Spectrum Present: No
Reference Spectrum Present: No
Number of Sampled Component Spectra: 1
Spectrometers: USB2E7196
Integration Time (usec): 65000 (USB2E7196)
Spectra Averaged: 100 (USB2E7196)
Boxcar Smoothing: 10 (USB2E7196)
Correct for Electrical Dark: No (USB2E7196)
Strobe/Lamp Enabled: No (USB2E7196)
Correct for Detector Non-linearity: No (USB2E7196)
Correct for Stray Light: No (USB2E7196)
Number of Pixels in Processed Spectrum: 2048
>>>>>Begin Processed Spectral Data<<<<<
339.09	0.00
339.48	201.55
339.86	203.11
340.24	204.43
340.63	205.72
341.01	210.52
341.39	208.84
341.78	210.27
342.16	211.73
342.54	212.16
342.93	201.03
343.31	211.19
343.69	211.76
344.07	212.22
344.46	212.66
344.84	213.07
345.22	213.25
345.60	213.55
345.99	213.77
346.37	213.92
346.75	214.02
347.13	214.14
347.52	214.25
347.90	214.36
348.28	214.40
348.66	214.52
349.05	214.47
349.43	214.55
349.81	214.65
350.19	214.75
350.57	214.85
350.96	214.96
351.34	215.09
351.72	215.20
352.10	215.35
352.48	215.47
352.87	215.57
353.25	215.62
353.63	215.68
354.01	215.76
354.39	215.84
354.77	215.95
355.15	216.06
355.54	216.10
355.92	216.16
356.30	216.26
356.68	216.46
357.06	216.57
357.44	216.64
357.82	216.71
358.20	216.79
358.58	216.85
358.97	216.93
359.35	217.02
359.73	217.13
360.11	217.20
360.49	217.24
360.87	217.28
361.25	217.39
361.63	217.51
362.01	217.54
362.39	217.57
362.77	217.62
363.15	217.65
363.53	217.69
363.91	217.69
364.29	217.70
364.67	217.52
365.05	217.54
365.43	217.57
365.81	217.58
366.19	217.64
366.57	217.71
366.95	217.67
367.33	217.64
367.71	217.59
368.09	217.60
368.47	217.59
368.85	217.56
369.23	217.57
369.61	217.46
369.99	217.49
370.37	217.51
370.75	217.58
371.13	217.51
371.51	217.43
371.89	217.43
372.27	217.40
372.65	217.36
373.03	217.32
373.41	217.27
373.78	217.22
374.16	217.08
374.54	216.98
374.92	216.93
375.30	216.88
375.68	216.79
376.06	216.74
376.44	216.69
376.82	216.67
377.19	216.61
377.57	216.56
377.95	216.47
378.33	216.38
378.71	216.20
379.09	216.20
379.47	216.19
379.84	216.10
380.22	216.03
380.60	215.98
380.98	215.92
381.36	215.85
381.73	215.77
382.11	215.77
382.49	215.74
382.87	215.66
383.25	215.59
383.62	215.80
384.00	215.73
384.38	215.72
384.76	215.70
385.13	215.76
385.51	215.70
385.89	215.61
386.27	215.61
386.64	215.58
387.02	215.48
387.40	215.42
387.78	215.42
388.15	215.37
388.53	215.31
388.91	215.29
389.29	215.23
389.66	215.25
390.04	215.18
390.42	215.19
390.79	215.21
391.17	215.21
391.55	214.96
391.92	214.95
392.30	214.94
392.68	214.88
393.05	214.83
393.43	214.87
393.81	214.90
394.18	214.83
394.56	214.89
394.94	214.98
395.31	214.95
395.69	215.01
396.06	215.08
396.44	215.11
396.82	215.10
397.19	215.27
397.57	215.29
397.95	215.37
398.32	215.34
398.70	215.41
399.07	215.53
399.45	215.53
399.82	215.59
400.20	215.64
400.58	215.74
400.95	215.73
401.33	215.83
401.70	216.05
402.08	216.18
402.45	216.24
402.83	216.34
403.20	216.51
403.58	216.57
403.95	216.72
404.33	216.88
404.71	217.06
405.08	217.33
405.46	217.48
405.83	217.65
406.21	217.83
406.58	218.07
406.96	218.27
407.33	218.57
407.70	218.88
408.08	219.36
408.45	219.67
408.83	220.08
409.20	220.42
409.58	220.67
409.95	221.13
410.33	221.62
410.70	222.07
411.08	222.62
411.45	223.24
411.82	223.81
412.20	224.52
412.57	225.32
412.95	225.87
413.32	226.73
413.69	227.59
414.07	228.54
414.44	229.51
414.82	230.53
415.19	231.71
415.56	232.89
415.94	234.04
416.31	235.48
416.68	236.83
417.06	238.45
417.43	240.02
417.81	241.74
418.18	243.52
418.55	245.45
418.93	247.50
419.30	249.62
419.67	251.86
420.04	254.13
420.42	256.53
420.79	259.37
421.16	262.19
421.54	265.09
421.91	268.08
422.28	271.16
422.66	274.47
423.03	277.72
423.40	281.11
423.77	284.71
424.15	288.39
424.52	292.28
424.89	296.44
425.26	300.55
425.64	304.50
426.01	308.78
426.38	313.25
426.75	317.78
427.13	322.53
427.50	327.50
427.87	332.70
428.24	337.93
428.61	342.97
428.99	348.48
429.36	354.52
429.73	360.43
430.10	366.35
430.47	372.46
430.85	378.84
431.22	385.60
431.59	392.74
431.96	399.56
432.33	407.10
432.70	414.36
433.08	422.90
433.45	430.90
433.82	438.97
434.19	447.91
434.56	456.69
434.93	465.06
435.30	473.37
435.68	482.56
436.05	491.54
436.42	500.46
436.79	508.59
437.16	517.33
437.53	526.57
437.90	535.73
438.27	544.71
438.64	553.87
439.01	562.37
439.38	569.95
439.75	577.24
440.13	585.69
440.50	593.64
440.87	600.08
441.24	606.82
441.61	614.18
441.98	619.57
442.35	625.84
442.72	632.19
443.09	638.31
443.46	642.04
443.83	644.64
444.20	646.77
444.57	650.00
444.94	651.49
445.31	652.95
445.68	654.31
446.05	654.93
446.42	654.24
446.79	653.35
447.16	652.29
447.53	651.64
447.90	648.32
448.27	645.13
448.64	640.45
449.01	637.15
449.37	631.24
449.74	625.50
450.11	618.60
450.48	611.20
450.85	603.70
451.22	597.28
451.59	591.06
451.96	585.31
452.33	577.34
452.70	570.26
453.07	561.84
453.43	553.24
453.80	544.94
454.17	536.89
454.54	529.26
454.91	521.10
455.28	513.08
455.65	505.62
456.02	498.05
456.38	491.65
456.75	483.68
457.12	477.10
457.49	470.61
457.86	464.40
458.23	458.94
458.59	453.02
458.96	446.91
459.33	441.63
459.70	436.20
460.07	431.95
460.43	427.00
460.80	422.33
461.17	418.35
461.54	414.12
461.91	410.05
462.27	405.88
462.64	402.40
463.01	398.58
463.38	394.87
463.74	391.14
464.11	387.94
464.48	385.13
464.85	382.04
465.21	379.56
465.58	376.95
465.95	373.80
466.32	371.15
466.68	368.56
467.05	365.96
467.42	363.37
467.78	360.65
468.15	358.10
468.52	356.23
468.88	353.70
469.25	351.41
469.62	349.64
469.98	347.70
470.35	345.91
470.72	344.23
471.08	342.37
471.45	340.85
471.82	339.29
472.18	337.59
472.55	336.37
472.92	334.99
473.28	333.75
473.65	332.59
474.02	331.52
474.38	330.63
474.75	329.85
475.11	329.05
475.48	328.48
475.85	328.00
476.21	327.48
476.58	327.13
476.94	326.93
477.31	326.61
477.67	326.39
478.04	326.20
478.41	326.11
478.77	326.31
479.14	326.23
479.50	326.36
479.87	326.65
480.23	326.95
480.60	327.20
480.96	327.45
481.33	328.02
481.69	328.50
482.06	328.98
482.42	329.42
482.79	330.03
483.15	330.83
483.52	331.80
483.88	332.67
484.25	333.57
484.61	334.59
484.98	335.61
485.34	336.88
485.71	338.24
486.07	339.67
486.44	340.99
486.80	342.65
487.17	344.34
487.53	346.20
487.90	348.05
488.26	350.06
488.62	352.25
488.99	354.33
489.35	356.57
489.72	359.00
490.08	361.54
490.44	364.11
490.81	366.89
491.17	369.61
491.54	372.56
491.90	375.66
492.26	378.95
492.63	382.34
492.99	385.84
493.36	389.53
493.72	393.47
494.08	397.44
494.45	401.67
494.81	406.02
495.17	410.44
495.54	415.18
495.90	420.03
496.26	424.99
496.63	430.18
496.99	435.54
497.35	441.12
497.72	446.97
498.08	452.93
498.44	458.94
498.80	465.33
499.17	471.90
499.53	478.59
499.89	485.50
500.26	492.53
500.62	499.55
500.98	506.92
501.34	514.37
501.71	522.24
502.07	530.09
502.43	538.14
502.79	546.29
503.16	554.68
503.52	563.31
503.88	571.99
504.24	580.92
504.60	590.00
504.97	599.19
505.33	608.47
505.69	618.29
506.05	628.26
506.41	638.14
506.78	648.24
507.14	658.51
507.50	668.94
507.86	679.68
508.22	690.62
508.59	701.36
508.95	712.39
509.31	723.58
509.67	735.06
510.03	746.46
510.39	758.25
510.75	770.13
511.12	782.02
511.48	794.17
511.84	806.56
512.20	818.91
512.56	831.62
512.92	844.47
513.28	857.19
513.64	869.94
514.00	882.84
514.37	895.89
514.73	909.08
515.09	922.17
515.45	935.11
515.81	948.22
516.17	961.68
516.53	974.93
516.89	988.09
517.25	1001.29
517.61	1014.85
517.97	1028.34
518.33	1041.59
518.69	1055.26
519.05	1069.13
519.41	1082.79
519.77	1096.76
520.13	1110.22
520.49	1123.43
520.85	1136.93
521.21	1150.33
521.57	1164.05
521.93	1177.14
522.29	1190.94
522.65	1204.59
523.01	1218.21
523.37	1231.44
523.73	1244.87
524.09	1258.18
524.45	1271.80
524.81	1285.40
525.17	1298.86
525.53	1312.08
525.89	1325.35
526.25	1338.60
526.61	1351.44
526.97	1364.74
527.33	1377.79
527.68	1391.33
528.04	1404.92
528.40	1418.06
528.76	1431.53
529.12	1444.60
529.48	1457.99
529.84	1470.37
530.20	1483.31
530.56	1496.08
530.91	1509.31
531.27	1522.10
531.63	1534.96
531.99	1547.82
532.35	1560.17
532.71	1572.66
533.07	1585.67
533.42	1598.11
533.78	1610.26
534.14	1622.43
534.50	1633.64
534.86	1645.37
535.21	1656.30
535.57	1667.84
535.93	1679.24
536.29	1690.52
536.65	1702.13
537.00	1713.30
537.36	1724.82
537.72	1735.77
538.08	1747.35
538.44	1758.51
538.79	1769.91
539.15	1781.00
539.51	1791.82
539.87	1803.22
540.22	1814.18
540.58	1825.19
540.94	1836.20
541.29	1846.67
541.65	1856.58
542.01	1867.17
542.37	1877.34
542.72	1887.49
543.08	1897.36
543.44	1907.98
543.79	1917.27
544.15	1926.66
544.51	1936.64
544.87	1946.54
545.22	1955.83
545.58	1964.69
545.94	1973.58
546.29	1982.06
546.65	1990.43
547.01	1998.78
547.36	2006.57
547.72	2014.36
548.07	2022.10
548.43	2030.00
548.79	2037.74
549.14	2045.98
549.50	2054.69
549.86	2062.54
550.21	2070.07
550.57	2077.87
550.92	2084.77
551.28	2092.45
551.64	2099.84
551.99	2107.48
552.35	2114.72
552.70	2121.74
553.06	2128.47
553.41	2134.91
553.77	2141.43
554.13	2147.84
554.48	2154.90
554.84	2162.06
555.19	2168.73
555.55	2175.13
555.90	2181.49
556.26	2188.47
556.61	2194.75
556.97	2199.59
557.32	2205.44
557.68	2211.99
558.03	2217.90
558.39	2223.15
558.74	2229.03
559.10	2234.57
559.45	2240.03
559.81	2245.76
560.16	2251.42
560.52	2257.30
560.87	2263.67
561.23	2269.63
561.58	2276.36
561.94	2281.53
562.29	2286.16
562.64	2292.15
563.00	2297.81
563.35	2303.32
563.71	2309.09
564.06	2314.59
564.42	2320.52
564.77	2325.65
565.12	2330.93
565.48	2335.98
565.83	2341.50
566.19	2346.91
566.54	2352.15
566.89	2356.78
567.25	2361.25
567.60	2366.81
567.96	2372.07
568.31	2376.68
568.66	2381.07
569.02	2384.90
569.37	2388.68
569.72	2393.05
570.08	2396.42
570.43	2399.51
570.78	2402.52
571.14	2404.93
571.49	2407.96
571.84	2411.37
572.20	2414.16
572.55	2416.95
572.90	2419.09
573.26	2421.81
573.61	2424.19
573.96	2426.43
574.31	2428.34
574.67	2429.94
575.02	2430.59
575.37	2431.87
575.72	2432.42
576.08	2433.79
576.43	2433.83
576.78	2434.09
577.13	2435.70
577.49	2436.82
577.84	2437.76
578.19	2438.99
578.54	2439.44
578.90	2439.97
579.25	2439.63
579.60	2439.40
579.95	2438.54
580.30	2438.57
580.66	2437.76
581.01	2436.10
581.36	2433.47
581.71	2431.98
582.06	2430.84
582.42	2429.89
582.77	2427.43
583.12	2425.78
583.47	2424.07
583.82	2423.36
584.17	2422.05
584.53	2419.71
584.88	2417.59
585.23	2415.54
585.58	2413.10
585.93	2410.89
586.28	2408.70
586.63	2406.24
586.98	2403.93
587.34	2401.81
587.69	2399.25
588.04	2396.96
588.39	2395.36
588.74	2392.88
589.09	2390.10
589.44	2386.80
589.79	2384.26
590.14	2382.22
590.49	2379.14
590.84	2375.25
591.19	2371.97
591.54	2368.69
591.89	2364.62
592.25	2361.23
592.60	2356.99
592.95	2352.73
593.30	2348.49
593.65	2343.94
594.00	2339.35
594.35	2336.15
594.70	2331.42
595.05	2326.81
595.40	2321.49
595.75	2315.65
596.10	2311.85
596.45	2306.91
596.80	2302.28
597.15	2296.87
597.50	2290.83
597.85	2285.83
598.19	2280.49
598.54	2274.66
598.89	2269.28
599.24	2264.66
599.59	2258.33
599.94	2252.48
600.29	2246.49
600.64	2240.57
600.99	2233.72
601.34	2228.30
601.69	2221.37
602.04	2214.93
602.39	2208.24
602.74	2202.09
603.08	2196.54
603.43	2189.97
603.78	2183.00
604.13	2176.00
604.48	2168.72
604.83	2162.67
605.18	2156.42
605.53	2149.57
605.87	2142.57
606.22	2135.68
606.57	2127.57
606.92	2119.60
607.27	2112.61
607.62	2105.93
607.96	2098.95
608.31	2092.54
608.66	2084.75
609.01	2077.15
609.36	2069.99
609.70	2062.28
610.05	2054.43
610.40	2046.01
610.75	2037.74
611.10	2030.10
611.44	2021.05
611.79	2012.25
612.14	2002.26
612.49	1991.64
612.83	1982.32
613.18	1973.14
613.53	1963.95
613.88	1954.42
614.22	1945.87
614.57	1936.00
614.92	1925.45
615.27	1915.14
615.61	1904.96
615.96	1895.15
616.31	1885.46
616.65	1876.03
617.00	1866.25
617.35	1856.63
617.70	1846.96
618.04	1837.00
618.39	1826.72
618.74	1817.06
619.08	1807.57
619.43	1798.80
619.78	1790.54
620.12	1781.84
620.47	1772.18
620.82	1761.77
621.16	1752.03
621.51	1742.09
621.85	1732.29
622.20	1721.92
622.55	1711.51
622.89	1701.52
623.24	1691.82
623.59	1682.04
623.93	1672.07
624.28	1662.25
624.62	1652.06
624.97	1641.72
625.32	1631.92
625.66	1623.11
626.01	1614.33
626.35	1604.95
626.70	1594.95
627.04	1584.81
627.39	1574.65
627.73	1565.34
628.08	1556.37
628.43	1546.92
628.77	1537.82
629.12	1528.93
629.46	1521.14
629.81	1512.73
630.15	1503.32
630.50	1493.58
630.84	1483.19
631.19	1473.22
631.53	1463.98
631.88	1453.94
632.22	1444.04
632.57	1434.72
632.91	1424.58
633.26	1414.84
633.60	1405.28
633.95	1395.97
634.29	1386.55
634.64	1377.26
634.98	1367.38
635.32	1358.13
635.67	1349.55
636.01	1340.23
636.36	1330.48
636.70	1320.95
637.05	1311.66
637.39	1302.79
637.73	1294.23
638.08	1286.68
638.42	1278.51
638.77	1269.78
639.11	1261.57
639.45	1253.69
639.80	1245.12
640.14	1236.36
640.49	1227.47
640.83	1218.68
641.17	1210.57
641.52	1202.47
641.86	1193.85
642.20	1185.94
642.55	1177.40
642.89	1168.49
643.23	1159.82
643.58	1151.74
643.92	1142.65
644.26	1133.95
644.61	1125.56
644.95	1116.75
645.29	1107.57
645.64	1098.42
645.98	1089.87
646.32	1081.92
646.66	1073.53
647.01	1065.18
647.35	1057.24
647.69	1049.00
648.04	1040.75
648.38	1031.89
648.72	1023.12
649.06	1014.78
649.41	1006.62
649.75	998.67
650.09	990.81
650.43	982.80
650.78	974.49
651.12	966.87
651.46	959.35
651.80	952.03
652.14	944.77
652.49	937.20
652.83	929.87
653.17	922.20
653.51	914.60
653.85	907.36
654.20	900.08
654.54	892.50
654.88	885.16
655.22	877.89
655.56	870.82
655.90	863.95
656.25	857.19
656.59	850.29
656.93	843.20
657.27	836.10
657.61	829.16
657.95	823.01
658.29	817.00
658.64	810.88
658.98	804.40
659.32	797.82
659.66	791.52
660.00	785.17
660.34	779.09
660.68	772.93
661.02	766.39
661.36	760.37
661.70	754.52
662.05	748.89
662.39	743.33
662.73	737.96
663.07	732.60
663.41	726.97
663.75	721.21
664.09	715.57
664.43	710.07
664.77	704.64
665.11	698.78
665.45	692.88
665.79	687.02
666.13	681.28
666.47	675.71
666.81	670.32
667.15	664.85
667.49	659.60
667.83	654.27
668.17	649.08
668.51	644.04
668.85	639.16
669.19	634.24
669.53	629.26
669.87	624.06
670.21	619.29
670.55	614.63
670.89	610.15
671.23	605.74
671.57	601.37
671.91	597.05
672.25	592.92
672.58	588.81
672.92	584.71
673.26	580.77
673.60	576.86
673.94	572.98
674.28	569.40
674.62	565.64
674.96	561.89
675.30	558.31
675.64	554.61
675.97	550.93
676.31	547.29
676.65	543.62
676.99	540.27
677.33	536.36
677.67	532.72
678.01	528.87
678.34	525.20
678.68	521.68
679.02	518.04
679.36	514.27
679.70	510.52
680.04	506.94
680.37	503.46
680.71	500.10
681.05	496.89
681.39	493.58
681.73	490.37
682.06	487.31
682.40	484.20
682.74	480.94
683.08	477.70
683.42	474.49
683.75	471.49
684.09	468.38
684.43	465.53
684.77	462.52
685.10	459.61
685.44	456.69
685.78	453.69
686.12	450.84
686.45	448.08
686.79	445.41
687.13	442.88
687.46	440.22
687.80	437.50
688.14	434.63
688.48	431.98
688.81	429.26
689.15	426.63
689.49	424.00
689.82	421.47
690.16	418.83
690.50	416.38
690.83	413.83
691.17	411.26
691.51	408.84
691.84	406.52
692.18	404.30
692.52	402.04
692.85	399.91
693.19	397.78
693.52	395.64
693.86	393.37
694.20	391.12
694.53	389.00
694.87	386.79
695.21	384.60
695.54	382.35
695.88	380.17
696.21	377.93
696.55	375.79
696.88	373.66
697.22	371.66
697.56	369.68
697.89	367.76
698.23	365.93
698.56	364.04
698.90	362.26
699.23	360.32
699.57	358.43
699.90	356.50
700.24	354.65
700.58	352.84
700.91	351.19
701.25	349.60
701.58	347.89
701.92	346.28
702.25	344.69
702.59	343.08
702.92	341.49
703.26	339.91
703.59	338.41
703.93	337.14
704.26	335.68
704.60	334.14
704.93	332.68
705.26	331.21
705.60	329.73
705.93	328.20
706.27	326.84
706.60	325.53
706.94	324.27
707.27	322.89
707.61	321.51
707.94	320.14
708.27	318.61
708.61	317.18
708.94	315.76
709.28	314.46
709.61	313.19
709.94	311.97
710.28	310.73
710.61	309.55
710.95	308.11
711.28	307.03
711.61	305.81
711.95	304.64
712.28	303.40
712.61	302.16
712.95	301.04
713.28	299.97
713.61	298.84
713.95	297.70
714.28	296.64
714.61	295.59
714.95	294.56
715.28	293.51
715.61	292.46
715.95	291.53
716.28	290.56
716.61	289.62
716.95	288.59
717.28	287.67
717.61	286.68
717.94	285.76
718.28	284.72
718.61	283.88
718.94	282.96
719.27	282.09
719.61	281.32
719.94	280.48
720.27	279.53
720.60	278.64
720.94	277.81
721.27	277.04
721.60	276.30
721.93	275.54
722.27	274.92
722.60	274.28
722.93	273.55
723.26	272.88
723.59	272.15
723.93	271.54
724.26	270.86
724.59	270.19
724.92	269.60
725.25	269.05
725.59	268.39
725.92	267.83
726.25	267.25
726.58	266.65
726.91	266.06
727.24	265.48
727.57	264.91
727.91	264.27
728.24	263.73
728.57	263.13
728.90	262.60
729.23	261.95
729.56	261.49
729.89	260.93
730.22	260.31
730.55	259.75
730.89	259.16
731.22	258.63
731.55	258.09
731.88	257.55
732.21	256.98
732.54	256.47
732.87	255.95
733.20	255.46
733.53	254.94
733.86	254.47
734.19	253.97
734.52	253.56
734.85	253.28
735.18	252.75
735.51	252.38
735.84	251.91
736.17	251.51
736.50	250.95
736.83	250.80
737.16	250.42
737.49	250.02
737.82	249.64
738.15	249.27
738.48	248.88
738.81	248.48
739.14	248.05
739.47	247.66
739.80	247.29
740.13	246.91
740.46	246.52
740.79	246.09
741.12	245.76
741.45	245.36
741.78	244.93
742.11	244.67
742.44	244.24
742.77	243.98
743.10	243.61
743.43	243.26
743.75	242.68
744.08	242.59
744.41	242.22
744.74	241.87
745.07	241.48
745.40	241.16
745.73	240.91
746.06	240.56
746.39	240.26
746.71	239.88
747.04	239.54
747.37	239.22
747.70	238.96
748.03	238.66
748.36	238.38
748.68	238.06
749.01	237.70
749.34	237.45
749.67	237.09
750.00	236.82
750.33	236.68
750.65	236.44
750.98	235.92
751.31	235.67
751.64	235.45
751.97	235.34
752.29	235.10
752.62	234.74
752.95	234.51
753.28	234.22
753.60	234.02
753.93	233.86
754.26	233.64
754.59	233.36
754.91	233.10
755.24	232.83
755.57	232.59
755.90	232.36
756.22	232.12
756.55	231.91
756.88	231.69
757.20	231.36
757.53	231.07
757.86	230.86
758.19	230.67
758.51	230.46
758.84	230.17
759.17	229.98
759.49	229.86
759.82	229.75
760.15	229.62
760.47	229.42
760.80	229.11
761.13	228.98
761.45	228.77
761.78	228.59
762.11	228.42
762.43	228.21
762.76	228.03
763.08	227.87
763.41	227.69
763.74	227.52
764.06	227.30
764.39	227.16
764.71	227.01
765.04	226.84
765.37	226.65
765.69	226.48
766.02	226.33
766.34	226.14
766.67	225.93
767.00	225.80
767.32	225.78
767.65	225.80
767.97	225.61
768.30	225.50
768.62	225.35
768.95	225.19
769.27	225.06
769.60	224.95
769.92	224.80
770.25	224.62
770.57	224.46
770.90	224.36
771.22	224.22
771.55	224.11
771.87	223.99
772.20	223.88
772.52	223.92
772.85	224.01
773.17	223.91
773.50	223.77
773.82	223.66
774.15	223.47
774.47	223.22
774.80	223.15
775.12	223.02
775.45	222.94
775.77	222.87
776.09	222.82
776.42	222.73
776.74	222.69
777.07	222.65
777.39	222.55
777.72	222.46
778.04	222.42
778.36	222.29
778.69	222.21
779.01	222.12
779.33	221.84
779.66	221.54
779.98	221.43
780.31	221.37
780.63	221.33
780.95	221.26
781.28	221.21
781.60	221.11
781.92	221.05
782.25	220.97
782.57	220.93
782.89	220.83
783.22	220.75
783.54	220.65
783.86	220.57
784.19	220.52
784.51	220.53
784.83	220.42
785.16	220.37
785.48	220.30
785.80	220.27
786.12	220.25
