SpectraSuite Data File
++++++++++++++++++++++++++++++++++++
Date: Tue Jan 29 16:19:59 EST 2013
User: group
Dark Spectrum Present: No
Reference Spectrum Present: No
Number of Sampled Component Spectra: 1
Spectrometers: USB2E7196
Integration Time (usec): 65000 (USB2E7196)
Spectra Averaged: 100 (USB2E7196)
Boxcar Smoothing: 10 (USB2E7196)
Correct for Electrical Dark: No (USB2E7196)
Strobe/Lamp Enabled: No (USB2E7196)
Correct for Detector Non-linearity: No (USB2E7196)
Correct for Stray Light: No (USB2E7196)
Number of Pixels in Processed Spectrum: 2048
>>>>>Begin Processed Spectral Data<<<<<
339.09	0.00
339.48	202.48
339.86	203.73
340.24	204.56
340.63	206.39
341.01	211.27
341.39	209.30
341.78	210.82
342.16	212.56
342.54	212.63
342.93	201.52
343.31	211.70
343.69	212.23
344.07	212.71
344.46	213.20
344.84	213.63
345.22	213.80
345.60	214.08
345.99	214.30
346.37	214.42
346.75	214.52
347.13	214.62
347.52	214.68
347.90	214.82
348.28	214.88
348.66	214.99
349.05	214.95
349.43	215.05
349.81	215.11
350.19	215.18
350.57	215.30
350.96	215.36
351.34	215.45
351.72	215.56
352.10	215.65
352.48	215.72
352.87	215.77
353.25	215.85
353.63	215.92
354.01	215.98
354.39	216.05
354.77	216.16
355.15	216.29
355.54	216.37
355.92	216.39
356.30	216.45
356.68	216.62
357.06	216.68
357.44	216.68
357.82	216.78
358.20	216.89
358.58	216.94
358.97	217.00
359.35	217.12
359.73	217.22
360.11	217.29
360.49	217.37
360.87	217.42
361.25	217.48
361.63	217.59
362.01	217.63
362.39	217.65
362.77	217.69
363.15	217.72
363.53	217.77
363.91	217.81
364.29	217.85
364.67	217.68
365.05	217.74
365.43	217.80
365.81	217.82
366.19	217.89
366.57	217.96
366.95	217.96
367.33	217.92
367.71	217.92
368.09	217.98
368.47	217.92
368.85	217.93
369.23	217.95
369.61	217.88
369.99	217.91
370.37	217.91
370.75	218.01
371.13	217.91
371.51	217.85
371.89	217.82
372.27	217.81
372.65	217.80
373.03	217.74
373.41	217.71
373.78	217.65
374.16	217.53
374.54	217.43
374.92	217.38
375.30	217.31
375.68	217.22
376.06	217.15
376.44	217.11
376.82	217.04
377.19	216.98
377.57	216.89
377.95	216.76
378.33	216.71
378.71	216.55
379.09	216.53
379.47	216.50
379.84	216.45
380.22	216.36
380.60	216.29
380.98	216.27
381.36	216.18
381.73	216.09
382.11	216.06
382.49	216.01
382.87	215.94
383.25	215.91
383.62	216.10
384.00	216.03
384.38	216.03
384.76	216.05
385.13	216.08
385.51	216.09
385.89	216.04
386.27	216.00
386.64	215.98
387.02	215.95
387.40	215.90
387.78	215.89
388.15	215.89
388.53	215.88
388.91	215.84
389.29	215.80
389.66	215.83
390.04	215.75
390.42	215.77
390.79	215.79
391.17	215.76
391.55	215.53
391.92	215.51
392.30	215.49
392.68	215.41
393.05	215.35
393.43	215.34
393.81	215.38
394.18	215.36
394.56	215.37
394.94	215.41
395.31	215.43
395.69	215.47
396.06	215.52
396.44	215.54
396.82	215.52
397.19	215.68
397.57	215.68
397.95	215.77
398.32	215.76
398.70	215.82
399.07	215.90
399.45	215.93
399.82	216.00
400.20	216.04
400.58	216.12
400.95	216.14
401.33	216.23
401.70	216.47
402.08	216.56
402.45	216.64
402.83	216.77
403.20	216.85
403.58	216.93
403.95	217.04
404.33	217.20
404.71	217.38
405.08	217.60
405.46	217.77
405.83	217.97
406.21	218.20
406.58	218.39
406.96	218.62
407.33	218.93
407.70	219.22
408.08	219.69
408.45	220.05
408.83	220.45
409.20	220.78
409.58	221.00
409.95	221.45
410.33	221.94
410.70	222.38
411.08	222.93
411.45	223.52
411.82	224.09
412.20	224.77
412.57	225.59
412.95	226.15
413.32	226.98
413.69	227.74
414.07	228.60
414.44	229.58
414.82	230.57
415.19	231.71
415.56	232.89
415.94	234.03
416.31	235.40
416.68	236.76
417.06	238.34
417.43	239.89
417.81	241.62
418.18	243.36
418.55	245.25
418.93	247.21
419.30	249.24
419.67	251.48
420.04	253.71
420.42	256.03
420.79	258.81
421.16	261.53
421.54	264.42
421.91	267.36
422.28	270.41
422.66	273.66
423.03	276.83
423.40	280.12
423.77	283.65
424.15	287.24
424.52	291.01
424.89	295.12
425.26	299.11
425.64	302.92
426.01	307.14
426.38	311.54
426.75	316.04
427.13	320.71
427.50	325.55
427.87	330.68
428.24	335.79
428.61	340.71
428.99	346.10
429.36	352.01
429.73	357.87
430.10	363.66
430.47	369.65
430.85	375.80
431.22	382.39
431.59	389.36
431.96	396.08
432.33	403.47
432.70	410.61
433.08	419.02
433.45	426.95
433.82	434.89
434.19	443.63
434.56	452.24
434.93	460.45
435.30	468.61
435.68	477.62
436.05	486.44
436.42	495.17
436.79	503.22
437.16	511.86
437.53	520.95
437.90	529.94
438.27	538.73
438.64	547.86
439.01	556.26
439.38	563.78
439.75	571.01
440.13	579.30
440.50	587.13
440.87	593.40
441.24	599.94
441.61	607.10
441.98	612.36
442.35	618.52
442.72	624.77
443.09	630.69
443.46	634.30
443.83	636.82
444.20	639.00
444.57	642.14
444.94	643.51
445.31	644.93
445.68	646.23
446.05	646.82
446.42	646.07
446.79	645.13
447.16	644.10
447.53	643.25
447.90	639.91
448.27	636.66
448.64	632.12
449.01	628.90
449.37	623.14
449.74	617.61
450.11	610.83
450.48	603.47
450.85	596.17
451.22	589.84
451.59	583.81
451.96	578.05
452.33	570.33
452.70	563.36
453.07	555.01
453.43	546.58
453.80	538.43
454.17	530.57
454.54	523.11
454.91	514.98
455.28	507.17
455.65	499.96
456.02	492.58
456.38	486.40
456.75	478.62
457.12	472.11
457.49	465.67
457.86	459.61
458.23	454.38
458.59	448.61
458.96	442.72
459.33	437.48
459.70	432.25
460.07	428.02
460.43	423.26
460.80	418.80
461.17	414.90
461.54	410.80
461.91	406.84
462.27	402.84
462.64	399.51
463.01	395.82
463.38	392.16
463.74	388.51
464.11	385.29
464.48	382.52
464.85	379.48
465.21	377.09
465.58	374.52
465.95	371.41
466.32	368.81
466.68	366.25
467.05	363.70
467.42	361.16
467.78	358.60
468.15	356.09
468.52	354.17
468.88	351.71
469.25	349.52
469.62	347.75
469.98	345.83
470.35	344.09
470.72	342.43
471.08	340.66
471.45	339.20
471.82	337.73
472.18	336.04
472.55	334.84
472.92	333.47
473.28	332.30
473.65	331.23
474.02	330.14
474.38	329.30
474.75	328.60
475.11	327.84
475.48	327.21
475.85	326.75
476.21	326.29
476.58	325.98
476.94	325.78
477.31	325.50
477.67	325.27
478.04	325.11
478.41	325.10
478.77	325.28
479.14	325.25
479.50	325.40
479.87	325.71
480.23	326.08
480.60	326.31
480.96	326.58
481.33	327.17
481.69	327.73
482.06	328.21
482.42	328.70
482.79	329.27
483.15	330.06
483.52	331.02
483.88	331.92
484.25	332.90
484.61	333.91
484.98	334.98
485.34	336.32
485.71	337.74
486.07	339.19
486.44	340.49
486.80	342.11
487.17	343.77
487.53	345.60
487.90	347.50
488.26	349.59
488.62	351.75
488.99	353.75
489.35	355.90
489.72	358.27
490.08	360.79
490.44	363.32
490.81	366.05
491.17	368.76
491.54	371.70
491.90	374.67
492.26	377.93
492.63	381.32
492.99	384.77
493.36	388.43
493.72	392.30
494.08	396.33
494.45	400.61
494.81	405.00
495.17	409.49
495.54	414.18
495.90	418.97
496.26	423.92
496.63	429.16
496.99	434.55
497.35	440.15
497.72	445.97
498.08	451.94
498.44	458.03
498.80	464.52
499.17	471.05
499.53	477.78
499.89	484.67
500.26	491.67
500.62	498.82
500.98	506.21
501.34	513.71
501.71	521.53
502.07	529.34
502.43	537.37
502.79	545.45
503.16	553.85
503.52	562.52
503.88	571.25
504.24	580.31
504.60	589.44
504.97	598.70
505.33	608.03
505.69	617.90
506.05	627.79
506.41	637.67
506.78	647.82
507.14	658.14
507.50	668.63
507.86	679.39
508.22	690.19
508.59	700.85
508.95	711.94
509.31	723.22
509.67	734.65
510.03	746.07
510.39	757.91
510.75	769.76
511.12	781.66
511.48	793.76
511.84	805.94
512.20	818.28
512.56	830.92
512.92	843.75
513.28	856.52
513.64	869.40
514.00	882.22
514.37	895.23
514.73	908.33
515.09	921.38
515.45	934.41
515.81	947.49
516.17	960.97
516.53	974.25
516.89	987.29
517.25	1000.56
517.61	1014.11
517.97	1027.50
518.33	1040.74
518.69	1054.31
519.05	1068.10
519.41	1081.83
519.77	1095.82
520.13	1109.22
520.49	1122.54
520.85	1135.89
521.21	1149.29
521.57	1162.98
521.93	1176.03
522.29	1189.91
522.65	1203.63
523.01	1217.20
523.37	1230.42
523.73	1243.70
524.09	1256.88
524.45	1270.48
524.81	1284.00
525.17	1297.38
525.53	1310.53
525.89	1323.87
526.25	1337.04
526.61	1349.90
526.97	1363.06
527.33	1375.99
527.68	1389.49
528.04	1402.84
528.40	1415.93
528.76	1429.27
529.12	1442.23
529.48	1455.53
529.84	1467.67
530.20	1480.36
530.56	1492.86
530.91	1506.09
531.27	1518.89
531.63	1531.54
531.99	1544.16
532.35	1556.37
532.71	1568.75
533.07	1581.70
533.42	1593.83
533.78	1605.90
534.14	1617.88
534.50	1629.09
534.86	1640.53
535.21	1651.30
535.57	1662.82
535.93	1674.09
536.29	1685.10
536.65	1696.53
537.00	1707.39
537.36	1718.78
537.72	1729.52
538.08	1740.82
538.44	1751.74
538.79	1762.79
539.15	1773.84
539.51	1784.53
539.87	1795.74
540.22	1806.42
540.58	1817.32
540.94	1828.05
541.29	1838.36
541.65	1848.15
542.01	1858.62
542.37	1868.67
542.72	1878.72
543.08	1888.27
543.44	1898.59
543.79	1907.73
544.15	1917.15
544.51	1927.08
544.87	1936.79
545.22	1946.05
545.58	1954.98
545.94	1963.83
546.29	1972.30
546.65	1980.47
547.01	1988.61
547.36	1996.13
547.72	2003.78
548.07	2011.20
548.43	2019.02
548.79	2026.83
549.14	2034.87
549.50	2043.15
549.86	2051.01
550.21	2058.43
550.57	2066.37
550.92	2073.23
551.28	2080.64
551.64	2087.74
551.99	2095.17
552.35	2102.42
552.70	2109.42
553.06	2115.95
553.41	2122.15
553.77	2128.53
554.13	2134.82
554.48	2141.79
554.84	2149.03
555.19	2155.57
555.55	2162.00
555.90	2168.24
556.26	2174.95
556.61	2181.03
556.97	2185.87
557.32	2191.71
557.68	2198.22
558.03	2203.67
558.39	2209.01
558.74	2215.08
559.10	2220.61
559.45	2226.29
559.81	2231.74
560.16	2237.11
560.52	2243.03
560.87	2249.52
561.23	2255.66
561.58	2262.55
561.94	2267.91
562.29	2272.64
562.64	2279.01
563.00	2284.91
563.35	2290.54
563.71	2296.33
564.06	2301.99
564.42	2308.05
564.77	2313.12
565.12	2318.47
565.48	2323.84
565.83	2329.54
566.19	2334.89
566.54	2340.44
566.89	2344.99
567.25	2349.64
567.60	2355.58
567.96	2360.83
568.31	2365.32
568.66	2369.70
569.02	2373.63
569.37	2377.60
569.72	2382.12
570.08	2385.60
570.43	2388.78
570.78	2391.91
571.14	2394.65
571.49	2398.01
571.84	2401.71
572.20	2404.78
572.55	2407.71
572.90	2410.08
573.26	2412.90
573.61	2415.67
573.96	2417.65
574.31	2419.72
574.67	2421.78
575.02	2422.61
575.37	2424.21
575.72	2425.12
576.08	2426.63
576.43	2426.63
576.78	2427.06
577.13	2428.72
577.49	2429.96
577.84	2431.07
578.19	2432.56
578.54	2433.26
578.90	2434.06
579.25	2434.12
579.60	2434.22
579.95	2433.68
580.30	2433.81
580.66	2433.28
581.01	2431.80
581.36	2429.92
581.71	2429.03
582.06	2428.10
582.42	2427.45
582.77	2425.44
583.12	2424.00
583.47	2422.76
583.82	2422.62
584.17	2421.49
584.53	2419.65
584.88	2417.73
585.23	2415.98
585.58	2413.94
585.93	2412.11
586.28	2410.14
586.63	2407.80
586.98	2405.65
587.34	2403.79
587.69	2401.45
588.04	2399.48
588.39	2398.05
588.74	2395.66
589.09	2392.85
589.44	2389.71
589.79	2387.29
590.14	2385.32
590.49	2382.63
590.84	2378.85
591.19	2375.77
591.54	2372.86
591.89	2368.81
592.25	2365.73
592.60	2361.67
592.95	2357.65
593.30	2353.58
593.65	2349.25
594.00	2344.94
594.35	2342.14
594.70	2337.67
595.05	2333.48
595.40	2328.19
595.75	2322.58
596.10	2319.05
596.45	2314.33
596.80	2309.84
597.15	2304.70
597.50	2298.91
597.85	2294.09
598.19	2289.06
598.54	2283.44
598.89	2278.05
599.24	2273.47
599.59	2267.31
599.94	2261.48
600.29	2255.49
600.64	2249.41
600.99	2242.56
601.34	2236.96
601.69	2230.00
602.04	2223.50
602.39	2216.70
602.74	2210.58
603.08	2205.08
603.43	2198.61
603.78	2191.84
604.13	2184.76
604.48	2177.40
604.83	2171.26
605.18	2165.01
605.53	2158.09
605.87	2150.95
606.22	2144.34
606.57	2136.49
606.92	2128.56
607.27	2121.64
607.62	2115.12
607.96	2108.26
608.31	2101.98
608.66	2094.21
609.01	2086.44
609.36	2079.45
609.70	2071.72
610.05	2063.94
610.40	2055.55
610.75	2047.03
611.10	2039.11
611.44	2030.17
611.79	2021.58
612.14	2011.62
612.49	2000.75
612.83	1991.17
613.18	1981.80
613.53	1972.28
613.88	1962.66
614.22	1953.93
614.57	1944.01
614.92	1933.20
615.27	1922.90
615.61	1912.42
615.96	1902.74
616.31	1893.17
616.65	1883.58
617.00	1873.93
617.35	1864.21
617.70	1854.36
618.04	1844.30
618.39	1834.27
618.74	1824.59
619.08	1814.70
619.43	1806.00
619.78	1797.73
620.12	1789.15
620.47	1779.64
620.82	1769.20
621.16	1759.37
621.51	1749.42
621.85	1739.51
622.20	1729.21
622.55	1718.50
622.89	1708.61
623.24	1698.84
623.59	1688.87
623.93	1678.70
624.28	1668.64
624.62	1658.39
624.97	1648.11
625.32	1638.32
625.66	1629.24
626.01	1620.44
626.35	1611.08
626.70	1600.85
627.04	1590.89
627.39	1580.68
627.73	1571.24
628.08	1562.28
628.43	1552.61
628.77	1543.32
629.12	1534.28
629.46	1526.37
629.81	1517.92
630.15	1508.44
630.50	1498.57
630.84	1487.95
631.19	1477.92
631.53	1468.68
631.88	1458.39
632.22	1448.27
632.57	1438.67
632.91	1428.44
633.26	1418.37
633.60	1408.72
633.95	1399.33
634.29	1389.61
634.64	1380.18
634.98	1370.09
635.32	1360.71
635.67	1352.13
636.01	1342.62
636.36	1332.67
636.70	1322.95
637.05	1313.48
637.39	1304.45
637.73	1295.67
638.08	1288.08
638.42	1279.80
638.77	1270.82
639.11	1262.45
639.45	1254.59
639.80	1246.14
640.14	1237.24
640.49	1228.35
640.83	1219.32
641.17	1210.99
641.52	1202.76
641.86	1194.14
642.20	1186.10
642.55	1177.26
642.89	1168.17
643.23	1159.56
643.58	1151.46
643.92	1142.44
644.26	1133.62
644.61	1125.09
644.95	1116.08
645.29	1106.84
645.64	1097.55
645.98	1088.92
646.32	1080.95
646.66	1072.25
647.01	1063.74
647.35	1055.53
647.69	1047.00
648.04	1038.70
648.38	1029.71
648.72	1020.78
649.06	1012.19
649.41	1003.95
649.75	996.06
650.09	988.25
650.43	980.13
650.78	971.64
651.12	963.76
651.46	956.36
651.80	948.96
652.14	941.65
652.49	933.99
652.83	926.70
653.17	919.01
653.51	911.33
653.85	904.07
654.20	896.70
654.54	889.27
654.88	882.09
655.22	874.78
655.56	867.78
655.90	860.99
656.25	854.30
656.59	847.38
656.93	840.28
657.27	833.02
657.61	825.93
657.95	819.81
658.29	813.83
658.64	807.57
658.98	801.09
659.32	794.50
659.66	788.22
660.00	781.72
660.34	775.58
660.68	769.43
661.02	763.03
661.36	757.04
661.70	751.12
662.05	745.36
662.39	739.90
662.73	734.48
663.07	728.96
663.41	723.28
663.75	717.50
664.09	711.77
664.43	706.32
664.77	700.92
665.11	695.10
665.45	689.15
665.79	683.33
666.13	677.54
666.47	672.06
666.81	666.50
667.15	661.10
667.49	655.84
667.83	650.56
668.17	645.30
668.51	640.14
668.85	635.16
669.19	630.27
669.53	625.17
669.87	620.01
670.21	615.29
670.55	610.52
670.89	606.11
671.23	601.74
671.57	597.32
671.91	592.95
672.25	588.72
672.58	584.55
672.92	580.45
673.26	576.49
673.60	572.52
673.94	568.74
674.28	565.04
674.62	561.28
674.96	557.48
675.30	553.96
675.64	550.27
675.97	546.63
676.31	543.00
676.65	539.40
676.99	535.99
677.33	532.08
677.67	528.46
678.01	524.53
678.34	520.86
678.68	517.34
679.02	513.78
679.36	510.12
679.70	506.45
680.04	502.87
680.37	499.42
680.71	496.09
681.05	492.87
681.39	489.64
681.73	486.47
682.06	483.40
682.40	480.25
682.74	477.08
683.08	473.93
683.42	470.70
683.75	467.68
684.09	464.59
684.43	461.78
684.77	458.85
685.10	455.99
685.44	453.09
685.78	450.13
686.12	447.34
686.45	444.60
686.79	441.92
687.13	439.35
687.46	436.77
687.80	434.11
688.14	431.22
688.48	428.58
688.81	425.86
689.15	423.29
689.49	420.73
689.82	418.18
690.16	415.55
690.50	413.14
690.83	410.63
691.17	408.08
691.51	405.58
691.84	403.27
692.18	401.05
692.52	398.82
692.85	396.66
693.19	394.48
693.52	392.34
693.86	390.14
694.20	387.98
694.53	385.80
694.87	383.57
695.21	381.50
695.54	379.33
695.88	377.18
696.21	374.95
696.55	372.80
696.88	370.75
697.22	368.78
697.56	366.84
697.89	364.92
698.23	363.22
698.56	361.44
698.90	359.70
699.23	357.79
699.57	355.90
699.90	354.05
700.24	352.29
700.58	350.50
700.91	348.83
701.25	347.23
701.58	345.63
701.92	344.06
702.25	342.45
702.59	340.87
702.92	339.34
703.26	337.79
703.59	336.33
703.93	335.08
704.26	333.68
704.60	332.18
704.93	330.76
705.26	329.21
705.60	327.73
705.93	326.22
706.27	324.89
706.60	323.62
706.94	322.39
707.27	321.01
707.61	319.71
707.94	318.36
708.27	316.92
708.61	315.45
708.94	314.07
709.28	312.76
709.61	311.47
709.94	310.26
710.28	309.09
710.61	307.87
710.95	306.42
711.28	305.33
711.61	304.14
711.95	302.99
712.28	301.81
712.61	300.59
712.95	299.56
713.28	298.52
713.61	297.37
713.95	296.21
714.28	295.18
714.61	294.13
714.95	293.10
715.28	292.04
715.61	291.06
715.95	290.11
716.28	289.16
716.61	288.22
716.95	287.25
717.28	286.30
717.61	285.35
717.94	284.48
718.28	283.45
718.61	282.59
718.94	281.72
719.27	280.87
719.61	280.10
719.94	279.22
720.27	278.27
720.60	277.43
720.94	276.65
721.27	275.90
721.60	275.23
721.93	274.52
722.27	273.89
722.60	273.23
722.93	272.50
723.26	271.84
723.59	271.13
723.93	270.49
724.26	269.83
724.59	269.15
724.92	268.55
725.25	268.03
725.59	267.44
725.92	266.89
726.25	266.31
726.58	265.73
726.91	265.12
727.24	264.59
727.57	264.03
727.91	263.44
728.24	262.83
728.57	262.21
728.90	261.67
729.23	261.05
729.56	260.59
729.89	260.08
730.22	259.52
730.55	259.00
730.89	258.44
731.22	257.93
731.55	257.47
731.88	256.95
732.21	256.38
732.54	255.84
732.87	255.31
733.20	254.81
733.53	254.31
733.86	253.84
734.19	253.35
734.52	252.94
734.85	252.64
735.18	252.19
735.51	251.84
735.84	251.41
736.17	251.03
736.50	250.50
736.83	250.32
737.16	249.96
737.49	249.54
737.82	249.14
738.15	248.77
738.48	248.38
738.81	247.96
739.14	247.56
739.47	247.17
739.80	246.81
740.13	246.49
740.46	246.12
740.79	245.73
741.12	245.35
741.45	244.94
741.78	244.50
742.11	244.22
742.44	243.82
742.77	243.54
743.10	243.17
743.43	242.83
743.75	242.25
744.08	242.16
744.41	241.82
744.74	241.49
745.07	241.10
745.40	240.81
745.73	240.59
746.06	240.27
746.39	239.98
746.71	239.64
747.04	239.30
747.37	238.97
747.70	238.69
748.03	238.42
748.36	238.17
748.68	237.85
749.01	237.53
749.34	237.23
749.67	236.92
750.00	236.70
750.33	236.56
750.65	236.34
750.98	235.78
751.31	235.57
751.64	235.32
751.97	235.26
752.29	234.96
752.62	234.62
752.95	234.37
753.28	234.12
753.60	233.88
753.93	233.73
754.26	233.53
754.59	233.27
754.91	233.03
755.24	232.79
755.57	232.54
755.90	232.29
756.22	232.05
756.55	231.82
756.88	231.55
757.20	231.25
757.53	230.96
757.86	230.79
758.19	230.59
758.51	230.37
758.84	229.98
759.17	229.79
759.49	229.62
759.82	229.53
760.15	229.37
760.47	229.17
760.80	228.90
761.13	228.75
761.45	228.58
761.78	228.40
762.11	228.24
762.43	228.07
762.76	227.92
763.08	227.78
763.41	227.64
763.74	227.50
764.06	227.28
764.39	227.16
764.71	227.00
765.04	226.79
765.37	226.64
765.69	226.55
766.02	226.43
766.34	226.27
766.67	226.06
767.00	225.94
767.32	225.93
767.65	225.92
767.97	225.78
768.30	225.65
768.62	225.51
768.95	225.34
769.27	225.21
769.60	225.10
769.92	224.93
770.25	224.81
770.57	224.63
770.90	224.53
771.22	224.39
771.55	224.27
771.87	224.22
772.20	224.11
772.52	224.15
772.85	224.28
773.17	224.16
773.50	224.01
773.82	223.92
774.15	223.72
774.47	223.49
774.80	223.38
775.12	223.29
775.45	223.22
775.77	223.15
776.09	223.08
776.42	222.98
776.74	222.96
777.07	222.83
777.39	222.77
777.72	222.67
778.04	222.62
778.36	222.53
778.69	222.43
779.01	222.37
779.33	222.09
779.66	221.74
779.98	221.65
780.31	221.59
780.63	221.58
780.95	221.52
781.28	221.45
781.60	221.32
781.92	221.21
782.25	221.15
782.57	221.09
782.89	221.04
783.22	220.93
783.54	220.83
783.86	220.76
784.19	220.68
784.51	220.67
784.83	220.60
785.16	220.50
785.48	220.42
785.80	220.37
786.12	220.32
