SpectraSuite Data File
++++++++++++++++++++++++++++++++++++
Date: Tue Jan 29 16:26:33 EST 2013
User: group
Dark Spectrum Present: No
Reference Spectrum Present: No
Number of Sampled Component Spectra: 1
Spectrometers: USB2E7196
Integration Time (usec): 65000 (USB2E7196)
Spectra Averaged: 100 (USB2E7196)
Boxcar Smoothing: 10 (USB2E7196)
Correct for Electrical Dark: No (USB2E7196)
Strobe/Lamp Enabled: No (USB2E7196)
Correct for Detector Non-linearity: No (USB2E7196)
Correct for Stray Light: No (USB2E7196)
Number of Pixels in Processed Spectrum: 2048
>>>>>Begin Processed Spectral Data<<<<<
339.09	0.00
339.48	201.29
339.86	204.01
340.24	204.90
340.63	206.78
341.01	210.51
341.39	208.66
341.78	210.17
342.16	211.67
342.54	211.97
342.93	201.06
343.31	211.24
343.69	211.84
344.07	212.27
344.46	212.72
344.84	213.10
345.22	213.27
345.60	213.57
345.99	213.79
346.37	213.94
346.75	214.07
347.13	214.18
347.52	214.27
347.90	214.42
348.28	214.48
348.66	214.60
349.05	214.56
349.43	214.63
349.81	214.72
350.19	214.79
350.57	214.89
350.96	214.98
351.34	215.09
351.72	215.16
352.10	215.30
352.48	215.36
352.87	215.41
353.25	215.48
353.63	215.54
354.01	215.62
354.39	215.69
354.77	215.77
355.15	215.89
355.54	215.98
355.92	215.95
356.30	216.02
356.68	216.19
357.06	216.30
357.44	216.37
357.82	216.43
358.20	216.50
358.58	216.57
358.97	216.65
359.35	216.73
359.73	216.86
360.11	216.92
360.49	216.98
360.87	217.06
361.25	217.14
361.63	217.26
362.01	217.29
362.39	217.32
362.77	217.38
363.15	217.39
363.53	217.40
363.91	217.47
364.29	217.49
364.67	217.37
365.05	217.39
365.43	217.44
365.81	217.46
366.19	217.56
366.57	217.66
366.95	217.65
367.33	217.59
367.71	217.59
368.09	217.60
368.47	217.58
368.85	217.57
369.23	217.63
369.61	217.50
369.99	217.57
370.37	217.59
370.75	217.66
371.13	217.61
371.51	217.57
371.89	217.57
372.27	217.55
372.65	217.51
373.03	217.46
373.41	217.40
373.78	217.37
374.16	217.24
374.54	217.13
374.92	217.08
375.30	217.05
375.68	216.95
376.06	216.93
376.44	216.88
376.82	216.84
377.19	216.75
377.57	216.71
377.95	216.60
378.33	216.50
378.71	216.31
379.09	216.31
379.47	216.27
379.84	216.19
380.22	216.11
380.60	216.03
380.98	216.00
381.36	215.97
381.73	215.91
382.11	215.91
382.49	215.86
382.87	215.79
383.25	215.74
383.62	215.94
384.00	215.86
384.38	215.83
384.76	215.82
385.13	215.83
385.51	215.82
385.89	215.75
386.27	215.74
386.64	215.74
387.02	215.68
387.40	215.63
387.78	215.62
388.15	215.59
388.53	215.59
388.91	215.54
389.29	215.47
389.66	215.49
390.04	215.43
390.42	215.44
390.79	215.47
391.17	215.45
391.55	215.21
391.92	215.19
392.30	215.23
392.68	215.19
393.05	215.20
393.43	215.22
393.81	215.25
394.18	215.25
394.56	215.29
394.94	215.32
395.31	215.32
395.69	215.35
396.06	215.42
396.44	215.45
396.82	215.46
397.19	215.61
397.57	215.59
397.95	215.68
398.32	215.66
398.70	215.72
399.07	215.80
399.45	215.87
399.82	215.91
400.20	215.93
400.58	216.00
400.95	215.97
401.33	216.08
401.70	216.27
402.08	216.35
402.45	216.42
402.83	216.57
403.20	216.70
403.58	216.80
403.95	216.95
404.33	217.13
404.71	217.28
405.08	217.50
405.46	217.67
405.83	217.86
406.21	218.08
406.58	218.28
406.96	218.50
407.33	218.74
407.70	219.06
408.08	219.54
408.45	219.87
408.83	220.31
409.20	220.64
409.58	220.93
409.95	221.40
410.33	221.90
410.70	222.35
411.08	222.92
411.45	223.50
411.82	224.06
412.20	224.75
412.57	225.56
412.95	226.12
413.32	226.96
413.69	227.80
414.07	228.70
414.44	229.66
414.82	230.70
415.19	231.87
415.56	233.07
415.94	234.20
416.31	235.62
416.68	236.97
417.06	238.58
417.43	240.13
417.81	241.86
418.18	243.64
418.55	245.56
418.93	247.56
419.30	249.65
419.67	251.89
420.04	254.13
420.42	256.51
420.79	259.35
421.16	262.14
421.54	264.99
421.91	267.96
422.28	271.08
422.66	274.32
423.03	277.53
423.40	280.83
423.77	284.43
424.15	288.05
424.52	291.88
424.89	296.04
425.26	300.11
425.64	303.98
426.01	308.21
426.38	312.68
426.75	317.23
427.13	321.95
427.50	326.86
427.87	332.09
428.24	337.22
428.61	342.19
428.99	347.67
429.36	353.67
429.73	359.54
430.10	365.38
430.47	371.48
430.85	377.79
431.22	384.50
431.59	391.60
431.96	398.36
432.33	405.82
432.70	413.00
433.08	421.44
433.45	429.43
433.82	437.45
434.19	446.29
434.56	454.98
434.93	463.28
435.30	471.57
435.68	480.62
436.05	489.64
436.42	498.50
436.79	506.58
437.16	515.35
437.53	524.60
437.90	533.72
438.27	542.59
438.64	551.81
439.01	560.28
439.38	567.82
439.75	575.20
440.13	583.58
440.50	591.57
440.87	598.03
441.24	604.70
441.61	612.00
441.98	617.37
442.35	623.65
442.72	629.90
443.09	635.93
443.46	639.63
443.83	642.15
444.20	644.34
444.57	647.56
444.94	649.00
445.31	650.40
445.68	651.81
446.05	652.43
446.42	651.61
446.79	650.67
447.16	649.64
447.53	648.88
447.90	645.59
448.27	642.26
448.64	637.59
449.01	634.24
449.37	628.41
449.74	622.76
450.11	615.89
450.48	608.55
450.85	601.12
451.22	594.66
451.59	588.53
451.96	582.71
452.33	574.84
452.70	567.69
453.07	559.27
453.43	550.65
453.80	542.39
454.17	534.46
454.54	526.92
454.91	518.77
455.28	510.81
455.65	503.41
456.02	495.97
456.38	489.68
456.75	481.88
457.12	475.31
457.49	468.84
457.86	462.67
458.23	457.30
458.59	451.38
458.96	445.44
459.33	440.22
459.70	434.88
460.07	430.64
460.43	425.84
460.80	421.29
461.17	417.33
461.54	413.16
461.91	409.14
462.27	405.00
462.64	401.53
463.01	397.79
463.38	394.10
463.74	390.40
464.11	387.16
464.48	384.31
464.85	381.20
465.21	378.76
465.58	376.11
465.95	373.01
466.32	370.39
466.68	367.80
467.05	365.21
467.42	362.66
467.78	360.04
468.15	357.50
468.52	355.56
468.88	353.06
469.25	350.84
469.62	349.05
469.98	347.16
470.35	345.38
470.72	343.63
471.08	341.81
471.45	340.29
471.82	338.72
472.18	337.05
472.55	335.83
472.92	334.47
473.28	333.25
473.65	332.15
474.02	331.01
474.38	330.10
474.75	329.29
475.11	328.44
475.48	327.82
475.85	327.37
476.21	326.89
476.58	326.55
476.94	326.37
477.31	326.08
477.67	325.79
478.04	325.62
478.41	325.59
478.77	325.81
479.14	325.77
479.50	325.95
479.87	326.28
480.23	326.60
480.60	326.82
480.96	327.11
481.33	327.68
481.69	328.28
482.06	328.82
482.42	329.31
482.79	329.92
483.15	330.71
483.52	331.61
483.88	332.49
484.25	333.43
484.61	334.40
484.98	335.44
485.34	336.81
485.71	338.22
486.07	339.67
486.44	340.99
486.80	342.64
487.17	344.33
487.53	346.15
487.90	348.03
488.26	350.08
488.62	352.25
488.99	354.31
489.35	356.49
489.72	358.85
490.08	361.35
490.44	363.89
490.81	366.58
491.17	369.34
491.54	372.37
491.90	375.43
492.26	378.65
492.63	382.07
492.99	385.51
493.36	389.18
493.72	393.04
494.08	397.03
494.45	401.23
494.81	405.65
495.17	410.12
495.54	414.84
495.90	419.74
496.26	424.68
496.63	429.87
496.99	435.29
497.35	440.92
497.72	446.82
498.08	452.78
498.44	458.90
498.80	465.31
499.17	471.80
499.53	478.53
499.89	485.56
500.26	492.58
500.62	499.74
500.98	507.15
501.34	514.72
501.71	522.54
502.07	530.35
502.43	538.35
502.79	546.56
503.16	555.01
503.52	563.60
503.88	572.41
504.24	581.47
504.60	590.59
504.97	599.89
505.33	609.18
505.69	619.17
506.05	629.16
506.41	639.08
506.78	649.28
507.14	659.65
507.50	670.11
507.86	680.93
508.22	691.77
508.59	702.59
508.95	713.71
509.31	725.05
509.67	736.57
510.03	748.13
510.39	759.94
510.75	771.78
511.12	783.77
511.48	795.94
511.84	808.12
512.20	820.53
512.56	833.31
512.92	846.34
513.28	859.13
513.64	871.98
514.00	885.01
514.37	898.07
514.73	911.17
515.09	924.31
515.45	937.32
515.81	950.45
516.17	963.86
516.53	977.23
516.89	990.46
517.25	1003.82
517.61	1017.46
517.97	1030.96
518.33	1044.27
518.69	1057.91
519.05	1071.77
519.41	1085.65
519.77	1099.73
520.13	1113.09
520.49	1126.20
520.85	1139.67
521.21	1153.13
521.57	1166.86
521.93	1179.99
522.29	1193.94
522.65	1207.63
523.01	1221.39
523.37	1234.79
523.73	1248.29
524.09	1261.55
524.45	1275.16
524.81	1288.87
525.17	1302.28
525.53	1315.54
525.89	1329.05
526.25	1342.41
526.61	1355.24
526.97	1368.53
527.33	1381.51
527.68	1395.07
528.04	1408.73
528.40	1422.00
528.76	1435.39
529.12	1448.42
529.48	1461.82
529.84	1474.23
530.20	1487.09
530.56	1499.80
530.91	1513.12
531.27	1526.03
531.63	1538.87
531.99	1551.72
532.35	1563.92
532.71	1576.45
533.07	1589.46
533.42	1601.70
533.78	1613.87
534.14	1626.10
534.50	1637.46
534.86	1649.17
535.21	1660.23
535.57	1671.90
535.93	1683.22
536.29	1694.52
536.65	1706.09
537.00	1717.28
537.36	1728.80
537.72	1739.90
538.08	1751.35
538.44	1762.39
538.79	1773.55
539.15	1784.70
539.51	1795.52
539.87	1806.95
540.22	1817.85
540.58	1828.91
540.94	1840.01
541.29	1850.37
541.65	1860.21
542.01	1870.72
542.37	1880.93
542.72	1891.03
543.08	1900.92
543.44	1911.54
543.79	1920.81
544.15	1930.29
544.51	1940.29
544.87	1950.24
545.22	1959.60
545.58	1968.48
545.94	1977.42
546.29	1986.05
546.65	1994.40
547.01	2002.73
547.36	2010.59
547.72	2018.26
548.07	2025.81
548.43	2033.63
548.79	2041.54
549.14	2049.84
549.50	2058.46
549.86	2066.39
550.21	2073.96
550.57	2081.73
550.92	2088.41
551.28	2096.01
551.64	2103.30
551.99	2110.89
552.35	2118.01
552.70	2124.98
553.06	2131.72
553.41	2138.17
553.77	2144.76
554.13	2151.24
554.48	2158.19
554.84	2165.25
555.19	2171.98
555.55	2178.62
555.90	2184.84
556.26	2191.69
556.61	2197.86
556.97	2202.74
557.32	2208.52
557.68	2215.04
558.03	2220.82
558.39	2226.25
558.74	2232.34
559.10	2237.94
559.45	2243.55
559.81	2249.21
560.16	2254.76
560.52	2260.69
560.87	2267.12
561.23	2273.07
561.58	2279.85
561.94	2285.31
562.29	2290.14
562.64	2296.27
563.00	2301.98
563.35	2307.58
563.71	2313.45
564.06	2319.15
564.42	2325.19
564.77	2330.25
565.12	2335.57
565.48	2340.64
565.83	2346.26
566.19	2351.69
566.54	2357.33
566.89	2361.97
567.25	2366.48
567.60	2372.22
567.96	2377.40
568.31	2381.92
568.66	2386.22
569.02	2390.05
569.37	2393.73
569.72	2398.22
570.08	2401.80
570.43	2404.89
570.78	2408.18
571.14	2410.67
571.49	2413.71
571.84	2417.15
572.20	2420.24
572.55	2423.24
572.90	2425.68
573.26	2428.46
573.61	2431.04
573.96	2432.94
574.31	2434.92
574.67	2436.93
575.02	2437.78
575.37	2439.24
575.72	2439.96
576.08	2441.49
576.43	2441.74
576.78	2442.33
577.13	2443.82
577.49	2445.10
577.84	2446.21
578.19	2447.44
578.54	2448.00
578.90	2448.87
579.25	2448.73
579.60	2448.61
579.95	2447.87
580.30	2447.96
580.66	2447.44
581.01	2445.76
581.36	2443.38
581.71	2442.02
582.06	2440.94
582.42	2440.15
582.77	2438.01
583.12	2436.53
583.47	2435.13
583.82	2434.48
584.17	2433.33
584.53	2431.23
584.88	2429.02
585.23	2427.20
585.58	2425.09
585.93	2423.16
586.28	2421.01
586.63	2418.72
586.98	2416.53
587.34	2414.53
587.69	2412.16
588.04	2410.07
588.39	2408.72
588.74	2406.34
589.09	2403.67
589.44	2400.35
589.79	2397.66
590.14	2395.72
590.49	2392.82
590.84	2389.01
591.19	2385.92
591.54	2382.52
591.89	2378.47
592.25	2375.28
592.60	2370.98
592.95	2366.73
593.30	2362.49
593.65	2357.94
594.00	2353.44
594.35	2350.36
594.70	2345.61
595.05	2340.95
595.40	2335.35
595.75	2329.43
596.10	2325.85
596.45	2320.96
596.80	2316.39
597.15	2311.30
597.50	2305.41
597.85	2300.43
598.19	2295.06
598.54	2289.19
598.89	2283.90
599.24	2279.28
599.59	2272.98
599.94	2267.20
600.29	2261.25
600.64	2255.32
600.99	2248.47
601.34	2242.98
601.69	2236.01
602.04	2229.67
602.39	2223.14
602.74	2217.01
603.08	2211.42
603.43	2204.84
603.78	2197.87
604.13	2190.93
604.48	2183.49
604.83	2177.30
605.18	2171.05
605.53	2164.03
605.87	2157.01
606.22	2150.19
606.57	2142.18
606.92	2134.18
607.27	2127.19
607.62	2120.38
607.96	2113.42
608.31	2107.12
608.66	2099.41
609.01	2091.85
609.36	2084.64
609.70	2076.74
610.05	2068.91
610.40	2060.47
610.75	2052.09
611.10	2044.34
611.44	2035.31
611.79	2026.64
612.14	2016.52
612.49	2005.85
612.83	1996.55
613.18	1987.15
613.53	1977.77
613.88	1968.20
614.22	1959.54
614.57	1949.49
614.92	1938.86
615.27	1928.45
615.61	1918.23
615.96	1908.33
616.31	1898.57
616.65	1889.13
617.00	1879.25
617.35	1869.58
617.70	1860.00
618.04	1850.02
618.39	1839.81
618.74	1830.16
619.08	1820.43
619.43	1811.70
619.78	1803.37
620.12	1794.71
620.47	1785.13
620.82	1774.67
621.16	1764.81
621.51	1754.82
621.85	1744.94
622.20	1734.52
622.55	1723.95
622.89	1713.92
623.24	1704.10
623.59	1694.24
623.93	1683.97
624.28	1674.19
624.62	1663.96
624.97	1653.52
625.32	1643.56
625.66	1634.60
626.01	1625.69
626.35	1616.15
626.70	1605.96
627.04	1595.60
627.39	1585.38
627.73	1575.97
628.08	1566.93
628.43	1557.33
628.77	1548.01
629.12	1539.03
629.46	1531.19
629.81	1522.79
630.15	1513.17
630.50	1503.27
630.84	1492.59
631.19	1482.65
631.53	1473.27
631.88	1463.02
632.22	1452.94
632.57	1443.48
632.91	1433.26
633.26	1423.29
633.60	1413.67
633.95	1404.23
634.29	1394.77
634.64	1385.36
634.98	1375.29
635.32	1365.95
635.67	1357.34
636.01	1348.04
636.36	1338.13
636.70	1328.49
637.05	1318.96
637.39	1309.90
637.73	1301.14
638.08	1293.66
638.42	1285.42
638.77	1276.61
639.11	1268.32
639.45	1260.43
639.80	1251.75
640.14	1242.89
640.49	1233.96
640.83	1225.12
641.17	1216.95
641.52	1208.71
641.86	1200.08
642.20	1192.09
642.55	1183.30
642.89	1174.34
643.23	1165.59
643.58	1157.44
643.92	1148.30
644.26	1139.48
644.61	1130.91
644.95	1122.04
645.29	1112.57
645.64	1103.31
645.98	1094.62
646.32	1086.67
646.66	1078.07
647.01	1069.69
647.35	1061.55
647.69	1053.11
648.04	1044.76
648.38	1035.76
648.72	1026.93
649.06	1018.35
649.41	1010.05
649.75	1002.12
650.09	994.12
650.43	985.99
650.78	977.44
651.12	969.69
651.46	962.27
651.80	954.92
652.14	947.60
652.49	940.00
652.83	932.53
653.17	924.76
653.51	916.96
653.85	909.64
654.20	902.30
654.54	894.76
654.88	887.42
655.22	880.09
655.56	873.04
655.90	866.17
656.25	859.43
656.59	852.43
656.93	845.33
657.27	838.19
657.61	831.18
657.95	825.12
658.29	819.12
658.64	812.81
658.98	806.26
659.32	799.64
659.66	793.32
660.00	786.93
660.34	780.80
660.68	774.65
661.02	768.21
661.36	762.20
661.70	756.30
662.05	750.59
662.39	745.04
662.73	739.55
663.07	734.10
663.41	728.41
663.75	722.69
664.09	716.90
664.43	711.36
664.77	705.94
665.11	700.12
665.45	694.09
665.79	688.24
666.13	682.54
666.47	676.95
666.81	671.50
667.15	666.04
667.49	660.74
667.83	655.40
668.17	650.05
668.51	644.83
668.85	639.88
669.19	634.91
669.53	629.79
669.87	624.62
670.21	619.75
670.55	614.92
670.89	610.39
671.23	606.04
671.57	601.55
671.91	597.14
672.25	592.89
672.58	588.67
672.92	584.58
673.26	580.60
673.60	576.69
673.94	572.83
674.28	569.13
674.62	565.36
674.96	561.61
675.30	558.10
675.64	554.43
675.97	550.79
676.31	547.17
676.65	543.53
676.99	540.09
677.33	536.24
677.67	532.63
678.01	528.71
678.34	525.02
678.68	521.53
679.02	517.92
679.36	514.17
679.70	510.49
680.04	506.88
680.37	503.40
680.71	500.04
681.05	496.83
681.39	493.60
681.73	490.40
682.06	487.26
682.40	484.12
682.74	480.83
683.08	477.50
683.42	474.24
683.75	471.18
684.09	468.12
684.43	465.26
684.77	462.28
685.10	459.43
685.44	456.46
685.78	453.43
686.12	450.60
686.45	447.87
686.79	445.22
687.13	442.62
687.46	439.94
687.80	437.20
688.14	434.29
688.48	431.57
688.81	428.82
689.15	426.24
689.49	423.58
689.82	421.04
690.16	418.44
690.50	415.95
690.83	413.43
691.17	410.80
691.51	408.31
691.84	406.09
692.18	403.85
692.52	401.58
692.85	399.43
693.19	397.25
693.52	395.08
693.86	392.81
694.20	390.61
694.53	388.45
694.87	386.21
695.21	384.07
695.54	381.87
695.88	379.70
696.21	377.48
696.55	375.30
696.88	373.20
697.22	371.16
697.56	369.26
697.89	367.36
698.23	365.60
698.56	363.75
698.90	361.90
699.23	359.94
699.57	358.12
699.90	356.22
700.24	354.40
700.58	352.62
700.91	350.93
701.25	349.34
701.58	347.71
701.92	346.10
702.25	344.44
702.59	342.82
702.92	341.23
703.26	339.64
703.59	338.13
703.93	336.83
704.26	335.38
704.60	333.85
704.93	332.34
705.26	330.79
705.60	329.30
705.93	327.72
706.27	326.40
706.60	325.08
706.94	323.80
707.27	322.39
707.61	321.03
707.94	319.72
708.27	318.15
708.61	316.65
708.94	315.25
709.28	313.96
709.61	312.68
709.94	311.43
710.28	310.17
710.61	309.00
710.95	307.55
711.28	306.48
711.61	305.28
711.95	304.08
712.28	302.87
712.61	301.64
712.95	300.60
713.28	299.53
713.61	298.35
713.95	297.19
714.28	296.11
714.61	295.02
714.95	293.95
715.28	292.96
715.61	291.95
715.95	291.00
716.28	290.01
716.61	289.03
716.95	288.06
717.28	287.16
717.61	286.18
717.94	285.28
718.28	284.19
718.61	283.27
718.94	282.39
719.27	281.53
719.61	280.73
719.94	279.84
720.27	278.83
720.60	277.97
720.94	277.16
721.27	276.40
721.60	275.69
721.93	274.96
722.27	274.32
722.60	273.61
722.93	272.87
723.26	272.22
723.59	271.51
723.93	270.87
724.26	270.14
724.59	269.47
724.92	268.84
725.25	268.31
725.59	267.75
725.92	267.20
726.25	266.60
726.58	266.06
726.91	265.43
727.24	264.91
727.57	264.33
727.91	263.72
728.24	263.19
728.57	262.61
728.90	262.08
729.23	261.43
729.56	261.01
729.89	260.50
730.22	259.89
730.55	259.36
730.89	258.82
731.22	258.32
731.55	257.81
731.88	257.31
732.21	256.73
732.54	256.15
732.87	255.62
733.20	255.18
733.53	254.66
733.86	254.25
734.19	253.73
734.52	253.29
734.85	253.00
735.18	252.52
735.51	252.14
735.84	251.66
736.17	251.26
736.50	250.69
736.83	250.54
737.16	250.17
737.49	249.80
737.82	249.37
738.15	249.02
738.48	248.66
738.81	248.25
739.14	247.83
739.47	247.47
739.80	247.13
740.13	246.75
740.46	246.34
740.79	245.94
741.12	245.61
741.45	245.29
741.78	244.85
742.11	244.56
742.44	244.15
742.77	243.92
743.10	243.57
743.43	243.24
743.75	242.64
744.08	242.55
744.41	242.18
744.74	241.81
745.07	241.42
745.40	241.10
745.73	240.87
746.06	240.56
746.39	240.27
746.71	239.91
747.04	239.58
747.37	239.25
747.70	238.97
748.03	238.66
748.36	238.32
748.68	238.02
749.01	237.68
749.34	237.40
749.67	237.06
750.00	236.83
750.33	236.71
750.65	236.46
750.98	235.93
751.31	235.73
751.64	235.54
751.97	235.44
752.29	235.18
752.62	234.83
752.95	234.61
753.28	234.35
753.60	234.07
753.93	233.94
754.26	233.72
754.59	233.44
754.91	233.22
755.24	233.00
755.57	232.75
755.90	232.49
756.22	232.23
756.55	232.01
756.88	231.72
757.20	231.33
757.53	231.10
757.86	230.92
758.19	230.70
758.51	230.47
758.84	230.19
759.17	229.99
759.49	229.84
759.82	229.74
760.15	229.56
760.47	229.35
760.80	229.06
761.13	228.90
761.45	228.75
761.78	228.54
762.11	228.38
762.43	228.18
762.76	228.05
763.08	227.91
763.41	227.74
763.74	227.62
764.06	227.50
764.39	227.29
764.71	227.14
765.04	226.93
765.37	226.75
765.69	226.55
766.02	226.40
766.34	226.23
766.67	225.99
767.00	225.91
767.32	225.94
767.65	225.95
767.97	225.82
768.30	225.65
768.62	225.51
768.95	225.35
769.27	225.25
769.60	225.14
769.92	224.98
770.25	224.82
770.57	224.62
770.90	224.49
771.22	224.38
771.55	224.27
771.87	224.17
772.20	224.04
772.52	224.12
772.85	224.22
773.17	224.12
773.50	224.00
773.82	223.84
774.15	223.61
774.47	223.37
774.80	223.23
775.12	223.14
775.45	223.07
775.77	222.99
776.09	222.91
776.42	222.79
776.74	222.73
777.07	222.64
777.39	222.56
777.72	222.45
778.04	222.38
778.36	222.27
778.69	222.21
779.01	222.13
779.33	221.85
779.66	221.55
779.98	221.42
780.31	221.35
780.63	221.38
780.95	221.32
781.28	221.23
781.60	221.16
781.92	221.09
782.25	221.02
782.57	220.95
782.89	220.86
783.22	220.83
783.54	220.77
783.86	220.70
784.19	220.66
784.51	220.67
784.83	220.59
785.16	220.51
785.48	220.44
785.80	220.38
786.12	220.37
