SpectraSuite Data File
++++++++++++++++++++++++++++++++++++
Date: Tue Jan 29 16:08:35 EST 2013
User: group
Dark Spectrum Present: No
Reference Spectrum Present: No
Number of Sampled Component Spectra: 1
Spectrometers: USB2E7196
Integration Time (usec): 65000 (USB2E7196)
Spectra Averaged: 100 (USB2E7196)
Boxcar Smoothing: 10 (USB2E7196)
Correct for Electrical Dark: No (USB2E7196)
Strobe/Lamp Enabled: No (USB2E7196)
Correct for Detector Non-linearity: No (USB2E7196)
Correct for Stray Light: No (USB2E7196)
Number of Pixels in Processed Spectrum: 2048
>>>>>Begin Processed Spectral Data<<<<<
339.09	0.00
339.48	202.92
339.86	204.55
340.24	205.68
340.63	206.89
341.01	212.02
341.39	209.26
341.78	211.48
342.16	212.61
342.54	212.95
342.93	201.89
343.31	212.07
343.69	212.59
344.07	213.02
344.46	213.46
344.84	213.86
345.22	214.01
345.60	214.30
345.99	214.49
346.37	214.65
346.75	214.75
347.13	214.83
347.52	214.93
347.90	215.05
348.28	215.08
348.66	215.13
349.05	215.11
349.43	215.16
349.81	215.25
350.19	215.32
350.57	215.37
350.96	215.46
351.34	215.56
351.72	215.67
352.10	215.79
352.48	215.87
352.87	215.92
353.25	216.00
353.63	216.04
354.01	216.07
354.39	216.13
354.77	216.18
355.15	216.31
355.54	216.29
355.92	216.29
356.30	216.35
356.68	216.55
357.06	216.63
357.44	216.68
357.82	216.73
358.20	216.82
358.58	216.93
358.97	217.00
359.35	217.11
359.73	217.22
360.11	217.28
360.49	217.31
360.87	217.35
361.25	217.45
361.63	217.57
362.01	217.67
362.39	217.67
362.77	217.75
363.15	217.77
363.53	217.84
363.91	217.86
364.29	217.88
364.67	217.72
365.05	217.72
365.43	217.77
365.81	217.85
366.19	217.93
366.57	217.96
366.95	217.96
367.33	217.92
367.71	217.92
368.09	217.95
368.47	217.98
368.85	218.00
369.23	218.01
369.61	217.96
369.99	217.99
370.37	218.00
370.75	218.07
371.13	217.99
371.51	217.98
371.89	217.98
372.27	218.02
372.65	218.01
373.03	217.99
373.41	217.94
373.78	217.87
374.16	217.73
374.54	217.66
374.92	217.61
375.30	217.57
375.68	217.48
376.06	217.46
376.44	217.38
376.82	217.36
377.19	217.27
377.57	217.17
377.95	217.08
378.33	217.01
378.71	216.84
379.09	216.85
379.47	216.81
379.84	216.78
380.22	216.69
380.60	216.63
380.98	216.58
381.36	216.52
381.73	216.46
382.11	216.45
382.49	216.42
382.87	216.35
383.25	216.31
383.62	216.50
384.00	216.43
384.38	216.42
384.76	216.42
385.13	216.49
385.51	216.46
385.89	216.42
386.27	216.42
386.64	216.44
387.02	216.39
387.40	216.36
387.78	216.30
388.15	216.29
388.53	216.25
388.91	216.26
389.29	216.25
389.66	216.28
390.04	216.24
390.42	216.24
390.79	216.23
391.17	216.22
391.55	215.98
391.92	215.96
392.30	215.94
392.68	215.89
393.05	215.86
393.43	215.86
393.81	215.89
394.18	215.85
394.56	215.84
394.94	215.88
395.31	215.83
395.69	215.93
396.06	215.95
396.44	215.99
396.82	215.94
397.19	216.08
397.57	216.08
397.95	216.13
398.32	216.12
398.70	216.20
399.07	216.29
399.45	216.33
399.82	216.40
400.20	216.45
400.58	216.48
400.95	216.47
401.33	216.59
401.70	216.77
402.08	216.90
402.45	217.00
402.83	217.13
403.20	217.29
403.58	217.37
403.95	217.54
404.33	217.68
404.71	217.86
405.08	218.09
405.46	218.24
405.83	218.42
406.21	218.63
406.58	218.83
406.96	219.05
407.33	219.32
407.70	219.58
408.08	220.02
408.45	220.38
408.83	220.77
409.20	221.09
409.58	221.35
409.95	221.75
410.33	222.23
410.70	222.65
411.08	223.17
411.45	223.73
411.82	224.27
412.20	224.93
412.57	225.75
412.95	226.29
413.32	227.10
413.69	227.90
414.07	228.77
414.44	229.73
414.82	230.73
415.19	231.84
415.56	233.01
415.94	234.12
416.31	235.47
416.68	236.79
417.06	238.35
417.43	239.85
417.81	241.49
418.18	243.17
418.55	245.01
418.93	246.96
419.30	248.96
419.67	251.10
420.04	253.36
420.42	255.64
420.79	258.39
421.16	261.09
421.54	263.86
421.91	266.70
422.28	269.68
422.66	272.84
423.03	275.95
423.40	279.15
423.77	282.62
424.15	286.14
424.52	289.87
424.89	293.87
425.26	297.82
425.64	301.62
426.01	305.77
426.38	310.11
426.75	314.51
427.13	319.12
427.50	323.91
427.87	328.90
428.24	333.92
428.61	338.71
428.99	344.03
429.36	349.87
429.73	355.59
430.10	361.26
430.47	367.12
430.85	373.27
431.22	379.73
431.59	386.66
431.96	393.24
432.33	400.45
432.70	407.43
433.08	415.64
433.45	423.40
433.82	431.21
434.19	439.77
434.56	448.20
434.93	456.17
435.30	464.17
435.68	472.99
436.05	481.63
436.42	490.19
436.79	498.05
437.16	506.52
437.53	515.47
437.90	524.32
438.27	532.98
438.64	541.90
439.01	550.13
439.38	557.45
439.75	564.55
440.13	572.72
440.50	580.43
440.87	586.67
441.24	593.07
441.61	600.07
441.98	605.29
442.35	611.34
442.72	617.45
443.09	623.35
443.46	626.90
443.83	629.31
444.20	631.45
444.57	634.41
444.94	635.78
445.31	637.21
445.68	638.55
446.05	639.10
446.42	638.28
446.79	637.37
447.16	636.25
447.53	635.47
447.90	632.15
448.27	628.88
448.64	624.38
449.01	621.15
449.37	615.45
449.74	609.91
450.11	603.30
450.48	596.17
450.85	588.85
451.22	582.62
451.59	576.81
451.96	571.14
452.33	563.63
452.70	556.82
453.07	548.59
453.43	540.25
453.80	532.26
454.17	524.55
454.54	517.29
454.91	509.46
455.28	501.79
455.65	494.67
456.02	487.51
456.38	481.44
456.75	473.93
457.12	467.67
457.49	461.47
457.86	455.52
458.23	450.39
458.59	444.74
458.96	439.00
459.33	433.83
459.70	428.73
460.07	424.63
460.43	419.91
460.80	415.53
461.17	411.70
461.54	407.67
461.91	403.81
462.27	399.80
462.64	396.48
463.01	392.87
463.38	389.38
463.74	385.83
464.11	382.66
464.48	379.89
464.85	376.89
465.21	374.51
465.58	371.92
465.95	368.84
466.32	366.33
466.68	363.81
467.05	361.32
467.42	358.85
467.78	356.27
468.15	353.84
468.52	351.95
468.88	349.59
469.25	347.48
469.62	345.75
469.98	343.95
470.35	342.24
470.72	340.62
471.08	338.89
471.45	337.48
471.82	336.02
472.18	334.42
472.55	333.25
472.92	331.94
473.28	330.84
473.65	329.77
474.02	328.74
474.38	327.88
474.75	327.21
475.11	326.46
475.48	325.94
475.85	325.45
476.21	325.04
476.58	324.73
476.94	324.50
477.31	324.30
477.67	324.02
478.04	323.92
478.41	323.84
478.77	324.05
479.14	324.00
479.50	324.16
479.87	324.49
480.23	324.88
480.60	325.16
480.96	325.46
481.33	326.10
481.69	326.63
482.06	327.18
482.42	327.68
482.79	328.25
483.15	329.06
483.52	330.06
483.88	330.92
484.25	331.86
484.61	332.94
484.98	333.91
485.34	335.26
485.71	336.60
486.07	338.07
486.44	339.39
486.80	340.98
487.17	342.66
487.53	344.45
487.90	346.27
488.26	348.24
488.62	350.37
488.99	352.39
489.35	354.58
489.72	356.92
490.08	359.42
490.44	361.99
490.81	364.66
491.17	367.35
491.54	370.34
491.90	373.40
492.26	376.63
492.63	380.09
492.99	383.59
493.36	387.21
493.72	391.09
494.08	395.08
494.45	399.29
494.81	403.66
495.17	408.11
495.54	412.81
495.90	417.69
496.26	422.60
496.63	427.77
496.99	433.15
497.35	438.73
497.72	444.54
498.08	450.47
498.44	456.52
498.80	462.95
499.17	469.44
499.53	476.06
499.89	482.96
500.26	489.91
500.62	496.94
500.98	504.34
501.34	511.76
501.71	519.56
502.07	527.37
502.43	535.38
502.79	543.49
503.16	551.80
503.52	560.29
503.88	568.98
504.24	577.88
504.60	586.84
504.97	596.00
505.33	605.25
505.69	615.07
506.05	624.89
506.41	634.64
506.78	644.67
507.14	654.88
507.50	665.21
507.86	675.82
508.22	686.55
508.59	697.15
508.95	708.13
509.31	719.24
509.67	730.59
510.03	741.91
510.39	753.54
510.75	765.40
511.12	777.30
511.48	789.28
511.84	801.47
512.20	813.79
512.56	826.37
512.92	839.08
513.28	851.56
513.64	864.17
514.00	876.88
514.37	889.59
514.73	902.67
515.09	915.49
515.45	928.21
515.81	941.08
516.17	954.33
516.53	967.49
516.89	980.57
517.25	993.64
517.61	1006.92
517.97	1020.14
518.33	1033.03
518.69	1046.33
519.05	1059.85
519.41	1073.36
519.77	1087.03
520.13	1100.09
520.49	1113.02
520.85	1126.25
521.21	1139.47
521.57	1152.91
521.93	1165.95
522.29	1179.24
522.65	1192.68
523.01	1206.01
523.37	1218.96
523.73	1232.07
524.09	1245.00
524.45	1258.01
524.81	1271.29
525.17	1284.46
525.53	1297.44
525.89	1310.48
526.25	1323.43
526.61	1336.06
526.97	1348.91
527.33	1361.55
527.68	1374.85
528.04	1388.06
528.40	1400.87
528.76	1413.96
529.12	1426.66
529.48	1439.57
529.84	1451.69
530.20	1464.12
530.56	1476.48
530.91	1489.41
531.27	1501.89
531.63	1514.42
531.99	1526.97
532.35	1538.85
532.71	1550.90
533.07	1563.37
533.42	1575.31
533.78	1587.07
534.14	1598.89
534.50	1609.76
534.86	1621.13
535.21	1631.60
535.57	1642.69
535.93	1653.71
536.29	1664.57
536.65	1675.62
537.00	1686.37
537.36	1697.47
537.72	1708.22
538.08	1719.30
538.44	1729.92
538.79	1740.74
539.15	1751.26
539.51	1761.65
539.87	1772.61
540.22	1782.98
540.58	1793.69
540.94	1804.34
541.29	1814.25
541.65	1823.62
542.01	1833.79
542.37	1843.49
542.72	1853.46
543.08	1862.96
543.44	1873.19
543.79	1882.19
544.15	1891.37
544.51	1901.14
544.87	1910.71
545.22	1919.49
545.58	1928.18
545.94	1936.83
546.29	1945.07
546.65	1953.18
547.01	1961.10
547.36	1968.49
547.72	1976.12
548.07	1983.40
548.43	1990.75
548.79	1998.54
549.14	2006.46
549.50	2014.76
549.86	2022.34
550.21	2029.44
550.57	2036.88
550.92	2043.32
551.28	2050.54
551.64	2057.71
551.99	2064.90
552.35	2071.82
552.70	2078.50
553.06	2084.88
553.41	2091.06
553.77	2097.39
554.13	2103.59
554.48	2110.52
554.84	2117.54
555.19	2123.97
555.55	2130.42
555.90	2136.71
556.26	2143.08
556.61	2148.88
556.97	2153.57
557.32	2159.24
557.68	2165.51
558.03	2170.98
558.39	2176.18
558.74	2182.02
559.10	2187.52
559.45	2192.92
559.81	2198.41
560.16	2204.09
560.52	2210.10
560.87	2216.46
561.23	2222.42
561.58	2228.92
561.94	2234.11
562.29	2238.83
562.64	2244.97
563.00	2250.43
563.35	2255.93
563.71	2261.89
564.06	2267.60
564.42	2273.58
564.77	2278.81
565.12	2283.97
565.48	2289.39
565.83	2295.06
566.19	2300.53
566.54	2305.89
566.89	2310.72
567.25	2315.36
567.60	2320.96
567.96	2326.10
568.31	2330.67
568.66	2334.94
569.02	2338.78
569.37	2342.64
569.72	2347.07
570.08	2350.53
570.43	2353.80
570.78	2357.03
571.14	2359.67
571.49	2362.91
571.84	2366.39
572.20	2369.35
572.55	2372.66
572.90	2374.96
573.26	2377.98
573.61	2380.55
573.96	2382.67
574.31	2384.66
574.67	2386.53
575.02	2387.52
575.37	2389.07
575.72	2389.98
576.08	2391.54
576.43	2392.02
576.78	2392.74
577.13	2394.70
577.49	2396.00
577.84	2397.38
578.19	2398.95
578.54	2399.76
578.90	2400.87
579.25	2401.10
579.60	2401.30
579.95	2400.65
580.30	2401.07
580.66	2400.33
581.01	2398.72
581.36	2396.82
581.71	2395.67
582.06	2394.89
582.42	2394.28
582.77	2392.27
583.12	2390.88
583.47	2389.84
583.82	2389.48
584.17	2388.43
584.53	2386.33
584.88	2384.43
585.23	2382.55
585.58	2380.37
585.93	2378.31
586.28	2376.29
586.63	2374.08
586.98	2371.97
587.34	2370.27
587.69	2368.17
588.04	2366.35
588.39	2365.31
588.74	2362.98
589.09	2360.49
589.44	2357.61
589.79	2355.39
590.14	2353.70
590.49	2351.03
590.84	2347.40
591.19	2344.51
591.54	2341.28
591.89	2337.34
592.25	2334.15
592.60	2330.20
592.95	2326.25
593.30	2322.31
593.65	2317.98
594.00	2313.70
594.35	2310.72
594.70	2306.03
595.05	2301.46
595.40	2296.17
595.75	2290.56
596.10	2286.99
596.45	2282.31
596.80	2277.79
597.15	2272.60
597.50	2266.67
597.85	2261.91
598.19	2256.73
598.54	2250.99
598.89	2246.12
599.24	2241.76
599.59	2235.96
599.94	2230.33
600.29	2224.51
600.64	2218.80
600.99	2212.27
601.34	2206.94
601.69	2200.08
602.04	2194.07
602.39	2187.60
602.74	2181.73
603.08	2176.27
603.43	2169.83
603.78	2163.10
604.13	2156.18
604.48	2149.10
604.83	2143.25
605.18	2136.91
605.53	2129.90
605.87	2123.03
606.22	2116.19
606.57	2108.34
606.92	2100.39
607.27	2093.44
607.62	2086.92
607.96	2079.93
608.31	2073.45
608.66	2065.61
609.01	2058.07
609.36	2050.94
609.70	2043.34
610.05	2035.59
610.40	2027.36
610.75	2019.25
611.10	2011.66
611.44	2002.91
611.79	1994.20
612.14	1984.24
612.49	1973.93
612.83	1964.98
613.18	1955.88
613.53	1946.52
613.88	1937.00
614.22	1928.58
614.57	1918.67
614.92	1908.05
615.27	1897.84
615.61	1887.95
615.96	1878.37
616.31	1868.99
616.65	1859.75
617.00	1849.87
617.35	1840.25
617.70	1830.68
618.04	1820.51
618.39	1810.20
618.74	1800.40
619.08	1790.81
619.43	1782.15
619.78	1773.84
620.12	1765.01
620.47	1755.14
620.82	1745.00
621.16	1735.36
621.51	1725.27
621.85	1715.52
622.20	1705.13
622.55	1694.68
622.89	1684.75
623.24	1675.03
623.59	1665.21
623.93	1655.00
624.28	1645.31
624.62	1635.26
624.97	1624.89
625.32	1615.33
625.66	1606.58
626.01	1597.87
626.35	1588.43
626.70	1578.24
627.04	1568.05
627.39	1558.13
627.73	1548.90
628.08	1539.74
628.43	1530.04
628.77	1520.89
629.12	1512.00
629.46	1504.28
629.81	1495.84
630.15	1486.26
630.50	1476.52
630.84	1466.12
631.19	1456.19
631.53	1446.80
631.88	1436.67
632.22	1426.72
632.57	1417.28
632.91	1407.18
633.26	1397.29
633.60	1387.75
633.95	1378.46
634.29	1369.08
634.64	1359.63
634.98	1349.80
635.32	1340.59
635.67	1332.03
636.01	1322.81
636.36	1312.99
636.70	1303.41
637.05	1294.06
637.39	1285.08
637.73	1276.37
638.08	1268.76
638.42	1260.52
638.77	1251.73
639.11	1243.42
639.45	1235.54
639.80	1226.81
640.14	1217.99
640.49	1209.25
640.83	1200.48
641.17	1192.42
641.52	1184.14
641.86	1175.49
642.20	1167.60
642.55	1158.96
642.89	1150.15
643.23	1141.51
643.58	1133.41
643.92	1124.44
644.26	1115.83
644.61	1107.45
644.95	1098.79
645.29	1089.47
645.64	1080.25
645.98	1071.93
646.32	1064.00
646.66	1055.47
647.01	1047.18
647.35	1039.11
647.69	1030.69
648.04	1022.28
648.38	1013.32
648.72	1004.65
649.06	996.36
649.41	988.20
649.75	980.30
650.09	972.43
650.43	964.31
650.78	956.07
651.12	948.40
651.46	941.01
651.80	933.78
652.14	926.36
652.49	918.97
652.83	911.77
653.17	904.07
653.51	896.44
653.85	889.27
654.20	882.04
654.54	874.52
654.88	867.48
655.22	860.44
655.56	853.53
655.90	846.79
656.25	840.18
656.59	833.24
656.93	826.32
657.27	819.30
657.61	812.50
657.95	806.54
658.29	800.73
658.64	794.62
658.98	788.17
659.32	781.72
659.66	775.52
660.00	769.23
660.34	763.20
660.68	757.16
661.02	750.85
661.36	745.02
661.70	739.32
662.05	733.64
662.39	728.16
662.73	722.86
663.07	717.54
663.41	711.95
663.75	706.39
664.09	700.70
664.43	695.30
664.77	689.98
665.11	684.19
665.45	678.32
665.79	672.59
666.13	666.90
666.47	661.53
666.81	656.12
667.15	650.82
667.49	645.71
667.83	640.51
668.17	635.35
668.51	630.29
668.85	625.44
669.19	620.60
669.53	615.70
669.87	610.59
670.21	605.88
670.55	601.16
670.89	596.79
671.23	592.69
671.57	588.38
671.91	584.17
672.25	580.17
672.58	576.07
672.92	572.12
673.26	568.30
673.60	564.53
673.94	560.81
674.28	557.18
674.62	553.47
674.96	549.79
675.30	546.29
675.64	542.70
675.97	539.20
676.31	535.64
676.65	532.09
676.99	528.69
677.33	524.91
677.67	521.37
678.01	517.61
678.34	513.92
678.68	510.48
679.02	506.93
679.36	503.20
679.70	499.59
680.04	496.09
680.37	492.69
680.71	489.37
681.05	486.25
681.39	483.14
681.73	480.04
682.06	477.08
682.40	474.03
682.74	470.90
683.08	467.72
683.42	464.58
683.75	461.65
684.09	458.72
684.43	455.99
684.77	453.13
685.10	450.29
685.44	447.47
685.78	444.56
686.12	441.84
686.45	439.12
686.79	436.55
687.13	434.03
687.46	431.50
687.80	428.87
688.14	426.10
688.48	423.53
688.81	420.88
689.15	418.40
689.49	415.87
689.82	413.33
690.16	410.81
690.50	408.41
690.83	405.97
691.17	403.49
691.51	401.08
691.84	398.86
692.18	396.69
692.52	394.50
692.85	392.49
693.19	390.35
693.52	388.29
693.86	386.07
694.20	383.89
694.53	381.81
694.87	379.61
695.21	377.55
695.54	375.42
695.88	373.32
696.21	371.11
696.55	369.02
696.88	367.04
697.22	365.07
697.56	363.18
697.89	361.32
698.23	359.64
698.56	357.88
698.90	356.13
699.23	354.25
699.57	352.40
699.90	350.47
700.24	348.71
700.58	346.94
700.91	345.38
701.25	343.90
701.58	342.29
701.92	340.77
702.25	339.17
702.59	337.60
702.92	336.10
703.26	334.61
703.59	333.19
703.93	331.98
704.26	330.62
704.60	329.20
704.93	327.76
705.26	326.26
705.60	324.82
705.93	323.34
706.27	322.05
706.60	320.87
706.94	319.74
707.27	318.41
707.61	317.17
707.94	315.83
708.27	314.33
708.61	312.94
708.94	311.62
709.28	310.41
709.61	309.15
709.94	308.00
710.28	306.83
710.61	305.68
710.95	304.27
711.28	303.19
711.61	302.01
711.95	300.92
712.28	299.74
712.61	298.60
712.95	297.58
713.28	296.56
713.61	295.41
713.95	294.27
714.28	293.32
714.61	292.30
714.95	291.30
715.28	290.33
715.61	289.33
715.95	288.42
716.28	287.45
716.61	286.56
716.95	285.58
717.28	284.70
717.61	283.78
717.94	282.94
718.28	281.96
718.61	281.11
718.94	280.25
719.27	279.45
719.61	278.65
719.94	277.77
720.27	276.84
720.60	276.06
720.94	275.29
721.27	274.49
721.60	273.81
721.93	273.11
722.27	272.51
722.60	271.89
722.93	271.17
723.26	270.54
723.59	269.85
723.93	269.26
724.26	268.62
724.59	267.96
724.92	267.34
725.25	266.79
725.59	266.21
725.92	265.65
726.25	265.06
726.58	264.52
726.91	264.00
727.24	263.47
727.57	262.89
727.91	262.34
728.24	261.82
728.57	261.29
728.90	260.75
729.23	260.17
729.56	259.72
729.89	259.22
730.22	258.66
730.55	258.16
730.89	257.61
731.22	257.08
731.55	256.62
731.88	256.10
732.21	255.58
732.54	255.05
732.87	254.59
733.20	254.14
733.53	253.67
733.86	253.17
734.19	252.73
734.52	252.31
734.85	251.98
735.18	251.50
735.51	251.05
735.84	250.66
736.17	250.30
736.50	249.77
736.83	249.60
737.16	249.23
737.49	248.84
737.82	248.48
738.15	248.14
738.48	247.74
738.81	247.40
739.14	247.03
739.47	246.66
739.80	246.24
740.13	245.93
740.46	245.53
740.79	245.19
741.12	244.82
741.45	244.48
741.78	244.03
742.11	243.76
742.44	243.40
742.77	243.08
743.10	242.69
743.43	242.33
743.75	241.79
744.08	241.69
744.41	241.34
744.74	241.01
745.07	240.62
745.40	240.35
745.73	240.10
746.06	239.78
746.39	239.52
746.71	239.21
747.04	238.83
747.37	238.54
747.70	238.27
748.03	237.98
748.36	237.73
748.68	237.47
749.01	237.12
749.34	236.86
749.67	236.57
750.00	236.32
750.33	236.26
750.65	236.06
750.98	235.53
751.31	235.30
751.64	235.06
751.97	234.91
752.29	234.63
752.62	234.32
752.95	234.08
753.28	233.79
753.60	233.55
753.93	233.43
754.26	233.22
754.59	232.97
754.91	232.74
755.24	232.48
755.57	232.25
755.90	232.04
756.22	231.80
756.55	231.58
756.88	231.36
757.20	230.99
757.53	230.69
757.86	230.53
758.19	230.34
758.51	230.13
758.84	229.89
759.17	229.70
759.49	229.51
759.82	229.46
760.15	229.34
760.47	229.16
760.80	228.89
761.13	228.77
761.45	228.59
761.78	228.45
762.11	228.29
762.43	228.12
762.76	227.98
763.08	227.85
763.41	227.69
763.74	227.56
764.06	227.44
764.39	227.31
764.71	227.17
765.04	227.01
765.37	226.84
765.69	226.70
766.02	226.58
766.34	226.44
766.67	226.24
767.00	226.14
767.32	226.12
767.65	226.13
767.97	225.95
768.30	225.84
768.62	225.68
768.95	225.54
769.27	225.42
769.60	225.31
769.92	225.19
770.25	225.02
770.57	224.85
770.90	224.72
771.22	224.59
771.55	224.48
771.87	224.38
772.20	224.27
772.52	224.32
772.85	224.46
773.17	224.36
773.50	224.21
773.82	224.07
774.15	223.88
774.47	223.66
774.80	223.56
775.12	223.46
775.45	223.38
775.77	223.29
776.09	223.19
776.42	223.11
776.74	223.09
777.07	223.02
777.39	222.97
777.72	222.90
778.04	222.84
778.36	222.71
778.69	222.65
779.01	222.60
779.33	222.37
779.66	222.05
779.98	221.99
780.31	221.95
780.63	221.98
780.95	221.93
781.28	221.89
781.60	221.77
781.92	221.72
782.25	221.67
782.57	221.60
782.89	221.56
783.22	221.48
783.54	221.38
783.86	221.34
784.19	221.28
784.51	221.22
784.83	221.12
785.16	221.06
785.48	220.97
785.80	220.92
786.12	220.82
