SpectraSuite Data File
++++++++++++++++++++++++++++++++++++
Date: Tue Jan 29 16:31:01 EST 2013
User: group
Dark Spectrum Present: No
Reference Spectrum Present: No
Number of Sampled Component Spectra: 1
Spectrometers: USB2E7196
Integration Time (usec): 65000 (USB2E7196)
Spectra Averaged: 100 (USB2E7196)
Boxcar Smoothing: 10 (USB2E7196)
Correct for Electrical Dark: No (USB2E7196)
Strobe/Lamp Enabled: No (USB2E7196)
Correct for Detector Non-linearity: No (USB2E7196)
Correct for Stray Light: No (USB2E7196)
Number of Pixels in Processed Spectrum: 2048
>>>>>Begin Processed Spectral Data<<<<<
339.09	0.00
339.48	202.66
339.86	203.39
340.24	204.86
340.63	206.57
341.01	211.15
341.39	209.21
341.78	210.36
342.16	212.21
342.54	211.77
342.93	201.28
343.31	211.46
343.69	211.94
344.07	212.40
344.46	212.85
344.84	213.24
345.22	213.38
345.60	213.64
345.99	213.86
346.37	213.98
346.75	214.14
347.13	214.22
347.52	214.31
347.90	214.42
348.28	214.48
348.66	214.55
349.05	214.53
349.43	214.60
349.81	214.69
350.19	214.78
350.57	214.85
350.96	214.96
351.34	215.07
351.72	215.18
352.10	215.32
352.48	215.40
352.87	215.45
353.25	215.53
353.63	215.57
354.01	215.62
354.39	215.67
354.77	215.73
355.15	215.85
355.54	215.92
355.92	215.97
356.30	216.01
356.68	216.26
357.06	216.37
357.44	216.43
357.82	216.50
358.20	216.55
358.58	216.63
358.97	216.68
359.35	216.75
359.73	216.86
360.11	216.90
360.49	216.94
360.87	216.98
361.25	217.06
361.63	217.19
362.01	217.27
362.39	217.31
362.77	217.36
363.15	217.35
363.53	217.37
363.91	217.39
364.29	217.41
364.67	217.20
365.05	217.19
365.43	217.24
365.81	217.25
366.19	217.36
366.57	217.49
366.95	217.52
367.33	217.47
367.71	217.47
368.09	217.53
368.47	217.54
368.85	217.55
369.23	217.56
369.61	217.49
369.99	217.52
370.37	217.56
370.75	217.64
371.13	217.61
371.51	217.55
371.89	217.53
372.27	217.52
372.65	217.53
373.03	217.52
373.41	217.44
373.78	217.42
374.16	217.27
374.54	217.14
374.92	217.06
375.30	217.00
375.68	216.94
376.06	216.86
376.44	216.80
376.82	216.77
377.19	216.73
377.57	216.66
377.95	216.56
378.33	216.47
378.71	216.30
379.09	216.27
379.47	216.23
379.84	216.18
380.22	216.12
380.60	215.99
380.98	215.93
381.36	215.84
381.73	215.76
382.11	215.75
382.49	215.71
382.87	215.62
383.25	215.63
383.62	215.81
384.00	215.74
384.38	215.73
384.76	215.73
385.13	215.76
385.51	215.73
385.89	215.68
386.27	215.66
386.64	215.66
387.02	215.60
387.40	215.59
387.78	215.59
388.15	215.58
388.53	215.60
388.91	215.58
389.29	215.61
389.66	215.61
390.04	215.55
390.42	215.55
390.79	215.58
391.17	215.56
391.55	215.32
391.92	215.31
392.30	215.32
392.68	215.26
393.05	215.26
393.43	215.28
393.81	215.31
394.18	215.28
394.56	215.26
394.94	215.32
395.31	215.28
395.69	215.35
396.06	215.37
396.44	215.39
396.82	215.39
397.19	215.50
397.57	215.51
397.95	215.59
398.32	215.57
398.70	215.62
399.07	215.68
399.45	215.75
399.82	215.80
400.20	215.81
400.58	215.88
400.95	215.83
401.33	215.92
401.70	216.11
402.08	216.19
402.45	216.32
402.83	216.46
403.20	216.61
403.58	216.70
403.95	216.85
404.33	217.01
404.71	217.18
405.08	217.41
405.46	217.61
405.83	217.77
406.21	218.00
406.58	218.22
406.96	218.47
407.33	218.70
407.70	219.00
408.08	219.49
408.45	219.85
408.83	220.26
409.20	220.62
409.58	220.90
409.95	221.37
410.33	221.84
410.70	222.27
411.08	222.80
411.45	223.34
411.82	223.89
412.20	224.60
412.57	225.44
412.95	226.03
413.32	226.85
413.69	227.70
414.07	228.58
414.44	229.62
414.82	230.62
415.19	231.81
415.56	233.05
415.94	234.21
416.31	235.61
416.68	236.98
417.06	238.59
417.43	240.10
417.81	241.84
418.18	243.64
418.55	245.60
418.93	247.65
419.30	249.77
419.67	251.95
420.04	254.22
420.42	256.57
420.79	259.36
421.16	262.18
421.54	265.05
421.91	268.06
422.28	271.13
422.66	274.43
423.03	277.68
423.40	281.00
423.77	284.63
424.15	288.28
424.52	292.14
424.89	296.28
425.26	300.40
425.64	304.35
426.01	308.62
426.38	313.09
426.75	317.61
427.13	322.38
427.50	327.38
427.87	332.56
428.24	337.77
428.61	342.78
428.99	348.23
429.36	354.26
429.73	360.14
430.10	365.99
430.47	372.07
430.85	378.36
431.22	385.05
431.59	392.15
431.96	398.99
432.33	406.53
432.70	413.76
433.08	422.29
433.45	430.30
433.82	438.28
434.19	447.17
434.56	455.86
434.93	464.10
435.30	472.40
435.68	481.56
436.05	490.52
436.42	499.37
436.79	507.52
437.16	516.29
437.53	525.54
437.90	534.68
438.27	543.59
438.64	552.78
439.01	561.25
439.38	568.76
439.75	576.05
440.13	584.37
440.50	592.38
440.87	598.78
441.24	605.47
441.61	612.87
441.98	618.28
442.35	624.68
442.72	631.03
443.09	637.09
443.46	640.76
443.83	643.29
444.20	645.58
444.57	648.74
444.94	650.23
445.31	651.67
445.68	653.08
446.05	653.69
446.42	653.00
446.79	652.07
447.16	651.00
447.53	650.24
447.90	646.97
448.27	643.62
448.64	638.99
449.01	635.64
449.37	629.68
449.74	623.96
450.11	617.02
450.48	609.64
450.85	602.21
451.22	595.75
451.59	589.64
451.96	583.71
452.33	575.86
452.70	568.72
453.07	560.32
453.43	551.72
453.80	543.46
454.17	535.43
454.54	527.86
454.91	519.71
455.28	511.76
455.65	504.33
456.02	496.88
456.38	490.53
456.75	482.66
457.12	476.11
457.49	469.58
457.86	463.36
458.23	457.98
458.59	452.03
458.96	446.08
459.33	440.74
459.70	435.44
460.07	431.22
460.43	426.34
460.80	421.72
461.17	417.71
461.54	413.53
461.91	409.56
462.27	405.53
462.64	402.10
463.01	398.29
463.38	394.62
463.74	390.89
464.11	387.65
464.48	384.77
464.85	381.66
465.21	379.18
465.58	376.58
465.95	373.49
466.32	370.83
466.68	368.23
467.05	365.65
467.42	363.10
467.78	360.39
468.15	357.82
468.52	355.89
468.88	353.45
469.25	351.25
469.62	349.37
469.98	347.41
470.35	345.62
470.72	343.96
471.08	342.16
471.45	340.70
471.82	339.18
472.18	337.56
472.55	336.34
472.92	334.99
473.28	333.77
473.65	332.54
474.02	331.46
474.38	330.58
474.75	329.80
475.11	328.95
475.48	328.40
475.85	327.92
476.21	327.40
476.58	327.04
476.94	326.80
477.31	326.52
477.67	326.26
478.04	326.08
478.41	326.04
478.77	326.19
479.14	326.13
479.50	326.26
479.87	326.53
480.23	326.87
480.60	327.11
480.96	327.40
481.33	328.02
481.69	328.58
482.06	329.07
482.42	329.56
482.79	330.15
483.15	330.92
483.52	331.90
483.88	332.84
484.25	333.73
484.61	334.71
484.98	335.76
485.34	337.06
485.71	338.42
486.07	339.83
486.44	341.14
486.80	342.77
487.17	344.44
487.53	346.25
487.90	348.15
488.26	350.19
488.62	352.35
488.99	354.38
489.35	356.54
489.72	358.93
490.08	361.54
490.44	364.09
490.81	366.81
491.17	369.50
491.54	372.43
491.90	375.48
492.26	378.77
492.63	382.19
492.99	385.64
493.36	389.35
493.72	393.22
494.08	397.22
494.45	401.43
494.81	405.79
495.17	410.19
495.54	414.90
495.90	419.73
496.26	424.68
496.63	429.91
496.99	435.30
497.35	440.89
497.72	446.64
498.08	452.63
498.44	458.74
498.80	465.19
499.17	471.70
499.53	478.40
499.89	485.34
500.26	492.32
500.62	499.54
500.98	506.95
501.34	514.49
501.71	522.29
502.07	530.18
502.43	538.24
502.79	546.53
503.16	554.98
503.52	563.62
503.88	572.33
504.24	581.35
504.60	590.48
504.97	599.75
505.33	609.10
505.69	619.00
506.05	628.85
506.41	638.78
506.78	648.91
507.14	659.26
507.50	669.72
507.86	680.53
508.22	691.27
508.59	702.01
508.95	713.00
509.31	724.31
509.67	735.72
510.03	747.17
510.39	758.97
510.75	770.79
511.12	782.79
511.48	795.00
511.84	807.36
512.20	819.83
512.56	832.62
512.92	845.54
513.28	858.27
513.64	871.24
514.00	884.14
514.37	897.19
514.73	910.43
515.09	923.53
515.45	936.53
515.81	949.65
516.17	963.15
516.53	976.64
516.89	989.81
517.25	1003.26
517.61	1016.91
517.97	1030.40
518.33	1043.70
518.69	1057.39
519.05	1071.24
519.41	1085.04
519.77	1098.99
520.13	1112.43
520.49	1125.74
520.85	1139.24
521.21	1152.66
521.57	1166.43
521.93	1179.58
522.29	1193.46
522.65	1207.17
523.01	1220.91
523.37	1234.33
523.73	1247.80
524.09	1261.04
524.45	1274.62
524.81	1288.19
525.17	1301.59
525.53	1314.86
525.89	1328.42
526.25	1341.53
526.61	1354.48
526.97	1367.64
527.33	1380.67
527.68	1394.27
528.04	1407.91
528.40	1421.20
528.76	1434.56
529.12	1447.54
529.48	1461.01
529.84	1473.25
530.20	1486.22
530.56	1499.00
530.91	1512.36
531.27	1525.25
531.63	1538.02
531.99	1550.99
532.35	1563.29
532.71	1575.87
533.07	1588.98
533.42	1601.20
533.78	1613.58
534.14	1625.72
534.50	1637.19
534.86	1648.98
535.21	1659.81
535.57	1671.35
535.93	1682.70
536.29	1694.01
536.65	1705.61
537.00	1716.74
537.36	1728.31
537.72	1739.25
538.08	1750.67
538.44	1761.78
538.79	1773.01
539.15	1784.26
539.51	1795.22
539.87	1806.58
540.22	1817.45
540.58	1828.46
540.94	1839.52
541.29	1849.93
541.65	1859.79
542.01	1870.31
542.37	1880.42
542.72	1890.75
543.08	1900.52
543.44	1911.10
543.79	1920.50
544.15	1930.06
544.51	1940.19
544.87	1950.30
545.22	1959.73
545.58	1968.65
545.94	1977.58
546.29	1986.11
546.65	1994.51
547.01	2002.71
547.36	2010.51
547.72	2018.42
548.07	2026.02
548.43	2033.77
548.79	2041.58
549.14	2049.78
549.50	2058.27
549.86	2066.27
550.21	2073.64
550.57	2081.48
550.92	2088.42
551.28	2096.04
551.64	2103.42
551.99	2110.94
552.35	2118.07
552.70	2124.91
553.06	2131.66
553.41	2137.91
553.77	2144.62
554.13	2151.05
554.48	2158.06
554.84	2165.23
555.19	2171.85
555.55	2178.33
555.90	2184.74
556.26	2191.67
556.61	2197.92
556.97	2202.93
557.32	2208.78
557.68	2215.33
558.03	2221.06
558.39	2226.41
558.74	2232.34
559.10	2237.99
559.45	2243.45
559.81	2249.09
560.16	2254.63
560.52	2260.43
560.87	2267.03
561.23	2272.90
561.58	2279.55
561.94	2284.78
562.29	2289.40
562.64	2295.65
563.00	2301.32
563.35	2306.84
563.71	2312.76
564.06	2318.30
564.42	2324.22
564.77	2329.32
565.12	2334.68
565.48	2339.84
565.83	2345.31
566.19	2350.62
566.54	2355.93
566.89	2360.63
567.25	2365.22
567.60	2371.09
567.96	2376.35
568.31	2380.87
568.66	2385.23
569.02	2389.23
569.37	2393.02
569.72	2397.71
570.08	2401.05
570.43	2404.34
570.78	2407.45
571.14	2409.79
571.49	2413.02
571.84	2416.50
572.20	2419.40
572.55	2422.45
572.90	2424.76
573.26	2427.57
573.61	2430.16
573.96	2432.36
574.31	2434.38
574.67	2436.23
575.02	2436.82
575.37	2438.33
575.72	2438.97
576.08	2440.34
576.43	2440.41
576.78	2440.98
577.13	2442.34
577.49	2443.43
577.84	2444.39
578.19	2445.76
578.54	2446.35
578.90	2447.10
579.25	2447.03
579.60	2447.05
579.95	2446.11
580.30	2446.27
580.66	2445.52
581.01	2443.88
581.36	2441.40
581.71	2439.96
582.06	2438.74
582.42	2437.95
582.77	2435.62
583.12	2433.93
583.47	2432.53
583.82	2431.83
584.17	2430.42
584.53	2428.22
584.88	2426.17
585.23	2424.12
585.58	2421.79
585.93	2419.59
586.28	2417.28
586.63	2414.63
586.98	2412.17
587.34	2410.23
587.69	2407.74
588.04	2405.75
588.39	2404.23
588.74	2401.62
589.09	2398.77
589.44	2395.57
589.79	2392.94
590.14	2390.89
590.49	2387.95
590.84	2384.08
591.19	2380.89
591.54	2377.55
591.89	2373.49
592.25	2370.18
592.60	2365.92
592.95	2361.75
593.30	2357.70
593.65	2353.26
594.00	2348.84
594.35	2345.82
594.70	2341.07
595.05	2336.32
595.40	2330.64
595.75	2324.73
596.10	2321.16
596.45	2316.45
596.80	2311.77
597.15	2306.56
597.50	2300.67
597.85	2295.81
598.19	2290.43
598.54	2284.77
598.89	2279.62
599.24	2275.09
599.59	2268.82
599.94	2263.02
600.29	2256.99
600.64	2250.81
600.99	2244.05
601.34	2238.41
601.69	2231.39
602.04	2225.07
602.39	2218.29
602.74	2212.28
603.08	2206.87
603.43	2200.24
603.78	2193.21
604.13	2186.15
604.48	2178.74
604.83	2172.52
605.18	2166.11
605.53	2159.19
605.87	2151.97
606.22	2145.08
606.57	2137.00
606.92	2128.95
607.27	2121.85
607.62	2115.19
607.96	2108.13
608.31	2101.67
608.66	2094.16
609.01	2086.48
609.36	2079.16
609.70	2071.51
610.05	2063.68
610.40	2055.15
610.75	2046.83
611.10	2039.09
611.44	2030.14
611.79	2021.58
612.14	2011.67
612.49	2000.99
612.83	1991.61
613.18	1982.28
613.53	1972.74
613.88	1963.23
614.22	1954.73
614.57	1944.89
614.92	1934.32
615.27	1924.15
615.61	1913.96
615.96	1904.14
616.31	1894.45
616.65	1885.00
617.00	1875.25
617.35	1865.50
617.70	1855.87
618.04	1845.69
618.39	1835.48
618.74	1825.86
619.08	1816.14
619.43	1807.30
619.78	1799.08
620.12	1790.45
620.47	1780.88
620.82	1770.59
621.16	1760.60
621.51	1750.68
621.85	1740.80
622.20	1730.33
622.55	1719.81
622.89	1709.67
623.24	1699.85
623.59	1690.03
623.93	1679.91
624.28	1670.13
624.62	1659.95
624.97	1649.55
625.32	1639.87
625.66	1630.92
626.01	1621.98
626.35	1612.51
626.70	1602.43
627.04	1592.16
627.39	1582.00
627.73	1572.60
628.08	1563.73
628.43	1554.28
628.77	1544.89
629.12	1535.96
629.46	1528.06
629.81	1519.68
630.15	1510.10
630.50	1500.25
630.84	1489.75
631.19	1479.80
631.53	1470.48
631.88	1460.21
632.22	1450.27
632.57	1440.82
632.91	1430.58
633.26	1420.75
633.60	1411.12
633.95	1401.79
634.29	1392.42
634.64	1382.99
634.98	1372.98
635.32	1363.61
635.67	1354.93
636.01	1345.63
636.36	1335.82
636.70	1326.19
637.05	1316.66
637.39	1307.76
637.73	1299.11
638.08	1291.55
638.42	1283.30
638.77	1274.43
639.11	1266.26
639.45	1258.39
639.80	1249.81
640.14	1241.17
640.49	1232.20
640.83	1223.31
641.17	1214.99
641.52	1206.82
641.86	1198.23
642.20	1190.36
642.55	1181.63
642.89	1172.71
643.23	1163.91
643.58	1155.80
643.92	1146.81
644.26	1138.18
644.61	1129.74
644.95	1120.86
645.29	1111.59
645.64	1102.34
645.98	1093.81
646.32	1085.79
646.66	1077.13
647.01	1068.71
647.35	1060.49
647.69	1052.15
648.04	1043.80
648.38	1034.87
648.72	1026.03
649.06	1017.51
649.41	1009.36
649.75	1001.42
650.09	993.58
650.43	985.59
650.78	977.17
651.12	969.35
651.46	961.82
651.80	954.50
652.14	947.17
652.49	939.52
652.83	932.15
653.17	924.32
653.51	916.64
653.85	909.38
654.20	902.09
654.54	894.58
654.88	887.33
655.22	880.12
655.56	873.13
655.90	866.23
656.25	859.51
656.59	852.44
656.93	845.30
657.27	838.10
657.61	831.03
657.95	824.87
658.29	818.89
658.64	812.77
658.98	806.20
659.32	799.60
659.66	793.30
660.00	786.80
660.34	780.75
660.68	774.55
661.02	768.17
661.36	762.09
661.70	756.27
662.05	750.56
662.39	745.08
662.73	739.67
663.07	734.24
663.41	728.59
663.75	722.78
664.09	717.09
664.43	711.61
664.77	706.27
665.11	700.43
665.45	694.42
665.79	688.55
666.13	682.78
666.47	677.20
666.81	671.66
667.15	666.30
667.49	661.04
667.83	655.79
668.17	650.46
668.51	645.31
668.85	640.27
669.19	635.31
669.53	630.22
669.87	625.03
670.21	620.21
670.55	615.45
670.89	611.01
671.23	606.60
671.57	602.19
671.91	597.77
672.25	593.59
672.58	589.42
672.92	585.26
673.26	581.33
673.60	577.51
673.94	573.66
674.28	570.00
674.62	566.18
674.96	562.31
675.30	558.73
675.64	555.03
675.97	551.42
676.31	547.70
676.65	544.00
676.99	540.48
677.33	536.55
677.67	532.81
678.01	528.91
678.34	525.24
678.68	521.63
679.02	518.01
679.36	514.25
679.70	510.58
680.04	507.03
680.37	503.50
680.71	500.00
681.05	496.79
681.39	493.48
681.73	490.26
682.06	487.23
682.40	484.13
682.74	480.91
683.08	477.59
683.42	474.38
683.75	471.34
684.09	468.24
684.43	465.41
684.77	462.39
685.10	459.50
685.44	456.50
685.78	453.53
686.12	450.72
686.45	447.93
686.79	445.19
687.13	442.55
687.46	439.86
687.80	437.14
688.14	434.24
688.48	431.55
688.81	428.81
689.15	426.21
689.49	423.57
689.82	421.01
690.16	418.41
690.50	415.97
690.83	413.40
691.17	410.90
691.51	408.41
691.84	406.24
692.18	403.96
692.52	401.73
692.85	399.57
693.19	397.41
693.52	395.22
693.86	393.00
694.20	390.78
694.53	388.68
694.87	386.50
695.21	384.40
695.54	382.20
695.88	380.03
696.21	377.72
696.55	375.52
696.88	373.41
697.22	371.39
697.56	369.41
697.89	367.52
698.23	365.72
698.56	363.87
698.90	362.00
699.23	360.10
699.57	358.20
699.90	356.32
700.24	354.47
700.58	352.69
700.91	351.00
701.25	349.41
701.58	347.74
701.92	346.13
702.25	344.45
702.59	342.84
702.92	341.30
703.26	339.76
703.59	338.28
703.93	337.01
704.26	335.56
704.60	334.04
704.93	332.51
705.26	330.96
705.60	329.52
705.93	328.01
706.27	326.63
706.60	325.35
706.94	324.10
707.27	322.72
707.61	321.34
707.94	320.03
708.27	318.48
708.61	317.02
708.94	315.61
709.28	314.31
709.61	313.05
709.94	311.79
710.28	310.57
710.61	309.37
710.95	307.88
711.28	306.77
711.61	305.56
711.95	304.43
712.28	303.23
712.61	301.99
712.95	300.89
713.28	299.86
713.61	298.70
713.95	297.54
714.28	296.47
714.61	295.40
714.95	294.33
715.28	293.32
715.61	292.29
715.95	291.31
716.28	290.32
716.61	289.37
716.95	288.39
717.28	287.43
717.61	286.47
717.94	285.57
718.28	284.52
718.61	283.65
718.94	282.74
719.27	281.88
719.61	281.07
719.94	280.21
720.27	279.23
720.60	278.37
720.94	277.56
721.27	276.79
721.60	276.10
721.93	275.35
722.27	274.69
722.60	274.01
722.93	273.29
723.26	272.63
723.59	271.90
723.93	271.24
724.26	270.59
724.59	269.92
724.92	269.32
725.25	268.77
725.59	268.21
725.92	267.64
726.25	267.07
726.58	266.51
726.91	265.90
727.24	265.33
727.57	264.73
727.91	264.14
728.24	263.58
728.57	263.01
728.90	262.49
729.23	261.88
729.56	261.45
729.89	260.94
730.22	260.37
730.55	259.83
730.89	259.29
731.22	258.77
731.55	258.24
731.88	257.72
732.21	257.17
732.54	256.55
732.87	256.01
733.20	255.53
733.53	255.03
733.86	254.56
734.19	254.07
734.52	253.70
734.85	253.36
735.18	252.85
735.51	252.44
735.84	252.00
736.17	251.59
736.50	251.02
736.83	250.82
737.16	250.44
737.49	250.05
737.82	249.62
738.15	249.23
738.48	248.86
738.81	248.46
739.14	248.04
739.47	247.66
739.80	247.28
740.13	246.92
740.46	246.50
740.79	246.10
741.12	245.73
741.45	245.29
741.78	244.83
742.11	244.55
742.44	244.16
742.77	243.84
743.10	243.48
743.43	243.14
743.75	242.57
744.08	242.44
744.41	242.06
744.74	241.73
745.07	241.33
745.40	241.02
745.73	240.78
746.06	240.46
746.39	240.20
746.71	239.88
747.04	239.51
747.37	239.18
747.70	238.91
748.03	238.64
748.36	238.40
748.68	238.11
749.01	237.76
749.34	237.48
749.67	237.17
750.00	236.89
750.33	236.78
750.65	236.55
750.98	236.02
751.31	235.75
751.64	235.53
751.97	235.41
752.29	235.14
752.62	234.80
752.95	234.54
753.28	234.29
753.60	234.02
753.93	233.87
754.26	233.69
754.59	233.39
754.91	233.13
755.24	232.83
755.57	232.58
755.90	232.36
756.22	232.10
756.55	231.82
756.88	231.58
757.20	231.20
757.53	230.92
757.86	230.74
758.19	230.58
758.51	230.37
758.84	230.03
759.17	229.82
759.49	229.64
759.82	229.57
760.15	229.36
760.47	229.15
760.80	228.90
761.13	228.72
761.45	228.54
761.78	228.35
762.11	228.20
762.43	228.03
762.76	227.83
763.08	227.70
763.41	227.57
763.74	227.41
764.06	227.25
764.39	227.12
764.71	226.94
765.04	226.75
765.37	226.57
765.69	226.45
766.02	226.31
766.34	226.15
766.67	225.94
767.00	225.84
767.32	225.83
767.65	225.82
767.97	225.66
768.30	225.54
768.62	225.44
768.95	225.27
769.27	225.14
769.60	225.04
769.92	224.89
770.25	224.71
770.57	224.54
770.90	224.42
771.22	224.26
771.55	224.13
771.87	224.08
772.20	223.95
772.52	223.99
772.85	224.13
773.17	224.02
773.50	223.89
773.82	223.73
774.15	223.54
774.47	223.33
774.80	223.20
775.12	223.09
775.45	222.98
775.77	222.90
776.09	222.82
776.42	222.73
776.74	222.71
777.07	222.63
777.39	222.59
777.72	222.50
778.04	222.47
778.36	222.37
778.69	222.27
779.01	222.24
779.33	222.01
779.66	221.68
779.98	221.58
780.31	221.52
780.63	221.54
780.95	221.53
781.28	221.44
781.60	221.38
781.92	221.30
782.25	221.25
782.57	221.20
782.89	221.12
783.22	221.06
783.54	220.90
783.86	220.86
784.19	220.77
784.51	220.79
784.83	220.66
785.16	220.60
785.48	220.53
785.80	220.44
786.12	220.38
