SpectraSuite Data File
++++++++++++++++++++++++++++++++++++
Date: Tue Jan 29 16:27:40 EST 2013
User: group
Dark Spectrum Present: No
Reference Spectrum Present: No
Number of Sampled Component Spectra: 1
Spectrometers: USB2E7196
Integration Time (usec): 65000 (USB2E7196)
Spectra Averaged: 100 (USB2E7196)
Boxcar Smoothing: 10 (USB2E7196)
Correct for Electrical Dark: No (USB2E7196)
Strobe/Lamp Enabled: No (USB2E7196)
Correct for Detector Non-linearity: No (USB2E7196)
Correct for Stray Light: No (USB2E7196)
Number of Pixels in Processed Spectrum: 2048
>>>>>Begin Processed Spectral Data<<<<<
339.09	0.00
339.48	201.60
339.86	202.99
340.24	204.85
340.63	206.17
341.01	211.74
341.39	208.85
341.78	210.52
342.16	212.02
342.54	212.04
342.93	201.22
343.31	211.39
343.69	211.95
344.07	212.45
344.46	212.89
344.84	213.31
345.22	213.41
345.60	213.71
345.99	213.89
346.37	214.01
346.75	214.12
347.13	214.22
347.52	214.28
347.90	214.40
348.28	214.46
348.66	214.57
349.05	214.53
349.43	214.61
349.81	214.72
350.19	214.74
350.57	214.84
350.96	214.91
351.34	215.00
351.72	215.11
352.10	215.22
352.48	215.29
352.87	215.32
353.25	215.43
353.63	215.50
354.01	215.57
354.39	215.70
354.77	215.80
355.15	215.92
355.54	215.99
355.92	215.99
356.30	216.07
356.68	216.27
357.06	216.35
357.44	216.39
357.82	216.44
358.20	216.54
358.58	216.62
358.97	216.67
359.35	216.81
359.73	216.90
360.11	216.97
360.49	217.01
360.87	217.08
361.25	217.16
361.63	217.24
362.01	217.31
362.39	217.28
362.77	217.36
363.15	217.36
363.53	217.38
363.91	217.40
364.29	217.39
364.67	217.22
365.05	217.21
365.43	217.27
365.81	217.31
366.19	217.41
366.57	217.46
366.95	217.47
367.33	217.36
367.71	217.35
368.09	217.39
368.47	217.39
368.85	217.37
369.23	217.39
369.61	217.33
369.99	217.38
370.37	217.43
370.75	217.49
371.13	217.42
371.51	217.39
371.89	217.38
372.27	217.40
372.65	217.40
373.03	217.40
373.41	217.38
373.78	217.34
374.16	217.22
374.54	217.12
374.92	217.07
375.30	217.09
375.68	217.04
376.06	216.96
376.44	216.95
376.82	216.90
377.19	216.85
377.57	216.81
377.95	216.69
378.33	216.62
378.71	216.43
379.09	216.45
379.47	216.42
379.84	216.35
380.22	216.27
380.60	216.18
380.98	216.13
381.36	216.06
381.73	215.99
382.11	215.96
382.49	215.92
382.87	215.85
383.25	215.78
383.62	215.96
384.00	215.92
384.38	215.88
384.76	215.90
385.13	215.92
385.51	215.90
385.89	215.84
386.27	215.80
386.64	215.79
387.02	215.73
387.40	215.72
387.78	215.69
388.15	215.70
388.53	215.71
388.91	215.68
389.29	215.62
389.66	215.64
390.04	215.62
390.42	215.63
390.79	215.61
391.17	215.61
391.55	215.38
391.92	215.36
392.30	215.38
392.68	215.32
393.05	215.27
393.43	215.25
393.81	215.26
394.18	215.24
394.56	215.27
394.94	215.30
395.31	215.27
395.69	215.37
396.06	215.40
396.44	215.40
396.82	215.40
397.19	215.53
397.57	215.52
397.95	215.56
398.32	215.55
398.70	215.61
399.07	215.67
399.45	215.70
399.82	215.73
400.20	215.75
400.58	215.79
400.95	215.80
401.33	215.86
401.70	216.10
402.08	216.19
402.45	216.27
402.83	216.42
403.20	216.52
403.58	216.59
403.95	216.76
404.33	216.93
404.71	217.05
405.08	217.28
405.46	217.45
405.83	217.65
406.21	217.88
406.58	218.12
406.96	218.35
407.33	218.61
407.70	218.96
408.08	219.43
408.45	219.78
408.83	220.19
409.20	220.57
409.58	220.81
409.95	221.25
410.33	221.72
410.70	222.14
411.08	222.72
411.45	223.30
411.82	223.80
412.20	224.51
412.57	225.38
412.95	225.98
413.32	226.80
413.69	227.63
414.07	228.53
414.44	229.53
414.82	230.54
415.19	231.73
415.56	232.92
415.94	234.08
416.31	235.52
416.68	236.92
417.06	238.53
417.43	240.12
417.81	241.88
418.18	243.65
418.55	245.59
418.93	247.62
419.30	249.72
419.67	251.96
420.04	254.22
420.42	256.58
420.79	259.40
421.16	262.19
421.54	265.09
421.91	268.06
422.28	271.11
422.66	274.41
423.03	277.66
423.40	280.97
423.77	284.57
424.15	288.20
424.52	292.04
424.89	296.20
425.26	300.23
425.64	304.11
426.01	308.40
426.38	312.87
426.75	317.40
427.13	322.12
427.50	327.10
427.87	332.26
428.24	337.46
428.61	342.50
428.99	347.97
429.36	353.97
429.73	359.85
430.10	365.75
430.47	371.79
430.85	378.11
431.22	384.78
431.59	391.84
431.96	398.60
432.33	406.09
432.70	413.35
433.08	421.83
433.45	429.84
433.82	437.83
434.19	446.65
434.56	455.28
434.93	463.62
435.30	471.83
435.68	480.91
436.05	489.88
436.42	498.69
436.79	506.77
437.16	515.52
437.53	524.79
437.90	533.83
438.27	542.71
438.64	551.80
439.01	560.34
439.38	567.92
439.75	575.26
440.13	583.59
440.50	591.44
440.87	597.87
441.24	604.55
441.61	611.84
441.98	617.24
442.35	623.56
442.72	629.94
443.09	636.01
443.46	639.78
443.83	642.25
444.20	644.45
444.57	647.72
444.94	649.20
445.31	650.55
445.68	652.09
446.05	652.77
446.42	652.09
446.79	651.17
447.16	650.11
447.53	649.31
447.90	646.00
448.27	642.76
448.64	638.10
449.01	634.80
449.37	628.92
449.74	623.24
450.11	616.39
450.48	608.98
450.85	601.51
451.22	595.07
451.59	588.94
451.96	583.17
452.33	575.26
452.70	568.17
453.07	559.78
453.43	551.13
453.80	542.85
454.17	534.84
454.54	527.23
454.91	519.04
455.28	511.13
455.65	503.78
456.02	496.30
456.38	490.01
456.75	482.14
457.12	475.61
457.49	469.14
457.86	462.97
458.23	457.54
458.59	451.67
458.96	445.64
459.33	440.40
459.70	435.03
460.07	430.79
460.43	425.90
460.80	421.31
461.17	417.29
461.54	413.06
461.91	409.05
462.27	405.00
462.64	401.59
463.01	397.74
463.38	394.08
463.74	390.41
464.11	387.17
464.48	384.34
464.85	381.24
465.21	378.81
465.58	376.19
465.95	373.06
466.32	370.41
466.68	367.82
467.05	365.20
467.42	362.60
467.78	359.90
468.15	357.32
468.52	355.45
468.88	352.99
469.25	350.86
469.62	349.08
469.98	347.14
470.35	345.32
470.72	343.66
471.08	341.83
471.45	340.36
471.82	338.83
472.18	337.14
472.55	335.99
472.92	334.58
473.28	333.35
473.65	332.22
474.02	331.18
474.38	330.33
474.75	329.56
475.11	328.77
475.48	328.22
475.85	327.77
476.21	327.23
476.58	326.88
476.94	326.61
477.31	326.27
477.67	325.99
478.04	325.84
478.41	325.83
478.77	325.99
479.14	325.91
479.50	326.03
479.87	326.34
480.23	326.66
480.60	326.96
480.96	327.24
481.33	327.80
481.69	328.32
482.06	328.79
482.42	329.28
482.79	329.87
483.15	330.67
483.52	331.61
483.88	332.52
484.25	333.48
484.61	334.47
484.98	335.52
485.34	336.85
485.71	338.25
486.07	339.64
486.44	340.96
486.80	342.60
487.17	344.28
487.53	346.09
487.90	347.89
488.26	349.93
488.62	352.09
488.99	354.15
489.35	356.33
489.72	358.74
490.08	361.29
490.44	363.92
490.81	366.60
491.17	369.29
491.54	372.30
491.90	375.34
492.26	378.63
492.63	382.08
492.99	385.59
493.36	389.31
493.72	393.22
494.08	397.24
494.45	401.44
494.81	405.80
495.17	410.26
495.54	415.01
495.90	419.79
496.26	424.76
496.63	429.99
496.99	435.44
497.35	441.06
497.72	446.86
498.08	452.80
498.44	458.94
498.80	465.41
499.17	471.89
499.53	478.63
499.89	485.59
500.26	492.64
500.62	499.75
500.98	507.25
501.34	514.84
501.71	522.70
502.07	530.60
502.43	538.64
502.79	546.82
503.16	555.25
503.52	563.90
503.88	572.61
504.24	581.57
504.60	590.75
504.97	600.02
505.33	609.35
505.69	619.25
506.05	629.22
506.41	639.12
506.78	649.23
507.14	659.55
507.50	670.00
507.86	680.84
508.22	691.71
508.59	702.38
508.95	713.40
509.31	724.74
509.67	736.20
510.03	747.71
510.39	759.58
510.75	771.51
511.12	783.57
511.48	795.79
511.84	808.17
512.20	820.57
512.56	833.33
512.92	846.27
513.28	859.01
513.64	871.90
514.00	884.92
514.37	898.05
514.73	911.25
515.09	924.37
515.45	937.32
515.81	950.46
516.17	963.90
516.53	977.31
516.89	990.45
517.25	1003.74
517.61	1017.36
517.97	1030.83
518.33	1044.07
518.69	1057.74
519.05	1071.58
519.41	1085.38
519.77	1099.43
520.13	1112.80
520.49	1126.11
520.85	1139.61
521.21	1152.98
521.57	1166.78
521.93	1179.99
522.29	1193.87
522.65	1207.67
523.01	1221.46
523.37	1234.83
523.73	1248.30
524.09	1261.57
524.45	1275.19
524.81	1288.96
525.17	1302.47
525.53	1315.80
525.89	1329.28
526.25	1342.50
526.61	1355.66
526.97	1368.88
527.33	1381.92
527.68	1395.56
528.04	1409.07
528.40	1422.31
528.76	1435.80
529.12	1448.65
529.48	1462.08
529.84	1474.43
530.20	1487.24
530.56	1499.86
530.91	1513.20
531.27	1526.14
531.63	1539.09
531.99	1551.87
532.35	1564.17
532.71	1576.82
533.07	1589.87
533.42	1602.24
533.78	1614.43
534.14	1626.47
534.50	1637.77
534.86	1649.36
535.21	1660.34
535.57	1672.09
535.93	1683.50
536.29	1694.66
536.65	1706.37
537.00	1717.36
537.36	1728.91
537.72	1740.08
538.08	1751.68
538.44	1762.67
538.79	1773.82
539.15	1784.71
539.51	1795.78
539.87	1807.15
540.22	1817.97
540.58	1828.84
540.94	1839.81
541.29	1850.38
541.65	1860.29
542.01	1871.04
542.37	1881.30
542.72	1891.57
543.08	1901.27
543.44	1911.84
543.79	1921.24
544.15	1930.76
544.51	1940.92
544.87	1950.88
545.22	1960.09
545.58	1969.03
545.94	1978.05
546.29	1986.72
546.65	1995.23
547.01	2003.42
547.36	2011.14
547.72	2018.92
548.07	2026.66
548.43	2034.51
548.79	2042.18
549.14	2050.39
549.50	2058.80
549.86	2066.69
550.21	2074.20
550.57	2081.99
550.92	2088.75
551.28	2096.41
551.64	2103.66
551.99	2111.25
552.35	2118.33
552.70	2125.29
553.06	2131.95
553.41	2138.28
553.77	2144.91
554.13	2151.38
554.48	2158.38
554.84	2165.57
555.19	2172.22
555.55	2178.67
555.90	2185.02
556.26	2192.07
556.61	2198.12
556.97	2203.01
557.32	2208.95
557.68	2215.40
558.03	2221.22
558.39	2226.77
558.74	2232.81
559.10	2238.43
559.45	2243.94
559.81	2249.71
560.16	2255.19
560.52	2261.12
560.87	2267.56
561.23	2273.51
561.58	2280.20
561.94	2285.47
562.29	2290.18
562.64	2296.23
563.00	2302.11
563.35	2307.71
563.71	2313.52
564.06	2319.29
564.42	2325.36
564.77	2330.40
565.12	2335.78
565.48	2341.07
565.83	2346.51
566.19	2351.90
566.54	2357.33
566.89	2362.06
567.25	2366.64
567.60	2372.50
567.96	2377.62
568.31	2382.18
568.66	2386.43
569.02	2390.40
569.37	2394.25
569.72	2398.79
570.08	2402.38
570.43	2405.46
570.78	2408.57
571.14	2411.08
571.49	2414.21
571.84	2417.74
572.20	2420.71
572.55	2423.64
572.90	2425.90
573.26	2428.75
573.61	2431.38
573.96	2433.55
574.31	2435.49
574.67	2437.22
575.02	2437.99
575.37	2439.46
575.72	2440.23
576.08	2441.62
576.43	2441.80
576.78	2442.14
577.13	2443.63
577.49	2444.84
577.84	2445.83
578.19	2447.02
578.54	2447.57
578.90	2448.33
579.25	2448.16
579.60	2448.02
579.95	2447.32
580.30	2447.51
580.66	2446.95
581.01	2445.15
581.36	2442.86
581.71	2441.47
582.06	2440.53
582.42	2439.73
582.77	2437.71
583.12	2436.14
583.47	2434.78
583.82	2434.19
584.17	2433.03
584.53	2430.98
584.88	2428.78
585.23	2427.00
585.58	2424.76
585.93	2422.69
586.28	2420.50
586.63	2418.08
586.98	2416.00
587.34	2413.89
587.69	2411.35
588.04	2409.21
588.39	2407.93
588.74	2405.42
589.09	2402.64
589.44	2399.51
589.79	2397.00
590.14	2394.89
590.49	2392.12
590.84	2388.28
591.19	2385.07
591.54	2381.85
591.89	2377.68
592.25	2374.42
592.60	2370.13
592.95	2366.16
593.30	2362.01
593.65	2357.50
594.00	2353.05
594.35	2349.87
594.70	2345.36
595.05	2340.82
595.40	2335.24
595.75	2329.25
596.10	2325.55
596.45	2320.77
596.80	2316.15
597.15	2310.84
597.50	2304.84
597.85	2299.70
598.19	2294.50
598.54	2288.72
598.89	2283.53
599.24	2279.00
599.59	2272.84
599.94	2266.94
600.29	2260.94
600.64	2254.87
600.99	2248.03
601.34	2242.48
601.69	2235.45
602.04	2228.94
602.39	2222.10
602.74	2216.00
603.08	2210.39
603.43	2203.97
603.78	2197.15
604.13	2189.97
604.48	2182.60
604.83	2176.45
605.18	2170.15
605.53	2163.16
605.87	2156.02
606.22	2149.09
606.57	2141.05
606.92	2133.05
607.27	2126.12
607.62	2119.26
607.96	2112.33
608.31	2105.82
608.66	2098.01
609.01	2090.39
609.36	2083.35
609.70	2075.63
610.05	2067.79
610.40	2059.55
610.75	2050.92
611.10	2043.08
611.44	2034.14
611.79	2025.53
612.14	2015.50
612.49	2004.70
612.83	1995.36
613.18	1986.01
613.53	1976.64
613.88	1967.05
614.22	1958.36
614.57	1948.45
614.92	1937.86
615.27	1927.55
615.61	1917.47
615.96	1907.79
616.31	1898.06
616.65	1888.46
617.00	1878.63
617.35	1869.00
617.70	1859.07
618.04	1849.09
618.39	1838.86
618.74	1829.13
619.08	1819.36
619.43	1810.67
619.78	1802.40
620.12	1793.70
620.47	1784.11
620.82	1773.66
621.16	1763.85
621.51	1753.90
621.85	1743.90
622.20	1733.47
622.55	1722.81
622.89	1712.70
623.24	1702.85
623.59	1693.11
623.93	1682.80
624.28	1673.05
624.62	1662.81
624.97	1652.60
625.32	1642.76
625.66	1633.83
626.01	1625.01
626.35	1615.59
626.70	1605.46
627.04	1595.39
627.39	1585.21
627.73	1575.81
628.08	1566.84
628.43	1557.32
628.77	1547.97
629.12	1538.95
629.46	1531.02
629.81	1522.62
630.15	1513.11
630.50	1503.17
630.84	1492.47
631.19	1482.61
631.53	1473.23
631.88	1463.02
632.22	1452.89
632.57	1443.43
632.91	1433.18
633.26	1423.25
633.60	1413.63
633.95	1404.15
634.29	1394.57
634.64	1385.17
634.98	1375.11
635.32	1365.69
635.67	1356.97
636.01	1347.61
636.36	1337.91
636.70	1328.40
637.05	1318.96
637.39	1309.94
637.73	1301.38
638.08	1293.81
638.42	1285.47
638.77	1276.64
639.11	1268.26
639.45	1260.36
639.80	1251.74
640.14	1242.86
640.49	1233.90
640.83	1224.90
641.17	1216.69
641.52	1208.48
641.86	1199.85
642.20	1192.02
642.55	1183.41
642.89	1174.47
643.23	1165.83
643.58	1157.63
643.92	1148.39
644.26	1139.65
644.61	1131.20
644.95	1122.29
645.29	1112.93
645.64	1103.73
645.98	1095.06
646.32	1087.16
646.66	1078.52
647.01	1070.08
647.35	1061.90
647.69	1053.46
648.04	1045.13
648.38	1036.13
648.72	1027.23
649.06	1018.59
649.41	1010.25
649.75	1002.18
650.09	994.21
650.43	986.04
650.78	977.55
651.12	969.72
651.46	962.21
651.80	954.81
652.14	947.37
652.49	939.81
652.83	932.29
653.17	924.47
653.51	916.70
653.85	909.41
654.20	902.13
654.54	894.63
654.88	887.28
655.22	880.03
655.56	873.00
655.90	866.17
656.25	859.51
656.59	852.49
656.93	845.36
657.27	838.17
657.61	831.08
657.95	824.97
658.29	818.98
658.64	812.78
658.98	806.26
659.32	799.67
659.66	793.25
660.00	786.88
660.34	780.83
660.68	774.62
661.02	768.18
661.36	762.09
661.70	756.14
662.05	750.55
662.39	744.92
662.73	739.48
663.07	734.11
663.41	728.40
663.75	722.62
664.09	716.89
664.43	711.31
664.77	705.98
665.11	700.07
665.45	694.19
665.79	688.26
666.13	682.49
666.47	676.87
666.81	671.43
667.15	666.02
667.49	660.74
667.83	655.37
668.17	650.07
668.51	644.94
668.85	640.00
669.19	634.96
669.53	629.90
669.87	624.66
670.21	619.74
670.55	614.98
670.89	610.48
671.23	606.06
671.57	601.66
671.91	597.29
672.25	593.06
672.58	588.87
672.92	584.79
673.26	580.77
673.60	576.86
673.94	573.08
674.28	569.42
674.62	565.65
674.96	561.93
675.30	558.39
675.64	554.68
675.97	551.03
676.31	547.40
676.65	543.75
676.99	540.30
677.33	536.44
677.67	532.75
678.01	528.90
678.34	525.27
678.68	521.71
679.02	517.98
679.36	514.22
679.70	510.52
680.04	506.94
680.37	503.42
680.71	500.09
681.05	496.79
681.39	493.47
681.73	490.23
682.06	487.17
682.40	484.03
682.74	480.80
683.08	477.59
683.42	474.37
683.75	471.35
684.09	468.28
684.43	465.39
684.77	462.40
685.10	459.45
685.44	456.51
685.78	453.52
686.12	450.82
686.45	448.16
686.79	445.45
687.13	442.85
687.46	440.23
687.80	437.53
688.14	434.69
688.48	432.00
688.81	429.25
689.15	426.58
689.49	423.91
689.82	421.36
690.16	418.67
690.50	416.16
690.83	413.60
691.17	411.01
691.51	408.52
691.84	406.22
692.18	404.00
692.52	401.73
692.85	399.62
693.19	397.38
693.52	395.13
693.86	392.87
694.20	390.65
694.53	388.48
694.87	386.22
695.21	384.04
695.54	381.84
695.88	379.67
696.21	377.46
696.55	375.27
696.88	373.13
697.22	371.17
697.56	369.22
697.89	367.30
698.23	365.53
698.56	363.69
698.90	361.87
699.23	359.91
699.57	358.00
699.90	356.05
700.24	354.28
700.58	352.48
700.91	350.80
701.25	349.16
701.58	347.53
701.92	345.92
702.25	344.30
702.59	342.69
702.92	341.13
703.26	339.56
703.59	338.10
703.93	336.86
704.26	335.42
704.60	333.91
704.93	332.42
705.26	330.87
705.60	329.40
705.93	327.88
706.27	326.55
706.60	325.30
706.94	324.10
707.27	322.67
707.61	321.34
707.94	319.99
708.27	318.48
708.61	317.03
708.94	315.59
709.28	314.28
709.61	313.01
709.94	311.76
710.28	310.52
710.61	309.30
710.95	307.86
711.28	306.71
711.61	305.48
711.95	304.33
712.28	303.12
712.61	301.92
712.95	300.87
713.28	299.82
713.61	298.65
713.95	297.44
714.28	296.39
714.61	295.31
714.95	294.28
715.28	293.25
715.61	292.23
715.95	291.33
716.28	290.34
716.61	289.35
716.95	288.36
717.28	287.44
717.61	286.45
717.94	285.52
718.28	284.51
718.61	283.62
718.94	282.71
719.27	281.88
719.61	281.05
719.94	280.16
720.27	279.17
720.60	278.30
720.94	277.48
721.27	276.69
721.60	276.02
721.93	275.27
722.27	274.64
722.60	273.94
722.93	273.23
723.26	272.54
723.59	271.88
723.93	271.23
724.26	270.57
724.59	269.92
724.92	269.31
725.25	268.74
725.59	268.18
725.92	267.62
726.25	266.98
726.58	266.40
726.91	265.82
727.24	265.23
727.57	264.66
727.91	264.07
728.24	263.56
728.57	262.89
728.90	262.36
729.23	261.68
729.56	261.24
729.89	260.65
730.22	260.08
730.55	259.54
730.89	259.01
731.22	258.52
731.55	258.01
731.88	257.46
732.21	256.93
732.54	256.37
732.87	255.83
733.20	255.36
733.53	254.88
733.86	254.38
734.19	253.91
734.52	253.47
734.85	253.15
735.18	252.60
735.51	252.23
735.84	251.74
736.17	251.39
736.50	250.81
736.83	250.62
737.16	250.24
737.49	249.84
737.82	249.40
738.15	248.97
738.48	248.60
738.81	248.22
739.14	247.77
739.47	247.41
739.80	247.06
740.13	246.72
740.46	246.32
740.79	245.94
741.12	245.60
741.45	245.24
741.78	244.77
742.11	244.53
742.44	244.16
742.77	243.87
743.10	243.50
743.43	243.19
743.75	242.65
744.08	242.56
744.41	242.16
744.74	241.82
745.07	241.41
745.40	241.11
745.73	240.85
746.06	240.56
746.39	240.22
746.71	239.88
747.04	239.54
747.37	239.25
747.70	238.96
748.03	238.63
748.36	238.34
748.68	238.08
749.01	237.70
749.34	237.41
749.67	237.08
750.00	236.81
750.33	236.69
750.65	236.44
750.98	235.90
751.31	235.67
751.64	235.45
751.97	235.36
752.29	235.08
752.62	234.73
752.95	234.44
753.28	234.16
753.60	233.94
753.93	233.77
754.26	233.51
754.59	233.20
754.91	232.98
755.24	232.75
755.57	232.50
755.90	232.30
756.22	232.04
756.55	231.81
756.88	231.57
757.20	231.25
757.53	230.96
757.86	230.74
758.19	230.56
758.51	230.35
758.84	230.02
759.17	229.82
759.49	229.67
759.82	229.59
760.15	229.44
760.47	229.21
760.80	228.94
761.13	228.79
761.45	228.63
761.78	228.48
762.11	228.27
762.43	228.08
762.76	227.88
763.08	227.75
763.41	227.61
763.74	227.48
764.06	227.28
764.39	227.17
764.71	227.04
765.04	226.88
765.37	226.69
765.69	226.56
766.02	226.43
766.34	226.27
766.67	226.06
767.00	225.98
767.32	225.97
767.65	225.96
767.97	225.80
768.30	225.71
768.62	225.54
768.95	225.43
769.27	225.31
769.60	225.24
769.92	225.06
770.25	224.91
770.57	224.73
770.90	224.60
771.22	224.44
771.55	224.34
771.87	224.21
772.20	224.12
772.52	224.16
772.85	224.28
773.17	224.17
773.50	224.06
773.82	223.90
774.15	223.70
774.47	223.49
774.80	223.39
775.12	223.28
775.45	223.19
775.77	223.08
776.09	223.00
776.42	222.91
776.74	222.85
777.07	222.72
777.39	222.63
777.72	222.56
778.04	222.53
778.36	222.42
778.69	222.36
779.01	222.29
779.33	222.03
779.66	221.69
779.98	221.62
780.31	221.56
780.63	221.55
780.95	221.49
781.28	221.39
781.60	221.33
781.92	221.22
782.25	221.14
782.57	221.09
782.89	221.02
783.22	220.92
783.54	220.86
783.86	220.84
784.19	220.78
784.51	220.75
784.83	220.61
785.16	220.55
785.48	220.47
785.80	220.38
786.12	220.34
