SpectraSuite Data File
++++++++++++++++++++++++++++++++++++
Date: Tue Jan 29 16:26:47 EST 2013
User: group
Dark Spectrum Present: No
Reference Spectrum Present: No
Number of Sampled Component Spectra: 1
Spectrometers: USB2E7196
Integration Time (usec): 65000 (USB2E7196)
Spectra Averaged: 100 (USB2E7196)
Boxcar Smoothing: 10 (USB2E7196)
Correct for Electrical Dark: No (USB2E7196)
Strobe/Lamp Enabled: No (USB2E7196)
Correct for Detector Non-linearity: No (USB2E7196)
Correct for Stray Light: No (USB2E7196)
Number of Pixels in Processed Spectrum: 2048
>>>>>Begin Processed Spectral Data<<<<<
339.09	0.00
339.48	201.92
339.86	203.24
340.24	204.64
340.63	206.17
341.01	210.45
341.39	209.16
341.78	210.52
342.16	211.79
342.54	212.03
342.93	201.13
343.31	211.30
343.69	211.83
344.07	212.32
344.46	212.78
344.84	213.20
345.22	213.39
345.60	213.63
345.99	213.84
346.37	214.00
346.75	214.11
347.13	214.20
347.52	214.26
347.90	214.37
348.28	214.40
348.66	214.50
349.05	214.46
349.43	214.60
349.81	214.71
350.19	214.81
350.57	214.90
350.96	214.99
351.34	215.08
351.72	215.19
352.10	215.29
352.48	215.36
352.87	215.42
353.25	215.49
353.63	215.52
354.01	215.58
354.39	215.64
354.77	215.75
355.15	215.89
355.54	215.98
355.92	215.97
356.30	216.09
356.68	216.27
357.06	216.39
357.44	216.40
357.82	216.45
358.20	216.53
358.58	216.57
358.97	216.67
359.35	216.78
359.73	216.88
360.11	216.95
360.49	217.01
360.87	217.06
361.25	217.13
361.63	217.28
362.01	217.34
362.39	217.38
362.77	217.42
363.15	217.43
363.53	217.42
363.91	217.45
364.29	217.49
364.67	217.31
365.05	217.32
365.43	217.35
365.81	217.38
366.19	217.46
366.57	217.58
366.95	217.55
367.33	217.49
367.71	217.45
368.09	217.50
368.47	217.47
368.85	217.46
369.23	217.49
369.61	217.41
369.99	217.48
370.37	217.48
370.75	217.55
371.13	217.48
371.51	217.44
371.89	217.45
372.27	217.41
372.65	217.39
373.03	217.39
373.41	217.34
373.78	217.31
374.16	217.16
374.54	217.04
374.92	217.00
375.30	216.97
375.68	216.91
376.06	216.87
376.44	216.81
376.82	216.78
377.19	216.74
377.57	216.69
377.95	216.54
378.33	216.48
378.71	216.32
379.09	216.29
379.47	216.29
379.84	216.21
380.22	216.15
380.60	216.07
380.98	216.00
381.36	215.92
381.73	215.82
382.11	215.83
382.49	215.80
382.87	215.73
383.25	215.70
383.62	215.90
384.00	215.80
384.38	215.79
384.76	215.81
385.13	215.84
385.51	215.83
385.89	215.81
386.27	215.79
386.64	215.79
387.02	215.78
387.40	215.75
387.78	215.78
388.15	215.76
388.53	215.74
388.91	215.69
389.29	215.68
389.66	215.74
390.04	215.71
390.42	215.74
390.79	215.74
391.17	215.74
391.55	215.52
391.92	215.54
392.30	215.55
392.68	215.46
393.05	215.44
393.43	215.42
393.81	215.41
394.18	215.36
394.56	215.39
394.94	215.45
395.31	215.45
395.69	215.50
396.06	215.54
396.44	215.56
396.82	215.58
397.19	215.72
397.57	215.69
397.95	215.74
398.32	215.67
398.70	215.72
399.07	215.83
399.45	215.86
399.82	215.90
400.20	215.91
400.58	216.01
400.95	216.03
401.33	216.16
401.70	216.39
402.08	216.50
402.45	216.57
402.83	216.70
403.20	216.84
403.58	216.90
403.95	217.10
404.33	217.26
404.71	217.39
405.08	217.62
405.46	217.81
405.83	218.01
406.21	218.26
406.58	218.50
406.96	218.68
407.33	218.95
407.70	219.28
408.08	219.78
408.45	220.11
408.83	220.49
409.20	220.82
409.58	221.11
409.95	221.54
410.33	222.01
410.70	222.41
411.08	222.96
411.45	223.53
411.82	224.08
412.20	224.77
412.57	225.64
412.95	226.23
413.32	227.03
413.69	227.81
414.07	228.70
414.44	229.65
414.82	230.66
415.19	231.85
415.56	233.00
415.94	234.14
416.31	235.54
416.68	236.92
417.06	238.53
417.43	240.03
417.81	241.76
418.18	243.57
418.55	245.52
418.93	247.52
419.30	249.62
419.67	251.83
420.04	254.08
420.42	256.41
420.79	259.23
421.16	262.04
421.54	264.96
421.91	267.95
422.28	271.09
422.66	274.39
423.03	277.59
423.40	280.98
423.77	284.58
424.15	288.22
424.52	292.02
424.89	296.15
425.26	300.25
425.64	304.14
426.01	308.39
426.38	312.83
426.75	317.32
427.13	322.05
427.50	327.03
427.87	332.24
428.24	337.47
428.61	342.43
428.99	347.96
429.36	353.94
429.73	359.79
430.10	365.60
430.47	371.60
430.85	377.91
431.22	384.58
431.59	391.64
431.96	398.45
432.33	405.93
432.70	413.15
433.08	421.64
433.45	429.67
433.82	437.68
434.19	446.59
434.56	455.26
434.93	463.56
435.30	471.78
435.68	480.85
436.05	489.73
436.42	498.58
436.79	506.67
437.16	515.41
437.53	524.67
437.90	533.81
438.27	542.76
438.64	551.94
439.01	560.38
439.38	567.92
439.75	575.27
440.13	583.72
440.50	591.65
440.87	598.03
441.24	604.67
441.61	611.94
441.98	617.19
442.35	623.51
442.72	629.82
443.09	635.91
443.46	639.67
443.83	642.23
444.20	644.42
444.57	647.58
444.94	649.01
445.31	650.46
445.68	651.80
446.05	652.43
446.42	651.64
446.79	650.73
447.16	649.70
447.53	648.88
447.90	645.49
448.27	642.19
448.64	637.59
449.01	634.20
449.37	628.32
449.74	622.76
450.11	615.86
450.48	608.54
450.85	601.12
451.22	594.68
451.59	588.55
451.96	582.72
452.33	574.88
452.70	567.84
453.07	559.40
453.43	550.82
453.80	542.54
454.17	534.58
454.54	527.03
454.91	518.89
455.28	510.96
455.65	503.60
456.02	496.15
456.38	489.84
456.75	482.10
457.12	475.56
457.49	469.08
457.86	462.90
458.23	457.50
458.59	451.52
458.96	445.51
459.33	440.26
459.70	434.95
460.07	430.71
460.43	425.78
460.80	421.15
461.17	417.20
461.54	413.09
461.91	409.10
462.27	405.03
462.64	401.61
463.01	397.80
463.38	394.12
463.74	390.44
464.11	387.23
464.48	384.41
464.85	381.35
465.21	378.90
465.58	376.32
465.95	373.20
466.32	370.57
466.68	368.00
467.05	365.42
467.42	362.87
467.78	360.15
468.15	357.65
468.52	355.77
468.88	353.32
469.25	351.06
469.62	349.30
469.98	347.35
470.35	345.50
470.72	343.81
471.08	342.06
471.45	340.54
471.82	339.02
472.18	337.34
472.55	336.09
472.92	334.67
473.28	333.49
473.65	332.38
474.02	331.29
474.38	330.35
474.75	329.57
475.11	328.75
475.48	328.21
475.85	327.72
476.21	327.28
476.58	326.90
476.94	326.66
477.31	326.30
477.67	326.07
478.04	325.96
478.41	325.96
478.77	326.06
479.14	326.05
479.50	326.13
479.87	326.40
480.23	326.73
480.60	326.98
480.96	327.26
481.33	327.84
481.69	328.43
482.06	328.98
482.42	329.48
482.79	330.09
483.15	330.90
483.52	331.86
483.88	332.72
484.25	333.66
484.61	334.73
484.98	335.81
485.34	337.08
485.71	338.44
486.07	339.84
486.44	341.17
486.80	342.81
487.17	344.51
487.53	346.33
487.90	348.21
488.26	350.30
488.62	352.47
488.99	354.50
489.35	356.65
489.72	359.07
490.08	361.58
490.44	364.16
490.81	366.85
491.17	369.62
491.54	372.61
491.90	375.70
492.26	378.91
492.63	382.31
492.99	385.84
493.36	389.53
493.72	393.43
494.08	397.45
494.45	401.66
494.81	406.10
495.17	410.56
495.54	415.34
495.90	420.16
496.26	425.06
496.63	430.31
496.99	435.70
497.35	441.29
497.72	447.15
498.08	453.10
498.44	459.26
498.80	465.67
499.17	472.16
499.53	478.86
499.89	485.77
500.26	492.80
500.62	499.99
500.98	507.44
501.34	515.01
501.71	522.85
502.07	530.74
502.43	538.77
502.79	547.00
503.16	555.44
503.52	564.06
503.88	572.80
504.24	581.75
504.60	590.91
504.97	600.23
505.33	609.54
505.69	619.45
506.05	629.35
506.41	639.28
506.78	649.37
507.14	659.70
507.50	670.25
507.86	680.96
508.22	691.76
508.59	702.44
508.95	713.56
509.31	724.93
509.67	736.45
510.03	747.91
510.39	759.70
510.75	771.67
511.12	783.68
511.48	795.88
511.84	808.24
512.20	820.71
512.56	833.40
512.92	846.27
513.28	859.06
513.64	871.98
514.00	884.91
514.37	898.07
514.73	911.26
515.09	924.29
515.45	937.33
515.81	950.43
516.17	964.02
516.53	977.30
516.89	990.56
517.25	1003.84
517.61	1017.52
517.97	1031.05
518.33	1044.26
518.69	1057.94
519.05	1071.84
519.41	1085.67
519.77	1099.64
520.13	1113.12
520.49	1126.39
520.85	1140.00
521.21	1153.35
521.57	1167.12
521.93	1180.30
522.29	1194.16
522.65	1208.01
523.01	1221.78
523.37	1235.20
523.73	1248.58
524.09	1261.88
524.45	1275.36
524.81	1288.95
525.17	1302.48
525.53	1315.64
525.89	1329.03
526.25	1342.31
526.61	1355.40
526.97	1368.73
527.33	1381.86
527.68	1395.37
528.04	1409.08
528.40	1422.13
528.76	1435.69
529.12	1448.64
529.48	1462.15
529.84	1474.58
530.20	1487.43
530.56	1500.20
530.91	1513.52
531.27	1526.57
531.63	1539.52
531.99	1552.36
532.35	1564.73
532.71	1577.19
533.07	1590.27
533.42	1602.62
533.78	1614.63
534.14	1626.66
534.50	1637.84
534.86	1649.48
535.21	1660.50
535.57	1672.01
535.93	1683.45
536.29	1694.65
536.65	1706.28
537.00	1717.32
537.36	1728.78
537.72	1739.82
538.08	1751.31
538.44	1762.35
538.79	1773.45
539.15	1784.38
539.51	1795.40
539.87	1806.81
540.22	1817.77
540.58	1828.89
540.94	1839.87
541.29	1850.28
541.65	1860.11
542.01	1870.68
542.37	1880.82
542.72	1890.97
543.08	1900.86
543.44	1911.48
543.79	1920.84
544.15	1930.31
544.51	1940.34
544.87	1950.27
545.22	1959.66
545.58	1968.57
545.94	1977.56
546.29	1986.12
546.65	1994.67
547.01	2002.79
547.36	2010.49
547.72	2018.24
548.07	2025.86
548.43	2033.75
548.79	2041.79
549.14	2050.09
549.50	2058.63
549.86	2066.58
550.21	2074.25
550.57	2082.05
550.92	2088.73
551.28	2096.34
551.64	2103.73
551.99	2111.32
552.35	2118.52
552.70	2125.46
553.06	2132.13
553.41	2138.37
553.77	2144.98
554.13	2151.22
554.48	2158.39
554.84	2165.67
555.19	2172.28
555.55	2178.78
555.90	2184.94
556.26	2191.89
556.61	2197.97
556.97	2202.91
557.32	2208.73
557.68	2215.10
558.03	2220.94
558.39	2226.42
558.74	2232.39
559.10	2237.96
559.45	2243.49
559.81	2249.26
560.16	2254.86
560.52	2260.86
560.87	2267.34
561.23	2273.29
561.58	2280.18
561.94	2285.41
562.29	2290.02
562.64	2296.11
563.00	2301.75
563.35	2307.61
563.71	2313.30
564.06	2319.11
564.42	2325.22
564.77	2330.33
565.12	2335.69
565.48	2340.73
565.83	2346.35
566.19	2351.75
566.54	2357.26
566.89	2361.96
567.25	2366.48
567.60	2372.16
567.96	2377.30
568.31	2381.96
568.66	2386.34
569.02	2390.12
569.37	2393.89
569.72	2398.46
570.08	2402.02
570.43	2405.22
570.78	2408.20
571.14	2410.73
571.49	2413.85
571.84	2417.42
572.20	2420.43
572.55	2423.42
572.90	2425.77
573.26	2428.63
573.61	2431.24
573.96	2433.46
574.31	2435.50
574.67	2437.43
575.02	2438.27
575.37	2439.76
575.72	2440.43
576.08	2441.86
576.43	2442.04
576.78	2442.53
577.13	2444.21
577.49	2445.41
577.84	2446.51
578.19	2447.99
578.54	2448.63
578.90	2449.44
579.25	2449.24
579.60	2449.04
579.95	2448.16
580.30	2448.43
580.66	2447.68
581.01	2446.13
581.36	2443.64
581.71	2442.20
582.06	2441.12
582.42	2440.26
582.77	2438.11
583.12	2436.56
583.47	2435.24
583.82	2434.82
584.17	2433.68
584.53	2431.48
584.88	2429.37
585.23	2427.47
585.58	2425.12
585.93	2423.09
586.28	2420.81
586.63	2418.32
586.98	2416.25
587.34	2414.39
587.69	2411.97
588.04	2409.93
588.39	2408.51
588.74	2406.16
589.09	2403.61
589.44	2400.41
589.79	2397.88
590.14	2395.94
590.49	2393.05
590.84	2389.11
591.19	2385.88
591.54	2382.64
591.89	2378.59
592.25	2375.18
592.60	2370.88
592.95	2366.73
593.30	2362.52
593.65	2358.09
594.00	2353.62
594.35	2350.55
594.70	2345.86
595.05	2341.10
595.40	2335.53
595.75	2329.53
596.10	2325.75
596.45	2320.84
596.80	2316.23
597.15	2310.93
597.50	2304.90
597.85	2299.91
598.19	2294.83
598.54	2289.04
598.89	2283.57
599.24	2279.00
599.59	2272.92
599.94	2267.16
600.29	2261.17
600.64	2255.33
600.99	2248.54
601.34	2242.99
601.69	2235.94
602.04	2229.70
602.39	2223.09
602.74	2217.15
603.08	2211.68
603.43	2205.14
603.78	2198.13
604.13	2190.95
604.48	2183.61
604.83	2177.48
605.18	2171.30
605.53	2164.27
605.87	2157.20
606.22	2150.59
606.57	2142.61
606.92	2134.64
607.27	2127.66
607.62	2120.97
607.96	2113.78
608.31	2107.32
608.66	2099.64
609.01	2091.99
609.36	2084.69
609.70	2076.79
610.05	2068.92
610.40	2060.47
610.75	2052.19
611.10	2044.55
611.44	2035.68
611.79	2027.03
612.14	2016.95
612.49	2006.12
612.83	1996.58
613.18	1987.27
613.53	1977.83
613.88	1968.08
614.22	1959.44
614.57	1949.40
614.92	1938.78
615.27	1928.62
615.61	1918.46
615.96	1908.69
616.31	1899.00
616.65	1889.56
617.00	1879.88
617.35	1869.94
617.70	1860.17
618.04	1850.06
618.39	1839.84
618.74	1830.03
619.08	1820.29
619.43	1811.49
619.78	1803.25
620.12	1794.61
620.47	1784.87
620.82	1774.47
621.16	1764.74
621.51	1754.65
621.85	1744.76
622.20	1734.21
622.55	1723.62
622.89	1713.49
623.24	1703.81
623.59	1694.02
623.93	1683.72
624.28	1673.90
624.62	1663.89
624.97	1653.50
625.32	1643.61
625.66	1634.42
626.01	1625.61
626.35	1616.20
626.70	1606.15
627.04	1595.94
627.39	1585.73
627.73	1576.45
628.08	1567.38
628.43	1557.65
628.77	1548.31
629.12	1539.42
629.46	1531.57
629.81	1523.08
630.15	1513.51
630.50	1503.41
630.84	1492.72
631.19	1482.74
631.53	1473.36
631.88	1463.07
632.22	1452.96
632.57	1443.42
632.91	1433.25
633.26	1423.34
633.60	1413.59
633.95	1404.09
634.29	1394.57
634.64	1385.15
634.98	1374.99
635.32	1365.60
635.67	1356.96
636.01	1347.69
636.36	1337.75
636.70	1328.08
637.05	1318.60
637.39	1309.63
637.73	1300.99
638.08	1293.34
638.42	1285.08
638.77	1276.19
639.11	1267.92
639.45	1260.02
639.80	1251.41
640.14	1242.64
640.49	1233.72
640.83	1224.82
641.17	1216.73
641.52	1208.48
641.86	1199.83
642.20	1191.88
642.55	1183.20
642.89	1174.25
643.23	1165.47
643.58	1157.29
643.92	1148.27
644.26	1139.50
644.61	1130.99
644.95	1122.10
645.29	1112.76
645.64	1103.54
645.98	1094.86
646.32	1086.80
646.66	1078.32
647.01	1069.93
647.35	1061.71
647.69	1053.26
648.04	1044.92
648.38	1035.78
648.72	1026.86
649.06	1018.31
649.41	1010.07
649.75	1002.02
650.09	994.12
650.43	986.00
650.78	977.64
651.12	969.75
651.46	962.18
651.80	954.75
652.14	947.37
652.49	939.81
652.83	932.32
653.17	924.57
653.51	916.91
653.85	909.57
654.20	902.26
654.54	894.69
654.88	887.30
655.22	880.00
655.56	872.98
655.90	866.17
656.25	859.44
656.59	852.42
656.93	845.26
657.27	838.00
657.61	830.93
657.95	824.71
658.29	818.78
658.64	812.66
658.98	806.11
659.32	799.47
659.66	793.17
660.00	786.73
660.34	780.61
660.68	774.38
661.02	767.90
661.36	761.83
661.70	755.99
662.05	750.35
662.39	744.78
662.73	739.32
663.07	733.86
663.41	728.25
663.75	722.52
664.09	716.83
664.43	711.42
664.77	706.06
665.11	700.21
665.45	694.21
665.79	688.31
666.13	682.58
666.47	677.01
666.81	671.48
667.15	666.07
667.49	660.83
667.83	655.48
668.17	650.13
668.51	644.92
668.85	639.93
669.19	634.99
669.53	629.93
669.87	624.78
670.21	619.94
670.55	615.10
670.89	610.59
671.23	606.16
671.57	601.67
671.91	597.28
672.25	593.09
672.58	588.85
672.92	584.73
673.26	580.74
673.60	576.80
673.94	572.95
674.28	569.30
674.62	565.51
674.96	561.70
675.30	558.24
675.64	554.57
675.97	550.91
676.31	547.16
676.65	543.53
676.99	540.05
677.33	536.15
677.67	532.48
678.01	528.57
678.34	524.92
678.68	521.37
679.02	517.77
679.36	514.06
679.70	510.45
680.04	506.86
680.37	503.36
680.71	500.00
681.05	496.73
681.39	493.42
681.73	490.19
682.06	487.19
682.40	484.02
682.74	480.80
683.08	477.57
683.42	474.35
683.75	471.26
684.09	468.16
684.43	465.30
684.77	462.33
685.10	459.48
685.44	456.49
685.78	453.48
686.12	450.62
686.45	447.82
686.79	445.11
687.13	442.56
687.46	439.90
687.80	437.21
688.14	434.33
688.48	431.64
688.81	428.98
689.15	426.35
689.49	423.70
689.82	421.13
690.16	418.46
690.50	416.03
690.83	413.49
691.17	410.91
691.51	408.43
691.84	406.17
692.18	403.90
692.52	401.64
692.85	399.51
693.19	397.35
693.52	395.13
693.86	392.85
694.20	390.61
694.53	388.41
694.87	386.19
695.21	384.04
695.54	381.84
695.88	379.59
696.21	377.32
696.55	375.13
696.88	373.06
697.22	371.08
697.56	369.14
697.89	367.25
698.23	365.45
698.56	363.59
698.90	361.77
699.23	359.84
699.57	357.98
699.90	356.04
700.24	354.19
700.58	352.41
700.91	350.71
701.25	349.10
701.58	347.52
701.92	345.86
702.25	344.24
702.59	342.62
702.92	341.06
703.26	339.45
703.59	337.98
703.93	336.69
704.26	335.23
704.60	333.68
704.93	332.15
705.26	330.67
705.60	329.14
705.93	327.57
706.27	326.20
706.60	324.96
706.94	323.75
707.27	322.33
707.61	320.98
707.94	319.66
708.27	318.14
708.61	316.64
708.94	315.26
709.28	313.94
709.61	312.68
709.94	311.48
710.28	310.24
710.61	309.07
710.95	307.61
711.28	306.53
711.61	305.36
711.95	304.24
712.28	303.02
712.61	301.85
712.95	300.79
713.28	299.73
713.61	298.56
713.95	297.41
714.28	296.40
714.61	295.34
714.95	294.29
715.28	293.24
715.61	292.20
715.95	291.25
716.28	290.29
716.61	289.31
716.95	288.27
717.28	287.38
717.61	286.37
717.94	285.46
718.28	284.39
718.61	283.50
718.94	282.60
719.27	281.74
719.61	280.91
719.94	280.04
720.27	279.09
720.60	278.19
720.94	277.38
721.27	276.59
721.60	275.87
721.93	275.10
722.27	274.48
722.60	273.86
722.93	273.14
723.26	272.48
723.59	271.77
723.93	271.19
724.26	270.52
724.59	269.87
724.92	269.30
725.25	268.79
725.59	268.19
725.92	267.63
726.25	267.07
726.58	266.49
726.91	265.87
727.24	265.35
727.57	264.77
727.91	264.13
728.24	263.59
728.57	262.97
728.90	262.50
729.23	261.85
729.56	261.40
729.89	260.90
730.22	260.33
730.55	259.78
730.89	259.23
731.22	258.67
731.55	258.14
731.88	257.61
732.21	256.99
732.54	256.44
732.87	255.90
733.20	255.40
733.53	254.91
733.86	254.46
734.19	253.92
734.52	253.52
734.85	253.22
735.18	252.74
735.51	252.41
735.84	251.92
736.17	251.54
736.50	250.98
736.83	250.75
737.16	250.34
737.49	249.96
737.82	249.53
738.15	249.17
738.48	248.79
738.81	248.34
739.14	247.94
739.47	247.56
739.80	247.20
740.13	246.84
740.46	246.43
740.79	246.04
741.12	245.70
741.45	245.30
741.78	244.86
742.11	244.55
742.44	244.12
742.77	243.84
743.10	243.47
743.43	243.12
743.75	242.56
744.08	242.49
744.41	242.16
744.74	241.81
745.07	241.41
745.40	241.12
745.73	240.88
746.06	240.55
746.39	240.27
746.71	239.92
747.04	239.54
747.37	239.24
747.70	238.96
748.03	238.65
748.36	238.40
748.68	238.06
749.01	237.70
749.34	237.41
749.67	237.09
750.00	236.84
750.33	236.72
750.65	236.48
750.98	235.95
751.31	235.65
751.64	235.43
751.97	235.27
752.29	234.99
752.62	234.68
752.95	234.43
753.28	234.14
753.60	233.92
753.93	233.80
754.26	233.57
754.59	233.27
754.91	233.01
755.24	232.78
755.57	232.56
755.90	232.36
756.22	232.12
756.55	231.91
756.88	231.67
757.20	231.34
757.53	231.06
757.86	230.85
758.19	230.68
758.51	230.43
758.84	230.14
759.17	229.93
759.49	229.76
759.82	229.69
760.15	229.52
760.47	229.35
760.80	229.08
761.13	228.91
761.45	228.73
761.78	228.56
762.11	228.37
762.43	228.18
762.76	227.98
763.08	227.83
763.41	227.64
763.74	227.50
764.06	227.34
764.39	227.18
764.71	227.06
765.04	226.85
765.37	226.70
765.69	226.58
766.02	226.43
766.34	226.26
766.67	226.03
767.00	225.91
767.32	225.85
767.65	225.87
767.97	225.74
768.30	225.63
768.62	225.48
768.95	225.33
769.27	225.20
769.60	225.11
769.92	224.93
770.25	224.80
770.57	224.62
770.90	224.46
771.22	224.32
771.55	224.14
771.87	224.06
772.20	223.92
772.52	223.98
772.85	224.13
773.17	224.01
773.50	223.89
773.82	223.79
774.15	223.58
774.47	223.33
774.80	223.19
775.12	223.09
775.45	222.99
775.77	222.90
776.09	222.81
776.42	222.76
776.74	222.72
777.07	222.63
777.39	222.57
777.72	222.49
778.04	222.43
778.36	222.37
778.69	222.29
779.01	222.23
779.33	221.96
779.66	221.61
779.98	221.51
780.31	221.47
780.63	221.50
780.95	221.45
781.28	221.39
781.60	221.33
781.92	221.24
782.25	221.22
782.57	221.14
782.89	221.08
783.22	220.97
783.54	220.89
783.86	220.83
784.19	220.75
784.51	220.75
784.83	220.69
785.16	220.65
785.48	220.59
785.80	220.55
786.12	220.53
