SpectraSuite Data File
++++++++++++++++++++++++++++++++++++
Date: Tue Jan 29 16:21:59 EST 2013
User: group
Dark Spectrum Present: No
Reference Spectrum Present: No
Number of Sampled Component Spectra: 1
Spectrometers: USB2E7196
Integration Time (usec): 65000 (USB2E7196)
Spectra Averaged: 100 (USB2E7196)
Boxcar Smoothing: 10 (USB2E7196)
Correct for Electrical Dark: No (USB2E7196)
Strobe/Lamp Enabled: No (USB2E7196)
Correct for Detector Non-linearity: No (USB2E7196)
Correct for Stray Light: No (USB2E7196)
Number of Pixels in Processed Spectrum: 2048
>>>>>Begin Processed Spectral Data<<<<<
339.09	0.00
339.48	202.61
339.86	203.21
340.24	205.65
340.63	205.94
341.01	210.60
341.39	209.59
341.78	211.37
342.16	212.07
342.54	212.61
342.93	201.55
343.31	211.74
343.69	212.26
344.07	212.76
344.46	213.17
344.84	213.58
345.22	213.78
345.60	214.02
345.99	214.23
346.37	214.37
346.75	214.46
347.13	214.54
347.52	214.62
347.90	214.79
348.28	214.87
348.66	214.92
349.05	214.87
349.43	214.95
349.81	214.97
350.19	215.06
350.57	215.10
350.96	215.16
351.34	215.28
351.72	215.40
352.10	215.51
352.48	215.58
352.87	215.64
353.25	215.71
353.63	215.78
354.01	215.80
354.39	215.86
354.77	215.94
355.15	216.04
355.54	216.09
355.92	216.06
356.30	216.11
356.68	216.29
357.06	216.40
357.44	216.46
357.82	216.55
358.20	216.58
358.58	216.63
358.97	216.71
359.35	216.78
359.73	216.88
360.11	216.92
360.49	216.99
360.87	217.04
361.25	217.10
361.63	217.21
362.01	217.28
362.39	217.33
362.77	217.40
363.15	217.43
363.53	217.48
363.91	217.54
364.29	217.55
364.67	217.39
365.05	217.41
365.43	217.47
365.81	217.49
366.19	217.61
366.57	217.71
366.95	217.72
367.33	217.69
367.71	217.66
368.09	217.72
368.47	217.74
368.85	217.74
369.23	217.81
369.61	217.75
369.99	217.79
370.37	217.78
370.75	217.84
371.13	217.79
371.51	217.72
371.89	217.70
372.27	217.73
372.65	217.73
373.03	217.70
373.41	217.65
373.78	217.61
374.16	217.47
374.54	217.38
374.92	217.30
375.30	217.27
375.68	217.20
376.06	217.13
376.44	217.08
376.82	217.01
377.19	216.90
377.57	216.85
377.95	216.73
378.33	216.69
378.71	216.55
379.09	216.54
379.47	216.50
379.84	216.43
380.22	216.33
380.60	216.26
380.98	216.19
381.36	216.11
381.73	216.03
382.11	216.04
382.49	216.01
382.87	215.98
383.25	215.97
383.62	216.16
384.00	216.10
384.38	216.03
384.76	216.06
385.13	216.13
385.51	216.08
385.89	216.04
386.27	216.01
386.64	216.00
387.02	215.93
387.40	215.93
387.78	215.96
388.15	215.94
388.53	215.90
388.91	215.89
389.29	215.85
389.66	215.88
390.04	215.83
390.42	215.86
390.79	215.85
391.17	215.81
391.55	215.58
391.92	215.58
392.30	215.63
392.68	215.57
393.05	215.54
393.43	215.55
393.81	215.56
394.18	215.51
394.56	215.51
394.94	215.56
395.31	215.58
395.69	215.62
396.06	215.66
396.44	215.69
396.82	215.70
397.19	215.84
397.57	215.82
397.95	215.89
398.32	215.84
398.70	215.90
399.07	215.98
399.45	216.02
399.82	216.02
400.20	216.08
400.58	216.16
400.95	216.15
401.33	216.26
401.70	216.48
402.08	216.59
402.45	216.69
402.83	216.82
403.20	216.92
403.58	217.01
403.95	217.15
404.33	217.31
404.71	217.45
405.08	217.70
405.46	217.91
405.83	218.11
406.21	218.31
406.58	218.52
406.96	218.70
407.33	218.98
407.70	219.32
408.08	219.76
408.45	220.09
408.83	220.48
409.20	220.86
409.58	221.13
409.95	221.56
410.33	222.00
410.70	222.44
411.08	222.98
411.45	223.56
411.82	224.15
412.20	224.84
412.57	225.68
412.95	226.25
413.32	227.09
413.69	227.90
414.07	228.79
414.44	229.80
414.82	230.86
415.19	232.01
415.56	233.18
415.94	234.34
416.31	235.70
416.68	237.09
417.06	238.62
417.43	240.16
417.81	241.94
418.18	243.72
418.55	245.65
418.93	247.64
419.30	249.72
419.67	251.94
420.04	254.20
420.42	256.57
420.79	259.37
421.16	262.11
421.54	264.99
421.91	267.92
422.28	270.94
422.66	274.18
423.03	277.44
423.40	280.77
423.77	284.34
424.15	287.98
424.52	291.76
424.89	295.93
425.26	299.95
425.64	303.80
426.01	308.06
426.38	312.46
426.75	316.97
427.13	321.64
427.50	326.54
427.87	331.69
428.24	336.84
428.61	341.77
428.99	347.24
429.36	353.16
429.73	359.01
430.10	364.86
430.47	370.87
430.85	377.07
431.22	383.67
431.59	390.68
431.96	397.41
432.33	404.84
432.70	412.03
433.08	420.46
433.45	428.38
433.82	436.25
434.19	445.04
434.56	453.63
434.93	461.94
435.30	470.09
435.68	479.08
436.05	488.02
436.42	496.81
436.79	504.86
437.16	513.53
437.53	522.75
437.90	531.81
438.27	540.70
438.64	549.84
439.01	558.32
439.38	565.87
439.75	573.17
440.13	581.51
440.50	589.29
440.87	595.70
441.24	602.30
441.61	609.64
441.98	614.98
442.35	621.23
442.72	627.38
443.09	633.38
443.46	637.07
443.83	639.54
444.20	641.72
444.57	644.82
444.94	646.32
445.31	647.72
445.68	649.13
446.05	649.70
446.42	648.87
446.79	647.88
447.16	646.77
447.53	645.94
447.90	642.67
448.27	639.41
448.64	634.75
449.01	631.44
449.37	625.52
449.74	619.93
450.11	613.11
450.48	605.85
450.85	598.50
451.22	592.11
451.59	585.99
451.96	580.25
452.33	572.44
452.70	565.41
453.07	557.02
453.43	548.46
453.80	540.18
454.17	532.32
454.54	524.86
454.91	516.78
455.28	508.95
455.65	501.55
456.02	494.18
456.38	487.92
456.75	480.17
457.12	473.73
457.49	467.28
457.86	461.18
458.23	455.88
458.59	450.02
458.96	444.08
459.33	438.80
459.70	433.44
460.07	429.24
460.43	424.35
460.80	419.80
461.17	415.87
461.54	411.72
461.91	407.76
462.27	403.73
462.64	400.35
463.01	396.56
463.38	392.91
463.74	389.23
464.11	386.00
464.48	383.19
464.85	380.12
465.21	377.71
465.58	375.07
465.95	371.92
466.32	369.36
466.68	366.78
467.05	364.29
467.42	361.82
467.78	359.19
468.15	356.71
468.52	354.86
468.88	352.37
469.25	350.26
469.62	348.47
469.98	346.50
470.35	344.69
470.72	343.05
471.08	341.30
471.45	339.82
471.82	338.34
472.18	336.69
472.55	335.49
472.92	334.11
473.28	332.93
473.65	331.82
474.02	330.74
474.38	329.88
474.75	329.09
475.11	328.26
475.48	327.67
475.85	327.24
476.21	326.70
476.58	326.37
476.94	326.13
477.31	325.86
477.67	325.63
478.04	325.52
478.41	325.46
478.77	325.63
479.14	325.63
479.50	325.79
479.87	326.10
480.23	326.43
480.60	326.68
480.96	327.02
481.33	327.59
481.69	328.13
482.06	328.67
482.42	329.20
482.79	329.78
483.15	330.57
483.52	331.47
483.88	332.43
484.25	333.36
484.61	334.34
484.98	335.40
485.34	336.71
485.71	338.06
486.07	339.55
486.44	340.87
486.80	342.47
487.17	344.13
487.53	345.98
487.90	347.88
488.26	349.94
488.62	352.03
488.99	354.07
489.35	356.21
489.72	358.57
490.08	361.04
490.44	363.62
490.81	366.36
491.17	369.09
491.54	372.04
491.90	375.12
492.26	378.39
492.63	381.77
492.99	385.28
493.36	388.98
493.72	392.81
494.08	396.84
494.45	401.06
494.81	405.49
495.17	409.97
495.54	414.72
495.90	419.55
496.26	424.52
496.63	429.77
496.99	435.20
497.35	440.80
497.72	446.67
498.08	452.62
498.44	458.74
498.80	465.20
499.17	471.70
499.53	478.39
499.89	485.36
500.26	492.36
500.62	499.51
500.98	506.96
501.34	514.53
501.71	522.40
502.07	530.25
502.43	538.26
502.79	546.43
503.16	554.81
503.52	563.47
503.88	572.20
504.24	581.17
504.60	590.31
504.97	599.63
505.33	608.99
505.69	618.96
506.05	628.87
506.41	638.73
506.78	648.86
507.14	659.24
507.50	669.67
507.86	680.49
508.22	691.24
508.59	701.96
508.95	713.10
509.31	724.40
509.67	736.01
510.03	747.50
510.39	759.33
510.75	771.22
511.12	783.24
511.48	795.45
511.84	807.76
512.20	820.17
512.56	832.85
512.92	845.74
513.28	858.47
513.64	871.38
514.00	884.33
514.37	897.35
514.73	910.54
515.09	923.72
515.45	936.75
515.81	950.06
516.17	963.57
516.53	976.86
516.89	990.03
517.25	1003.29
517.61	1016.87
517.97	1030.29
518.33	1043.48
518.69	1057.02
519.05	1070.87
519.41	1084.68
519.77	1098.64
520.13	1112.03
520.49	1125.34
520.85	1138.90
521.21	1152.29
521.57	1166.09
521.93	1179.44
522.29	1193.20
522.65	1206.95
523.01	1220.59
523.37	1233.79
523.73	1247.12
524.09	1260.40
524.45	1273.87
524.81	1287.42
525.17	1300.90
525.53	1314.15
525.89	1327.52
526.25	1340.70
526.61	1353.65
526.97	1366.90
527.33	1379.89
527.68	1393.37
528.04	1406.85
528.40	1419.94
528.76	1433.43
529.12	1446.31
529.48	1459.48
529.84	1471.88
530.20	1484.64
530.56	1497.39
530.91	1510.72
531.27	1523.68
531.63	1536.55
531.99	1549.36
532.35	1561.55
532.71	1573.97
533.07	1586.99
533.42	1599.36
533.78	1611.58
534.14	1623.62
534.50	1634.77
534.86	1646.49
535.21	1657.54
535.57	1669.14
535.93	1680.49
536.29	1691.47
536.65	1703.04
537.00	1714.20
537.36	1725.75
537.72	1736.85
538.08	1748.23
538.44	1759.22
538.79	1770.32
539.15	1781.19
539.51	1791.96
539.87	1803.46
540.22	1814.34
540.58	1825.27
540.94	1836.23
541.29	1846.59
541.65	1856.35
542.01	1866.95
542.37	1876.92
542.72	1887.09
543.08	1896.87
543.44	1907.35
543.79	1916.82
544.15	1926.15
544.51	1936.18
544.87	1946.01
545.22	1955.17
545.58	1964.03
545.94	1972.80
546.29	1981.32
546.65	1989.69
547.01	1997.93
547.36	2005.48
547.72	2013.34
548.07	2020.99
548.43	2028.75
548.79	2036.61
549.14	2044.87
549.50	2053.35
549.86	2061.37
550.21	2068.87
550.57	2076.52
550.92	2083.36
551.28	2090.92
551.64	2098.35
551.99	2105.75
552.35	2112.94
552.70	2119.76
553.06	2126.39
553.41	2132.76
553.77	2139.35
554.13	2145.68
554.48	2152.86
554.84	2160.11
555.19	2166.55
555.55	2173.08
555.90	2179.43
556.26	2186.20
556.61	2192.25
556.97	2197.25
557.32	2203.05
557.68	2209.47
558.03	2215.17
558.39	2220.43
558.74	2226.42
559.10	2231.98
559.45	2237.73
559.81	2243.20
560.16	2248.81
560.52	2254.74
560.87	2261.24
561.23	2267.14
561.58	2273.98
561.94	2279.12
562.29	2283.86
562.64	2289.99
563.00	2295.48
563.35	2301.04
563.71	2306.88
564.06	2312.64
564.42	2318.43
564.77	2323.50
565.12	2328.85
565.48	2334.25
565.83	2340.05
566.19	2345.44
566.54	2350.98
566.89	2355.57
567.25	2360.23
567.60	2366.08
567.96	2371.43
568.31	2376.09
568.66	2380.29
569.02	2384.24
569.37	2388.16
569.72	2392.66
570.08	2396.25
570.43	2399.46
570.78	2402.71
571.14	2405.26
571.49	2408.46
571.84	2412.24
572.20	2415.35
572.55	2418.37
572.90	2420.60
573.26	2423.38
573.61	2426.02
573.96	2428.25
574.31	2430.31
574.67	2432.15
575.02	2432.98
575.37	2434.44
575.72	2435.39
576.08	2437.17
576.43	2437.47
576.78	2437.99
577.13	2439.65
577.49	2440.94
577.84	2442.21
578.19	2443.53
578.54	2444.28
578.90	2445.21
579.25	2445.10
579.60	2445.14
579.95	2444.44
580.30	2444.75
580.66	2444.12
581.01	2442.52
581.36	2440.19
581.71	2438.97
582.06	2438.13
582.42	2437.46
582.77	2435.36
583.12	2433.64
583.47	2432.45
583.82	2431.95
584.17	2430.85
584.53	2428.89
584.88	2426.91
585.23	2425.01
585.58	2423.01
585.93	2421.06
586.28	2418.84
586.63	2416.48
586.98	2414.10
587.34	2412.28
587.69	2409.90
588.04	2407.98
588.39	2406.56
588.74	2404.16
589.09	2401.41
589.44	2398.31
589.79	2395.87
590.14	2393.92
590.49	2391.09
590.84	2387.18
591.19	2384.17
591.54	2380.95
591.89	2376.84
592.25	2373.62
592.60	2369.53
592.95	2365.42
593.30	2361.28
593.65	2357.01
594.00	2352.73
594.35	2349.90
594.70	2345.11
595.05	2340.58
595.40	2335.01
595.75	2329.48
596.10	2325.83
596.45	2320.94
596.80	2316.34
597.15	2311.03
597.50	2305.17
597.85	2300.30
598.19	2295.04
598.54	2289.21
598.89	2284.06
599.24	2279.49
599.59	2273.22
599.94	2267.39
600.29	2261.37
600.64	2255.46
600.99	2248.56
601.34	2243.04
601.69	2236.13
602.04	2229.75
602.39	2223.02
602.74	2216.99
603.08	2211.36
603.43	2204.82
603.78	2198.11
604.13	2191.01
604.48	2183.78
604.83	2177.71
605.18	2171.48
605.53	2164.52
605.87	2157.40
606.22	2150.56
606.57	2142.79
606.92	2134.93
607.27	2127.94
607.62	2121.31
607.96	2114.27
608.31	2107.80
608.66	2099.92
609.01	2092.14
609.36	2085.13
609.70	2077.41
610.05	2069.68
610.40	2061.29
610.75	2052.90
611.10	2045.14
611.44	2036.26
611.79	2027.45
612.14	2017.33
612.49	2006.59
612.83	1997.31
613.18	1988.02
613.53	1978.65
613.88	1968.86
614.22	1960.16
614.57	1950.23
614.92	1939.55
615.27	1929.27
615.61	1919.25
615.96	1909.52
616.31	1899.84
616.65	1890.38
617.00	1880.47
617.35	1870.70
617.70	1860.88
618.04	1850.85
618.39	1840.51
618.74	1830.81
619.08	1821.07
619.43	1812.38
619.78	1804.13
620.12	1795.48
620.47	1785.66
620.82	1775.11
621.16	1765.27
621.51	1755.20
621.85	1745.29
622.20	1734.79
622.55	1724.10
622.89	1713.92
623.24	1704.11
623.59	1694.28
623.93	1683.95
624.28	1674.22
624.62	1663.99
624.97	1653.61
625.32	1643.71
625.66	1634.80
626.01	1625.84
626.35	1616.42
626.70	1606.13
627.04	1595.83
627.39	1585.56
627.73	1576.24
628.08	1567.30
628.43	1557.68
628.77	1548.45
629.12	1539.49
629.46	1531.47
629.81	1523.00
630.15	1513.33
630.50	1503.36
630.84	1492.70
631.19	1482.74
631.53	1473.32
631.88	1463.02
632.22	1452.87
632.57	1443.40
632.91	1433.06
633.26	1423.08
633.60	1413.43
633.95	1404.06
634.29	1394.53
634.64	1385.02
634.98	1374.97
635.32	1365.45
635.67	1356.74
636.01	1347.29
636.36	1337.43
636.70	1327.83
637.05	1318.31
637.39	1309.31
637.73	1300.60
638.08	1293.05
638.42	1284.69
638.77	1275.65
639.11	1267.34
639.45	1259.49
639.80	1250.84
640.14	1242.16
640.49	1233.17
640.83	1224.15
641.17	1215.91
641.52	1207.67
641.86	1198.99
642.20	1190.99
642.55	1182.43
642.89	1173.55
643.23	1164.71
643.58	1156.46
643.92	1147.29
644.26	1138.60
644.61	1130.12
644.95	1121.33
645.29	1111.91
645.64	1102.63
645.98	1094.12
646.32	1086.01
646.66	1077.39
647.01	1068.94
647.35	1060.59
647.69	1052.12
648.04	1043.69
648.38	1034.62
648.72	1025.67
649.06	1017.02
649.41	1008.69
649.75	1000.53
650.09	992.46
650.43	984.35
650.78	975.94
651.12	968.18
651.46	960.65
651.80	953.22
652.14	945.71
652.49	938.09
652.83	930.66
653.17	922.84
653.51	915.14
653.85	907.73
654.20	900.32
654.54	892.74
654.88	885.49
655.22	878.25
655.56	871.18
655.90	864.35
656.25	857.70
656.59	850.71
656.93	843.56
657.27	836.36
657.61	829.31
657.95	823.12
658.29	817.17
658.64	811.00
658.98	804.45
659.32	797.82
659.66	791.49
660.00	785.12
660.34	779.03
660.68	772.78
661.02	766.44
661.36	760.50
661.70	754.56
662.05	748.83
662.39	743.27
662.73	737.84
663.07	732.32
663.41	726.57
663.75	720.77
664.09	715.08
664.43	709.61
664.77	704.26
665.11	698.37
665.45	692.34
665.79	686.43
666.13	680.62
666.47	675.02
666.81	669.56
667.15	664.13
667.49	658.83
667.83	653.61
668.17	648.28
668.51	643.05
668.85	638.18
669.19	633.16
669.53	628.09
669.87	622.88
670.21	618.17
670.55	613.40
670.89	608.97
671.23	604.67
671.57	600.18
671.91	595.87
672.25	591.69
672.58	587.55
672.92	583.42
673.26	579.52
673.60	575.70
673.94	571.84
674.28	568.11
674.62	564.29
674.96	560.46
675.30	556.89
675.64	553.20
675.97	549.52
676.31	545.86
676.65	542.19
676.99	538.73
677.33	534.79
677.67	531.11
678.01	527.18
678.34	523.40
678.68	519.83
679.02	516.15
679.36	512.42
679.70	508.70
680.04	505.09
680.37	501.62
680.71	498.24
681.05	495.01
681.39	491.77
681.73	488.60
682.06	485.55
682.40	482.45
682.74	479.17
683.08	475.92
683.42	472.76
683.75	469.77
684.09	466.71
684.43	463.90
684.77	460.93
685.10	458.04
685.44	455.17
685.78	452.25
686.12	449.51
686.45	446.70
686.79	444.01
687.13	441.50
687.46	438.80
687.80	436.08
688.14	433.20
688.48	430.50
688.81	427.83
689.15	425.24
689.49	422.57
689.82	420.02
690.16	417.40
690.50	414.92
690.83	412.35
691.17	409.76
691.51	407.20
691.84	404.95
692.18	402.71
692.52	400.46
692.85	398.30
693.19	396.07
693.52	393.90
693.86	391.65
694.20	389.36
694.53	387.28
694.87	385.05
695.21	382.91
695.54	380.75
695.88	378.52
696.21	376.28
696.55	374.12
696.88	372.07
697.22	370.11
697.56	368.18
697.89	366.34
698.23	364.60
698.56	362.82
698.90	361.05
699.23	359.15
699.57	357.24
699.90	355.34
700.24	353.50
700.58	351.74
700.91	350.09
701.25	348.57
701.58	346.92
701.92	345.32
702.25	343.70
702.59	342.09
702.92	340.56
703.26	338.99
703.59	337.51
703.93	336.21
704.26	334.71
704.60	333.19
704.93	331.67
705.26	330.16
705.60	328.67
705.93	327.08
706.27	325.76
706.60	324.52
706.94	323.29
707.27	321.91
707.61	320.57
707.94	319.21
708.27	317.68
708.61	316.21
708.94	314.85
709.28	313.58
709.61	312.29
709.94	311.12
710.28	309.89
710.61	308.67
710.95	307.28
711.28	306.24
711.61	305.08
711.95	303.93
712.28	302.71
712.61	301.55
712.95	300.50
713.28	299.44
713.61	298.28
713.95	297.12
714.28	296.08
714.61	295.05
714.95	293.98
715.28	292.99
715.61	291.94
715.95	290.99
716.28	290.00
716.61	289.02
716.95	287.98
717.28	287.07
717.61	286.12
717.94	285.21
718.28	284.18
718.61	283.32
718.94	282.40
719.27	281.56
719.61	280.72
719.94	279.86
720.27	278.89
720.60	278.03
720.94	277.24
721.27	276.50
721.60	275.79
721.93	275.08
722.27	274.41
722.60	273.77
722.93	273.04
723.26	272.37
723.59	271.68
723.93	271.06
724.26	270.39
724.59	269.76
724.92	269.16
725.25	268.63
725.59	268.04
725.92	267.53
726.25	266.97
726.58	266.39
726.91	265.78
727.24	265.24
727.57	264.68
727.91	264.03
728.24	263.49
728.57	262.86
728.90	262.31
729.23	261.65
729.56	261.20
729.89	260.65
730.22	260.10
730.55	259.58
730.89	258.99
731.22	258.47
731.55	257.95
731.88	257.41
732.21	256.78
732.54	256.22
732.87	255.72
733.20	255.21
733.53	254.75
733.86	254.30
734.19	253.81
734.52	253.43
734.85	253.15
735.18	252.65
735.51	252.28
735.84	251.86
736.17	251.50
736.50	250.95
736.83	250.79
737.16	250.40
737.49	249.99
737.82	249.59
738.15	249.21
738.48	248.80
738.81	248.43
739.14	248.09
739.47	247.70
739.80	247.29
740.13	246.99
740.46	246.56
740.79	246.16
741.12	245.81
741.45	245.37
741.78	244.96
742.11	244.67
742.44	244.27
742.77	243.95
743.10	243.59
743.43	243.28
743.75	242.71
744.08	242.62
744.41	242.28
744.74	241.96
745.07	241.57
745.40	241.30
745.73	241.05
746.06	240.69
746.39	240.41
746.71	240.05
747.04	239.69
747.37	239.35
747.70	239.09
748.03	238.77
748.36	238.50
748.68	238.14
749.01	237.78
749.34	237.46
749.67	237.17
750.00	236.93
750.33	236.76
750.65	236.55
750.98	236.02
751.31	235.80
751.64	235.55
751.97	235.44
752.29	235.15
752.62	234.77
752.95	234.53
753.28	234.25
753.60	234.04
753.93	233.86
754.26	233.65
754.59	233.35
754.91	233.12
755.24	232.87
755.57	232.65
755.90	232.43
756.22	232.19
756.55	231.96
756.88	231.69
757.20	231.36
757.53	231.09
757.86	230.86
758.19	230.62
758.51	230.43
758.84	230.10
759.17	229.89
759.49	229.77
759.82	229.68
760.15	229.51
760.47	229.30
760.80	229.03
761.13	228.88
761.45	228.71
761.78	228.50
762.11	228.35
762.43	228.15
762.76	227.97
763.08	227.84
763.41	227.66
763.74	227.53
764.06	227.35
764.39	227.19
764.71	227.04
765.04	226.89
765.37	226.72
765.69	226.56
766.02	226.44
766.34	226.25
766.67	226.06
767.00	225.96
767.32	225.93
767.65	225.92
767.97	225.80
768.30	225.71
768.62	225.61
768.95	225.45
769.27	225.36
769.60	225.29
769.92	225.14
770.25	224.97
770.57	224.82
770.90	224.69
771.22	224.55
771.55	224.42
771.87	224.33
772.20	224.18
772.52	224.28
772.85	224.44
773.17	224.35
773.50	224.20
773.82	224.03
774.15	223.84
774.47	223.61
774.80	223.46
775.12	223.35
775.45	223.27
775.77	223.20
776.09	223.10
776.42	222.99
776.74	222.97
777.07	222.88
777.39	222.80
777.72	222.75
778.04	222.68
778.36	222.58
778.69	222.51
779.01	222.45
779.33	222.17
779.66	221.82
779.98	221.70
780.31	221.62
780.63	221.62
780.95	221.60
781.28	221.53
781.60	221.47
781.92	221.40
782.25	221.31
782.57	221.26
782.89	221.18
783.22	221.10
783.54	221.00
783.86	220.96
784.19	220.93
784.51	220.87
784.83	220.82
785.16	220.77
785.48	220.71
785.80	220.67
786.12	220.64
