SpectraSuite Data File
++++++++++++++++++++++++++++++++++++
Date: Tue Jan 29 16:22:53 EST 2013
User: group
Dark Spectrum Present: No
Reference Spectrum Present: No
Number of Sampled Component Spectra: 1
Spectrometers: USB2E7196
Integration Time (usec): 65000 (USB2E7196)
Spectra Averaged: 100 (USB2E7196)
Boxcar Smoothing: 10 (USB2E7196)
Correct for Electrical Dark: No (USB2E7196)
Strobe/Lamp Enabled: No (USB2E7196)
Correct for Detector Non-linearity: No (USB2E7196)
Correct for Stray Light: No (USB2E7196)
Number of Pixels in Processed Spectrum: 2048
>>>>>Begin Processed Spectral Data<<<<<
339.09	0.00
339.48	201.79
339.86	203.81
340.24	204.55
340.63	206.67
341.01	210.28
341.39	208.60
341.78	210.60
342.16	211.43
342.54	212.62
342.93	201.27
343.31	211.46
343.69	212.01
344.07	212.47
344.46	212.95
344.84	213.36
345.22	213.54
345.60	213.86
345.99	214.05
346.37	214.21
346.75	214.32
347.13	214.38
347.52	214.45
347.90	214.58
348.28	214.66
348.66	214.74
349.05	214.73
349.43	214.78
349.81	214.83
350.19	214.87
350.57	214.95
350.96	215.02
351.34	215.11
351.72	215.19
352.10	215.31
352.48	215.38
352.87	215.40
353.25	215.50
353.63	215.54
354.01	215.63
354.39	215.72
354.77	215.78
355.15	215.91
355.54	215.98
355.92	215.99
356.30	216.03
356.68	216.22
357.06	216.29
357.44	216.35
357.82	216.42
358.20	216.54
358.58	216.64
358.97	216.75
359.35	216.85
359.73	216.97
360.11	217.01
360.49	217.05
360.87	217.11
361.25	217.18
361.63	217.31
362.01	217.35
362.39	217.36
362.77	217.45
363.15	217.48
363.53	217.55
363.91	217.58
364.29	217.63
364.67	217.48
365.05	217.53
365.43	217.56
365.81	217.61
366.19	217.68
366.57	217.77
366.95	217.75
367.33	217.71
367.71	217.74
368.09	217.78
368.47	217.78
368.85	217.77
369.23	217.79
369.61	217.70
369.99	217.76
370.37	217.78
370.75	217.84
371.13	217.79
371.51	217.73
371.89	217.72
372.27	217.75
372.65	217.71
373.03	217.66
373.41	217.58
373.78	217.56
374.16	217.46
374.54	217.33
374.92	217.30
375.30	217.25
375.68	217.12
376.06	217.10
376.44	217.04
376.82	217.03
377.19	216.98
377.57	216.91
377.95	216.79
378.33	216.71
378.71	216.55
379.09	216.54
379.47	216.48
379.84	216.40
380.22	216.30
380.60	216.21
380.98	216.19
381.36	216.18
381.73	216.10
382.11	216.05
382.49	216.04
382.87	215.95
383.25	215.94
383.62	216.17
384.00	216.09
384.38	216.07
384.76	216.07
385.13	216.12
385.51	216.09
385.89	216.04
386.27	216.01
386.64	216.01
387.02	215.94
387.40	215.89
387.78	215.87
388.15	215.87
388.53	215.87
388.91	215.81
389.29	215.77
389.66	215.75
390.04	215.70
390.42	215.69
390.79	215.70
391.17	215.67
391.55	215.41
391.92	215.40
392.30	215.42
392.68	215.35
393.05	215.30
393.43	215.30
393.81	215.33
394.18	215.33
394.56	215.33
394.94	215.36
395.31	215.35
395.69	215.41
396.06	215.43
396.44	215.45
396.82	215.45
397.19	215.58
397.57	215.57
397.95	215.63
398.32	215.59
398.70	215.64
399.07	215.74
399.45	215.81
399.82	215.84
400.20	215.85
400.58	215.92
400.95	215.86
401.33	215.99
401.70	216.18
402.08	216.28
402.45	216.37
402.83	216.50
403.20	216.66
403.58	216.75
403.95	216.95
404.33	217.12
404.71	217.26
405.08	217.53
405.46	217.74
405.83	217.91
406.21	218.14
406.58	218.37
406.96	218.56
407.33	218.79
407.70	219.09
408.08	219.57
408.45	219.91
408.83	220.32
409.20	220.64
409.58	220.93
409.95	221.39
410.33	221.89
410.70	222.35
411.08	222.88
411.45	223.47
411.82	223.99
412.20	224.65
412.57	225.47
412.95	226.00
413.32	226.84
413.69	227.71
414.07	228.63
414.44	229.59
414.82	230.60
415.19	231.77
415.56	232.94
415.94	234.13
416.31	235.55
416.68	236.95
417.06	238.56
417.43	240.11
417.81	241.86
418.18	243.61
418.55	245.52
418.93	247.57
419.30	249.62
419.67	251.85
420.04	254.11
420.42	256.46
420.79	259.28
421.16	262.05
421.54	264.90
421.91	267.83
422.28	270.92
422.66	274.21
423.03	277.47
423.40	280.80
423.77	284.37
424.15	288.01
424.52	291.79
424.89	295.91
425.26	299.95
425.64	303.78
426.01	308.05
426.38	312.52
426.75	317.02
427.13	321.75
427.50	326.66
427.87	331.84
428.24	337.03
428.61	341.98
428.99	347.42
429.36	353.37
429.73	359.25
430.10	365.05
430.47	371.02
430.85	377.30
431.22	384.01
431.59	391.05
431.96	397.81
432.33	405.27
432.70	412.52
433.08	420.95
433.45	428.94
433.82	436.94
434.19	445.68
434.56	454.28
434.93	462.46
435.30	470.71
435.68	479.78
436.05	488.68
436.42	497.52
436.79	505.66
437.16	514.38
437.53	523.62
437.90	532.78
438.27	541.78
438.64	550.94
439.01	559.41
439.38	566.89
439.75	574.17
440.13	582.50
440.50	590.34
440.87	596.75
441.24	603.36
441.61	610.58
441.98	615.99
442.35	622.23
442.72	628.56
443.09	634.55
443.46	638.23
443.83	640.73
444.20	642.87
444.57	645.98
444.94	647.44
445.31	648.83
445.68	650.10
446.05	650.62
446.42	649.75
446.79	648.73
447.16	647.61
447.53	646.82
447.90	643.56
448.27	640.32
448.64	635.64
449.01	632.30
449.37	626.39
449.74	620.72
450.11	613.84
450.48	606.51
450.85	599.12
451.22	592.71
451.59	586.61
451.96	580.81
452.33	572.92
452.70	565.81
453.07	557.37
453.43	548.90
453.80	540.64
454.17	532.75
454.54	525.24
454.91	517.20
455.28	509.31
455.65	501.94
456.02	494.45
456.38	488.21
456.75	480.44
457.12	473.90
457.49	467.46
457.86	461.39
458.23	456.01
458.59	450.10
458.96	444.14
459.33	438.88
459.70	433.64
460.07	429.47
460.43	424.64
460.80	420.10
461.17	416.12
461.54	412.00
461.91	408.02
462.27	403.99
462.64	400.58
463.01	396.80
463.38	393.11
463.74	389.44
464.11	386.21
464.48	383.38
464.85	380.39
465.21	377.95
465.58	375.35
465.95	372.25
466.32	369.65
466.68	367.09
467.05	364.50
467.42	361.93
467.78	359.25
468.15	356.71
468.52	354.80
468.88	352.35
469.25	350.16
469.62	348.32
469.98	346.38
470.35	344.59
470.72	342.89
471.08	341.14
471.45	339.64
471.82	338.15
472.18	336.51
472.55	335.32
472.92	333.93
473.28	332.73
473.65	331.59
474.02	330.54
474.38	329.65
474.75	328.91
475.11	328.09
475.48	327.56
475.85	327.08
476.21	326.62
476.58	326.25
476.94	325.98
477.31	325.75
477.67	325.53
478.04	325.37
478.41	325.37
478.77	325.54
479.14	325.52
479.50	325.65
479.87	325.92
480.23	326.23
480.60	326.55
480.96	326.85
481.33	327.49
481.69	328.07
482.06	328.56
482.42	329.01
482.79	329.63
483.15	330.39
483.52	331.38
483.88	332.26
484.25	333.20
484.61	334.21
484.98	335.27
485.34	336.55
485.71	337.92
486.07	339.35
486.44	340.67
486.80	342.29
487.17	343.96
487.53	345.83
487.90	347.67
488.26	349.66
488.62	351.84
488.99	353.83
489.35	355.95
489.72	358.36
490.08	360.91
490.44	363.48
490.81	366.21
491.17	368.92
491.54	371.95
491.90	375.01
492.26	378.32
492.63	381.75
492.99	385.26
493.36	388.97
493.72	392.89
494.08	396.91
494.45	401.13
494.81	405.51
495.17	409.98
495.54	414.72
495.90	419.59
496.26	424.52
496.63	429.78
496.99	435.23
497.35	440.87
497.72	446.75
498.08	452.73
498.44	458.87
498.80	465.31
499.17	471.85
499.53	478.61
499.89	485.48
500.26	492.48
500.62	499.57
500.98	507.02
501.34	514.50
501.71	522.39
502.07	530.26
502.43	538.27
502.79	546.46
503.16	554.93
503.52	563.58
503.88	572.32
504.24	581.36
504.60	590.45
504.97	599.67
505.33	609.00
505.69	618.89
506.05	628.83
506.41	638.79
506.78	648.94
507.14	659.24
507.50	669.85
507.86	680.67
508.22	691.53
508.59	702.28
508.95	713.48
509.31	724.76
509.67	736.38
510.03	747.92
510.39	759.74
510.75	771.64
511.12	783.63
511.48	795.79
511.84	808.13
512.20	820.56
512.56	833.35
512.92	846.25
513.28	859.04
513.64	871.96
514.00	884.96
514.37	897.98
514.73	911.23
515.09	924.29
515.45	937.30
515.81	950.55
516.17	964.09
516.53	977.39
516.89	990.63
517.25	1003.83
517.61	1017.55
517.97	1031.05
518.33	1044.23
518.69	1057.92
519.05	1071.86
519.41	1085.65
519.77	1099.70
520.13	1113.08
520.49	1126.33
520.85	1139.86
521.21	1153.19
521.57	1166.90
521.93	1180.09
522.29	1193.95
522.65	1207.71
523.01	1221.49
523.37	1234.72
523.73	1248.12
524.09	1261.45
524.45	1274.93
524.81	1288.60
525.17	1301.96
525.53	1315.22
525.89	1328.73
526.25	1341.87
526.61	1354.84
526.97	1367.99
527.33	1380.95
527.68	1394.51
528.04	1408.19
528.40	1421.28
528.76	1434.80
529.12	1447.75
529.48	1461.20
529.84	1473.40
530.20	1486.25
530.56	1498.83
530.91	1512.23
531.27	1525.14
531.63	1537.99
531.99	1550.96
532.35	1563.20
532.71	1575.60
533.07	1588.58
533.42	1600.94
533.78	1613.28
534.14	1625.53
534.50	1636.85
534.86	1648.60
535.21	1659.54
535.57	1671.09
535.93	1682.46
536.29	1693.53
536.65	1704.94
537.00	1715.89
537.36	1727.40
537.72	1738.43
538.08	1749.94
538.44	1760.92
538.79	1772.07
539.15	1782.94
539.51	1793.67
539.87	1805.04
540.22	1815.99
540.58	1826.96
540.94	1837.84
541.29	1848.16
541.65	1857.82
542.01	1868.52
542.37	1878.63
542.72	1888.89
543.08	1898.71
543.44	1909.43
543.79	1918.86
544.15	1928.53
544.51	1938.52
544.87	1948.58
545.22	1957.76
545.58	1966.61
545.94	1975.47
546.29	1983.94
546.65	1992.44
547.01	2000.70
547.36	2008.41
547.72	2016.17
548.07	2023.88
548.43	2031.67
548.79	2039.41
549.14	2047.64
549.50	2056.06
549.86	2063.92
550.21	2071.32
550.57	2078.96
550.92	2085.63
551.28	2093.16
551.64	2100.45
551.99	2108.03
552.35	2115.12
552.70	2122.05
553.06	2128.80
553.41	2135.20
553.77	2141.75
554.13	2148.23
554.48	2155.32
554.84	2162.52
555.19	2169.08
555.55	2175.43
555.90	2181.72
556.26	2188.73
556.61	2194.73
556.97	2199.50
557.32	2205.25
557.68	2211.79
558.03	2217.68
558.39	2223.04
558.74	2229.04
559.10	2234.60
559.45	2240.21
559.81	2245.78
560.16	2251.57
560.52	2257.44
560.87	2263.92
561.23	2270.02
561.58	2276.66
561.94	2281.87
562.29	2286.64
562.64	2292.88
563.00	2298.81
563.35	2304.59
563.71	2310.31
564.06	2315.98
564.42	2321.95
564.77	2327.21
565.12	2332.44
565.48	2337.57
565.83	2343.22
566.19	2348.63
566.54	2354.14
566.89	2358.79
567.25	2363.55
567.60	2369.22
567.96	2374.44
568.31	2378.92
568.66	2383.29
569.02	2387.36
569.37	2391.30
569.72	2395.75
570.08	2399.27
570.43	2402.27
570.78	2405.42
571.14	2407.98
571.49	2411.24
571.84	2414.90
572.20	2417.89
572.55	2420.92
572.90	2423.32
573.26	2426.17
573.61	2428.94
573.96	2431.19
574.31	2433.37
574.67	2435.26
575.02	2436.08
575.37	2437.49
575.72	2438.37
576.08	2439.95
576.43	2440.06
576.78	2440.64
577.13	2442.17
577.49	2443.43
577.84	2444.59
578.19	2445.81
578.54	2446.54
578.90	2447.40
579.25	2447.44
579.60	2447.46
579.95	2446.85
580.30	2447.02
580.66	2446.55
581.01	2444.94
581.36	2442.66
581.71	2441.40
582.06	2440.42
582.42	2439.61
582.77	2437.58
583.12	2435.97
583.47	2434.45
583.82	2434.03
584.17	2432.78
584.53	2430.90
584.88	2429.03
585.23	2427.23
585.58	2425.19
585.93	2423.24
586.28	2421.16
586.63	2418.65
586.98	2416.58
587.34	2414.77
587.69	2412.49
588.04	2410.37
588.39	2408.87
588.74	2406.38
589.09	2403.61
589.44	2400.43
589.79	2398.12
590.14	2396.24
590.49	2393.55
590.84	2389.81
591.19	2386.60
591.54	2383.40
591.89	2379.26
592.25	2376.03
592.60	2371.93
592.95	2367.81
593.30	2363.80
593.65	2359.47
594.00	2355.14
594.35	2352.14
594.70	2347.38
595.05	2342.73
595.40	2337.23
595.75	2331.53
596.10	2327.91
596.45	2323.10
596.80	2318.54
597.15	2313.22
597.50	2307.33
597.85	2302.48
598.19	2297.30
598.54	2291.53
598.89	2286.30
599.24	2281.72
599.59	2275.43
599.94	2269.52
600.29	2263.44
600.64	2257.41
600.99	2250.47
601.34	2244.91
601.69	2237.82
602.04	2231.48
602.39	2224.82
602.74	2218.81
603.08	2213.35
603.43	2206.82
603.78	2200.05
604.13	2193.00
604.48	2185.57
604.83	2179.45
605.18	2173.14
605.53	2166.25
605.87	2159.28
606.22	2152.46
606.57	2144.62
606.92	2136.72
607.27	2129.73
607.62	2123.13
607.96	2116.24
608.31	2109.84
608.66	2102.21
609.01	2094.51
609.36	2087.39
609.70	2079.68
610.05	2071.78
610.40	2063.39
610.75	2054.97
611.10	2047.05
611.44	2038.07
611.79	2029.46
612.14	2019.41
612.49	2008.70
612.83	1999.30
613.18	1989.82
613.53	1980.37
613.88	1970.75
614.22	1961.94
614.57	1952.09
614.92	1941.46
615.27	1931.02
615.61	1920.83
615.96	1911.00
616.31	1901.35
616.65	1891.80
617.00	1881.92
617.35	1872.12
617.70	1862.13
618.04	1852.11
618.39	1841.86
618.74	1832.05
619.08	1822.30
619.43	1813.51
619.78	1805.05
620.12	1796.31
620.47	1786.71
620.82	1776.23
621.16	1766.26
621.51	1756.31
621.85	1746.22
622.20	1735.73
622.55	1725.08
622.89	1714.94
623.24	1705.19
623.59	1695.27
623.93	1685.00
624.28	1675.18
624.62	1665.00
624.97	1654.67
625.32	1644.76
625.66	1635.75
626.01	1626.88
626.35	1617.38
626.70	1607.01
627.04	1596.84
627.39	1586.61
627.73	1577.20
628.08	1568.32
628.43	1558.68
628.77	1549.28
629.12	1540.30
629.46	1532.48
629.81	1523.98
630.15	1514.46
630.50	1504.51
630.84	1493.96
631.19	1483.96
631.53	1474.57
631.88	1464.28
632.22	1454.17
632.57	1444.62
632.91	1434.37
633.26	1424.40
633.60	1414.73
633.95	1405.53
634.29	1395.99
634.64	1386.54
634.98	1376.42
635.32	1366.90
635.67	1358.40
636.01	1349.00
636.36	1339.22
636.70	1329.44
637.05	1319.96
637.39	1310.92
637.73	1302.22
638.08	1294.59
638.42	1286.31
638.77	1277.35
639.11	1269.02
639.45	1261.19
639.80	1252.59
640.14	1243.66
640.49	1234.70
640.83	1225.74
641.17	1217.42
641.52	1209.19
641.86	1200.44
642.20	1192.49
642.55	1183.73
642.89	1174.61
643.23	1165.87
643.58	1157.53
643.92	1148.33
644.26	1139.49
644.61	1130.92
644.95	1121.85
645.29	1112.41
645.64	1103.09
645.98	1094.38
646.32	1086.34
646.66	1077.63
647.01	1069.13
647.35	1060.96
647.69	1052.58
648.04	1044.19
648.38	1035.16
648.72	1026.20
649.06	1017.68
649.41	1009.36
649.75	1001.33
650.09	993.36
650.43	985.27
650.78	976.90
651.12	969.13
651.46	961.55
651.80	954.16
652.14	946.82
652.49	939.14
652.83	931.69
653.17	924.01
653.51	916.30
653.85	908.92
654.20	901.55
654.54	894.08
654.88	886.64
655.22	879.37
655.56	872.30
655.90	865.42
656.25	858.60
656.59	851.58
656.93	844.49
657.27	837.38
657.61	830.27
657.95	824.14
658.29	818.09
658.64	812.00
658.98	805.43
659.32	798.86
659.66	792.56
660.00	786.12
660.34	779.95
660.68	773.82
661.02	767.49
661.36	761.53
661.70	755.62
662.05	749.91
662.39	744.39
662.73	738.91
663.07	733.40
663.41	727.72
663.75	722.00
664.09	716.17
664.43	710.61
664.77	705.15
665.11	699.19
665.45	693.31
665.79	687.34
666.13	681.65
666.47	676.10
666.81	670.64
667.15	665.24
667.49	659.92
667.83	654.52
668.17	649.20
668.51	643.98
668.85	638.97
669.19	633.97
669.53	628.84
669.87	623.62
670.21	618.86
670.55	614.07
670.89	609.56
671.23	605.27
671.57	600.82
671.91	596.53
672.25	592.29
672.58	588.12
672.92	584.04
673.26	579.98
673.60	576.00
673.94	572.12
674.28	568.41
674.62	564.66
674.96	560.95
675.30	557.37
675.64	553.65
675.97	549.97
676.31	546.34
676.65	542.67
676.99	539.22
677.33	535.31
677.67	531.67
678.01	527.74
678.34	524.04
678.68	520.46
679.02	516.83
679.36	513.17
679.70	509.47
680.04	505.80
680.37	502.32
680.71	498.88
681.05	495.62
681.39	492.27
681.73	489.03
682.06	485.94
682.40	482.78
682.74	479.55
683.08	476.35
683.42	473.18
683.75	470.17
684.09	467.09
684.43	464.27
684.77	461.30
685.10	458.45
685.44	455.49
685.78	452.51
686.12	449.69
686.45	446.89
686.79	444.12
687.13	441.62
687.46	438.96
687.80	436.28
688.14	433.44
688.48	430.81
688.81	428.12
689.15	425.43
689.49	422.83
689.82	420.27
690.16	417.63
690.50	415.11
690.83	412.56
691.17	410.01
691.51	407.46
691.84	405.21
692.18	402.95
692.52	400.70
692.85	398.53
693.19	396.33
693.52	394.15
693.86	391.94
694.20	389.73
694.53	387.59
694.87	385.41
695.21	383.25
695.54	381.05
695.88	378.89
696.21	376.68
696.55	374.51
696.88	372.41
697.22	370.43
697.56	368.59
697.89	366.66
698.23	364.90
698.56	363.14
698.90	361.28
699.23	359.36
699.57	357.47
699.90	355.60
700.24	353.78
700.58	352.05
700.91	350.35
701.25	348.75
701.58	347.13
701.92	345.47
702.25	343.86
702.59	342.24
702.92	340.68
703.26	339.11
703.59	337.60
703.93	336.32
704.26	334.90
704.60	333.34
704.93	331.86
705.26	330.30
705.60	328.79
705.93	327.27
706.27	325.88
706.60	324.57
706.94	323.33
707.27	321.96
707.61	320.56
707.94	319.19
708.27	317.69
708.61	316.23
708.94	314.89
709.28	313.58
709.61	312.30
709.94	311.12
710.28	309.90
710.61	308.68
710.95	307.26
711.28	306.13
711.61	304.91
711.95	303.79
712.28	302.61
712.61	301.44
712.95	300.34
713.28	299.31
713.61	298.18
713.95	297.00
714.28	295.97
714.61	294.88
714.95	293.84
715.28	292.81
715.61	291.81
715.95	290.82
716.28	289.86
716.61	288.91
716.95	287.87
717.28	286.95
717.61	286.00
717.94	285.10
718.28	284.04
718.61	283.17
718.94	282.26
719.27	281.42
719.61	280.59
719.94	279.76
720.27	278.82
720.60	277.97
720.94	277.20
721.27	276.42
721.60	275.76
721.93	275.03
722.27	274.37
722.60	273.66
722.93	272.98
723.26	272.32
723.59	271.60
723.93	270.95
724.26	270.29
724.59	269.64
724.92	269.04
725.25	268.51
725.59	267.91
725.92	267.37
726.25	266.78
726.58	266.18
726.91	265.59
727.24	265.03
727.57	264.46
727.91	263.82
728.24	263.23
728.57	262.65
728.90	262.14
729.23	261.49
729.56	261.07
729.89	260.51
730.22	259.88
730.55	259.39
730.89	258.87
731.22	258.35
731.55	257.83
731.88	257.28
732.21	256.74
732.54	256.21
732.87	255.70
733.20	255.22
733.53	254.74
733.86	254.28
734.19	253.76
734.52	253.35
734.85	253.10
735.18	252.64
735.51	252.23
735.84	251.77
736.17	251.42
736.50	250.86
736.83	250.70
737.16	250.37
737.49	249.99
737.82	249.57
738.15	249.17
738.48	248.80
738.81	248.41
739.14	247.99
739.47	247.59
739.80	247.18
740.13	246.86
740.46	246.46
740.79	246.06
741.12	245.72
741.45	245.31
741.78	244.83
742.11	244.55
742.44	244.16
742.77	243.88
743.10	243.52
743.43	243.19
743.75	242.59
744.08	242.51
744.41	242.12
744.74	241.78
745.07	241.43
745.40	241.11
745.73	240.88
746.06	240.58
746.39	240.31
746.71	239.98
747.04	239.59
747.37	239.27
747.70	239.02
748.03	238.75
748.36	238.45
748.68	238.17
749.01	237.80
749.34	237.50
749.67	237.20
750.00	236.91
750.33	236.76
750.65	236.55
750.98	236.04
751.31	235.81
751.64	235.59
751.97	235.45
752.29	235.20
752.62	234.81
752.95	234.49
753.28	234.21
753.60	233.96
753.93	233.81
754.26	233.58
754.59	233.31
754.91	233.04
755.24	232.83
755.57	232.56
755.90	232.37
756.22	232.16
756.55	231.89
756.88	231.65
757.20	231.31
757.53	231.03
757.86	230.82
758.19	230.62
758.51	230.38
758.84	230.06
759.17	229.84
759.49	229.71
759.82	229.67
760.15	229.51
760.47	229.33
760.80	229.05
761.13	228.94
761.45	228.73
761.78	228.54
762.11	228.37
762.43	228.17
762.76	227.95
763.08	227.78
763.41	227.63
763.74	227.49
764.06	227.35
764.39	227.23
764.71	227.04
765.04	226.86
765.37	226.70
765.69	226.56
766.02	226.45
766.34	226.27
766.67	226.05
767.00	225.92
767.32	225.93
767.65	225.90
767.97	225.73
768.30	225.60
768.62	225.47
768.95	225.32
769.27	225.24
769.60	225.14
769.92	224.98
770.25	224.83
770.57	224.67
770.90	224.54
771.22	224.39
771.55	224.30
771.87	224.23
772.20	224.11
772.52	224.14
772.85	224.26
773.17	224.18
773.50	224.05
773.82	223.93
774.15	223.70
774.47	223.51
774.80	223.35
775.12	223.27
775.45	223.16
775.77	223.09
776.09	222.99
776.42	222.91
776.74	222.89
777.07	222.77
777.39	222.68
777.72	222.60
778.04	222.53
778.36	222.41
778.69	222.27
779.01	222.26
779.33	222.04
779.66	221.71
779.98	221.63
780.31	221.58
780.63	221.61
780.95	221.53
781.28	221.46
781.60	221.42
781.92	221.35
782.25	221.29
782.57	221.20
782.89	221.14
783.22	221.05
783.54	220.97
783.86	220.96
784.19	220.90
784.51	220.88
784.83	220.81
785.16	220.75
785.48	220.74
785.80	220.58
786.12	220.55
