SpectraSuite Data File
++++++++++++++++++++++++++++++++++++
Date: Tue Jan 29 16:40:37 EST 2013
User: group
Dark Spectrum Present: No
Reference Spectrum Present: No
Number of Sampled Component Spectra: 1
Spectrometers: USB2E7196
Integration Time (usec): 65000 (USB2E7196)
Spectra Averaged: 100 (USB2E7196)
Boxcar Smoothing: 10 (USB2E7196)
Correct for Electrical Dark: No (USB2E7196)
Strobe/Lamp Enabled: No (USB2E7196)
Correct for Detector Non-linearity: No (USB2E7196)
Correct for Stray Light: No (USB2E7196)
Number of Pixels in Processed Spectrum: 2048
>>>>>Begin Processed Spectral Data<<<<<
339.09	0.00
339.48	201.83
339.86	203.68
340.24	204.51
340.63	205.69
341.01	210.63
341.39	208.66
341.78	210.20
342.16	211.94
342.54	211.86
342.93	201.16
343.31	211.30
343.69	211.86
344.07	212.32
344.46	212.76
344.84	213.19
345.22	213.35
345.60	213.64
345.99	213.84
346.37	213.97
346.75	214.08
347.13	214.12
347.52	214.17
347.90	214.28
348.28	214.31
348.66	214.38
349.05	214.35
349.43	214.37
349.81	214.46
350.19	214.47
350.57	214.50
350.96	214.60
351.34	214.74
351.72	214.82
352.10	214.90
352.48	214.95
352.87	215.00
353.25	215.07
353.63	215.11
354.01	215.17
354.39	215.26
354.77	215.34
355.15	215.50
355.54	215.57
355.92	215.58
356.30	215.68
356.68	215.88
357.06	215.96
357.44	216.05
357.82	216.07
358.20	216.18
358.58	216.27
358.97	216.32
359.35	216.42
359.73	216.55
360.11	216.61
360.49	216.72
360.87	216.78
361.25	216.87
361.63	216.98
362.01	217.03
362.39	217.02
362.77	217.08
363.15	217.08
363.53	217.13
363.91	217.13
364.29	217.12
364.67	216.95
365.05	216.97
365.43	217.00
365.81	217.05
366.19	217.18
366.57	217.28
366.95	217.32
367.33	217.25
367.71	217.21
368.09	217.30
368.47	217.29
368.85	217.27
369.23	217.30
369.61	217.22
369.99	217.31
370.37	217.35
370.75	217.43
371.13	217.35
371.51	217.29
371.89	217.28
372.27	217.29
372.65	217.25
373.03	217.23
373.41	217.21
373.78	217.20
374.16	217.03
374.54	216.93
374.92	216.85
375.30	216.83
375.68	216.77
376.06	216.68
376.44	216.62
376.82	216.58
377.19	216.54
377.57	216.49
377.95	216.34
378.33	216.26
378.71	216.10
379.09	216.11
379.47	216.08
379.84	216.02
380.22	215.97
380.60	215.94
380.98	215.88
381.36	215.81
381.73	215.69
382.11	215.71
382.49	215.66
382.87	215.59
383.25	215.55
383.62	215.72
384.00	215.67
384.38	215.64
384.76	215.66
385.13	215.68
385.51	215.66
385.89	215.63
386.27	215.61
386.64	215.61
387.02	215.55
387.40	215.52
387.78	215.54
388.15	215.50
388.53	215.43
388.91	215.40
389.29	215.37
389.66	215.39
390.04	215.32
390.42	215.36
390.79	215.37
391.17	215.36
391.55	215.13
391.92	215.11
392.30	215.13
392.68	215.07
393.05	215.04
393.43	215.04
393.81	215.06
394.18	215.01
394.56	215.04
394.94	215.11
395.31	215.07
395.69	215.12
396.06	215.17
396.44	215.23
396.82	215.25
397.19	215.38
397.57	215.40
397.95	215.48
398.32	215.43
398.70	215.47
399.07	215.53
399.45	215.58
399.82	215.62
400.20	215.64
400.58	215.71
400.95	215.68
401.33	215.79
401.70	216.00
402.08	216.10
402.45	216.17
402.83	216.30
403.20	216.40
403.58	216.49
403.95	216.63
404.33	216.76
404.71	216.89
405.08	217.16
405.46	217.35
405.83	217.51
406.21	217.73
406.58	218.00
406.96	218.22
407.33	218.46
407.70	218.77
408.08	219.23
408.45	219.58
408.83	219.98
409.20	220.29
409.58	220.58
409.95	221.06
410.33	221.53
410.70	221.94
411.08	222.55
411.45	223.13
411.82	223.72
412.20	224.44
412.57	225.31
412.95	225.85
413.32	226.67
413.69	227.53
414.07	228.45
414.44	229.41
414.82	230.44
415.19	231.66
415.56	232.87
415.94	234.06
416.31	235.48
416.68	236.90
417.06	238.55
417.43	240.08
417.81	241.79
418.18	243.62
418.55	245.57
418.93	247.55
419.30	249.64
419.67	251.89
420.04	254.18
420.42	256.54
420.79	259.40
421.16	262.19
421.54	265.07
421.91	268.07
422.28	271.21
422.66	274.51
423.03	277.75
423.40	281.11
423.77	284.71
424.15	288.39
424.52	292.24
424.89	296.42
425.26	300.52
425.64	304.46
426.01	308.70
426.38	313.20
426.75	317.82
427.13	322.56
427.50	327.54
427.87	332.75
428.24	337.96
428.61	342.95
428.99	348.50
429.36	354.55
429.73	360.48
430.10	366.33
430.47	372.40
430.85	378.77
431.22	385.53
431.59	392.65
431.96	399.48
432.33	406.98
432.70	414.23
433.08	422.76
433.45	430.87
433.82	438.88
434.19	447.78
434.56	456.49
434.93	464.91
435.30	473.21
435.68	482.35
436.05	491.38
436.42	500.31
436.79	508.49
437.16	517.31
437.53	526.64
437.90	535.94
438.27	544.91
438.64	554.14
439.01	562.69
439.38	570.26
439.75	577.60
440.13	586.08
440.50	594.12
440.87	600.63
441.24	607.26
441.61	614.68
441.98	620.09
442.35	626.47
442.72	632.81
443.09	638.93
443.46	642.63
443.83	645.17
444.20	647.31
444.57	650.46
444.94	651.87
445.31	653.33
445.68	654.59
446.05	655.25
446.42	654.46
446.79	653.45
447.16	652.42
447.53	651.66
447.90	648.35
448.27	645.00
448.64	640.33
449.01	637.01
449.37	631.12
449.74	625.46
450.11	618.53
450.48	611.13
450.85	603.64
451.22	597.23
451.59	591.08
451.96	585.27
452.33	577.38
452.70	570.29
453.07	561.75
453.43	553.13
453.80	544.81
454.17	536.77
454.54	529.26
454.91	521.02
455.28	512.99
455.65	505.52
456.02	498.04
456.38	491.66
456.75	483.79
457.12	477.15
457.49	470.59
457.86	464.35
458.23	458.88
458.59	452.91
458.96	446.87
459.33	441.55
459.70	436.20
460.07	431.90
460.43	426.95
460.80	422.35
461.17	418.33
461.54	414.11
461.91	410.11
462.27	405.97
462.64	402.57
463.01	398.82
463.38	395.13
463.74	391.35
464.11	388.06
464.48	385.19
464.85	382.06
465.21	379.60
465.58	376.95
465.95	373.85
466.32	371.21
466.68	368.61
467.05	365.96
467.42	363.39
467.78	360.74
468.15	358.26
468.52	356.34
468.88	353.84
469.25	351.64
469.62	349.80
469.98	347.84
470.35	345.98
470.72	344.24
471.08	342.40
471.45	340.90
471.82	339.39
472.18	337.72
472.55	336.55
472.92	335.19
473.28	333.96
473.65	332.80
474.02	331.62
474.38	330.76
474.75	330.02
475.11	329.20
475.48	328.60
475.85	328.10
476.21	327.58
476.58	327.22
476.94	326.94
477.31	326.64
477.67	326.34
478.04	326.21
478.41	326.23
478.77	326.42
479.14	326.37
479.50	326.50
479.87	326.80
480.23	327.11
480.60	327.33
480.96	327.59
481.33	328.16
481.69	328.78
482.06	329.23
482.42	329.69
482.79	330.24
483.15	331.02
483.52	331.90
483.88	332.84
484.25	333.83
484.61	334.87
484.98	335.91
485.34	337.23
485.71	338.61
486.07	339.99
486.44	341.31
486.80	342.93
487.17	344.55
487.53	346.30
487.90	348.14
488.26	350.14
488.62	352.31
488.99	354.47
489.35	356.64
489.72	359.10
490.08	361.61
490.44	364.21
490.81	366.92
491.17	369.68
491.54	372.64
491.90	375.63
492.26	378.91
492.63	382.31
492.99	385.78
493.36	389.42
493.72	393.31
494.08	397.31
494.45	401.46
494.81	405.86
495.17	410.38
495.54	415.11
495.90	419.95
496.26	424.92
496.63	430.01
496.99	435.43
497.35	440.96
497.72	446.81
498.08	452.75
498.44	458.91
498.80	465.31
499.17	471.79
499.53	478.51
499.89	485.36
500.26	492.39
500.62	499.52
500.98	506.98
501.34	514.40
501.71	522.11
502.07	530.04
502.43	538.01
502.79	546.20
503.16	554.60
503.52	563.27
503.88	571.88
504.24	580.90
504.60	589.97
504.97	599.18
505.33	608.53
505.69	618.43
506.05	628.25
506.41	638.15
506.78	648.22
507.14	658.46
507.50	668.94
507.86	679.65
508.22	690.45
508.59	701.14
508.95	712.27
509.31	723.73
509.67	735.21
510.03	746.69
510.39	758.38
510.75	770.21
511.12	782.12
511.48	794.35
511.84	806.57
512.20	818.92
512.56	831.62
512.92	844.42
513.28	857.10
513.64	869.93
514.00	882.81
514.37	895.82
514.73	909.03
515.09	922.07
515.45	935.02
515.81	948.15
516.17	961.51
516.53	974.86
516.89	987.95
517.25	1001.12
517.61	1014.78
517.97	1028.24
518.33	1041.51
518.69	1055.08
519.05	1068.82
519.41	1082.57
519.77	1096.51
520.13	1109.83
520.49	1123.06
520.85	1136.45
521.21	1149.84
521.57	1163.47
521.93	1176.58
522.29	1190.29
522.65	1204.01
523.01	1217.64
523.37	1230.91
523.73	1244.39
524.09	1257.57
524.45	1270.99
524.81	1284.62
525.17	1298.03
525.53	1311.37
525.89	1324.71
526.25	1337.95
526.61	1350.88
526.97	1364.08
527.33	1377.17
527.68	1390.74
528.04	1404.37
528.40	1417.68
528.76	1431.11
529.12	1444.23
529.48	1457.75
529.84	1470.26
530.20	1483.04
530.56	1495.75
530.91	1509.00
531.27	1521.88
531.63	1534.63
531.99	1547.54
532.35	1559.92
532.71	1572.32
533.07	1585.31
533.42	1597.77
533.78	1609.98
534.14	1622.22
534.50	1633.60
534.86	1645.14
535.21	1656.19
535.57	1667.81
535.93	1679.01
536.29	1690.17
536.65	1701.80
537.00	1712.85
537.36	1724.31
537.72	1735.48
538.08	1747.01
538.44	1758.16
538.79	1769.53
539.15	1780.71
539.51	1791.64
539.87	1802.95
540.22	1813.95
540.58	1824.92
540.94	1835.82
541.29	1846.18
541.65	1856.04
542.01	1866.58
542.37	1876.86
542.72	1887.08
543.08	1896.83
543.44	1907.60
543.79	1917.01
544.15	1926.39
544.51	1936.40
544.87	1946.30
545.22	1955.58
545.58	1964.58
545.94	1973.52
546.29	1981.91
546.65	1990.39
547.01	1998.52
547.36	2006.33
547.72	2014.20
548.07	2021.77
548.43	2029.65
548.79	2037.62
549.14	2045.84
549.50	2054.40
549.86	2062.44
550.21	2069.93
550.57	2077.86
550.92	2084.66
551.28	2092.22
551.64	2099.63
551.99	2107.28
552.35	2114.54
552.70	2121.42
553.06	2128.13
553.41	2134.46
553.77	2141.11
554.13	2147.54
554.48	2154.71
554.84	2161.91
555.19	2168.53
555.55	2175.06
555.90	2181.38
556.26	2188.27
556.61	2194.40
556.97	2199.16
557.32	2204.89
557.68	2211.49
558.03	2217.12
558.39	2222.49
558.74	2228.49
559.10	2234.06
559.45	2239.47
559.81	2245.06
560.16	2250.66
560.52	2256.47
560.87	2262.95
561.23	2268.73
561.58	2275.33
561.94	2280.49
562.29	2285.09
562.64	2291.01
563.00	2296.73
563.35	2302.20
563.71	2307.88
564.06	2313.66
564.42	2319.77
564.77	2324.80
565.12	2329.89
565.48	2335.12
565.83	2340.66
566.19	2346.00
566.54	2351.21
566.89	2355.85
567.25	2360.33
567.60	2365.99
567.96	2371.11
568.31	2375.40
568.66	2379.77
569.02	2383.60
569.37	2387.36
569.72	2391.72
570.08	2395.33
570.43	2398.34
570.78	2401.51
571.14	2403.98
571.49	2406.93
571.84	2410.41
572.20	2413.44
572.55	2416.25
572.90	2418.25
573.26	2420.89
573.61	2423.34
573.96	2425.51
574.31	2427.48
574.67	2429.28
575.02	2430.03
575.37	2431.39
575.72	2432.18
576.08	2433.49
576.43	2433.60
576.78	2433.93
577.13	2435.48
577.49	2436.46
577.84	2437.38
578.19	2438.41
578.54	2438.83
578.90	2439.34
579.25	2438.92
579.60	2438.72
579.95	2437.92
580.30	2438.07
580.66	2437.23
581.01	2435.51
581.36	2432.99
581.71	2431.46
582.06	2430.13
582.42	2429.13
582.77	2426.85
583.12	2425.05
583.47	2423.61
583.82	2422.87
584.17	2421.44
584.53	2419.18
584.88	2416.92
585.23	2414.99
585.58	2412.68
585.93	2410.62
586.28	2408.29
586.63	2405.75
586.98	2403.30
587.34	2401.27
587.69	2398.66
588.04	2396.50
588.39	2394.93
588.74	2392.28
589.09	2389.52
589.44	2386.30
589.79	2383.67
590.14	2381.55
590.49	2378.51
590.84	2374.44
591.19	2371.17
591.54	2368.04
591.89	2363.76
592.25	2360.43
592.60	2356.03
592.95	2351.73
593.30	2347.31
593.65	2342.90
594.00	2338.42
594.35	2335.27
594.70	2330.44
595.05	2325.84
595.40	2320.23
595.75	2314.36
596.10	2310.71
596.45	2305.64
596.80	2300.97
597.15	2295.65
597.50	2289.72
597.85	2284.93
598.19	2279.64
598.54	2273.79
598.89	2268.43
599.24	2263.94
599.59	2257.76
599.94	2251.83
600.29	2245.84
600.64	2239.96
600.99	2233.07
601.34	2227.57
601.69	2220.51
602.04	2214.10
602.39	2207.28
602.74	2201.25
603.08	2195.71
603.43	2189.16
603.78	2182.33
604.13	2175.26
604.48	2167.93
604.83	2161.70
605.18	2155.22
605.53	2148.36
605.87	2141.28
606.22	2134.38
606.57	2126.33
606.92	2118.29
607.27	2111.41
607.62	2104.72
607.96	2097.67
608.31	2091.25
608.66	2083.38
609.01	2075.75
609.36	2068.57
609.70	2060.88
610.05	2053.08
610.40	2044.60
610.75	2036.18
611.10	2028.45
611.44	2019.56
611.79	2010.86
612.14	2000.83
612.49	1990.31
612.83	1980.99
613.18	1971.72
613.53	1962.28
613.88	1952.74
614.22	1944.00
614.57	1934.10
614.92	1923.65
615.27	1913.47
615.61	1903.32
615.96	1893.68
616.31	1883.99
616.65	1874.44
617.00	1864.72
617.35	1854.98
617.70	1845.27
618.04	1835.33
618.39	1825.22
618.74	1815.42
619.08	1805.77
619.43	1797.12
619.78	1788.85
620.12	1780.20
620.47	1770.54
620.82	1760.38
621.16	1750.66
621.51	1740.88
621.85	1730.97
622.20	1720.65
622.55	1710.03
622.89	1700.05
623.24	1690.34
623.59	1680.65
623.93	1670.75
624.28	1661.10
624.62	1651.06
624.97	1640.87
625.32	1631.04
625.66	1622.14
626.01	1613.50
626.35	1604.14
626.70	1594.16
627.04	1584.09
627.39	1573.99
627.73	1564.78
628.08	1555.76
628.43	1546.18
628.77	1537.01
629.12	1528.25
629.46	1520.39
629.81	1512.19
630.15	1502.75
630.50	1493.03
630.84	1482.58
631.19	1472.55
631.53	1463.34
631.88	1453.14
632.22	1443.12
632.57	1433.93
632.91	1423.78
633.26	1413.94
633.60	1404.44
633.95	1395.07
634.29	1385.64
634.64	1376.36
634.98	1366.42
635.32	1357.27
635.67	1348.79
636.01	1339.56
636.36	1329.86
636.70	1320.31
637.05	1310.94
637.39	1302.13
637.73	1293.53
638.08	1286.04
638.42	1277.99
638.77	1269.16
639.11	1261.08
639.45	1253.35
639.80	1244.78
640.14	1236.16
640.49	1227.35
640.83	1218.57
641.17	1210.56
641.52	1202.48
641.86	1193.87
642.20	1185.94
642.55	1177.37
642.89	1168.54
643.23	1159.86
643.58	1151.72
643.92	1142.75
644.26	1134.01
644.61	1125.60
644.95	1116.83
645.29	1107.60
645.64	1098.46
645.98	1089.88
646.32	1081.99
646.66	1073.51
647.01	1065.25
647.35	1057.12
647.69	1048.84
648.04	1040.55
648.38	1031.65
648.72	1022.85
649.06	1014.42
649.41	1006.35
649.75	998.33
650.09	990.44
650.43	982.39
650.78	974.11
651.12	966.45
651.46	959.09
651.80	951.70
652.14	944.35
652.49	936.83
652.83	929.45
653.17	921.78
653.51	914.09
653.85	906.79
654.20	899.47
654.54	892.01
654.88	884.75
655.22	877.53
655.56	870.49
655.90	863.68
656.25	857.00
656.59	850.06
656.93	843.04
657.27	835.90
657.61	828.95
657.95	822.80
658.29	816.78
658.64	810.63
658.98	804.25
659.32	797.80
659.66	791.58
660.00	785.24
660.34	779.12
660.68	773.02
661.02	766.71
661.36	760.67
661.70	754.83
662.05	749.21
662.39	743.73
662.73	738.38
663.07	732.95
663.41	727.35
663.75	721.68
664.09	715.96
664.43	710.57
664.77	705.26
665.11	699.47
665.45	693.53
665.79	687.68
666.13	681.93
666.47	676.36
666.81	670.83
667.15	665.45
667.49	660.24
667.83	654.93
668.17	649.66
668.51	644.52
668.85	639.56
669.19	634.63
669.53	629.53
669.87	624.33
670.21	619.55
670.55	614.76
670.89	610.25
671.23	606.02
671.57	601.55
671.91	597.23
672.25	592.99
672.58	588.89
672.92	584.81
673.26	580.85
673.60	576.97
673.94	573.12
674.28	569.44
674.62	565.72
674.96	561.92
675.30	558.41
675.64	554.76
675.97	551.10
676.31	547.43
676.65	543.83
676.99	540.37
677.33	536.49
677.67	532.88
678.01	529.00
678.34	525.27
678.68	521.75
679.02	518.06
679.36	514.37
679.70	510.68
680.04	507.05
680.37	503.56
680.71	500.24
681.05	497.03
681.39	493.72
681.73	490.47
682.06	487.45
682.40	484.33
682.74	481.10
683.08	477.87
683.42	474.61
683.75	471.53
684.09	468.44
684.43	465.68
684.77	462.67
685.10	459.79
685.44	456.82
685.78	453.87
686.12	451.03
686.45	448.23
686.79	445.50
687.13	442.93
687.46	440.26
687.80	437.50
688.14	434.62
688.48	431.99
688.81	429.29
689.15	426.63
689.49	423.94
689.82	421.34
690.16	418.70
690.50	416.26
690.83	413.79
691.17	411.21
691.51	408.61
691.84	406.30
692.18	404.04
692.52	401.80
692.85	399.57
693.19	397.44
693.52	395.28
693.86	393.05
694.20	390.82
694.53	388.65
694.87	386.39
695.21	384.28
695.54	382.05
695.88	379.83
696.21	377.59
696.55	375.43
696.88	373.39
697.22	371.39
697.56	369.46
697.89	367.50
698.23	365.77
698.56	363.96
698.90	362.20
699.23	360.25
699.57	358.37
699.90	356.48
700.24	354.61
700.58	352.85
700.91	351.12
701.25	349.53
701.58	347.90
701.92	346.31
702.25	344.64
702.59	343.05
702.92	341.52
703.26	339.96
703.59	338.49
703.93	337.19
704.26	335.76
704.60	334.18
704.93	332.68
705.26	331.13
705.60	329.70
705.93	328.12
706.27	326.80
706.60	325.49
706.94	324.28
707.27	322.88
707.61	321.50
707.94	320.18
708.27	318.64
708.61	317.17
708.94	315.76
709.28	314.49
709.61	313.19
709.94	311.97
710.28	310.75
710.61	309.52
710.95	308.07
711.28	306.94
711.61	305.77
711.95	304.62
712.28	303.41
712.61	302.14
712.95	301.11
713.28	300.03
713.61	298.85
713.95	297.67
714.28	296.60
714.61	295.52
714.95	294.49
715.28	293.46
715.61	292.42
715.95	291.45
716.28	290.42
716.61	289.43
716.95	288.42
717.28	287.49
717.61	286.51
717.94	285.59
718.28	284.55
718.61	283.63
718.94	282.71
719.27	281.84
719.61	281.01
719.94	280.14
720.27	279.13
720.60	278.26
720.94	277.45
721.27	276.71
721.60	276.03
721.93	275.28
722.27	274.67
722.60	273.97
722.93	273.21
723.26	272.55
723.59	271.83
723.93	271.13
724.26	270.44
724.59	269.78
724.92	269.16
725.25	268.59
725.59	268.01
725.92	267.48
726.25	266.94
726.58	266.39
726.91	265.75
727.24	265.25
727.57	264.68
727.91	264.06
728.24	263.46
728.57	262.81
728.90	262.23
729.23	261.53
729.56	261.10
729.89	260.56
730.22	260.00
730.55	259.48
730.89	258.94
731.22	258.41
731.55	257.91
731.88	257.37
732.21	256.85
732.54	256.30
732.87	255.76
733.20	255.25
733.53	254.72
733.86	254.25
734.19	253.76
734.52	253.34
734.85	253.06
735.18	252.58
735.51	252.24
735.84	251.83
736.17	251.49
736.50	250.95
736.83	250.81
737.16	250.41
737.49	250.02
737.82	249.62
738.15	249.27
738.48	248.88
738.81	248.51
739.14	248.06
739.47	247.66
739.80	247.30
740.13	246.89
740.46	246.48
740.79	246.11
741.12	245.73
741.45	245.32
741.78	244.86
742.11	244.58
742.44	244.17
742.77	243.84
743.10	243.48
743.43	243.14
743.75	242.54
744.08	242.47
744.41	242.09
744.74	241.74
745.07	241.32
745.40	241.01
745.73	240.76
746.06	240.43
746.39	240.12
746.71	239.70
747.04	239.39
747.37	239.08
747.70	238.81
748.03	238.52
748.36	238.26
748.68	237.93
749.01	237.52
749.34	237.24
749.67	236.93
750.00	236.62
750.33	236.50
750.65	236.25
750.98	235.73
751.31	235.48
751.64	235.25
751.97	235.12
752.29	234.86
752.62	234.49
752.95	234.24
753.28	233.96
753.60	233.77
753.93	233.63
754.26	233.43
754.59	233.12
754.91	232.88
755.24	232.62
755.57	232.40
755.90	232.25
756.22	232.01
756.55	231.78
756.88	231.54
757.20	231.16
757.53	230.90
757.86	230.64
758.19	230.46
758.51	230.25
758.84	229.94
759.17	229.75
759.49	229.57
759.82	229.49
760.15	229.32
760.47	229.13
760.80	228.86
761.13	228.65
761.45	228.47
761.78	228.25
762.11	228.06
762.43	227.87
762.76	227.65
763.08	227.49
763.41	227.33
763.74	227.20
764.06	227.03
764.39	226.88
764.71	226.76
765.04	226.57
765.37	226.42
765.69	226.29
766.02	226.09
766.34	225.92
766.67	225.71
767.00	225.59
767.32	225.58
767.65	225.59
767.97	225.49
768.30	225.39
768.62	225.29
768.95	225.16
769.27	225.05
769.60	224.95
769.92	224.79
770.25	224.65
770.57	224.46
770.90	224.35
771.22	224.23
771.55	224.08
771.87	223.97
772.20	223.86
772.52	223.89
772.85	224.06
773.17	223.92
773.50	223.83
773.82	223.70
774.15	223.53
774.47	223.28
774.80	223.14
775.12	222.99
775.45	222.89
775.77	222.80
776.09	222.68
776.42	222.61
776.74	222.60
777.07	222.49
777.39	222.42
777.72	222.32
778.04	222.24
778.36	222.17
778.69	222.13
779.01	222.06
779.33	221.82
779.66	221.51
779.98	221.41
780.31	221.28
780.63	221.30
780.95	221.22
781.28	221.14
781.60	221.07
781.92	221.03
782.25	220.97
782.57	220.89
782.89	220.86
783.22	220.77
783.54	220.63
783.86	220.62
784.19	220.59
784.51	220.56
784.83	220.50
785.16	220.44
785.48	220.30
785.80	220.22
786.12	220.16
