SpectraSuite Data File
++++++++++++++++++++++++++++++++++++
Date: Tue Jan 29 16:50:20 EST 2013
User: group
Dark Spectrum Present: No
Reference Spectrum Present: No
Number of Sampled Component Spectra: 1
Spectrometers: USB2E7196
Integration Time (usec): 65000 (USB2E7196)
Spectra Averaged: 100 (USB2E7196)
Boxcar Smoothing: 10 (USB2E7196)
Correct for Electrical Dark: No (USB2E7196)
Strobe/Lamp Enabled: No (USB2E7196)
Correct for Detector Non-linearity: No (USB2E7196)
Correct for Stray Light: No (USB2E7196)
Number of Pixels in Processed Spectrum: 2048
>>>>>Begin Processed Spectral Data<<<<<
339.09	0.00
339.48	201.28
339.86	202.56
340.24	204.30
340.63	205.57
341.01	209.96
341.39	208.39
341.78	209.95
342.16	211.04
342.54	211.51
342.93	200.71
343.31	210.85
343.69	211.42
344.07	211.88
344.46	212.29
344.84	212.69
345.22	212.88
345.60	213.15
345.99	213.37
346.37	213.52
346.75	213.65
347.13	213.73
347.52	213.75
347.90	213.87
348.28	213.93
348.66	214.01
349.05	214.00
349.43	214.06
349.81	214.12
350.19	214.18
350.57	214.24
350.96	214.31
351.34	214.43
351.72	214.49
352.10	214.61
352.48	214.72
352.87	214.79
353.25	214.84
353.63	214.86
354.01	214.90
354.39	214.99
354.77	215.07
355.15	215.21
355.54	215.29
355.92	215.27
356.30	215.35
356.68	215.56
357.06	215.61
357.44	215.65
357.82	215.72
358.20	215.78
358.58	215.86
358.97	215.94
359.35	216.02
359.73	216.14
360.11	216.20
360.49	216.25
360.87	216.32
361.25	216.40
361.63	216.56
362.01	216.64
362.39	216.64
362.77	216.70
363.15	216.72
363.53	216.76
363.91	216.80
364.29	216.82
364.67	216.64
365.05	216.68
365.43	216.73
365.81	216.74
366.19	216.82
366.57	216.90
366.95	216.88
367.33	216.84
367.71	216.81
368.09	216.89
368.47	216.91
368.85	216.88
369.23	216.93
369.61	216.87
369.99	216.89
370.37	216.91
370.75	216.98
371.13	216.90
371.51	216.85
371.89	216.85
372.27	216.83
372.65	216.82
373.03	216.79
373.41	216.75
373.78	216.73
374.16	216.60
374.54	216.51
374.92	216.47
375.30	216.44
375.68	216.38
376.06	216.32
376.44	216.22
376.82	216.20
377.19	216.11
377.57	216.01
377.95	215.90
378.33	215.85
378.71	215.70
379.09	215.71
379.47	215.70
379.84	215.61
380.22	215.56
380.60	215.47
380.98	215.43
381.36	215.37
381.73	215.26
382.11	215.27
382.49	215.27
382.87	215.22
383.25	215.13
383.62	215.34
384.00	215.27
384.38	215.29
384.76	215.27
385.13	215.35
385.51	215.33
385.89	215.28
386.27	215.25
386.64	215.20
387.02	215.12
387.40	215.07
387.78	215.06
388.15	215.01
388.53	215.00
388.91	214.98
389.29	214.95
389.66	215.00
390.04	214.96
390.42	214.89
390.79	214.87
391.17	214.86
391.55	214.60
391.92	214.60
392.30	214.59
392.68	214.53
393.05	214.48
393.43	214.48
393.81	214.50
394.18	214.48
394.56	214.50
394.94	214.56
395.31	214.54
395.69	214.63
396.06	214.70
396.44	214.72
396.82	214.74
397.19	214.86
397.57	214.85
397.95	214.91
398.32	214.91
398.70	214.97
399.07	215.07
399.45	215.13
399.82	215.15
400.20	215.17
400.58	215.23
400.95	215.22
401.33	215.35
401.70	215.51
402.08	215.58
402.45	215.70
402.83	215.82
403.20	215.95
403.58	216.01
403.95	216.18
404.33	216.37
404.71	216.51
405.08	216.77
405.46	216.92
405.83	217.12
406.21	217.31
406.58	217.55
406.96	217.79
407.33	218.07
407.70	218.39
408.08	218.86
408.45	219.21
408.83	219.62
409.20	219.98
409.58	220.29
409.95	220.78
410.33	221.23
410.70	221.66
411.08	222.21
411.45	222.79
411.82	223.33
412.20	224.00
412.57	224.84
412.95	225.40
413.32	226.22
413.69	227.05
414.07	228.02
414.44	229.01
414.82	230.02
415.19	231.19
415.56	232.39
415.94	233.58
416.31	235.00
416.68	236.41
417.06	238.03
417.43	239.58
417.81	241.34
418.18	243.14
418.55	245.11
418.93	247.16
419.30	249.28
419.67	251.54
420.04	253.84
420.42	256.22
420.79	259.08
421.16	261.93
421.54	264.86
421.91	267.83
422.28	270.97
422.66	274.32
423.03	277.60
423.40	280.95
423.77	284.60
424.15	288.30
424.52	292.17
424.89	296.37
425.26	300.50
425.64	304.42
426.01	308.77
426.38	313.30
426.75	317.87
427.13	322.61
427.50	327.64
427.87	332.89
428.24	338.12
428.61	343.12
428.99	348.62
429.36	354.66
429.73	360.59
430.10	366.45
430.47	372.49
430.85	378.86
431.22	385.58
431.59	392.65
431.96	399.46
432.33	406.95
432.70	414.20
433.08	422.71
433.45	430.76
433.82	438.76
434.19	447.68
434.56	456.43
434.93	464.81
435.30	473.06
435.68	482.24
436.05	491.25
436.42	500.19
436.79	508.42
437.16	517.23
437.53	526.50
437.90	535.79
438.27	544.84
438.64	554.05
439.01	562.63
439.38	570.32
439.75	577.69
440.13	586.20
440.50	594.15
440.87	600.62
441.24	607.33
441.61	614.73
441.98	620.15
442.35	626.51
442.72	632.91
443.09	639.11
443.46	642.79
443.83	645.33
444.20	647.52
444.57	650.71
444.94	652.22
445.31	653.69
445.68	655.07
446.05	655.69
446.42	654.93
446.79	653.99
447.16	652.87
447.53	652.17
447.90	648.86
448.27	645.67
448.64	641.03
449.01	637.72
449.37	631.79
449.74	626.07
450.11	619.22
450.48	611.80
450.85	604.25
451.22	597.77
451.59	591.61
451.96	585.80
452.33	577.89
452.70	570.70
453.07	562.22
453.43	553.51
453.80	545.21
454.17	537.15
454.54	529.61
454.91	521.40
455.28	513.35
455.65	505.86
456.02	498.25
456.38	491.89
456.75	483.99
457.12	477.42
457.49	470.90
457.86	464.58
458.23	459.11
458.59	453.10
458.96	447.07
459.33	441.73
459.70	436.36
460.07	432.04
460.43	427.13
460.80	422.48
461.17	418.50
461.54	414.24
461.91	410.21
462.27	406.03
462.64	402.60
463.01	398.80
463.38	395.11
463.74	391.39
464.11	388.16
464.48	385.26
464.85	382.09
465.21	379.62
465.58	376.99
465.95	373.83
466.32	371.21
466.68	368.63
467.05	366.01
467.42	363.40
467.78	360.72
468.15	358.15
468.52	356.22
468.88	353.71
469.25	351.51
469.62	349.72
469.98	347.78
470.35	345.95
470.72	344.22
471.08	342.36
471.45	340.81
471.82	339.21
472.18	337.55
472.55	336.36
472.92	334.95
473.28	333.75
473.65	332.66
474.02	331.52
474.38	330.58
474.75	329.85
475.11	329.04
475.48	328.41
475.85	327.91
476.21	327.41
476.58	327.02
476.94	326.74
477.31	326.43
477.67	326.13
478.04	325.98
478.41	325.91
478.77	326.08
479.14	326.05
479.50	326.20
479.87	326.47
480.23	326.76
480.60	326.98
480.96	327.24
481.33	327.75
481.69	328.31
482.06	328.85
482.42	329.29
482.79	329.90
483.15	330.70
483.52	331.68
483.88	332.60
484.25	333.51
484.61	334.52
484.98	335.53
485.34	336.87
485.71	338.16
486.07	339.63
486.44	340.93
486.80	342.53
487.17	344.20
487.53	346.03
487.90	347.93
488.26	349.97
488.62	352.15
488.99	354.23
489.35	356.39
489.72	358.76
490.08	361.32
490.44	363.87
490.81	366.54
491.17	369.22
491.54	372.20
491.90	375.24
492.26	378.47
492.63	381.93
492.99	385.39
493.36	389.13
493.72	392.97
494.08	397.05
494.45	401.28
494.81	405.63
495.17	410.02
495.54	414.74
495.90	419.56
496.26	424.41
496.63	429.57
496.99	434.97
497.35	440.55
497.72	446.33
498.08	452.30
498.44	458.39
498.80	464.83
499.17	471.30
499.53	478.00
499.89	484.88
500.26	491.85
500.62	498.92
500.98	506.32
501.34	513.75
501.71	521.42
502.07	529.21
502.43	537.15
502.79	545.35
503.16	553.65
503.52	562.23
503.88	570.95
504.24	579.87
504.60	588.97
504.97	598.13
505.33	607.39
505.69	617.20
506.05	627.08
506.41	636.92
506.78	646.96
507.14	657.22
507.50	667.65
507.86	678.21
508.22	688.93
508.59	699.51
508.95	710.67
509.31	721.95
509.67	733.34
510.03	744.78
510.39	756.44
510.75	768.32
511.12	780.17
511.48	792.21
511.84	804.43
512.20	816.67
512.56	829.39
512.92	842.15
513.28	854.77
513.64	867.47
514.00	880.27
514.37	893.22
514.73	906.22
515.09	919.20
515.45	932.13
515.81	945.24
516.17	958.65
516.53	971.87
516.89	984.91
517.25	998.17
517.61	1011.70
517.97	1025.05
518.33	1038.17
518.69	1051.76
519.05	1065.54
519.41	1079.29
519.77	1093.14
520.13	1106.55
520.49	1119.77
520.85	1133.02
521.21	1146.44
521.57	1160.08
521.93	1173.11
522.29	1186.88
522.65	1200.51
523.01	1214.23
523.37	1227.39
523.73	1240.60
524.09	1253.73
524.45	1267.37
524.81	1280.82
525.17	1294.10
525.53	1307.33
525.89	1320.73
526.25	1333.97
526.61	1346.85
526.97	1359.99
527.33	1373.10
527.68	1386.44
528.04	1399.99
528.40	1413.25
528.76	1426.69
529.12	1439.73
529.48	1453.08
529.84	1465.44
530.20	1478.20
530.56	1490.81
530.91	1504.13
531.27	1517.15
531.63	1529.86
531.99	1542.55
532.35	1554.81
532.71	1567.41
533.07	1580.42
533.42	1592.67
533.78	1604.84
534.14	1616.92
534.50	1628.18
534.86	1639.84
535.21	1650.76
535.57	1662.39
535.93	1673.78
536.29	1684.91
536.65	1696.47
537.00	1707.59
537.36	1719.05
537.72	1730.25
538.08	1741.75
538.44	1752.93
538.79	1764.18
539.15	1775.19
539.51	1786.08
539.87	1797.48
540.22	1808.39
540.58	1819.49
540.94	1830.52
541.29	1840.87
541.65	1850.74
542.01	1861.38
542.37	1871.32
542.72	1881.52
543.08	1891.21
543.44	1901.89
543.79	1911.14
544.15	1920.60
544.51	1930.67
544.87	1940.63
545.22	1949.91
545.58	1958.85
545.94	1967.71
546.29	1976.30
546.65	1984.81
547.01	1993.13
547.36	2000.94
547.72	2008.87
548.07	2016.34
548.43	2024.14
548.79	2032.05
549.14	2040.27
549.50	2048.75
549.86	2056.95
550.21	2064.40
550.57	2072.19
550.92	2078.94
551.28	2086.60
551.64	2093.82
551.99	2101.33
552.35	2108.48
552.70	2115.33
553.06	2121.98
553.41	2128.37
553.77	2134.66
554.13	2141.17
554.48	2148.18
554.84	2155.31
555.19	2161.87
555.55	2168.29
555.90	2174.55
556.26	2181.27
556.61	2187.42
556.97	2192.17
557.32	2197.84
557.68	2204.32
558.03	2210.11
558.39	2215.34
558.74	2221.24
559.10	2226.81
559.45	2232.39
559.81	2238.03
560.16	2243.40
560.52	2249.29
560.87	2255.42
561.23	2261.32
561.58	2267.75
561.94	2272.88
562.29	2277.43
562.64	2283.27
563.00	2289.01
563.35	2294.47
563.71	2300.17
564.06	2305.79
564.42	2311.75
564.77	2316.73
565.12	2322.15
565.48	2327.07
565.83	2332.59
566.19	2337.76
566.54	2342.99
566.89	2347.38
567.25	2351.73
567.60	2357.44
567.96	2362.28
568.31	2366.79
568.66	2371.16
569.02	2375.07
569.37	2378.68
569.72	2382.97
570.08	2386.36
570.43	2389.25
570.78	2392.33
571.14	2394.60
571.49	2397.52
571.84	2400.90
572.20	2403.74
572.55	2406.40
572.90	2408.69
573.26	2411.18
573.61	2413.71
573.96	2415.87
574.31	2417.81
574.67	2419.75
575.02	2420.52
575.37	2421.92
575.72	2422.48
576.08	2423.68
576.43	2423.67
576.78	2423.98
577.13	2425.25
577.49	2426.20
577.84	2427.17
578.19	2428.26
578.54	2428.77
578.90	2429.17
579.25	2428.86
579.60	2428.56
579.95	2427.50
580.30	2427.28
580.66	2426.62
581.01	2424.79
581.36	2422.10
581.71	2420.58
582.06	2419.24
582.42	2418.13
582.77	2415.69
583.12	2413.88
583.47	2412.29
583.82	2411.49
584.17	2410.07
584.53	2407.95
584.88	2405.71
585.23	2403.64
585.58	2401.17
585.93	2399.16
586.28	2397.00
586.63	2394.46
586.98	2392.08
587.34	2389.95
587.69	2387.43
588.04	2385.04
588.39	2383.44
588.74	2380.86
589.09	2377.74
589.44	2374.22
589.79	2371.53
590.14	2369.62
590.49	2366.72
590.84	2362.74
591.19	2359.41
591.54	2356.02
591.89	2351.87
592.25	2348.47
592.60	2344.02
592.95	2339.79
593.30	2335.51
593.65	2330.98
594.00	2326.48
594.35	2323.40
594.70	2318.85
595.05	2314.32
595.40	2308.88
595.75	2302.99
596.10	2299.31
596.45	2294.56
596.80	2289.94
597.15	2284.69
597.50	2278.63
597.85	2273.65
598.19	2268.37
598.54	2262.47
598.89	2257.09
599.24	2252.44
599.59	2246.20
599.94	2240.36
600.29	2234.37
600.64	2228.28
600.99	2221.30
601.34	2215.71
601.69	2208.67
602.04	2202.04
602.39	2195.31
602.74	2189.12
603.08	2183.59
603.43	2176.99
603.78	2170.21
604.13	2163.14
604.48	2155.81
604.83	2149.61
605.18	2143.30
605.53	2136.45
605.87	2129.47
606.22	2122.81
606.57	2115.02
606.92	2107.11
607.27	2100.24
607.62	2093.53
607.96	2086.60
608.31	2080.22
608.66	2072.46
609.01	2064.75
609.36	2057.76
609.70	2049.99
610.05	2042.10
610.40	2033.70
610.75	2025.34
611.10	2017.52
611.44	2008.68
611.79	1999.95
612.14	1989.95
612.49	1979.33
612.83	1969.92
613.18	1960.50
613.53	1951.11
613.88	1941.40
614.22	1932.93
614.57	1923.12
614.92	1912.60
615.27	1902.32
615.61	1892.17
615.96	1882.45
616.31	1872.97
616.65	1863.53
617.00	1853.90
617.35	1844.40
617.70	1834.70
618.04	1824.87
618.39	1814.89
618.74	1805.27
619.08	1795.76
619.43	1787.18
619.78	1778.96
620.12	1770.46
620.47	1761.24
620.82	1751.08
621.16	1741.47
621.51	1731.51
621.85	1721.69
622.20	1711.45
622.55	1700.97
622.89	1691.13
623.24	1681.54
623.59	1671.76
623.93	1661.76
624.28	1652.01
624.62	1642.07
624.97	1631.91
625.32	1622.07
625.66	1613.10
626.01	1604.42
626.35	1595.23
626.70	1585.27
627.04	1575.39
627.39	1565.32
627.73	1556.12
628.08	1547.39
628.43	1537.88
628.77	1528.82
629.12	1520.04
629.46	1512.19
629.81	1504.08
630.15	1494.82
630.50	1485.24
630.84	1474.88
631.19	1465.03
631.53	1455.89
631.88	1445.86
632.22	1436.13
632.57	1426.89
632.91	1416.95
633.26	1407.20
633.60	1397.63
633.95	1388.45
634.29	1379.04
634.64	1369.82
634.98	1359.88
635.32	1350.52
635.67	1342.08
636.01	1332.78
636.36	1323.28
636.70	1313.98
637.05	1304.54
637.39	1295.69
637.73	1287.12
638.08	1279.71
638.42	1271.70
638.77	1263.06
639.11	1254.95
639.45	1247.20
639.80	1238.93
640.14	1230.24
640.49	1221.52
640.83	1212.82
641.17	1204.63
641.52	1196.63
641.86	1188.33
642.20	1180.56
642.55	1172.03
642.89	1163.24
643.23	1154.72
643.58	1146.61
643.92	1137.70
644.26	1129.18
644.61	1120.85
644.95	1112.12
645.29	1103.01
645.64	1093.91
645.98	1085.45
646.32	1077.54
646.66	1068.97
647.01	1060.59
647.35	1052.58
647.69	1044.33
648.04	1036.08
648.38	1027.42
648.72	1018.64
649.06	1010.14
649.41	1002.02
649.75	994.22
650.09	986.44
650.43	978.48
650.78	970.16
651.12	962.41
651.46	955.00
651.80	947.80
652.14	940.53
652.49	933.04
652.83	925.82
653.17	918.16
653.51	910.58
653.85	903.49
654.20	896.38
654.54	888.99
654.88	881.76
655.22	874.64
655.56	867.70
655.90	860.93
656.25	854.27
656.59	847.38
656.93	840.41
657.27	833.35
657.61	826.39
657.95	820.31
658.29	814.44
658.64	808.42
658.98	801.92
659.32	795.36
659.66	789.14
660.00	782.79
660.34	776.71
660.68	770.63
661.02	764.23
661.36	758.23
661.70	752.42
662.05	746.86
662.39	741.37
662.73	735.90
663.07	730.59
663.41	724.99
663.75	719.28
664.09	713.58
664.43	708.14
664.77	702.88
665.11	697.09
665.45	691.15
665.79	685.37
666.13	679.74
666.47	674.30
666.81	668.80
667.15	663.44
667.49	658.25
667.83	652.98
668.17	647.73
668.51	642.64
668.85	637.74
669.19	632.80
669.53	627.80
669.87	622.74
670.21	617.95
670.55	613.27
670.89	608.86
671.23	604.59
671.57	600.16
671.91	595.83
672.25	591.69
672.58	587.58
672.92	583.45
673.26	579.47
673.60	575.57
673.94	571.81
674.28	568.20
674.62	564.44
674.96	560.63
675.30	557.17
675.64	553.45
675.97	549.86
676.31	546.20
676.65	542.59
676.99	539.19
677.33	535.30
677.67	531.63
678.01	527.75
678.34	524.02
678.68	520.61
679.02	517.08
679.36	513.35
679.70	509.73
680.04	506.18
680.37	502.64
680.71	499.34
681.05	496.13
681.39	492.83
681.73	489.69
682.06	486.71
682.40	483.62
682.74	480.43
683.08	477.21
683.42	474.05
683.75	470.96
684.09	467.87
684.43	465.03
684.77	462.05
685.10	459.14
685.44	456.26
685.78	453.20
686.12	450.34
686.45	447.61
686.79	444.86
687.13	442.26
687.46	439.68
687.80	436.94
688.14	434.09
688.48	431.44
688.81	428.72
689.15	426.06
689.49	423.40
689.82	420.81
690.16	418.14
690.50	415.61
690.83	413.10
691.17	410.52
691.51	408.04
691.84	405.72
692.18	403.56
692.52	401.32
692.85	399.19
693.19	397.00
693.52	394.80
693.86	392.54
694.20	390.30
694.53	388.09
694.87	385.85
695.21	383.68
695.54	381.49
695.88	379.27
696.21	377.07
696.55	374.89
696.88	372.83
697.22	370.83
697.56	368.97
697.89	367.06
698.23	365.33
698.56	363.48
698.90	361.74
699.23	359.74
699.57	357.85
699.90	355.92
700.24	354.08
700.58	352.28
700.91	350.60
701.25	349.06
701.58	347.48
701.92	345.89
702.25	344.24
702.59	342.59
702.92	341.05
703.26	339.45
703.59	337.97
703.93	336.66
704.26	335.20
704.60	333.64
704.93	332.10
705.26	330.50
705.60	329.04
705.93	327.49
706.27	326.14
706.60	324.87
706.94	323.64
707.27	322.29
707.61	320.96
707.94	319.61
708.27	318.06
708.61	316.54
708.94	315.19
709.28	313.87
709.61	312.63
709.94	311.40
710.28	310.20
710.61	309.02
710.95	307.58
711.28	306.51
711.61	305.32
711.95	304.21
712.28	303.05
712.61	301.85
712.95	300.79
713.28	299.76
713.61	298.54
713.95	297.38
714.28	296.34
714.61	295.25
714.95	294.21
715.28	293.21
715.61	292.23
715.95	291.20
716.28	290.29
716.61	289.32
716.95	288.28
717.28	287.32
717.61	286.31
717.94	285.42
718.28	284.40
718.61	283.50
718.94	282.59
719.27	281.69
719.61	280.82
719.94	279.95
720.27	278.98
720.60	278.15
720.94	277.32
721.27	276.56
721.60	275.88
721.93	275.11
722.27	274.42
722.60	273.73
722.93	272.99
723.26	272.29
723.59	271.56
723.93	270.93
724.26	270.30
724.59	269.66
724.92	269.05
725.25	268.45
725.59	267.84
725.92	267.26
726.25	266.73
726.58	266.16
726.91	265.50
727.24	264.94
727.57	264.33
727.91	263.69
728.24	263.07
728.57	262.50
728.90	261.97
729.23	261.34
729.56	260.88
729.89	260.35
730.22	259.76
730.55	259.21
730.89	258.63
731.22	258.07
731.55	257.55
731.88	256.97
732.21	256.46
732.54	255.92
732.87	255.41
733.20	254.90
733.53	254.40
733.86	253.98
734.19	253.50
734.52	253.09
734.85	252.81
735.18	252.36
735.51	251.93
735.84	251.50
736.17	251.09
736.50	250.52
736.83	250.36
737.16	249.96
737.49	249.58
737.82	249.21
738.15	248.82
738.48	248.42
738.81	248.03
739.14	247.57
739.47	247.17
739.80	246.78
740.13	246.41
740.46	246.02
740.79	245.61
741.12	245.20
741.45	244.80
741.78	244.37
742.11	244.06
742.44	243.70
742.77	243.37
743.10	243.03
743.43	242.73
743.75	242.17
744.08	242.07
744.41	241.70
744.74	241.32
745.07	240.94
745.40	240.61
745.73	240.40
746.06	240.09
746.39	239.81
746.71	239.45
747.04	239.11
747.37	238.77
747.70	238.48
748.03	238.18
748.36	237.92
748.68	237.59
749.01	237.26
749.34	236.93
749.67	236.63
750.00	236.39
750.33	236.22
750.65	235.96
750.98	235.48
751.31	235.19
751.64	234.97
751.97	234.87
752.29	234.61
752.62	234.23
752.95	233.95
753.28	233.66
753.60	233.43
753.93	233.27
754.26	233.04
754.59	232.79
754.91	232.57
755.24	232.32
755.57	232.10
755.90	231.88
756.22	231.64
756.55	231.41
756.88	231.12
757.20	230.76
757.53	230.51
757.86	230.27
758.19	230.09
758.51	229.88
758.84	229.54
759.17	229.34
759.49	229.18
759.82	229.11
760.15	228.94
760.47	228.75
760.80	228.48
761.13	228.36
761.45	228.13
761.78	227.91
762.11	227.73
762.43	227.52
762.76	227.31
763.08	227.17
763.41	227.01
763.74	226.86
764.06	226.71
764.39	226.54
764.71	226.43
765.04	226.27
765.37	226.12
765.69	225.99
766.02	225.84
766.34	225.68
766.67	225.46
767.00	225.39
767.32	225.37
767.65	225.36
767.97	225.21
768.30	225.15
768.62	225.02
768.95	224.90
769.27	224.76
769.60	224.68
769.92	224.51
770.25	224.37
770.57	224.24
770.90	224.10
771.22	223.95
771.55	223.80
771.87	223.71
772.20	223.57
772.52	223.65
772.85	223.79
773.17	223.68
773.50	223.58
773.82	223.41
774.15	223.19
774.47	222.96
774.80	222.83
775.12	222.70
775.45	222.62
775.77	222.53
776.09	222.48
776.42	222.39
776.74	222.34
777.07	222.25
777.39	222.12
777.72	222.03
778.04	221.97
778.36	221.88
778.69	221.80
779.01	221.75
779.33	221.47
779.66	221.15
779.98	221.05
780.31	220.99
780.63	220.98
780.95	220.96
781.28	220.89
781.60	220.77
781.92	220.71
782.25	220.64
782.57	220.58
782.89	220.49
783.22	220.40
783.54	220.33
783.86	220.27
784.19	220.23
784.51	220.23
784.83	220.15
785.16	220.09
785.48	220.00
785.80	219.91
786.12	219.85
