SpectraSuite Data File
++++++++++++++++++++++++++++++++++++
Date: Tue Jan 29 16:40:03 EST 2013
User: group
Dark Spectrum Present: No
Reference Spectrum Present: No
Number of Sampled Component Spectra: 1
Spectrometers: USB2E7196
Integration Time (usec): 65000 (USB2E7196)
Spectra Averaged: 100 (USB2E7196)
Boxcar Smoothing: 10 (USB2E7196)
Correct for Electrical Dark: No (USB2E7196)
Strobe/Lamp Enabled: No (USB2E7196)
Correct for Detector Non-linearity: No (USB2E7196)
Correct for Stray Light: No (USB2E7196)
Number of Pixels in Processed Spectrum: 2048
>>>>>Begin Processed Spectral Data<<<<<
339.09	0.00
339.48	202.04
339.86	202.95
340.24	204.90
340.63	206.53
341.01	210.37
341.39	209.56
341.78	210.63
342.16	212.39
342.54	211.87
342.93	201.32
343.31	211.48
343.69	212.00
344.07	212.50
344.46	212.97
344.84	213.37
345.22	213.54
345.60	213.78
345.99	213.98
346.37	214.07
346.75	214.19
347.13	214.25
347.52	214.33
347.90	214.45
348.28	214.47
348.66	214.52
349.05	214.48
349.43	214.56
349.81	214.64
350.19	214.68
350.57	214.74
350.96	214.79
351.34	214.90
351.72	214.98
352.10	215.09
352.48	215.12
352.87	215.15
353.25	215.21
353.63	215.23
354.01	215.24
354.39	215.32
354.77	215.38
355.15	215.48
355.54	215.49
355.92	215.46
356.30	215.52
356.68	215.70
357.06	215.77
357.44	215.78
357.82	215.80
358.20	215.86
358.58	215.92
358.97	215.99
359.35	216.07
359.73	216.17
360.11	216.21
360.49	216.27
360.87	216.28
361.25	216.36
361.63	216.49
362.01	216.56
362.39	216.59
362.77	216.65
363.15	216.69
363.53	216.72
363.91	216.79
364.29	216.79
364.67	216.61
365.05	216.67
365.43	216.69
365.81	216.76
366.19	216.87
366.57	216.96
366.95	216.95
367.33	216.95
367.71	216.96
368.09	216.97
368.47	216.94
368.85	216.96
369.23	216.98
369.61	216.90
369.99	217.01
370.37	216.99
370.75	217.07
371.13	217.01
371.51	216.99
371.89	216.99
372.27	216.99
372.65	217.00
373.03	216.95
373.41	216.95
373.78	216.87
374.16	216.72
374.54	216.64
374.92	216.60
375.30	216.54
375.68	216.49
376.06	216.46
376.44	216.44
376.82	216.43
377.19	216.37
377.57	216.33
377.95	216.19
378.33	216.15
378.71	215.97
379.09	215.97
379.47	215.94
379.84	215.88
380.22	215.85
380.60	215.79
380.98	215.75
381.36	215.67
381.73	215.66
382.11	215.67
382.49	215.65
382.87	215.60
383.25	215.58
383.62	215.75
384.00	215.67
384.38	215.64
384.76	215.63
385.13	215.70
385.51	215.68
385.89	215.62
386.27	215.62
386.64	215.65
387.02	215.59
387.40	215.55
387.78	215.52
388.15	215.50
388.53	215.49
388.91	215.46
389.29	215.41
389.66	215.40
390.04	215.37
390.42	215.36
390.79	215.35
391.17	215.30
391.55	215.09
391.92	215.09
392.30	215.11
392.68	215.03
393.05	214.98
393.43	215.00
393.81	215.01
394.18	214.98
394.56	215.01
394.94	215.06
395.31	215.06
395.69	215.13
396.06	215.15
396.44	215.19
396.82	215.21
397.19	215.35
397.57	215.34
397.95	215.38
398.32	215.37
398.70	215.44
399.07	215.52
399.45	215.54
399.82	215.61
400.20	215.63
400.58	215.70
400.95	215.69
401.33	215.82
401.70	216.07
402.08	216.15
402.45	216.20
402.83	216.31
403.20	216.43
403.58	216.52
403.95	216.66
404.33	216.79
404.71	216.94
405.08	217.17
405.46	217.36
405.83	217.57
406.21	217.78
406.58	218.01
406.96	218.23
407.33	218.51
407.70	218.82
408.08	219.30
408.45	219.69
408.83	220.08
409.20	220.39
409.58	220.67
409.95	221.14
410.33	221.63
410.70	222.08
411.08	222.64
411.45	223.23
411.82	223.81
412.20	224.52
412.57	225.32
412.95	225.91
413.32	226.73
413.69	227.56
414.07	228.47
414.44	229.48
414.82	230.50
415.19	231.68
415.56	232.85
415.94	234.02
416.31	235.40
416.68	236.84
417.06	238.44
417.43	239.94
417.81	241.68
418.18	243.47
418.55	245.40
418.93	247.41
419.30	249.54
419.67	251.78
420.04	254.05
420.42	256.46
420.79	259.30
421.16	262.13
421.54	265.05
421.91	268.05
422.28	271.11
422.66	274.42
423.03	277.72
423.40	281.10
423.77	284.72
424.15	288.45
424.52	292.28
424.89	296.45
425.26	300.53
425.64	304.43
426.01	308.77
426.38	313.29
426.75	317.83
427.13	322.58
427.50	327.61
427.87	332.85
428.24	338.11
428.61	343.12
428.99	348.63
429.36	354.64
429.73	360.53
430.10	366.41
430.47	372.48
430.85	378.75
431.22	385.48
431.59	392.63
431.96	399.43
432.33	406.95
432.70	414.25
433.08	422.82
433.45	430.91
433.82	438.90
434.19	447.77
434.56	456.51
434.93	464.88
435.30	473.15
435.68	482.28
436.05	491.29
436.42	500.28
436.79	508.42
437.16	517.17
437.53	526.51
437.90	535.76
438.27	544.78
438.64	554.06
439.01	562.61
439.38	570.20
439.75	577.57
440.13	586.00
440.50	593.95
440.87	600.42
441.24	607.08
441.61	614.42
441.98	619.83
442.35	626.25
442.72	632.59
443.09	638.70
443.46	642.44
443.83	644.92
444.20	647.09
444.57	650.32
444.94	651.85
445.31	653.31
445.68	654.67
446.05	655.27
446.42	654.47
446.79	653.54
447.16	652.45
447.53	651.65
447.90	648.41
448.27	645.18
448.64	640.53
449.01	637.21
449.37	631.36
449.74	625.69
450.11	618.70
450.48	611.29
450.85	603.80
451.22	597.37
451.59	591.22
451.96	585.35
452.33	577.42
452.70	570.27
453.07	561.73
453.43	553.12
453.80	544.80
454.17	536.81
454.54	529.19
454.91	520.99
455.28	513.03
455.65	505.52
456.02	497.94
456.38	491.55
456.75	483.65
457.12	477.06
457.49	470.52
457.86	464.34
458.23	458.88
458.59	452.90
458.96	446.82
459.33	441.51
459.70	436.09
460.07	431.80
460.43	426.91
460.80	422.33
461.17	418.27
461.54	414.06
461.91	410.04
462.27	405.89
462.64	402.39
463.01	398.58
463.38	394.86
463.74	391.21
464.11	387.96
464.48	385.14
464.85	382.02
465.21	379.59
465.58	376.93
465.95	373.79
466.32	371.19
466.68	368.59
467.05	365.96
467.42	363.44
467.78	360.73
468.15	358.16
468.52	356.24
468.88	353.76
469.25	351.51
469.62	349.69
469.98	347.77
470.35	345.94
470.72	344.23
471.08	342.37
471.45	340.82
471.82	339.28
472.18	337.58
472.55	336.33
472.92	334.87
473.28	333.65
473.65	332.47
474.02	331.35
474.38	330.44
474.75	329.72
475.11	328.89
475.48	328.32
475.85	327.80
476.21	327.29
476.58	326.92
476.94	326.68
477.31	326.35
477.67	326.04
478.04	325.92
478.41	325.87
478.77	326.06
479.14	326.01
479.50	326.16
479.87	326.43
480.23	326.75
480.60	327.04
480.96	327.29
481.33	327.90
481.69	328.41
482.06	328.92
482.42	329.37
482.79	329.95
483.15	330.75
483.52	331.70
483.88	332.61
484.25	333.60
484.61	334.62
484.98	335.62
485.34	336.95
485.71	338.34
486.07	339.79
486.44	341.12
486.80	342.74
487.17	344.42
487.53	346.21
487.90	348.08
488.26	350.09
488.62	352.25
488.99	354.23
489.35	356.45
489.72	358.82
490.08	361.38
490.44	363.94
490.81	366.61
491.17	369.31
491.54	372.30
491.90	375.30
492.26	378.55
492.63	382.01
492.99	385.50
493.36	389.16
493.72	393.03
494.08	397.06
494.45	401.28
494.81	405.66
495.17	410.17
495.54	414.85
495.90	419.73
496.26	424.68
496.63	429.99
496.99	435.36
497.35	440.93
497.72	446.73
498.08	452.67
498.44	458.80
498.80	465.26
499.17	471.75
499.53	478.51
499.89	485.41
500.26	492.40
500.62	499.51
500.98	506.91
501.34	514.31
501.71	522.09
502.07	529.92
502.43	537.96
502.79	546.17
503.16	554.57
503.52	563.20
503.88	571.92
504.24	580.87
504.60	590.03
504.97	599.32
505.33	608.62
505.69	618.52
506.05	628.32
506.41	638.27
506.78	648.35
507.14	658.60
507.50	669.11
507.86	679.78
508.22	690.61
508.59	701.31
508.95	712.47
509.31	723.72
509.67	735.18
510.03	746.53
510.39	758.17
510.75	770.05
511.12	781.86
511.48	794.01
511.84	806.38
512.20	818.68
512.56	831.32
512.92	844.18
513.28	856.85
513.64	869.71
514.00	882.54
514.37	895.53
514.73	908.62
515.09	921.68
515.45	934.69
515.81	947.76
516.17	961.11
516.53	974.31
516.89	987.55
517.25	1000.87
517.61	1014.53
517.97	1028.02
518.33	1041.24
518.69	1054.88
519.05	1068.69
519.41	1082.35
519.77	1096.34
520.13	1109.73
520.49	1122.95
520.85	1136.45
521.21	1149.92
521.57	1163.66
521.93	1176.88
522.29	1190.80
522.65	1204.42
523.01	1218.00
523.37	1231.25
523.73	1244.70
524.09	1258.05
524.45	1271.45
524.81	1285.02
525.17	1298.55
525.53	1311.87
525.89	1325.36
526.25	1338.59
526.61	1351.63
526.97	1364.84
527.33	1377.79
527.68	1391.42
528.04	1405.02
528.40	1418.20
528.76	1431.59
529.12	1444.62
529.48	1458.02
529.84	1470.34
530.20	1483.32
530.56	1496.10
530.91	1509.51
531.27	1522.50
531.63	1535.29
531.99	1548.24
532.35	1560.51
532.71	1572.97
533.07	1585.90
533.42	1598.26
533.78	1610.57
534.14	1622.60
534.50	1633.93
534.86	1645.75
535.21	1656.62
535.57	1668.17
535.93	1679.56
536.29	1690.81
536.65	1702.42
537.00	1713.44
537.36	1724.89
537.72	1735.94
538.08	1747.53
538.44	1758.53
538.79	1769.69
539.15	1780.76
539.51	1791.61
539.87	1803.05
540.22	1813.97
540.58	1825.05
540.94	1835.99
541.29	1846.33
541.65	1856.26
542.01	1866.83
542.37	1876.85
542.72	1887.23
543.08	1897.09
543.44	1907.74
543.79	1917.22
544.15	1926.66
544.51	1936.73
544.87	1946.81
545.22	1956.15
545.58	1964.98
545.94	1973.93
546.29	1982.54
546.65	1990.96
547.01	1999.23
547.36	2007.03
547.72	2014.76
548.07	2022.49
548.43	2030.33
548.79	2038.24
549.14	2046.43
549.50	2054.99
549.86	2063.24
550.21	2070.62
550.57	2078.44
550.92	2085.23
551.28	2092.76
551.64	2100.04
551.99	2107.68
552.35	2114.83
552.70	2121.83
553.06	2128.62
553.41	2135.08
553.77	2141.74
554.13	2148.17
554.48	2155.34
554.84	2162.50
555.19	2169.10
555.55	2175.53
555.90	2181.82
556.26	2188.65
556.61	2194.66
556.97	2199.38
557.32	2205.03
557.68	2211.44
558.03	2217.26
558.39	2222.64
558.74	2228.51
559.10	2234.09
559.45	2239.67
559.81	2245.26
560.16	2250.60
560.52	2256.44
560.87	2262.68
561.23	2268.53
561.58	2275.32
561.94	2280.52
562.29	2285.10
562.64	2291.28
563.00	2296.87
563.35	2302.42
563.71	2308.13
564.06	2314.01
564.42	2320.15
564.77	2325.19
565.12	2330.50
565.48	2335.67
565.83	2341.19
566.19	2346.64
566.54	2352.12
566.89	2356.69
567.25	2361.36
567.60	2367.13
567.96	2372.27
568.31	2376.90
568.66	2381.03
569.02	2384.65
569.37	2388.31
569.72	2392.74
570.08	2396.04
570.43	2399.17
570.78	2402.36
571.14	2404.89
571.49	2407.90
571.84	2411.33
572.20	2414.06
572.55	2416.99
572.90	2419.19
573.26	2421.84
573.61	2424.26
573.96	2426.30
574.31	2428.22
574.67	2429.81
575.02	2430.38
575.37	2431.81
575.72	2432.39
576.08	2433.91
576.43	2434.15
576.78	2434.51
577.13	2436.01
577.49	2437.23
577.84	2438.21
578.19	2439.28
578.54	2439.67
578.90	2440.22
579.25	2439.99
579.60	2439.76
579.95	2438.84
580.30	2438.78
580.66	2437.92
581.01	2436.12
581.36	2433.67
581.71	2432.13
582.06	2430.93
582.42	2429.98
582.77	2427.48
583.12	2425.78
583.47	2424.09
583.82	2423.37
584.17	2422.01
584.53	2419.64
584.88	2417.30
585.23	2415.28
585.58	2412.90
585.93	2410.78
586.28	2408.40
586.63	2405.83
586.98	2403.60
587.34	2401.52
587.69	2398.80
588.04	2396.68
588.39	2394.98
588.74	2392.35
589.09	2389.57
589.44	2386.35
589.79	2383.82
590.14	2381.80
590.49	2378.89
590.84	2375.04
591.19	2371.85
591.54	2368.39
591.89	2364.41
592.25	2361.01
592.60	2356.58
592.95	2352.32
593.30	2348.16
593.65	2343.72
594.00	2339.10
594.35	2335.95
594.70	2331.31
595.05	2326.75
595.40	2321.27
595.75	2315.56
596.10	2311.79
596.45	2306.82
596.80	2302.14
597.15	2296.87
597.50	2290.91
597.85	2285.82
598.19	2280.52
598.54	2274.60
598.89	2269.35
599.24	2264.63
599.59	2258.43
599.94	2252.70
600.29	2246.74
600.64	2240.76
600.99	2233.96
601.34	2228.47
601.69	2221.50
602.04	2215.01
602.39	2208.34
602.74	2202.10
603.08	2196.54
603.43	2189.91
603.78	2182.94
604.13	2175.76
604.48	2168.28
604.83	2162.09
605.18	2155.85
605.53	2148.86
605.87	2141.82
606.22	2134.98
606.57	2127.08
606.92	2119.08
607.27	2112.05
607.62	2105.30
607.96	2098.19
608.31	2091.67
608.66	2083.85
609.01	2076.30
609.36	2069.07
609.70	2061.29
610.05	2053.43
610.40	2045.03
610.75	2036.74
611.10	2029.02
611.44	2020.09
611.79	2011.53
612.14	2001.62
612.49	1990.94
612.83	1981.64
613.18	1972.29
613.53	1963.02
613.88	1953.33
614.22	1944.69
614.57	1934.75
614.92	1924.02
615.27	1913.83
615.61	1903.61
615.96	1893.91
616.31	1884.27
616.65	1874.96
617.00	1865.21
617.35	1855.52
617.70	1845.98
618.04	1835.95
618.39	1825.90
618.74	1816.30
619.08	1806.54
619.43	1797.69
619.78	1789.54
620.12	1780.96
620.47	1771.44
620.82	1761.07
621.16	1751.27
621.51	1741.44
621.85	1731.64
622.20	1721.47
622.55	1710.90
622.89	1700.98
623.24	1691.40
623.59	1681.59
623.93	1671.40
624.28	1661.67
624.62	1651.73
624.97	1641.41
625.32	1631.63
625.66	1622.64
626.01	1613.91
626.35	1604.72
626.70	1594.74
627.04	1584.60
627.39	1574.59
627.73	1565.35
628.08	1556.43
628.43	1546.98
628.77	1537.74
629.12	1528.80
629.46	1520.95
629.81	1512.72
630.15	1503.39
630.50	1493.54
630.84	1483.09
631.19	1473.29
631.53	1464.07
631.88	1453.87
632.22	1443.76
632.57	1434.48
632.91	1424.43
633.26	1414.60
633.60	1404.94
633.95	1395.68
634.29	1386.28
634.64	1376.85
634.98	1366.87
635.32	1357.63
635.67	1349.16
636.01	1339.97
636.36	1330.33
636.70	1320.85
637.05	1311.38
637.39	1302.36
637.73	1293.80
638.08	1286.23
638.42	1278.00
638.77	1269.23
639.11	1260.97
639.45	1253.25
639.80	1244.78
640.14	1236.12
640.49	1227.24
640.83	1218.48
641.17	1210.26
641.52	1202.13
641.86	1193.53
642.20	1185.62
642.55	1177.06
642.89	1168.13
643.23	1159.44
643.58	1151.39
643.92	1142.46
644.26	1133.84
644.61	1125.42
644.95	1116.67
645.29	1107.45
645.64	1098.31
645.98	1089.80
646.32	1081.98
646.66	1073.45
647.01	1065.06
647.35	1056.89
647.69	1048.64
648.04	1040.44
648.38	1031.61
648.72	1022.82
649.06	1014.37
649.41	1006.28
649.75	998.27
650.09	990.53
650.43	982.51
650.78	974.20
651.12	966.44
651.46	958.99
651.80	951.85
652.14	944.47
652.49	936.96
652.83	929.60
653.17	921.83
653.51	914.17
653.85	906.89
654.20	899.63
654.54	892.17
654.88	884.83
655.22	877.55
655.56	870.59
655.90	863.81
656.25	857.14
656.59	850.19
656.93	843.18
657.27	836.01
657.61	829.02
657.95	822.90
658.29	816.92
658.64	810.74
658.98	804.23
659.32	797.65
659.66	791.38
660.00	785.10
660.34	779.10
660.68	772.96
661.02	766.69
661.36	760.66
661.70	754.87
662.05	749.25
662.39	743.75
662.73	738.25
663.07	732.91
663.41	727.37
663.75	721.63
664.09	716.01
664.43	710.49
664.77	705.14
665.11	699.31
665.45	693.39
665.79	687.57
666.13	681.81
666.47	676.29
666.81	670.83
667.15	665.31
667.49	660.08
667.83	654.82
668.17	649.47
668.51	644.36
668.85	639.39
669.19	634.48
669.53	629.40
669.87	624.29
670.21	619.40
670.55	614.63
670.89	610.18
671.23	605.74
671.57	601.31
671.91	596.90
672.25	592.65
672.58	588.45
672.92	584.40
673.26	580.46
673.60	576.58
673.94	572.73
674.28	569.18
674.62	565.35
674.96	561.56
675.30	558.09
675.64	554.41
675.97	550.77
676.31	547.09
676.65	543.52
676.99	540.10
677.33	536.22
677.67	532.54
678.01	528.68
678.34	525.09
678.68	521.60
679.02	518.02
679.36	514.39
679.70	510.70
680.04	507.08
680.37	503.56
680.71	500.21
681.05	496.98
681.39	493.73
681.73	490.56
682.06	487.54
682.40	484.38
682.74	481.13
683.08	477.88
683.42	474.64
683.75	471.54
684.09	468.44
684.43	465.62
684.77	462.61
685.10	459.68
685.44	456.72
685.78	453.76
686.12	451.00
686.45	448.17
686.79	445.50
687.13	442.95
687.46	440.27
687.80	437.55
688.14	434.63
688.48	431.87
688.81	429.14
689.15	426.45
689.49	423.80
689.82	421.27
690.16	418.60
690.50	416.16
690.83	413.68
691.17	411.11
691.51	408.57
691.84	406.29
692.18	404.04
692.52	401.78
692.85	399.59
693.19	397.35
693.52	395.19
693.86	392.93
694.20	390.67
694.53	388.51
694.87	386.29
695.21	384.19
695.54	382.01
695.88	379.81
696.21	377.60
696.55	375.41
696.88	373.32
697.22	371.33
697.56	369.38
697.89	367.43
698.23	365.67
698.56	363.88
698.90	362.10
699.23	360.19
699.57	358.29
699.90	356.40
700.24	354.59
700.58	352.82
700.91	351.13
701.25	349.57
701.58	347.92
701.92	346.31
702.25	344.69
702.59	343.09
702.92	341.55
703.26	339.99
703.59	338.52
703.93	337.24
704.26	335.79
704.60	334.27
704.93	332.75
705.26	331.19
705.60	329.66
705.93	328.11
706.27	326.77
706.60	325.46
706.94	324.21
707.27	322.82
707.61	321.42
707.94	320.09
708.27	318.57
708.61	317.12
708.94	315.71
709.28	314.40
709.61	313.13
709.94	311.88
710.28	310.64
710.61	309.44
710.95	308.01
711.28	306.93
711.61	305.71
711.95	304.62
712.28	303.42
712.61	302.22
712.95	301.14
713.28	300.05
713.61	298.92
713.95	297.74
714.28	296.71
714.61	295.66
714.95	294.59
715.28	293.56
715.61	292.49
715.95	291.56
716.28	290.58
716.61	289.60
716.95	288.61
717.28	287.68
717.61	286.68
717.94	285.73
718.28	284.68
718.61	283.80
718.94	282.86
719.27	282.02
719.61	281.24
719.94	280.35
720.27	279.36
720.60	278.51
720.94	277.69
721.27	276.89
721.60	276.21
721.93	275.47
722.27	274.79
722.60	274.15
722.93	273.37
723.26	272.71
723.59	272.02
723.93	271.36
724.26	270.68
724.59	270.03
724.92	269.41
725.25	268.87
725.59	268.29
725.92	267.74
726.25	267.15
726.58	266.51
726.91	265.90
727.24	265.39
727.57	264.82
727.91	264.18
728.24	263.62
728.57	262.98
728.90	262.42
729.23	261.82
729.56	261.39
729.89	260.88
730.22	260.23
730.55	259.66
730.89	259.14
731.22	258.60
731.55	258.07
731.88	257.52
732.21	256.94
732.54	256.37
732.87	255.83
733.20	255.32
733.53	254.85
733.86	254.41
734.19	253.89
734.52	253.43
734.85	253.14
735.18	252.65
735.51	252.27
735.84	251.79
736.17	251.36
736.50	250.78
736.83	250.61
737.16	250.26
737.49	249.87
737.82	249.43
738.15	249.06
738.48	248.68
738.81	248.32
739.14	247.89
739.47	247.50
739.80	247.13
740.13	246.78
740.46	246.37
740.79	245.98
741.12	245.60
741.45	245.22
741.78	244.74
742.11	244.45
742.44	244.05
742.77	243.79
743.10	243.43
743.43	243.12
743.75	242.52
744.08	242.46
744.41	242.08
744.74	241.74
745.07	241.34
745.40	241.04
745.73	240.79
746.06	240.46
746.39	240.15
746.71	239.80
747.04	239.45
747.37	239.11
747.70	238.81
748.03	238.53
748.36	238.24
748.68	237.98
749.01	237.59
749.34	237.33
749.67	237.01
750.00	236.76
750.33	236.61
750.65	236.37
750.98	235.82
751.31	235.58
751.64	235.37
751.97	235.26
752.29	234.95
752.62	234.60
752.95	234.36
753.28	234.10
753.60	233.88
753.93	233.69
754.26	233.47
754.59	233.19
754.91	232.94
755.24	232.72
755.57	232.48
755.90	232.29
756.22	232.00
756.55	231.75
756.88	231.50
757.20	231.14
757.53	230.85
757.86	230.64
758.19	230.42
758.51	230.17
758.84	229.88
759.17	229.73
759.49	229.57
759.82	229.49
760.15	229.31
760.47	229.13
760.80	228.85
761.13	228.73
761.45	228.51
761.78	228.35
762.11	228.16
762.43	227.92
762.76	227.74
763.08	227.61
763.41	227.46
763.74	227.33
764.06	227.18
764.39	227.07
764.71	226.92
765.04	226.74
765.37	226.62
765.69	226.45
766.02	226.25
766.34	226.10
766.67	225.84
767.00	225.75
767.32	225.73
767.65	225.75
767.97	225.57
768.30	225.47
768.62	225.30
768.95	225.16
769.27	225.04
769.60	224.94
769.92	224.76
770.25	224.61
770.57	224.44
770.90	224.32
771.22	224.18
771.55	224.07
771.87	223.98
772.20	223.82
772.52	223.88
772.85	224.04
773.17	223.92
773.50	223.82
773.82	223.66
774.15	223.42
774.47	223.17
774.80	223.07
775.12	222.96
775.45	222.90
775.77	222.79
776.09	222.69
776.42	222.64
776.74	222.65
777.07	222.53
777.39	222.47
777.72	222.35
778.04	222.32
778.36	222.22
778.69	222.14
779.01	222.10
779.33	221.81
779.66	221.50
779.98	221.39
780.31	221.33
780.63	221.36
780.95	221.36
781.28	221.30
781.60	221.24
781.92	221.18
782.25	221.07
782.57	221.02
782.89	220.97
783.22	220.87
783.54	220.73
783.86	220.74
784.19	220.66
784.51	220.67
784.83	220.54
785.16	220.48
785.48	220.42
785.80	220.38
786.12	220.33
