SpectraSuite Data File
++++++++++++++++++++++++++++++++++++
Date: Tue Jan 29 16:18:59 EST 2013
User: group
Dark Spectrum Present: No
Reference Spectrum Present: No
Number of Sampled Component Spectra: 1
Spectrometers: USB2E7196
Integration Time (usec): 65000 (USB2E7196)
Spectra Averaged: 100 (USB2E7196)
Boxcar Smoothing: 10 (USB2E7196)
Correct for Electrical Dark: No (USB2E7196)
Strobe/Lamp Enabled: No (USB2E7196)
Correct for Detector Non-linearity: No (USB2E7196)
Correct for Stray Light: No (USB2E7196)
Number of Pixels in Processed Spectrum: 2048
>>>>>Begin Processed Spectral Data<<<<<
339.09	0.00
339.48	202.70
339.86	203.93
340.24	205.76
340.63	207.08
341.01	211.43
341.39	209.73
341.78	211.40
342.16	212.34
342.54	212.53
342.93	202.04
343.31	212.27
343.69	212.80
344.07	213.30
344.46	213.77
344.84	214.17
345.22	214.35
345.60	214.63
345.99	214.80
346.37	214.95
346.75	215.08
347.13	215.18
347.52	215.24
347.90	215.37
348.28	215.42
348.66	215.47
349.05	215.44
349.43	215.47
349.81	215.49
350.19	215.53
350.57	215.57
350.96	215.64
351.34	215.73
351.72	215.83
352.10	215.90
352.48	215.94
352.87	215.98
353.25	216.05
353.63	216.06
354.01	216.14
354.39	216.19
354.77	216.24
355.15	216.32
355.54	216.33
355.92	216.33
356.30	216.38
356.68	216.54
357.06	216.61
357.44	216.64
357.82	216.69
358.20	216.79
358.58	216.85
358.97	216.90
359.35	216.98
359.73	217.08
360.11	217.13
360.49	217.16
360.87	217.19
361.25	217.20
361.63	217.30
362.01	217.37
362.39	217.39
362.77	217.44
363.15	217.42
363.53	217.45
363.91	217.46
364.29	217.49
364.67	217.36
365.05	217.36
365.43	217.37
365.81	217.42
366.19	217.45
366.57	217.52
366.95	217.51
367.33	217.43
367.71	217.40
368.09	217.41
368.47	217.38
368.85	217.36
369.23	217.39
369.61	217.34
369.99	217.35
370.37	217.36
370.75	217.44
371.13	217.41
371.51	217.34
371.89	217.34
372.27	217.30
372.65	217.27
373.03	217.23
373.41	217.18
373.78	217.13
374.16	217.01
374.54	216.92
374.92	216.90
375.30	216.87
375.68	216.80
376.06	216.79
376.44	216.77
376.82	216.74
377.19	216.68
377.57	216.58
377.95	216.49
378.33	216.44
378.71	216.31
379.09	216.29
379.47	216.31
379.84	216.24
380.22	216.17
380.60	216.10
380.98	216.05
381.36	216.04
381.73	215.97
382.11	215.95
382.49	215.92
382.87	215.87
383.25	215.83
383.62	216.04
384.00	215.95
384.38	215.92
384.76	215.95
385.13	216.03
385.51	216.01
385.89	215.97
386.27	215.95
386.64	215.93
387.02	215.86
387.40	215.80
387.78	215.80
388.15	215.80
388.53	215.76
388.91	215.77
389.29	215.73
389.66	215.77
390.04	215.75
390.42	215.77
390.79	215.75
391.17	215.76
391.55	215.52
391.92	215.56
392.30	215.57
392.68	215.49
393.05	215.45
393.43	215.49
393.81	215.49
394.18	215.46
394.56	215.48
394.94	215.57
395.31	215.60
395.69	215.70
396.06	215.76
396.44	215.83
396.82	215.82
397.19	215.97
397.57	215.96
397.95	216.03
398.32	216.00
398.70	216.06
399.07	216.14
399.45	216.19
399.82	216.22
400.20	216.26
400.58	216.31
400.95	216.33
401.33	216.44
401.70	216.64
402.08	216.71
402.45	216.79
402.83	216.92
403.20	217.00
403.58	217.07
403.95	217.18
404.33	217.36
404.71	217.51
405.08	217.76
405.46	217.94
405.83	218.12
406.21	218.33
406.58	218.55
406.96	218.75
407.33	219.00
407.70	219.28
408.08	219.72
408.45	220.07
408.83	220.43
409.20	220.75
409.58	221.00
409.95	221.50
410.33	221.97
410.70	222.34
411.08	222.89
411.45	223.41
411.82	223.97
412.20	224.60
412.57	225.42
412.95	225.95
413.32	226.74
413.69	227.55
414.07	228.40
414.44	229.38
414.82	230.40
415.19	231.57
415.56	232.78
415.94	233.91
416.31	235.30
416.68	236.68
417.06	238.25
417.43	239.81
417.81	241.47
418.18	243.21
418.55	245.12
418.93	247.09
419.30	249.19
419.67	251.36
420.04	253.57
420.42	255.88
420.79	258.65
421.16	261.37
421.54	264.22
421.91	267.18
422.28	270.17
422.66	273.35
423.03	276.47
423.40	279.75
423.77	283.28
424.15	286.85
424.52	290.58
424.89	294.68
425.26	298.62
425.64	302.42
426.01	306.60
426.38	310.96
426.75	315.41
427.13	320.03
427.50	324.90
427.87	329.95
428.24	335.00
428.61	339.83
428.99	345.22
429.36	351.12
429.73	356.84
430.10	362.55
430.47	368.45
430.85	374.62
431.22	381.15
431.59	388.06
431.96	394.67
432.33	402.00
432.70	409.07
433.08	417.39
433.45	425.24
433.82	433.02
434.19	441.69
434.56	450.20
434.93	458.28
435.30	466.36
435.68	475.22
436.05	483.99
436.42	492.70
436.79	500.58
437.16	509.03
437.53	518.07
437.90	527.07
438.27	535.79
438.64	544.72
439.01	553.03
439.38	560.44
439.75	567.58
440.13	575.83
440.50	583.59
440.87	589.86
441.24	596.38
441.61	603.57
441.98	608.78
442.35	614.92
442.72	621.08
443.09	626.94
443.46	630.61
443.83	633.08
444.20	635.21
444.57	638.36
444.94	639.86
445.31	641.26
445.68	642.60
446.05	643.19
446.42	642.43
446.79	641.53
447.16	640.46
447.53	639.71
447.90	636.40
448.27	633.09
448.64	628.49
449.01	625.25
449.37	619.47
449.74	613.98
450.11	607.22
450.48	599.99
450.85	592.71
451.22	586.37
451.59	580.39
451.96	574.65
452.33	566.92
452.70	559.94
453.07	551.66
453.43	543.24
453.80	535.18
454.17	527.42
454.54	520.02
454.91	512.05
455.28	504.32
455.65	497.12
456.02	489.87
456.38	483.79
456.75	476.10
457.12	469.66
457.49	463.31
457.86	457.28
458.23	452.11
458.59	446.35
458.96	440.53
459.33	435.39
459.70	430.21
460.07	426.09
460.43	421.40
460.80	416.94
461.17	413.07
461.54	409.04
461.91	405.11
462.27	401.07
462.64	397.76
463.01	394.03
463.38	390.43
463.74	386.78
464.11	383.59
464.48	380.84
464.85	377.92
465.21	375.56
465.58	373.03
465.95	369.93
466.32	367.39
466.68	364.92
467.05	362.39
467.42	359.92
467.78	357.33
468.15	354.83
468.52	352.98
468.88	350.54
469.25	348.36
469.62	346.65
469.98	344.80
470.35	343.04
470.72	341.42
471.08	339.69
471.45	338.24
471.82	336.78
472.18	335.13
472.55	333.91
472.92	332.57
473.28	331.37
473.65	330.35
474.02	329.32
474.38	328.41
474.75	327.68
475.11	326.89
475.48	326.35
475.85	325.87
476.21	325.40
476.58	325.06
476.94	324.86
477.31	324.56
477.67	324.31
478.04	324.14
478.41	324.11
478.77	324.29
479.14	324.30
479.50	324.48
479.87	324.85
480.23	325.17
480.60	325.45
480.96	325.75
481.33	326.30
481.69	326.87
482.06	327.40
482.42	327.89
482.79	328.49
483.15	329.25
483.52	330.19
483.88	331.12
484.25	332.07
484.61	333.10
484.98	334.18
485.34	335.51
485.71	336.86
486.07	338.35
486.44	339.64
486.80	341.25
487.17	342.88
487.53	344.66
487.90	346.58
488.26	348.59
488.62	350.74
488.99	352.78
489.35	354.92
489.72	357.33
490.08	359.84
490.44	362.42
490.81	365.20
491.17	367.91
491.54	370.81
491.90	373.85
492.26	377.08
492.63	380.44
492.99	383.91
493.36	387.63
493.72	391.48
494.08	395.48
494.45	399.70
494.81	404.08
495.17	408.54
495.54	413.24
495.90	418.04
496.26	422.95
496.63	428.20
496.99	433.60
497.35	439.18
497.72	445.03
498.08	450.95
498.44	456.96
498.80	463.38
499.17	469.90
499.53	476.61
499.89	483.51
500.26	490.53
500.62	497.63
500.98	505.08
501.34	512.57
501.71	520.34
502.07	528.09
502.43	536.08
502.79	544.23
503.16	552.53
503.52	561.08
503.88	569.83
504.24	578.70
504.60	587.73
504.97	596.89
505.33	606.13
505.69	615.99
506.05	625.90
506.41	635.70
506.78	645.75
507.14	656.05
507.50	666.43
507.86	677.11
508.22	687.83
508.59	698.33
508.95	709.37
509.31	720.63
509.67	732.05
510.03	743.37
510.39	755.00
510.75	766.89
511.12	778.76
511.48	790.76
511.84	803.02
512.20	815.30
512.56	827.92
512.92	840.65
513.28	853.15
513.64	865.85
514.00	878.73
514.37	891.64
514.73	904.64
515.09	917.62
515.45	930.45
515.81	943.47
516.17	956.88
516.53	970.00
516.89	982.99
517.25	996.09
517.61	1009.54
517.97	1022.92
518.33	1035.97
518.69	1049.44
519.05	1063.09
519.41	1076.65
519.77	1090.46
520.13	1103.72
520.49	1116.75
520.85	1130.16
521.21	1143.27
521.57	1156.76
521.93	1169.75
522.29	1183.42
522.65	1196.89
523.01	1210.45
523.37	1223.50
523.73	1236.61
524.09	1249.60
524.45	1262.95
524.81	1276.42
525.17	1289.62
525.53	1302.80
525.89	1316.02
526.25	1329.01
526.61	1341.71
526.97	1354.64
527.33	1367.46
527.68	1380.73
528.04	1394.06
528.40	1406.89
528.76	1420.18
529.12	1432.95
529.48	1446.08
529.84	1458.07
530.20	1470.67
530.56	1483.03
530.91	1496.16
531.27	1508.86
531.63	1521.48
531.99	1533.90
532.35	1545.95
532.71	1558.09
533.07	1570.60
533.42	1582.63
533.78	1594.62
534.14	1606.51
534.50	1617.51
534.86	1628.84
535.21	1639.45
535.57	1650.78
535.93	1661.90
536.29	1672.70
536.65	1683.90
537.00	1694.61
537.36	1705.71
537.72	1716.39
538.08	1727.42
538.44	1737.96
538.79	1748.78
539.15	1759.37
539.51	1770.04
539.87	1781.05
540.22	1791.72
540.58	1802.52
540.94	1812.97
541.29	1822.89
541.65	1832.41
542.01	1842.65
542.37	1852.41
542.72	1862.20
543.08	1871.71
543.44	1881.96
543.79	1891.16
544.15	1900.44
544.51	1910.24
544.87	1920.04
545.22	1929.17
545.58	1937.99
545.94	1946.73
546.29	1955.07
546.65	1963.32
547.01	1971.37
547.36	1978.77
547.72	1986.42
548.07	1993.62
548.43	2001.42
548.79	2009.17
549.14	2017.15
549.50	2025.62
549.86	2033.44
550.21	2040.91
550.57	2048.44
550.92	2055.09
551.28	2062.45
551.64	2069.57
551.99	2076.95
552.35	2084.03
552.70	2090.68
553.06	2097.19
553.41	2103.51
553.77	2109.97
554.13	2116.34
554.48	2123.16
554.84	2130.26
555.19	2136.71
555.55	2143.15
555.90	2149.26
556.26	2156.15
556.61	2162.25
556.97	2166.88
557.32	2172.76
557.68	2179.17
558.03	2184.90
558.39	2190.21
558.74	2196.01
559.10	2201.50
559.45	2206.98
559.81	2212.43
560.16	2218.07
560.52	2223.87
560.87	2230.00
561.23	2235.89
561.58	2242.46
561.94	2247.82
562.29	2252.47
562.64	2258.48
563.00	2264.17
563.35	2269.81
563.71	2275.39
564.06	2280.95
564.42	2287.04
564.77	2291.97
565.12	2297.22
565.48	2302.41
565.83	2307.98
566.19	2313.41
566.54	2318.84
566.89	2323.66
567.25	2328.36
567.60	2334.11
567.96	2339.40
568.31	2344.14
568.66	2348.53
569.02	2352.57
569.37	2356.54
569.72	2361.20
570.08	2364.87
570.43	2368.22
570.78	2371.39
571.14	2373.95
571.49	2377.33
571.84	2380.87
572.20	2383.98
572.55	2387.02
572.90	2389.46
573.26	2392.41
573.61	2395.25
573.96	2397.56
574.31	2399.63
574.67	2401.64
575.02	2402.44
575.37	2403.90
575.72	2404.74
576.08	2406.24
576.43	2406.59
576.78	2406.92
577.13	2408.43
577.49	2409.67
577.84	2410.67
578.19	2412.19
578.54	2413.03
578.90	2413.80
579.25	2413.86
579.60	2413.90
579.95	2413.49
580.30	2413.60
580.66	2413.06
581.01	2411.40
581.36	2409.14
581.71	2407.86
582.06	2406.79
582.42	2406.20
582.77	2404.19
583.12	2402.89
583.47	2401.73
583.82	2401.19
584.17	2400.29
584.53	2398.42
584.88	2396.66
585.23	2394.98
585.58	2392.85
585.93	2391.11
586.28	2389.10
586.63	2386.85
586.98	2384.92
587.34	2382.96
587.69	2380.78
588.04	2378.96
588.39	2377.80
588.74	2375.61
589.09	2373.05
589.44	2369.96
589.79	2367.49
590.14	2365.74
590.49	2362.96
590.84	2359.25
591.19	2356.34
591.54	2353.25
591.89	2349.34
592.25	2346.20
592.60	2342.24
592.95	2338.30
593.30	2334.11
593.65	2329.97
594.00	2325.66
594.35	2322.72
594.70	2318.20
595.05	2313.79
595.40	2308.44
595.75	2302.72
596.10	2299.21
596.45	2294.53
596.80	2290.30
597.15	2285.24
597.50	2279.39
597.85	2274.49
598.19	2269.53
598.54	2263.80
598.89	2258.61
599.24	2254.17
599.59	2248.05
599.94	2242.33
600.29	2236.40
600.64	2230.67
600.99	2223.84
601.34	2218.38
601.69	2211.30
602.04	2205.19
602.39	2198.46
602.74	2192.25
603.08	2186.79
603.43	2180.23
603.78	2173.45
604.13	2166.38
604.48	2159.15
604.83	2153.04
605.18	2146.93
605.53	2140.04
605.87	2133.00
606.22	2126.32
606.57	2118.37
606.92	2110.38
607.27	2103.34
607.62	2096.65
607.96	2089.56
608.31	2083.15
608.66	2075.32
609.01	2067.79
609.36	2060.53
609.70	2053.02
610.05	2045.38
610.40	2037.10
610.75	2028.81
611.10	2021.06
611.44	2012.19
611.79	2003.64
612.14	1993.69
612.49	1982.91
612.83	1973.47
613.18	1964.27
613.53	1954.80
613.88	1945.38
614.22	1936.93
614.57	1927.17
614.92	1916.67
615.27	1906.45
615.61	1896.35
615.96	1886.86
616.31	1877.34
616.65	1867.83
617.00	1858.14
617.35	1848.43
617.70	1838.72
618.04	1828.81
618.39	1818.70
618.74	1809.06
619.08	1799.33
619.43	1790.71
619.78	1782.61
620.12	1773.98
620.47	1764.34
620.82	1754.17
621.16	1744.21
621.51	1734.21
621.85	1724.36
622.20	1714.00
622.55	1703.54
622.89	1693.66
623.24	1683.99
623.59	1674.20
623.93	1664.18
624.28	1654.32
624.62	1644.25
624.97	1634.02
625.32	1624.04
625.66	1615.07
626.01	1606.21
626.35	1596.92
626.70	1586.87
627.04	1576.69
627.39	1566.57
627.73	1557.24
628.08	1548.11
628.43	1538.59
628.77	1529.31
629.12	1520.29
629.46	1512.45
629.81	1504.00
630.15	1494.41
630.50	1484.50
630.84	1473.85
631.19	1463.76
631.53	1454.47
631.88	1444.33
632.22	1434.29
632.57	1424.91
632.91	1414.70
633.26	1404.77
633.60	1394.98
633.95	1385.63
634.29	1376.15
634.64	1366.80
634.98	1356.86
635.32	1347.56
635.67	1339.13
636.01	1329.71
636.36	1320.01
636.70	1310.48
637.05	1301.13
637.39	1292.19
637.73	1283.58
638.08	1276.07
638.42	1268.01
638.77	1259.21
639.11	1250.83
639.45	1243.03
639.80	1234.56
640.14	1225.94
640.49	1217.07
640.83	1208.37
641.17	1200.12
641.52	1192.02
641.86	1183.37
642.20	1175.48
642.55	1166.82
642.89	1157.85
643.23	1149.24
643.58	1141.05
643.92	1131.95
644.26	1123.22
644.61	1114.73
644.95	1105.79
645.29	1096.55
645.64	1087.35
645.98	1078.73
646.32	1070.83
646.66	1062.22
647.01	1053.82
647.35	1045.65
647.69	1037.41
648.04	1029.18
648.38	1020.37
648.72	1011.52
649.06	1003.17
649.41	995.02
649.75	987.12
650.09	979.27
650.43	971.24
650.78	963.00
651.12	955.30
651.46	947.92
651.80	940.73
652.14	933.46
652.49	925.89
652.83	918.62
653.17	911.08
653.51	903.48
653.85	896.22
654.20	888.96
654.54	881.43
654.88	874.13
655.22	866.92
655.56	859.84
655.90	853.11
656.25	846.34
656.59	839.42
656.93	832.48
657.27	825.35
657.61	818.43
657.95	812.28
658.29	806.35
658.64	800.17
658.98	793.65
659.32	787.14
659.66	780.99
660.00	774.62
660.34	768.53
660.68	762.35
661.02	756.05
661.36	750.10
661.70	744.37
662.05	738.78
662.39	733.20
662.73	727.91
663.07	722.50
663.41	716.92
663.75	711.20
664.09	705.42
664.43	700.04
664.77	694.69
665.11	688.96
665.45	683.11
665.79	677.34
666.13	671.69
666.47	666.28
666.81	660.85
667.15	655.48
667.49	650.23
667.83	645.05
668.17	639.83
668.51	634.78
668.85	629.80
669.19	624.85
669.53	619.87
669.87	614.72
670.21	609.97
670.55	605.34
670.89	600.97
671.23	596.74
671.57	592.31
671.91	588.02
672.25	583.80
672.58	579.68
672.92	575.68
673.26	571.76
673.60	567.84
673.94	563.98
674.28	560.37
674.62	556.69
674.96	552.94
675.30	549.46
675.64	545.74
675.97	542.20
676.31	538.69
676.65	535.13
676.99	531.82
677.33	528.01
677.67	524.41
678.01	520.55
678.34	516.90
678.68	513.45
679.02	509.94
679.36	506.36
679.70	502.75
680.04	499.15
680.37	495.77
680.71	492.53
681.05	489.40
681.39	486.16
681.73	482.90
682.06	479.92
682.40	476.87
682.74	473.70
683.08	470.56
683.42	467.37
683.75	464.35
684.09	461.26
684.43	458.50
684.77	455.61
685.10	452.81
685.44	449.89
685.78	446.97
686.12	444.23
686.45	441.54
686.79	438.88
687.13	436.36
687.46	433.72
687.80	431.03
688.14	428.21
688.48	425.59
688.81	423.00
689.15	420.37
689.49	417.74
689.82	415.29
690.16	412.70
690.50	410.30
690.83	407.83
691.17	405.37
691.51	402.92
691.84	400.63
692.18	398.40
692.52	396.21
692.85	394.10
693.19	391.92
693.52	389.77
693.86	387.54
694.20	385.40
694.53	383.28
694.87	381.14
695.21	379.03
695.54	376.94
695.88	374.81
696.21	372.70
696.55	370.66
696.88	368.61
697.22	366.65
697.56	364.78
697.89	362.94
698.23	361.20
698.56	359.44
698.90	357.68
699.23	355.81
699.57	354.00
699.90	352.14
700.24	350.35
700.58	348.59
700.91	347.00
701.25	345.47
701.58	343.88
701.92	342.32
702.25	340.75
702.59	339.14
702.92	337.62
703.26	336.08
703.59	334.60
703.93	333.37
704.26	331.97
704.60	330.49
704.93	329.06
705.26	327.58
705.60	326.08
705.93	324.58
706.27	323.27
706.60	322.01
706.94	320.83
707.27	319.49
707.61	318.15
707.94	316.81
708.27	315.31
708.61	313.91
708.94	312.58
709.28	311.30
709.61	310.07
709.94	308.90
710.28	307.73
710.61	306.55
710.95	305.13
711.28	304.06
711.61	302.87
711.95	301.76
712.28	300.59
712.61	299.45
712.95	298.44
713.28	297.41
713.61	296.28
713.95	295.14
714.28	294.18
714.61	293.18
714.95	292.18
715.28	291.20
715.61	290.21
715.95	289.23
716.28	288.31
716.61	287.36
716.95	286.37
717.28	285.43
717.61	284.50
717.94	283.59
718.28	282.57
718.61	281.71
718.94	280.81
719.27	279.96
719.61	279.19
719.94	278.30
720.27	277.41
720.60	276.58
720.94	275.75
721.27	274.96
721.60	274.24
721.93	273.57
722.27	272.90
722.60	272.24
722.93	271.55
723.26	270.91
723.59	270.21
723.93	269.61
724.26	268.98
724.59	268.34
724.92	267.76
725.25	267.21
725.59	266.66
725.92	266.13
726.25	265.60
726.58	265.03
726.91	264.45
727.24	263.87
727.57	263.31
727.91	262.73
728.24	262.22
728.57	261.65
728.90	261.08
729.23	260.51
729.56	260.06
729.89	259.53
730.22	258.94
730.55	258.43
730.89	257.91
731.22	257.36
731.55	256.85
731.88	256.30
732.21	255.81
732.54	255.26
732.87	254.74
733.20	254.23
733.53	253.72
733.86	253.28
734.19	252.82
734.52	252.42
734.85	252.19
735.18	251.71
735.51	251.35
735.84	250.94
736.17	250.57
736.50	250.04
736.83	249.91
737.16	249.50
737.49	249.15
737.82	248.72
738.15	248.39
738.48	248.00
738.81	247.66
739.14	247.20
739.47	246.84
739.80	246.49
740.13	246.14
740.46	245.77
740.79	245.38
741.12	245.06
741.45	244.69
741.78	244.21
742.11	243.96
742.44	243.56
742.77	243.28
743.10	242.94
743.43	242.60
743.75	242.07
744.08	242.05
744.41	241.67
744.74	241.33
745.07	240.97
745.40	240.72
745.73	240.46
746.06	240.22
746.39	239.91
746.71	239.55
747.04	239.24
747.37	238.92
747.70	238.66
748.03	238.34
748.36	238.07
748.68	237.77
749.01	237.42
749.34	237.17
749.67	236.86
750.00	236.56
750.33	236.44
750.65	236.12
750.98	235.60
751.31	235.37
751.64	235.18
751.97	235.08
752.29	234.78
752.62	234.47
752.95	234.16
753.28	233.91
753.60	233.71
753.93	233.53
754.26	233.31
754.59	233.07
754.91	232.85
755.24	232.63
755.57	232.38
755.90	232.15
756.22	231.91
756.55	231.66
756.88	231.42
757.20	231.08
757.53	230.87
757.86	230.67
758.19	230.49
758.51	230.26
758.84	229.93
759.17	229.71
759.49	229.55
759.82	229.50
760.15	229.36
760.47	229.16
760.80	228.91
761.13	228.77
761.45	228.59
761.78	228.41
762.11	228.21
762.43	228.09
762.76	227.90
763.08	227.74
763.41	227.62
763.74	227.49
764.06	227.33
764.39	227.15
764.71	227.02
765.04	226.84
765.37	226.70
765.69	226.59
766.02	226.44
766.34	226.26
766.67	226.04
767.00	225.89
767.32	225.87
767.65	225.90
767.97	225.74
768.30	225.62
768.62	225.51
768.95	225.38
769.27	225.25
769.60	225.17
769.92	224.99
770.25	224.80
770.57	224.61
770.90	224.47
771.22	224.36
771.55	224.21
771.87	224.11
772.20	223.96
772.52	224.03
772.85	224.23
773.17	224.11
773.50	224.01
773.82	223.91
774.15	223.72
774.47	223.45
774.80	223.32
775.12	223.18
775.45	223.09
775.77	223.01
776.09	222.88
776.42	222.82
776.74	222.82
777.07	222.75
777.39	222.71
777.72	222.62
778.04	222.60
778.36	222.51
778.69	222.47
779.01	222.39
779.33	222.10
779.66	221.76
779.98	221.69
780.31	221.60
780.63	221.59
780.95	221.52
781.28	221.47
781.60	221.42
781.92	221.37
782.25	221.31
782.57	221.21
782.89	221.18
783.22	221.07
783.54	220.98
783.86	220.93
784.19	220.85
784.51	220.87
784.83	220.77
785.16	220.74
785.48	220.67
785.80	220.63
786.12	220.59
