SpectraSuite Data File
++++++++++++++++++++++++++++++++++++
Date: Tue Jan 29 16:34:35 EST 2013
User: group
Dark Spectrum Present: No
Reference Spectrum Present: No
Number of Sampled Component Spectra: 1
Spectrometers: USB2E7196
Integration Time (usec): 65000 (USB2E7196)
Spectra Averaged: 100 (USB2E7196)
Boxcar Smoothing: 10 (USB2E7196)
Correct for Electrical Dark: No (USB2E7196)
Strobe/Lamp Enabled: No (USB2E7196)
Correct for Detector Non-linearity: No (USB2E7196)
Correct for Stray Light: No (USB2E7196)
Number of Pixels in Processed Spectrum: 2048
>>>>>Begin Processed Spectral Data<<<<<
339.09	0.00
339.48	201.52
339.86	202.96
340.24	204.27
340.63	205.97
341.01	210.49
341.39	208.79
341.78	210.16
342.16	211.46
342.54	212.15
342.93	200.96
343.31	211.12
343.69	211.69
344.07	212.18
344.46	212.68
344.84	213.11
345.22	213.28
345.60	213.56
345.99	213.77
346.37	213.93
346.75	214.06
347.13	214.16
347.52	214.19
347.90	214.31
348.28	214.39
348.66	214.50
349.05	214.45
349.43	214.52
349.81	214.61
350.19	214.65
350.57	214.74
350.96	214.83
351.34	214.94
351.72	215.01
352.10	215.12
352.48	215.16
352.87	215.17
353.25	215.22
353.63	215.24
354.01	215.31
354.39	215.40
354.77	215.45
355.15	215.62
355.54	215.70
355.92	215.70
356.30	215.74
356.68	215.96
357.06	216.04
357.44	216.11
357.82	216.15
358.20	216.26
358.58	216.30
358.97	216.33
359.35	216.42
359.73	216.56
360.11	216.63
360.49	216.69
360.87	216.76
361.25	216.87
361.63	217.03
362.01	217.08
362.39	217.10
362.77	217.18
363.15	217.16
363.53	217.15
363.91	217.19
364.29	217.24
364.67	217.06
365.05	217.10
365.43	217.16
365.81	217.23
366.19	217.33
366.57	217.45
366.95	217.50
367.33	217.47
367.71	217.48
368.09	217.48
368.47	217.48
368.85	217.48
369.23	217.50
369.61	217.40
369.99	217.45
370.37	217.43
370.75	217.48
371.13	217.41
371.51	217.40
371.89	217.41
372.27	217.42
372.65	217.41
373.03	217.41
373.41	217.37
373.78	217.30
374.16	217.17
374.54	217.05
374.92	216.99
375.30	216.95
375.68	216.84
376.06	216.82
376.44	216.78
376.82	216.71
377.19	216.65
377.57	216.64
377.95	216.51
378.33	216.47
378.71	216.32
379.09	216.37
379.47	216.32
379.84	216.25
380.22	216.17
380.60	216.09
380.98	216.02
381.36	215.93
381.73	215.86
382.11	215.86
382.49	215.80
382.87	215.75
383.25	215.72
383.62	215.90
384.00	215.80
384.38	215.76
384.76	215.82
385.13	215.84
385.51	215.80
385.89	215.77
386.27	215.74
386.64	215.74
387.02	215.65
387.40	215.60
387.78	215.58
388.15	215.57
388.53	215.55
388.91	215.52
389.29	215.49
389.66	215.47
390.04	215.42
390.42	215.47
390.79	215.45
391.17	215.45
391.55	215.23
391.92	215.22
392.30	215.23
392.68	215.17
393.05	215.15
393.43	215.14
393.81	215.16
394.18	215.13
394.56	215.13
394.94	215.18
395.31	215.18
395.69	215.25
396.06	215.28
396.44	215.30
396.82	215.30
397.19	215.44
397.57	215.45
397.95	215.51
398.32	215.46
398.70	215.53
399.07	215.59
399.45	215.62
399.82	215.68
400.20	215.70
400.58	215.76
400.95	215.75
401.33	215.86
401.70	216.05
402.08	216.15
402.45	216.21
402.83	216.36
403.20	216.47
403.58	216.55
403.95	216.71
404.33	216.91
404.71	217.06
405.08	217.31
405.46	217.51
405.83	217.68
406.21	217.89
406.58	218.09
406.96	218.32
407.33	218.60
407.70	218.92
408.08	219.39
408.45	219.77
408.83	220.16
409.20	220.47
409.58	220.77
409.95	221.22
410.33	221.73
410.70	222.14
411.08	222.70
411.45	223.26
411.82	223.80
412.20	224.47
412.57	225.29
412.95	225.87
413.32	226.71
413.69	227.57
414.07	228.49
414.44	229.47
414.82	230.47
415.19	231.64
415.56	232.81
415.94	234.01
416.31	235.43
416.68	236.82
417.06	238.49
417.43	240.03
417.81	241.76
418.18	243.53
418.55	245.48
418.93	247.52
419.30	249.67
419.67	251.93
420.04	254.22
420.42	256.60
420.79	259.43
421.16	262.19
421.54	265.08
421.91	268.08
422.28	271.22
422.66	274.56
423.03	277.82
423.40	281.19
423.77	284.78
424.15	288.44
424.52	292.29
424.89	296.49
425.26	300.58
425.64	304.48
426.01	308.80
426.38	313.23
426.75	317.79
427.13	322.46
427.50	327.42
427.87	332.59
428.24	337.78
428.61	342.80
428.99	348.36
429.36	354.37
429.73	360.28
430.10	366.13
430.47	372.18
430.85	378.57
431.22	385.32
431.59	392.45
431.96	399.22
432.33	406.68
432.70	413.88
433.08	422.42
433.45	430.52
433.82	438.55
434.19	447.50
434.56	456.22
434.93	464.65
435.30	472.98
435.68	482.10
436.05	491.12
436.42	499.98
436.79	508.16
437.16	516.95
437.53	526.26
437.90	535.44
438.27	544.43
438.64	553.58
439.01	562.08
439.38	569.66
439.75	577.07
440.13	585.53
440.50	593.47
440.87	599.86
441.24	606.54
441.61	613.87
441.98	619.30
442.35	625.63
442.72	631.94
443.09	637.98
443.46	641.78
443.83	644.31
444.20	646.50
444.57	649.64
444.94	651.11
445.31	652.48
445.68	653.86
446.05	654.44
446.42	653.66
446.79	652.68
447.16	651.57
447.53	650.72
447.90	647.43
448.27	644.19
448.64	639.63
449.01	636.27
449.37	630.32
449.74	624.57
450.11	617.64
450.48	610.22
450.85	602.74
451.22	596.20
451.59	590.07
451.96	584.25
452.33	576.32
452.70	569.15
453.07	560.70
453.43	552.08
453.80	543.81
454.17	535.77
454.54	528.27
454.91	520.05
455.28	512.11
455.65	504.61
456.02	497.06
456.38	490.66
456.75	482.76
457.12	476.21
457.49	469.70
457.86	463.49
458.23	458.07
458.59	452.15
458.96	446.16
459.33	440.85
459.70	435.51
460.07	431.32
460.43	426.47
460.80	421.84
461.17	417.80
461.54	413.56
461.91	409.58
462.27	405.43
462.64	402.07
463.01	398.30
463.38	394.66
463.74	390.96
464.11	387.73
464.48	384.87
464.85	381.77
465.21	379.38
465.58	376.75
465.95	373.60
466.32	370.97
466.68	368.37
467.05	365.75
467.42	363.12
467.78	360.42
468.15	357.84
468.52	355.96
468.88	353.51
469.25	351.29
469.62	349.47
469.98	347.53
470.35	345.69
470.72	343.95
471.08	342.09
471.45	340.57
471.82	339.05
472.18	337.41
472.55	336.24
472.92	334.77
473.28	333.56
473.65	332.44
474.02	331.32
474.38	330.41
474.75	329.66
475.11	328.82
475.48	328.21
475.85	327.76
476.21	327.27
476.58	326.92
476.94	326.71
477.31	326.42
477.67	326.15
478.04	325.99
478.41	325.97
478.77	326.20
479.14	326.19
479.50	326.28
479.87	326.54
480.23	326.84
480.60	327.12
480.96	327.40
481.33	327.95
481.69	328.52
482.06	329.06
482.42	329.53
482.79	330.20
483.15	330.99
483.52	331.94
483.88	332.79
484.25	333.75
484.61	334.73
484.98	335.76
485.34	337.06
485.71	338.44
486.07	339.90
486.44	341.20
486.80	342.79
487.17	344.49
487.53	346.34
487.90	348.18
488.26	350.23
488.62	352.39
488.99	354.49
489.35	356.70
489.72	359.10
490.08	361.62
490.44	364.19
490.81	366.92
491.17	369.61
491.54	372.63
491.90	375.63
492.26	378.94
492.63	382.39
492.99	385.86
493.36	389.52
493.72	393.37
494.08	397.38
494.45	401.64
494.81	406.06
495.17	410.58
495.54	415.31
495.90	420.15
496.26	425.08
496.63	430.28
496.99	435.68
497.35	441.23
497.72	447.04
498.08	453.03
498.44	459.15
498.80	465.66
499.17	472.21
499.53	478.97
499.89	485.88
500.26	492.90
500.62	500.05
500.98	507.51
501.34	514.98
501.71	522.84
502.07	530.62
502.43	538.54
502.79	546.62
503.16	555.03
503.52	563.60
503.88	572.38
504.24	581.38
504.60	590.46
504.97	599.74
505.33	609.06
505.69	618.89
506.05	628.80
506.41	638.65
506.78	648.70
507.14	658.95
507.50	669.39
507.86	680.18
508.22	691.04
508.59	701.75
508.95	712.92
509.31	724.13
509.67	735.61
510.03	747.25
510.39	759.05
510.75	770.90
511.12	782.90
511.48	795.03
511.84	807.32
512.20	819.73
512.56	832.44
512.92	845.43
513.28	858.21
513.64	870.95
514.00	883.81
514.37	896.88
514.73	910.05
515.09	923.08
515.45	935.92
515.81	949.00
516.17	962.44
516.53	975.79
516.89	988.91
517.25	1002.24
517.61	1015.79
517.97	1029.31
518.33	1042.63
518.69	1056.20
519.05	1070.01
519.41	1083.80
519.77	1097.73
520.13	1111.10
520.49	1124.33
520.85	1137.78
521.21	1151.26
521.57	1165.16
521.93	1178.27
522.29	1192.08
522.65	1205.86
523.01	1219.70
523.37	1233.01
523.73	1246.41
524.09	1259.67
524.45	1273.27
524.81	1286.94
525.17	1300.33
525.53	1313.57
525.89	1326.97
526.25	1340.26
526.61	1353.36
526.97	1366.55
527.33	1379.71
527.68	1393.27
528.04	1406.86
528.40	1420.15
528.76	1433.55
529.12	1446.55
529.48	1460.04
529.84	1472.45
530.20	1485.25
530.56	1497.94
530.91	1511.27
531.27	1524.28
531.63	1537.01
531.99	1549.98
532.35	1562.26
532.71	1574.84
533.07	1587.84
533.42	1600.21
533.78	1612.53
534.14	1624.55
534.50	1635.87
534.86	1647.64
535.21	1658.64
535.57	1670.23
535.93	1681.51
536.29	1692.80
536.65	1704.35
537.00	1715.35
537.36	1726.88
537.72	1738.11
538.08	1749.74
538.44	1760.80
538.79	1771.95
539.15	1783.11
539.51	1794.14
539.87	1805.54
540.22	1816.38
540.58	1827.49
540.94	1838.49
541.29	1848.87
541.65	1858.85
542.01	1869.46
542.37	1879.52
542.72	1889.90
543.08	1899.72
543.44	1910.41
543.79	1919.88
544.15	1929.44
544.51	1939.65
544.87	1949.62
545.22	1958.93
545.58	1967.74
545.94	1976.79
546.29	1985.40
546.65	1993.87
547.01	2001.94
547.36	2009.81
547.72	2017.72
548.07	2025.31
548.43	2033.20
548.79	2041.05
549.14	2049.26
549.50	2057.94
549.86	2065.84
550.21	2073.27
550.57	2081.12
550.92	2087.89
551.28	2095.42
551.64	2102.74
551.99	2110.19
552.35	2117.34
552.70	2124.17
553.06	2130.90
553.41	2137.22
553.77	2143.70
554.13	2150.07
554.48	2157.10
554.84	2164.21
555.19	2170.81
555.55	2177.29
555.90	2183.76
556.26	2190.75
556.61	2196.83
556.97	2201.55
557.32	2207.37
557.68	2213.95
558.03	2219.63
558.39	2225.18
558.74	2231.11
559.10	2236.64
559.45	2242.24
559.81	2247.84
560.16	2253.46
560.52	2259.39
560.87	2265.81
561.23	2271.86
561.58	2278.62
561.94	2283.89
562.29	2288.57
562.64	2294.59
563.00	2300.26
563.35	2305.70
563.71	2311.35
564.06	2317.09
564.42	2323.19
564.77	2328.33
565.12	2333.49
565.48	2338.56
565.83	2343.95
566.19	2349.30
566.54	2354.61
566.89	2359.29
567.25	2363.96
567.60	2369.73
567.96	2374.90
568.31	2379.41
568.66	2383.69
569.02	2387.68
569.37	2391.52
569.72	2395.91
570.08	2399.33
570.43	2402.57
570.78	2405.57
571.14	2408.03
571.49	2411.11
571.84	2414.57
572.20	2417.48
572.55	2420.46
572.90	2422.95
573.26	2425.60
573.61	2428.20
573.96	2430.34
574.31	2432.38
574.67	2434.18
575.02	2434.92
575.37	2436.26
575.72	2436.85
576.08	2438.27
576.43	2438.13
576.78	2438.42
577.13	2439.79
577.49	2441.04
577.84	2441.89
578.19	2443.22
578.54	2443.82
578.90	2444.31
579.25	2444.13
579.60	2444.05
579.95	2443.07
580.30	2442.93
580.66	2442.20
581.01	2440.46
581.36	2438.11
581.71	2436.54
582.06	2435.32
582.42	2434.33
582.77	2431.93
583.12	2430.33
583.47	2428.87
583.82	2428.27
584.17	2427.04
584.53	2424.99
584.88	2422.75
585.23	2420.87
585.58	2418.53
585.93	2416.51
586.28	2414.37
586.63	2411.92
586.98	2409.63
587.34	2407.68
587.69	2405.22
588.04	2403.08
588.39	2401.62
588.74	2398.91
589.09	2396.12
589.44	2392.91
589.79	2390.32
590.14	2388.40
590.49	2385.62
590.84	2381.62
591.19	2378.39
591.54	2375.03
591.89	2371.02
592.25	2367.72
592.60	2363.49
592.95	2359.31
593.30	2354.97
593.65	2350.50
594.00	2345.88
594.35	2342.66
594.70	2337.93
595.05	2333.35
595.40	2327.79
595.75	2321.76
596.10	2318.26
596.45	2313.37
596.80	2308.70
597.15	2303.45
597.50	2297.55
597.85	2292.39
598.19	2287.16
598.54	2281.37
598.89	2276.04
599.24	2271.36
599.59	2265.16
599.94	2259.15
600.29	2253.14
600.64	2247.17
600.99	2240.30
601.34	2234.80
601.69	2227.88
602.04	2221.30
602.39	2214.56
602.74	2208.35
603.08	2202.93
603.43	2196.25
603.78	2189.43
604.13	2182.35
604.48	2174.94
604.83	2168.74
605.18	2162.58
605.53	2155.68
605.87	2148.59
606.22	2141.83
606.57	2133.82
606.92	2125.73
607.27	2118.80
607.62	2112.05
607.96	2105.08
608.31	2098.50
608.66	2090.68
609.01	2083.01
609.36	2076.00
609.70	2068.25
610.05	2060.49
610.40	2052.13
610.75	2043.77
611.10	2035.90
611.44	2026.80
611.79	2018.17
612.14	2008.05
612.49	1997.18
612.83	1987.65
613.18	1978.27
613.53	1968.94
613.88	1959.29
614.22	1950.74
614.57	1940.72
614.92	1930.06
615.27	1919.63
615.61	1909.50
615.96	1899.75
616.31	1890.16
616.65	1880.70
617.00	1871.01
617.35	1861.29
617.70	1851.45
618.04	1841.37
618.39	1831.23
618.74	1821.63
619.08	1811.95
619.43	1803.22
619.78	1795.08
620.12	1786.47
620.47	1777.01
620.82	1766.63
621.16	1756.80
621.51	1746.88
621.85	1737.09
622.20	1726.80
622.55	1716.29
622.89	1706.37
623.24	1696.75
623.59	1686.80
623.93	1676.60
624.28	1666.82
624.62	1656.76
624.97	1646.53
625.32	1636.62
625.66	1627.65
626.01	1618.95
626.35	1609.62
626.70	1599.57
627.04	1589.49
627.39	1579.41
627.73	1570.15
628.08	1561.18
628.43	1551.64
628.77	1542.39
629.12	1533.51
629.46	1525.61
629.81	1517.33
630.15	1507.92
630.50	1497.97
630.84	1487.43
631.19	1477.56
631.53	1468.25
631.88	1458.15
632.22	1448.16
632.57	1438.79
632.91	1428.75
633.26	1418.89
633.60	1409.16
633.95	1399.95
634.29	1390.41
634.64	1381.04
634.98	1370.90
635.32	1361.60
635.67	1353.15
636.01	1343.75
636.36	1333.99
636.70	1324.48
637.05	1314.98
637.39	1306.01
637.73	1297.40
638.08	1289.81
638.42	1281.62
638.77	1272.83
639.11	1264.53
639.45	1256.60
639.80	1248.13
640.14	1239.32
640.49	1230.37
640.83	1221.54
641.17	1213.20
641.52	1205.03
641.86	1196.42
642.20	1188.59
642.55	1179.92
642.89	1170.97
643.23	1162.42
643.58	1154.25
643.92	1145.16
644.26	1136.49
644.61	1127.92
644.95	1119.08
645.29	1109.94
645.64	1100.64
645.98	1092.07
646.32	1084.14
646.66	1075.65
647.01	1067.35
647.35	1059.13
647.69	1050.81
648.04	1042.56
648.38	1033.74
648.72	1024.88
649.06	1016.42
649.41	1008.20
649.75	1000.29
650.09	992.41
650.43	984.27
650.78	975.91
651.12	968.12
651.46	960.63
651.80	953.33
652.14	945.99
652.49	938.40
652.83	931.07
653.17	923.27
653.51	915.50
653.85	908.18
654.20	900.81
654.54	893.44
654.88	886.18
655.22	878.85
655.56	871.84
655.90	865.08
656.25	858.30
656.59	851.29
656.93	844.21
657.27	837.11
657.61	830.06
657.95	823.92
658.29	817.97
658.64	811.84
658.98	805.39
659.32	798.80
659.66	792.50
660.00	786.19
660.34	780.17
660.68	774.08
661.02	767.72
661.36	761.69
661.70	755.75
662.05	750.07
662.39	744.58
662.73	739.16
663.07	733.66
663.41	728.04
663.75	722.33
664.09	716.49
664.43	710.98
664.77	705.64
665.11	699.78
665.45	693.83
665.79	687.89
666.13	682.15
666.47	676.66
666.81	671.23
667.15	665.71
667.49	660.46
667.83	655.16
668.17	649.89
668.51	644.78
668.85	639.81
669.19	634.83
669.53	629.76
669.87	624.56
670.21	619.71
670.55	614.97
670.89	610.52
671.23	606.18
671.57	601.66
671.91	597.29
672.25	593.10
672.58	588.93
672.92	584.83
673.26	580.85
673.60	576.93
673.94	573.02
674.28	569.40
674.62	565.63
674.96	561.83
675.30	558.29
675.64	554.57
675.97	550.94
676.31	547.33
676.65	543.75
676.99	540.28
677.33	536.41
677.67	532.69
678.01	528.80
678.34	525.17
678.68	521.64
679.02	518.00
679.36	514.27
679.70	510.56
680.04	506.98
680.37	503.51
680.71	500.09
681.05	496.87
681.39	493.53
681.73	490.26
682.06	487.19
682.40	484.05
682.74	480.85
683.08	477.61
683.42	474.32
683.75	471.21
684.09	468.17
684.43	465.40
684.77	462.46
685.10	459.56
685.44	456.56
685.78	453.61
686.12	450.79
686.45	448.05
686.79	445.40
687.13	442.85
687.46	440.21
687.80	437.53
688.14	434.57
688.48	431.94
688.81	429.28
689.15	426.69
689.49	424.03
689.82	421.45
690.16	418.89
690.50	416.46
690.83	413.95
691.17	411.39
691.51	408.87
691.84	406.57
692.18	404.33
692.52	402.10
692.85	399.93
693.19	397.78
693.52	395.57
693.86	393.33
694.20	391.14
694.53	388.94
694.87	386.69
695.21	384.59
695.54	382.39
695.88	380.17
696.21	377.92
696.55	375.81
696.88	373.67
697.22	371.62
697.56	369.62
697.89	367.71
698.23	365.90
698.56	364.06
698.90	362.24
699.23	360.34
699.57	358.44
699.90	356.49
700.24	354.68
700.58	352.92
700.91	351.18
701.25	349.55
701.58	347.95
701.92	346.34
702.25	344.73
702.59	343.07
702.92	341.54
703.26	340.00
703.59	338.49
703.93	337.21
704.26	335.77
704.60	334.26
704.93	332.74
705.26	331.20
705.60	329.68
705.93	328.17
706.27	326.80
706.60	325.50
706.94	324.31
707.27	322.89
707.61	321.51
707.94	320.16
708.27	318.65
708.61	317.14
708.94	315.76
709.28	314.41
709.61	313.15
709.94	311.90
710.28	310.64
710.61	309.42
710.95	308.01
711.28	306.90
711.61	305.70
711.95	304.52
712.28	303.28
712.61	302.08
712.95	300.97
713.28	299.89
713.61	298.72
713.95	297.52
714.28	296.49
714.61	295.45
714.95	294.40
715.28	293.36
715.61	292.36
715.95	291.35
716.28	290.38
716.61	289.38
716.95	288.33
717.28	287.40
717.61	286.41
717.94	285.48
718.28	284.46
718.61	283.56
718.94	282.67
719.27	281.81
719.61	281.01
719.94	280.14
720.27	279.11
720.60	278.24
720.94	277.47
721.27	276.71
721.60	276.02
721.93	275.30
722.27	274.65
722.60	273.96
722.93	273.26
723.26	272.59
723.59	271.91
723.93	271.28
724.26	270.63
724.59	269.96
724.92	269.33
725.25	268.75
725.59	268.15
725.92	267.60
726.25	267.03
726.58	266.41
726.91	265.82
727.24	265.31
727.57	264.77
727.91	264.14
728.24	263.55
728.57	262.91
728.90	262.35
729.23	261.72
729.56	261.24
729.89	260.68
730.22	260.11
730.55	259.54
730.89	259.01
731.22	258.44
731.55	257.92
731.88	257.39
732.21	256.80
732.54	256.25
732.87	255.70
733.20	255.20
733.53	254.74
733.86	254.29
734.19	253.79
734.52	253.34
734.85	253.03
735.18	252.53
735.51	252.16
735.84	251.73
736.17	251.34
736.50	250.80
736.83	250.66
737.16	250.34
737.49	249.97
737.82	249.51
738.15	249.17
738.48	248.81
738.81	248.40
739.14	248.01
739.47	247.63
739.80	247.28
740.13	246.93
740.46	246.52
740.79	246.09
741.12	245.71
741.45	245.35
741.78	244.91
742.11	244.66
742.44	244.26
742.77	243.97
743.10	243.60
743.43	243.23
743.75	242.66
744.08	242.54
744.41	242.19
744.74	241.85
745.07	241.46
745.40	241.14
745.73	240.91
746.06	240.57
746.39	240.26
746.71	239.93
747.04	239.54
747.37	239.24
747.70	238.95
748.03	238.64
748.36	238.36
748.68	238.01
749.01	237.63
749.34	237.33
749.67	237.00
750.00	236.74
750.33	236.63
750.65	236.39
750.98	235.83
751.31	235.57
751.64	235.38
751.97	235.25
752.29	234.94
752.62	234.57
752.95	234.34
753.28	234.07
753.60	233.80
753.93	233.69
754.26	233.46
754.59	233.16
754.91	232.94
755.24	232.66
755.57	232.47
755.90	232.25
756.22	232.02
756.55	231.75
756.88	231.47
757.20	231.13
757.53	230.85
757.86	230.62
758.19	230.41
758.51	230.18
758.84	229.87
759.17	229.69
759.49	229.57
759.82	229.46
760.15	229.30
760.47	229.13
760.80	228.85
761.13	228.71
761.45	228.57
761.78	228.39
762.11	228.24
762.43	228.02
762.76	227.85
763.08	227.69
763.41	227.59
763.74	227.46
764.06	227.27
764.39	227.16
764.71	227.01
765.04	226.85
765.37	226.69
765.69	226.59
766.02	226.44
766.34	226.26
766.67	226.05
767.00	225.94
767.32	225.92
767.65	225.90
767.97	225.74
768.30	225.60
768.62	225.49
768.95	225.36
769.27	225.22
769.60	225.11
769.92	224.94
770.25	224.78
770.57	224.60
770.90	224.51
771.22	224.37
771.55	224.28
771.87	224.16
772.20	224.05
772.52	224.09
772.85	224.21
773.17	224.14
773.50	224.00
773.82	223.86
774.15	223.64
774.47	223.44
774.80	223.33
775.12	223.22
775.45	223.09
775.77	222.99
776.09	222.93
776.42	222.82
776.74	222.84
777.07	222.71
777.39	222.62
777.72	222.52
778.04	222.45
778.36	222.34
778.69	222.27
779.01	222.18
779.33	221.90
779.66	221.59
779.98	221.45
780.31	221.39
780.63	221.41
780.95	221.39
781.28	221.31
781.60	221.22
781.92	221.19
782.25	221.14
782.57	221.05
782.89	220.98
783.22	220.91
783.54	220.78
783.86	220.76
784.19	220.69
784.51	220.71
784.83	220.58
785.16	220.49
785.48	220.42
785.80	220.36
786.12	220.32
