SpectraSuite Data File
++++++++++++++++++++++++++++++++++++
Date: Tue Jan 29 16:53:54 EST 2013
User: group
Dark Spectrum Present: No
Reference Spectrum Present: No
Number of Sampled Component Spectra: 1
Spectrometers: USB2E7196
Integration Time (usec): 65000 (USB2E7196)
Spectra Averaged: 100 (USB2E7196)
Boxcar Smoothing: 10 (USB2E7196)
Correct for Electrical Dark: No (USB2E7196)
Strobe/Lamp Enabled: No (USB2E7196)
Correct for Detector Non-linearity: No (USB2E7196)
Correct for Stray Light: No (USB2E7196)
Number of Pixels in Processed Spectrum: 2048
>>>>>Begin Processed Spectral Data<<<<<
339.09	0.00
339.48	200.76
339.86	203.25
340.24	203.37
340.63	205.42
341.01	210.39
341.39	207.94
341.78	209.76
342.16	211.02
342.54	211.39
342.93	200.45
343.31	210.56
343.69	211.12
344.07	211.54
344.46	212.01
344.84	212.40
345.22	212.54
345.60	212.83
345.99	213.07
346.37	213.22
346.75	213.34
347.13	213.40
347.52	213.49
347.90	213.61
348.28	213.64
348.66	213.69
349.05	213.68
349.43	213.77
349.81	213.86
350.19	213.92
350.57	214.01
350.96	214.07
351.34	214.23
351.72	214.32
352.10	214.42
352.48	214.47
352.87	214.55
353.25	214.64
353.63	214.71
354.01	214.76
354.39	214.82
354.77	214.91
355.15	215.05
355.54	215.12
355.92	215.11
356.30	215.19
356.68	215.44
357.06	215.51
357.44	215.52
357.82	215.57
358.20	215.63
358.58	215.66
358.97	215.80
359.35	215.87
359.73	215.98
360.11	216.08
360.49	216.18
360.87	216.20
361.25	216.28
361.63	216.41
362.01	216.46
362.39	216.48
362.77	216.53
363.15	216.60
363.53	216.62
363.91	216.70
364.29	216.74
364.67	216.53
365.05	216.59
365.43	216.65
365.81	216.74
366.19	216.86
366.57	217.01
366.95	216.97
367.33	216.94
367.71	216.96
368.09	217.02
368.47	217.05
368.85	217.08
369.23	217.11
369.61	216.97
369.99	217.01
370.37	217.02
370.75	217.13
371.13	217.07
371.51	217.03
371.89	217.02
372.27	217.02
372.65	217.02
373.03	217.02
373.41	216.95
373.78	216.87
374.16	216.72
374.54	216.60
374.92	216.57
375.30	216.53
375.68	216.45
376.06	216.42
376.44	216.34
376.82	216.31
377.19	216.28
377.57	216.25
377.95	216.14
378.33	216.09
378.71	215.92
379.09	215.88
379.47	215.86
379.84	215.81
380.22	215.73
380.60	215.64
380.98	215.57
381.36	215.52
381.73	215.47
382.11	215.49
382.49	215.45
382.87	215.38
383.25	215.35
383.62	215.54
384.00	215.44
384.38	215.38
384.76	215.36
385.13	215.37
385.51	215.34
385.89	215.29
386.27	215.26
386.64	215.26
387.02	215.21
387.40	215.16
387.78	215.10
388.15	215.11
388.53	215.08
388.91	215.03
389.29	215.00
389.66	214.99
390.04	214.92
390.42	214.92
390.79	214.90
391.17	214.86
391.55	214.60
391.92	214.59
392.30	214.65
392.68	214.60
393.05	214.56
393.43	214.58
393.81	214.60
394.18	214.57
394.56	214.56
394.94	214.60
395.31	214.59
395.69	214.66
396.06	214.69
396.44	214.71
396.82	214.72
397.19	214.86
397.57	214.85
397.95	214.91
398.32	214.88
398.70	214.91
399.07	215.00
399.45	215.05
399.82	215.07
400.20	215.10
400.58	215.16
400.95	215.15
401.33	215.24
401.70	215.47
402.08	215.60
402.45	215.66
402.83	215.79
403.20	215.97
403.58	216.05
403.95	216.20
404.33	216.37
404.71	216.52
405.08	216.75
405.46	216.94
405.83	217.15
406.21	217.37
406.58	217.66
406.96	217.89
407.33	218.15
407.70	218.45
408.08	218.89
408.45	219.27
408.83	219.69
409.20	220.04
409.58	220.29
409.95	220.73
410.33	221.23
410.70	221.66
411.08	222.15
411.45	222.73
411.82	223.32
412.20	224.00
412.57	224.83
412.95	225.40
413.32	226.26
413.69	227.10
414.07	228.02
414.44	229.03
414.82	230.05
415.19	231.25
415.56	232.47
415.94	233.68
416.31	235.08
416.68	236.49
417.06	238.08
417.43	239.63
417.81	241.38
418.18	243.21
418.55	245.17
418.93	247.22
419.30	249.35
419.67	251.59
420.04	253.88
420.42	256.29
420.79	259.14
421.16	261.98
421.54	264.91
421.91	267.90
422.28	270.99
422.66	274.34
423.03	277.63
423.40	281.04
423.77	284.66
424.15	288.35
424.52	292.22
424.89	296.46
425.26	300.58
425.64	304.51
426.01	308.78
426.38	313.32
426.75	317.87
427.13	322.59
427.50	327.64
427.87	332.92
428.24	338.14
428.61	343.15
428.99	348.65
429.36	354.65
429.73	360.62
430.10	366.52
430.47	372.61
430.85	378.97
431.22	385.68
431.59	392.82
431.96	399.65
432.33	407.16
432.70	414.48
433.08	423.04
433.45	431.11
433.82	439.16
434.19	448.07
434.56	456.79
434.93	465.20
435.30	473.45
435.68	482.59
436.05	491.69
436.42	500.70
436.79	508.91
437.16	517.72
437.53	527.08
437.90	536.27
438.27	545.27
438.64	554.50
439.01	563.06
439.38	570.63
439.75	578.00
440.13	586.49
440.50	594.37
440.87	600.84
441.24	607.48
441.61	614.84
441.98	620.27
442.35	626.72
442.72	633.08
443.09	639.21
443.46	642.99
443.83	645.48
444.20	647.67
444.57	650.78
444.94	652.30
445.31	653.70
445.68	655.11
446.05	655.71
446.42	654.99
446.79	654.09
447.16	653.06
447.53	652.36
447.90	649.07
448.27	645.85
448.64	641.15
449.01	637.89
449.37	631.98
449.74	626.28
450.11	619.33
450.48	611.94
450.85	604.43
451.22	597.93
451.59	591.78
451.96	585.94
452.33	578.12
452.70	570.94
453.07	562.46
453.43	553.88
453.80	545.57
454.17	537.55
454.54	529.95
454.91	521.70
455.28	513.63
455.65	506.09
456.02	498.52
456.38	492.16
456.75	484.24
457.12	477.61
457.49	471.01
457.86	464.78
458.23	459.35
458.59	453.38
458.96	447.28
459.33	441.90
459.70	436.49
460.07	432.15
460.43	427.21
460.80	422.58
461.17	418.45
461.54	414.26
461.91	410.16
462.27	405.98
462.64	402.57
463.01	398.76
463.38	395.03
463.74	391.33
464.11	388.05
464.48	385.18
464.85	382.11
465.21	379.64
465.58	376.96
465.95	373.75
466.32	371.15
466.68	368.58
467.05	365.96
467.42	363.36
467.78	360.66
468.15	358.15
468.52	356.21
468.88	353.74
469.25	351.44
469.62	349.60
469.98	347.67
470.35	345.81
470.72	344.08
471.08	342.29
471.45	340.74
471.82	339.25
472.18	337.56
472.55	336.32
472.92	334.93
473.28	333.69
473.65	332.57
474.02	331.41
474.38	330.50
474.75	329.71
475.11	328.91
475.48	328.33
475.85	327.82
476.21	327.31
476.58	326.91
476.94	326.73
477.31	326.40
477.67	326.11
478.04	325.95
478.41	325.88
478.77	326.03
479.14	326.00
479.50	326.12
479.87	326.40
480.23	326.73
480.60	326.97
480.96	327.24
481.33	327.78
481.69	328.35
482.06	328.84
482.42	329.34
482.79	329.93
483.15	330.69
483.52	331.65
483.88	332.50
484.25	333.45
484.61	334.40
484.98	335.49
485.34	336.80
485.71	338.16
486.07	339.61
486.44	340.93
486.80	342.52
487.17	344.16
487.53	346.02
487.90	347.87
488.26	349.92
488.62	352.08
488.99	354.15
489.35	356.30
489.72	358.73
490.08	361.25
490.44	363.74
490.81	366.40
491.17	369.10
491.54	372.09
491.90	375.09
492.26	378.30
492.63	381.69
492.99	385.10
493.36	388.74
493.72	392.62
494.08	396.63
494.45	400.86
494.81	405.21
495.17	409.62
495.54	414.29
495.90	419.12
496.26	424.08
496.63	429.28
496.99	434.66
497.35	440.19
497.72	445.97
498.08	451.94
498.44	458.09
498.80	464.46
499.17	470.99
499.53	477.73
499.89	484.60
500.26	491.58
500.62	498.70
500.98	506.11
501.34	513.54
501.71	521.25
502.07	528.99
502.43	536.96
502.79	545.06
503.16	553.44
503.52	562.00
503.88	570.63
504.24	579.56
504.60	588.60
504.97	597.81
505.33	607.10
505.69	616.90
506.05	626.66
506.41	636.47
506.78	646.42
507.14	656.58
507.50	667.02
507.86	677.63
508.22	688.35
508.59	698.94
508.95	710.03
509.31	721.25
509.67	732.73
510.03	744.03
510.39	755.69
510.75	767.48
511.12	779.27
511.48	791.29
511.84	803.43
512.20	815.74
512.56	828.37
512.92	841.07
513.28	853.69
513.64	866.41
514.00	879.30
514.37	892.30
514.73	905.43
515.09	918.51
515.45	931.41
515.81	944.50
516.17	957.95
516.53	971.14
516.89	984.25
517.25	997.37
517.61	1011.00
517.97	1024.42
518.33	1037.50
518.69	1051.09
519.05	1064.86
519.41	1078.62
519.77	1092.51
520.13	1105.81
520.49	1119.04
520.85	1132.43
521.21	1145.81
521.57	1159.46
521.93	1172.53
522.29	1186.22
522.65	1199.67
523.01	1213.26
523.37	1226.48
523.73	1239.75
524.09	1252.95
524.45	1266.35
524.81	1279.93
525.17	1293.23
525.53	1306.38
525.89	1319.83
526.25	1332.95
526.61	1345.82
526.97	1358.95
527.33	1371.87
527.68	1385.39
528.04	1398.98
528.40	1412.11
528.76	1425.59
529.12	1438.51
529.48	1451.88
529.84	1464.27
530.20	1477.14
530.56	1489.85
530.91	1503.17
531.27	1516.17
531.63	1528.84
531.99	1541.64
532.35	1553.84
532.71	1566.22
533.07	1579.29
533.42	1591.53
533.78	1603.65
534.14	1615.83
534.50	1627.11
534.86	1638.85
535.21	1649.63
535.57	1661.22
535.93	1672.61
536.29	1683.55
536.65	1695.18
537.00	1706.17
537.36	1717.53
537.72	1728.58
538.08	1740.12
538.44	1751.17
538.79	1762.26
539.15	1773.44
539.51	1784.39
539.87	1795.73
540.22	1806.75
540.58	1817.78
540.94	1828.66
541.29	1839.19
541.65	1848.95
542.01	1859.52
542.37	1869.54
542.72	1879.90
543.08	1889.64
543.44	1900.08
543.79	1909.44
544.15	1918.85
544.51	1928.95
544.87	1938.88
545.22	1948.19
545.58	1956.94
545.94	1965.87
546.29	1974.46
546.65	1982.74
547.01	1990.97
547.36	1998.64
547.72	2006.48
548.07	2014.00
548.43	2021.83
548.79	2029.67
549.14	2038.01
549.50	2046.58
549.86	2054.60
550.21	2061.98
550.57	2069.73
550.92	2076.74
551.28	2084.39
551.64	2091.61
551.99	2099.07
552.35	2106.31
552.70	2113.17
553.06	2119.97
553.41	2126.26
553.77	2132.65
554.13	2139.16
554.48	2146.11
554.84	2153.32
555.19	2159.81
555.55	2166.20
555.90	2172.56
556.26	2179.41
556.61	2185.48
556.97	2190.18
557.32	2195.94
557.68	2202.48
558.03	2208.27
558.39	2213.58
558.74	2219.54
559.10	2225.14
559.45	2230.70
559.81	2236.28
560.16	2241.77
560.52	2247.50
560.87	2253.81
561.23	2259.68
561.58	2266.21
561.94	2271.50
562.29	2276.05
562.64	2281.96
563.00	2287.62
563.35	2293.17
563.71	2298.68
564.06	2304.26
564.42	2310.12
564.77	2315.11
565.12	2320.25
565.48	2325.16
565.83	2330.52
566.19	2335.65
566.54	2340.74
566.89	2345.17
567.25	2349.60
567.60	2355.23
567.96	2360.38
568.31	2364.73
568.66	2368.94
569.02	2372.68
569.37	2376.25
569.72	2380.55
570.08	2383.83
570.43	2386.86
570.78	2389.75
571.14	2392.30
571.49	2395.14
571.84	2398.47
572.20	2401.23
572.55	2403.98
572.90	2406.18
573.26	2408.86
573.61	2411.48
573.96	2413.69
574.31	2415.51
574.67	2417.25
575.02	2417.95
575.37	2419.28
575.72	2419.89
576.08	2421.31
576.43	2421.34
576.78	2421.63
577.13	2423.22
577.49	2424.42
577.84	2425.24
578.19	2426.38
578.54	2426.75
578.90	2427.39
579.25	2427.32
579.60	2426.96
579.95	2425.97
580.30	2425.87
580.66	2425.01
581.01	2423.09
581.36	2420.29
581.71	2418.88
582.06	2417.36
582.42	2416.22
582.77	2413.71
583.12	2411.93
583.47	2410.16
583.82	2409.31
584.17	2407.87
584.53	2405.45
584.88	2403.02
585.23	2400.94
585.58	2398.46
585.93	2396.19
586.28	2393.82
586.63	2390.85
586.98	2388.59
587.34	2386.43
587.69	2383.74
588.04	2381.39
588.39	2379.77
588.74	2377.34
589.09	2374.23
589.44	2371.14
589.79	2368.42
590.14	2366.12
590.49	2363.17
590.84	2359.12
591.19	2355.91
591.54	2352.50
591.89	2348.34
592.25	2345.07
592.60	2340.80
592.95	2336.46
593.30	2332.33
593.65	2327.67
594.00	2323.30
594.35	2320.15
594.70	2315.48
595.05	2310.91
595.40	2305.43
595.75	2299.51
596.10	2295.76
596.45	2291.00
596.80	2286.15
597.15	2281.02
597.50	2275.20
597.85	2270.05
598.19	2264.96
598.54	2259.16
598.89	2253.88
599.24	2249.29
599.59	2243.09
599.94	2237.19
600.29	2231.21
600.64	2225.14
600.99	2218.38
601.34	2212.87
601.69	2206.01
602.04	2199.65
602.39	2192.91
602.74	2186.81
603.08	2181.22
603.43	2174.78
603.78	2167.79
604.13	2160.73
604.48	2153.36
604.83	2147.18
605.18	2141.07
605.53	2134.17
605.87	2127.06
606.22	2120.31
606.57	2112.43
606.92	2104.44
607.27	2097.48
607.62	2090.96
607.96	2084.02
608.31	2077.60
608.66	2069.85
609.01	2062.11
609.36	2054.90
609.70	2047.10
610.05	2039.21
610.40	2031.02
610.75	2022.51
611.10	2014.94
611.44	2006.03
611.79	1997.40
612.14	1987.44
612.49	1976.74
612.83	1967.22
613.18	1957.92
613.53	1948.70
613.88	1939.02
614.22	1930.36
614.57	1920.50
614.92	1909.86
615.27	1899.56
615.61	1889.48
615.96	1879.76
616.31	1870.14
616.65	1860.87
617.00	1851.34
617.35	1841.76
617.70	1832.01
618.04	1822.17
618.39	1812.08
618.74	1802.60
619.08	1792.97
619.43	1784.28
619.78	1776.03
620.12	1767.55
620.47	1758.17
620.82	1747.74
621.16	1738.07
621.51	1728.36
621.85	1718.64
622.20	1708.59
622.55	1698.21
622.89	1688.35
623.24	1678.77
623.59	1669.08
623.93	1659.01
624.28	1649.30
624.62	1639.33
624.97	1629.24
625.32	1619.48
625.66	1610.65
626.01	1602.03
626.35	1592.79
626.70	1582.91
627.04	1573.14
627.39	1563.19
627.73	1553.97
628.08	1545.31
628.43	1535.85
628.77	1526.78
629.12	1517.99
629.46	1510.02
629.81	1501.77
630.15	1492.44
630.50	1482.83
630.84	1472.56
631.19	1462.68
631.53	1453.59
631.88	1443.57
632.22	1433.76
632.57	1424.59
632.91	1414.58
633.26	1404.86
633.60	1395.43
633.95	1386.40
634.29	1377.03
634.64	1367.83
634.98	1358.06
635.32	1348.78
635.67	1340.57
636.01	1331.37
636.36	1321.82
636.70	1312.52
637.05	1303.28
637.39	1294.51
637.73	1285.97
638.08	1278.39
638.42	1270.42
638.77	1261.74
639.11	1253.70
639.45	1245.93
639.80	1237.53
640.14	1229.01
640.49	1220.27
640.83	1211.48
641.17	1203.32
641.52	1195.25
641.86	1186.75
642.20	1178.90
642.55	1170.46
642.89	1161.65
643.23	1153.10
643.58	1145.08
643.92	1136.09
644.26	1127.47
644.61	1119.03
644.95	1110.40
645.29	1101.32
645.64	1092.31
645.98	1083.84
646.32	1075.92
646.66	1067.44
647.01	1059.20
647.35	1051.11
647.69	1042.88
648.04	1034.72
648.38	1025.97
648.72	1017.31
649.06	1008.95
649.41	1000.82
649.75	992.94
650.09	985.20
650.43	977.24
650.78	969.01
651.12	961.41
651.46	954.01
651.80	946.93
652.14	939.61
652.49	932.20
652.83	924.96
653.17	917.44
653.51	909.94
653.85	902.84
654.20	895.60
654.54	888.21
654.88	880.95
655.22	873.78
655.56	866.80
655.90	860.04
656.25	853.46
656.59	846.66
656.93	839.71
657.27	832.58
657.61	825.60
657.95	819.47
658.29	813.54
658.64	807.55
658.98	801.06
659.32	794.60
659.66	788.41
660.00	782.05
660.34	775.86
660.68	769.70
661.02	763.34
661.36	757.37
661.70	751.54
662.05	745.95
662.39	740.51
662.73	735.21
663.07	729.78
663.41	724.16
663.75	718.45
664.09	712.73
664.43	707.28
664.77	701.99
665.11	696.20
665.45	690.37
665.79	684.53
666.13	678.90
666.47	673.42
666.81	668.04
667.15	662.61
667.49	657.50
667.83	652.31
668.17	647.14
668.51	642.13
668.85	637.25
669.19	632.36
669.53	627.33
669.87	622.07
670.21	617.39
670.55	612.72
670.89	608.25
671.23	603.96
671.57	599.61
671.91	595.32
672.25	591.21
672.58	587.07
672.92	583.10
673.26	579.18
673.60	575.31
673.94	571.44
674.28	567.86
674.62	564.09
674.96	560.38
675.30	556.82
675.64	553.11
675.97	549.52
676.31	545.90
676.65	542.30
676.99	538.99
677.33	535.06
677.67	531.45
678.01	527.67
678.34	524.06
678.68	520.50
679.02	516.91
679.36	513.22
679.70	509.55
680.04	505.90
680.37	502.39
680.71	499.06
681.05	495.87
681.39	492.58
681.73	489.37
682.06	486.31
682.40	483.19
682.74	479.99
683.08	476.75
683.42	473.54
683.75	470.48
684.09	467.36
684.43	464.59
684.77	461.65
685.10	458.75
685.44	455.77
685.78	452.83
686.12	450.05
686.45	447.28
686.79	444.60
687.13	442.03
687.46	439.43
687.80	436.71
688.14	433.79
688.48	431.15
688.81	428.47
689.15	425.79
689.49	423.18
689.82	420.56
690.16	417.93
690.50	415.49
690.83	413.02
691.17	410.52
691.51	408.02
691.84	405.66
692.18	403.43
692.52	401.21
692.85	399.04
693.19	396.84
693.52	394.69
693.86	392.45
694.20	390.24
694.53	388.05
694.87	385.82
695.21	383.67
695.54	381.48
695.88	379.32
696.21	377.13
696.55	375.01
696.88	372.99
697.22	371.02
697.56	369.08
697.89	367.17
698.23	365.37
698.56	363.54
698.90	361.77
699.23	359.82
699.57	357.88
699.90	355.97
700.24	354.10
700.58	352.29
700.91	350.58
701.25	348.99
701.58	347.33
701.92	345.75
702.25	344.17
702.59	342.49
702.92	340.94
703.26	339.34
703.59	337.79
703.93	336.46
704.26	334.98
704.60	333.45
704.93	331.91
705.26	330.40
705.60	328.92
705.93	327.36
706.27	326.06
706.60	324.81
706.94	323.58
707.27	322.20
707.61	320.86
707.94	319.51
708.27	318.03
708.61	316.58
708.94	315.21
709.28	313.86
709.61	312.64
709.94	311.41
710.28	310.21
710.61	309.06
710.95	307.64
711.28	306.53
711.61	305.35
711.95	304.25
712.28	302.99
712.61	301.76
712.95	300.73
713.28	299.64
713.61	298.45
713.95	297.25
714.28	296.22
714.61	295.17
714.95	294.13
715.28	293.05
715.61	292.04
715.95	291.05
716.28	290.07
716.61	289.11
716.95	288.08
717.28	287.13
717.61	286.09
717.94	285.16
718.28	284.15
718.61	283.24
718.94	282.30
719.27	281.45
719.61	280.63
719.94	279.74
720.27	278.73
720.60	277.88
720.94	277.07
721.27	276.32
721.60	275.59
721.93	274.85
722.27	274.24
722.60	273.55
722.93	272.85
723.26	272.19
723.59	271.46
723.93	270.82
724.26	270.14
724.59	269.52
724.92	268.93
725.25	268.37
725.59	267.77
725.92	267.24
726.25	266.67
726.58	266.10
726.91	265.46
727.24	264.98
727.57	264.41
727.91	263.79
728.24	263.23
728.57	262.62
728.90	262.09
729.23	261.41
729.56	260.96
729.89	260.40
730.22	259.83
730.55	259.30
730.89	258.78
731.22	258.24
731.55	257.74
731.88	257.22
732.21	256.69
732.54	256.15
732.87	255.60
733.20	255.12
733.53	254.62
733.86	254.15
734.19	253.62
734.52	253.17
734.85	252.91
735.18	252.41
735.51	252.03
735.84	251.58
736.17	251.21
736.50	250.69
736.83	250.53
737.16	250.13
737.49	249.72
737.82	249.32
738.15	248.93
738.48	248.51
738.81	248.14
739.14	247.69
739.47	247.30
739.80	246.90
740.13	246.54
740.46	246.14
740.79	245.78
741.12	245.40
741.45	245.00
741.78	244.52
742.11	244.24
742.44	243.80
742.77	243.46
743.10	243.10
743.43	242.69
743.75	242.08
744.08	242.01
744.41	241.68
744.74	241.27
745.07	240.91
745.40	240.60
745.73	240.30
746.06	239.96
746.39	239.64
746.71	239.34
747.04	239.02
747.37	238.71
747.70	238.41
748.03	238.09
748.36	237.82
748.68	237.52
749.01	237.17
749.34	236.91
749.67	236.63
750.00	236.35
750.33	236.25
750.65	235.99
750.98	235.45
751.31	235.16
751.64	234.96
751.97	234.85
752.29	234.62
752.62	234.27
752.95	234.03
753.28	233.79
753.60	233.52
753.93	233.32
754.26	233.07
754.59	232.78
754.91	232.56
755.24	232.30
755.57	232.09
755.90	231.87
756.22	231.66
756.55	231.43
756.88	231.17
757.20	230.85
757.53	230.61
757.86	230.39
758.19	230.21
758.51	229.98
758.84	229.64
759.17	229.41
759.49	229.25
759.82	229.17
760.15	229.01
760.47	228.82
760.80	228.54
761.13	228.41
761.45	228.21
761.78	228.00
762.11	227.86
762.43	227.65
762.76	227.45
763.08	227.27
763.41	227.07
763.74	226.96
764.06	226.77
764.39	226.60
764.71	226.45
765.04	226.28
765.37	226.11
765.69	225.98
766.02	225.81
766.34	225.64
766.67	225.42
767.00	225.26
767.32	225.22
767.65	225.23
767.97	225.06
768.30	224.97
768.62	224.89
768.95	224.74
769.27	224.61
769.60	224.50
769.92	224.40
770.25	224.24
770.57	224.07
770.90	223.97
771.22	223.87
771.55	223.73
771.87	223.59
772.20	223.47
772.52	223.53
772.85	223.67
773.17	223.56
773.50	223.46
773.82	223.35
774.15	223.18
774.47	222.97
774.80	222.87
775.12	222.72
775.45	222.60
775.77	222.48
776.09	222.41
776.42	222.34
776.74	222.29
777.07	222.21
777.39	222.12
777.72	221.98
778.04	221.93
778.36	221.83
778.69	221.82
779.01	221.76
779.33	221.47
779.66	221.17
779.98	221.07
780.31	221.00
780.63	221.02
780.95	220.98
781.28	220.88
781.60	220.82
781.92	220.77
782.25	220.71
782.57	220.66
782.89	220.57
783.22	220.47
783.54	220.34
783.86	220.30
784.19	220.21
784.51	220.22
784.83	220.10
785.16	220.03
785.48	219.95
785.80	219.87
786.12	219.88
