SpectraSuite Data File
++++++++++++++++++++++++++++++++++++
Date: Tue Jan 29 16:01:06 EST 2013
User: group
Dark Spectrum Present: No
Reference Spectrum Present: No
Number of Sampled Component Spectra: 1
Spectrometers: USB2E7196
Integration Time (usec): 65000 (USB2E7196)
Spectra Averaged: 100 (USB2E7196)
Boxcar Smoothing: 10 (USB2E7196)
Correct for Electrical Dark: No (USB2E7196)
Strobe/Lamp Enabled: No (USB2E7196)
Correct for Detector Non-linearity: No (USB2E7196)
Correct for Stray Light: No (USB2E7196)
Number of Pixels in Processed Spectrum: 2048
>>>>>Begin Processed Spectral Data<<<<<
339.09	0.00
339.48	202.50
339.86	204.05
340.24	205.11
340.63	206.71
341.01	211.13
341.39	210.17
341.78	212.12
342.16	212.46
342.54	213.41
342.93	201.96
343.31	212.14
343.69	212.71
344.07	213.19
344.46	213.68
344.84	214.10
345.22	214.26
345.60	214.49
345.99	214.66
346.37	214.82
346.75	214.92
347.13	215.01
347.52	215.06
347.90	215.20
348.28	215.26
348.66	215.33
349.05	215.31
349.43	215.40
349.81	215.47
350.19	215.52
350.57	215.61
350.96	215.70
351.34	215.82
351.72	215.93
352.10	216.06
352.48	216.11
352.87	216.15
353.25	216.23
353.63	216.29
354.01	216.35
354.39	216.42
354.77	216.49
355.15	216.60
355.54	216.66
355.92	216.68
356.30	216.75
356.68	216.96
357.06	217.05
357.44	217.08
357.82	217.10
358.20	217.20
358.58	217.28
358.97	217.35
359.35	217.46
359.73	217.56
360.11	217.57
360.49	217.63
360.87	217.71
361.25	217.78
361.63	217.93
362.01	218.00
362.39	218.01
362.77	218.08
363.15	218.10
363.53	218.16
363.91	218.16
364.29	218.16
364.67	218.00
365.05	218.02
365.43	218.10
365.81	218.17
366.19	218.26
366.57	218.35
366.95	218.33
367.33	218.29
367.71	218.26
368.09	218.31
368.47	218.33
368.85	218.31
369.23	218.37
369.61	218.28
369.99	218.32
370.37	218.36
370.75	218.40
371.13	218.32
371.51	218.23
371.89	218.25
372.27	218.23
372.65	218.18
373.03	218.11
373.41	218.05
373.78	218.00
374.16	217.86
374.54	217.73
374.92	217.69
375.30	217.65
375.68	217.56
376.06	217.53
376.44	217.49
376.82	217.46
377.19	217.37
377.57	217.35
377.95	217.20
378.33	217.15
378.71	216.97
379.09	217.02
379.47	217.03
379.84	216.96
380.22	216.88
380.60	216.81
380.98	216.77
381.36	216.73
381.73	216.68
382.11	216.71
382.49	216.66
382.87	216.64
383.25	216.58
383.62	216.77
384.00	216.69
384.38	216.62
384.76	216.61
385.13	216.66
385.51	216.62
385.89	216.59
386.27	216.53
386.64	216.60
387.02	216.51
387.40	216.44
387.78	216.42
388.15	216.40
388.53	216.39
388.91	216.37
389.29	216.35
389.66	216.31
390.04	216.24
390.42	216.28
390.79	216.25
391.17	216.27
391.55	216.04
391.92	216.03
392.30	216.04
392.68	215.99
393.05	215.96
393.43	215.93
393.81	215.94
394.18	215.91
394.56	215.87
394.94	215.93
395.31	215.94
395.69	216.03
396.06	216.07
396.44	216.12
396.82	216.14
397.19	216.26
397.57	216.25
397.95	216.29
398.32	216.26
398.70	216.33
399.07	216.39
399.45	216.42
399.82	216.47
400.20	216.46
400.58	216.54
400.95	216.52
401.33	216.64
401.70	216.88
402.08	216.96
402.45	217.04
402.83	217.18
403.20	217.29
403.58	217.34
403.95	217.50
404.33	217.61
404.71	217.73
405.08	217.95
405.46	218.14
405.83	218.35
406.21	218.52
406.58	218.74
406.96	218.95
407.33	219.23
407.70	219.55
408.08	220.10
408.45	220.43
408.83	220.80
409.20	221.12
409.58	221.34
409.95	221.79
410.33	222.25
410.70	222.67
411.08	223.19
411.45	223.73
411.82	224.29
412.20	224.98
412.57	225.83
412.95	226.38
413.32	227.15
413.69	227.94
414.07	228.80
414.44	229.75
414.82	230.71
415.19	231.81
415.56	232.92
415.94	234.03
416.31	235.38
416.68	236.72
417.06	238.27
417.43	239.78
417.81	241.46
418.18	243.18
418.55	245.05
418.93	247.05
419.30	249.11
419.67	251.23
420.04	253.45
420.42	255.67
420.79	258.38
421.16	261.11
421.54	263.91
421.91	266.83
422.28	269.81
422.66	273.03
423.03	276.15
423.40	279.41
423.77	282.84
424.15	286.38
424.52	290.08
424.89	294.10
425.26	298.04
425.64	301.77
426.01	305.93
426.38	310.22
426.75	314.56
427.13	319.09
427.50	323.87
427.87	328.85
428.24	333.87
428.61	338.69
428.99	344.01
429.36	349.80
429.73	355.47
430.10	361.11
430.47	366.87
430.85	372.96
431.22	379.39
431.59	386.20
431.96	392.81
432.33	400.05
432.70	407.07
433.08	415.32
433.45	423.07
433.82	430.76
434.19	439.32
434.56	447.73
434.93	455.72
435.30	463.77
435.68	472.58
436.05	481.18
436.42	489.77
436.79	497.63
437.16	506.08
437.53	514.98
437.90	523.84
438.27	532.53
438.64	541.37
439.01	549.63
439.38	556.97
439.75	564.02
440.13	572.15
440.50	579.77
440.87	585.89
441.24	592.31
441.61	599.36
441.98	604.55
442.35	610.56
442.72	616.69
443.09	622.41
443.46	625.98
443.83	628.45
444.20	630.50
444.57	633.45
444.94	634.81
445.31	636.19
445.68	637.49
446.05	638.07
446.42	637.31
446.79	636.36
447.16	635.32
447.53	634.50
447.90	631.18
448.27	627.90
448.64	623.39
449.01	620.14
449.37	614.45
449.74	608.99
450.11	602.39
450.48	595.27
450.85	588.09
451.22	581.84
451.59	575.92
451.96	570.29
452.33	562.72
452.70	555.87
453.07	547.64
453.43	539.33
453.80	531.36
454.17	523.74
454.54	516.47
454.91	508.60
455.28	500.98
455.65	493.98
456.02	486.88
456.38	480.85
456.75	473.38
457.12	467.12
457.49	460.84
457.86	454.91
458.23	449.81
458.59	444.15
458.96	438.44
459.33	433.40
459.70	428.30
460.07	424.26
460.43	419.59
460.80	415.27
461.17	411.44
461.54	407.44
461.91	403.51
462.27	399.55
462.64	396.28
463.01	392.59
463.38	389.00
463.74	385.44
464.11	382.28
464.48	379.51
464.85	376.51
465.21	374.20
465.58	371.65
465.95	368.61
466.32	366.12
466.68	363.63
467.05	361.13
467.42	358.70
467.78	356.13
468.15	353.71
468.52	351.90
468.88	349.52
469.25	347.33
469.62	345.67
469.98	343.83
470.35	342.11
470.72	340.54
471.08	338.82
471.45	337.41
471.82	336.02
472.18	334.43
472.55	333.28
472.92	331.98
473.28	330.85
473.65	329.75
474.02	328.70
474.38	327.90
474.75	327.18
475.11	326.40
475.48	325.87
475.85	325.39
476.21	324.93
476.58	324.67
476.94	324.54
477.31	324.23
477.67	324.05
478.04	323.89
478.41	323.87
478.77	324.06
479.14	324.01
479.50	324.14
479.87	324.45
480.23	324.81
480.60	325.09
480.96	325.42
481.33	326.06
481.69	326.60
482.06	327.14
482.42	327.67
482.79	328.28
483.15	329.08
483.52	330.08
483.88	330.97
484.25	331.88
484.61	332.89
484.98	333.98
485.34	335.28
485.71	336.67
486.07	338.09
486.44	339.42
486.80	341.05
487.17	342.71
487.53	344.57
487.90	346.42
488.26	348.41
488.62	350.57
488.99	352.59
489.35	354.78
489.72	357.08
490.08	359.65
490.44	362.22
490.81	364.96
491.17	367.66
491.54	370.68
491.90	373.72
492.26	376.96
492.63	380.39
492.99	383.84
493.36	387.50
493.72	391.36
494.08	395.38
494.45	399.57
494.81	403.90
495.17	408.34
495.54	413.06
495.90	417.85
496.26	422.75
496.63	427.93
496.99	433.27
497.35	438.80
497.72	444.52
498.08	450.43
498.44	456.51
498.80	462.90
499.17	469.38
499.53	476.03
499.89	482.88
500.26	489.81
500.62	496.90
500.98	504.27
501.34	511.74
501.71	519.51
502.07	527.32
502.43	535.33
502.79	543.48
503.16	551.80
503.52	560.37
503.88	569.10
504.24	577.98
504.60	587.02
504.97	596.29
505.33	605.56
505.69	615.44
506.05	625.26
506.41	635.08
506.78	645.04
507.14	655.32
507.50	665.74
507.86	676.41
508.22	687.19
508.59	697.79
508.95	708.81
509.31	719.96
509.67	731.39
510.03	742.75
510.39	754.48
510.75	766.27
511.12	778.11
511.48	790.08
511.84	802.26
512.20	814.64
512.56	827.15
512.92	839.85
513.28	852.32
513.64	864.96
514.00	877.74
514.37	890.60
514.73	903.53
515.09	916.32
515.45	929.02
515.81	941.90
516.17	955.19
516.53	968.25
516.89	981.28
517.25	994.36
517.61	1007.85
517.97	1021.01
518.33	1034.02
518.69	1047.39
519.05	1060.99
519.41	1074.47
519.77	1088.11
520.13	1101.24
520.49	1114.25
520.85	1127.33
521.21	1140.46
521.57	1153.99
521.93	1166.97
522.29	1180.53
522.65	1194.09
523.01	1207.50
523.37	1220.56
523.73	1233.58
524.09	1246.60
524.45	1259.85
524.81	1272.93
525.17	1285.94
525.53	1298.85
525.89	1311.90
526.25	1324.89
526.61	1337.38
526.97	1350.23
527.33	1362.88
527.68	1376.04
528.04	1389.15
528.40	1402.08
528.76	1415.10
529.12	1427.50
529.48	1440.55
529.84	1452.62
530.20	1465.15
530.56	1477.61
530.91	1490.40
531.27	1502.98
531.63	1515.41
531.99	1527.72
532.35	1539.72
532.71	1551.86
533.07	1564.33
533.42	1576.18
533.78	1587.78
534.14	1599.68
534.50	1610.65
534.86	1622.01
535.21	1632.69
535.57	1643.89
535.93	1655.04
536.29	1665.98
536.65	1677.36
537.00	1687.88
537.36	1698.90
537.72	1709.44
538.08	1720.27
538.44	1730.97
538.79	1741.61
539.15	1752.11
539.51	1762.61
539.87	1773.70
540.22	1784.13
540.58	1794.77
540.94	1805.38
541.29	1815.41
541.65	1824.73
542.01	1834.89
542.37	1844.57
542.72	1854.51
543.08	1864.05
543.44	1874.04
543.79	1883.01
544.15	1892.08
544.51	1901.81
544.87	1911.28
545.22	1920.19
545.58	1928.88
545.94	1937.42
546.29	1945.83
546.65	1954.01
547.01	1961.83
547.36	1969.20
547.72	1976.68
548.07	1984.15
548.43	1991.72
548.79	1999.32
549.14	2007.33
549.50	2015.54
549.86	2022.98
550.21	2030.01
550.57	2037.49
550.92	2044.13
551.28	2051.40
551.64	2058.39
551.99	2065.72
552.35	2072.69
552.70	2079.29
553.06	2085.77
553.41	2091.90
553.77	2098.32
554.13	2104.47
554.48	2111.54
554.84	2118.38
555.19	2124.81
555.55	2131.14
555.90	2137.28
556.26	2143.93
556.61	2149.64
556.97	2154.39
557.32	2160.35
557.68	2166.71
558.03	2172.26
558.39	2177.44
558.74	2183.45
559.10	2189.14
559.45	2194.59
559.81	2200.15
560.16	2205.88
560.52	2211.73
560.87	2218.07
561.23	2223.85
561.58	2230.45
561.94	2235.43
562.29	2240.24
562.64	2246.36
563.00	2251.89
563.35	2257.58
563.71	2263.41
564.06	2269.14
564.42	2275.12
564.77	2280.27
565.12	2285.56
565.48	2290.98
565.83	2296.67
566.19	2302.14
566.54	2307.44
566.89	2312.10
567.25	2316.58
567.60	2322.12
567.96	2327.35
568.31	2332.09
568.66	2336.45
569.02	2340.42
569.37	2344.36
569.72	2348.88
570.08	2352.43
570.43	2355.55
570.78	2358.62
571.14	2361.27
571.49	2364.45
571.84	2368.04
572.20	2371.04
572.55	2374.26
572.90	2376.42
573.26	2379.45
573.61	2381.89
573.96	2384.21
574.31	2386.53
574.67	2388.68
575.02	2389.80
575.37	2391.42
575.72	2392.37
576.08	2394.02
576.43	2394.51
576.78	2395.48
577.13	2397.39
577.49	2398.69
577.84	2400.20
578.19	2401.82
578.54	2402.64
578.90	2403.92
579.25	2404.12
579.60	2404.38
579.95	2403.87
580.30	2404.49
580.66	2403.83
581.01	2402.42
581.36	2400.47
581.71	2399.10
582.06	2398.39
582.42	2397.68
582.77	2395.69
583.12	2394.28
583.47	2393.28
583.82	2392.88
584.17	2391.79
584.53	2389.84
584.88	2388.12
585.23	2386.47
585.58	2384.23
585.93	2382.32
586.28	2380.19
586.63	2378.14
586.98	2376.08
587.34	2374.46
587.69	2372.26
588.04	2370.64
588.39	2369.36
588.74	2367.06
589.09	2364.95
589.44	2361.98
589.79	2359.84
590.14	2358.12
590.49	2355.58
590.84	2351.97
591.19	2349.21
591.54	2346.04
591.89	2342.19
592.25	2339.04
592.60	2334.98
592.95	2331.16
593.30	2327.23
593.65	2322.91
594.00	2318.55
594.35	2315.60
594.70	2310.86
595.05	2306.35
595.40	2300.89
595.75	2295.50
596.10	2291.98
596.45	2287.02
596.80	2282.53
597.15	2277.33
597.50	2271.65
597.85	2266.71
598.19	2261.53
598.54	2255.81
598.89	2250.89
599.24	2246.43
599.59	2240.45
599.94	2234.83
600.29	2229.02
600.64	2223.24
600.99	2216.87
601.34	2211.49
601.69	2204.47
602.04	2198.22
602.39	2191.82
602.74	2185.81
603.08	2180.24
603.43	2173.68
603.78	2166.92
604.13	2159.86
604.48	2152.81
604.83	2146.86
605.18	2140.73
605.53	2133.85
605.87	2126.88
606.22	2120.06
606.57	2112.14
606.92	2104.31
607.27	2097.46
607.62	2090.88
607.96	2083.93
608.31	2077.41
608.66	2069.72
609.01	2062.25
609.36	2055.25
609.70	2047.44
610.05	2039.88
610.40	2031.79
610.75	2023.72
611.10	2016.16
611.44	2007.60
611.79	1998.79
612.14	1988.80
612.49	1978.35
612.83	1969.23
613.18	1960.07
613.53	1950.74
613.88	1941.37
614.22	1932.78
614.57	1922.75
614.92	1912.28
615.27	1902.36
615.61	1892.51
615.96	1882.90
616.31	1873.47
616.65	1864.04
617.00	1854.24
617.35	1844.64
617.70	1834.92
618.04	1824.67
618.39	1814.31
618.74	1804.59
619.08	1795.18
619.43	1786.39
619.78	1778.03
620.12	1769.29
620.47	1759.47
620.82	1749.19
621.16	1739.39
621.51	1729.40
621.85	1719.53
622.20	1709.02
622.55	1698.24
622.89	1688.31
623.24	1678.57
623.59	1668.75
623.93	1658.77
624.28	1649.12
624.62	1638.80
624.97	1628.47
625.32	1618.98
625.66	1610.20
626.01	1601.28
626.35	1591.70
626.70	1581.44
627.04	1571.30
627.39	1561.31
627.73	1552.02
628.08	1542.84
628.43	1533.14
628.77	1523.89
629.12	1515.19
629.46	1507.32
629.81	1498.86
630.15	1489.15
630.50	1479.28
630.84	1468.76
631.19	1458.69
631.53	1449.07
631.88	1438.84
632.22	1428.71
632.57	1419.25
632.91	1409.02
633.26	1399.16
633.60	1389.63
633.95	1380.50
634.29	1371.05
634.64	1361.54
634.98	1351.66
635.32	1342.52
635.67	1334.06
636.01	1324.88
636.36	1314.93
636.70	1305.41
637.05	1296.02
637.39	1287.08
637.73	1278.35
638.08	1270.76
638.42	1262.38
638.77	1253.63
639.11	1245.51
639.45	1237.67
639.80	1228.94
640.14	1220.34
640.49	1211.35
640.83	1202.52
641.17	1194.43
641.52	1186.21
641.86	1177.53
642.20	1169.62
642.55	1160.93
642.89	1151.93
643.23	1143.22
643.58	1135.10
643.92	1126.03
644.26	1117.37
644.61	1108.87
644.95	1100.18
645.29	1090.77
645.64	1081.74
645.98	1073.46
646.32	1065.43
646.66	1056.96
647.01	1048.56
647.35	1040.33
647.69	1032.02
648.04	1023.70
648.38	1014.66
648.72	1005.87
649.06	997.42
649.41	989.29
649.75	981.34
650.09	973.41
650.43	965.22
650.78	956.99
651.12	949.34
651.46	942.00
651.80	934.75
652.14	927.38
652.49	919.97
652.83	912.59
653.17	904.80
653.51	897.22
653.85	889.89
654.20	882.70
654.54	875.09
654.88	867.96
655.22	860.80
655.56	853.88
655.90	847.02
656.25	840.48
656.59	833.47
656.93	826.44
657.27	819.39
657.61	812.57
657.95	806.44
658.29	800.56
658.64	794.39
658.98	787.95
659.32	781.46
659.66	775.28
660.00	769.02
660.34	763.07
660.68	757.01
661.02	750.88
661.36	745.02
661.70	739.41
662.05	733.72
662.39	728.26
662.73	722.95
663.07	717.70
663.41	712.09
663.75	706.46
664.09	700.92
664.43	695.64
664.77	690.36
665.11	684.60
665.45	678.75
665.79	673.01
666.13	667.41
666.47	661.99
666.81	656.62
667.15	651.29
667.49	646.13
667.83	640.97
668.17	635.67
668.51	630.64
668.85	625.77
669.19	620.93
669.53	615.96
669.87	610.93
670.21	606.24
670.55	601.57
670.89	597.31
671.23	593.05
671.57	588.80
671.91	584.55
672.25	580.50
672.58	576.47
672.92	572.47
673.26	568.58
673.60	564.79
673.94	561.04
674.28	557.43
674.62	553.68
674.96	549.93
675.30	546.44
675.64	542.79
675.97	539.33
676.31	535.81
676.65	532.27
676.99	528.76
677.33	524.93
677.67	521.32
678.01	517.45
678.34	513.80
678.68	510.23
679.02	506.60
679.36	502.94
679.70	499.33
680.04	495.88
680.37	492.49
680.71	489.20
681.05	486.08
681.39	482.92
681.73	479.86
682.06	476.97
682.40	473.96
682.74	470.77
683.08	467.57
683.42	464.47
683.75	461.50
684.09	458.60
684.43	455.85
684.77	452.95
685.10	450.18
685.44	447.32
685.78	444.46
686.12	441.82
686.45	439.19
686.79	436.60
687.13	434.10
687.46	431.53
687.80	428.88
688.14	426.08
688.48	423.56
688.81	420.92
689.15	418.31
689.49	415.73
689.82	413.26
690.16	410.70
690.50	408.24
690.83	405.78
691.17	403.29
691.51	400.90
691.84	398.71
692.18	396.55
692.52	394.41
692.85	392.31
693.19	390.21
693.52	388.02
693.86	385.85
694.20	383.69
694.53	381.59
694.87	379.41
695.21	377.36
695.54	375.19
695.88	373.05
696.21	370.88
696.55	368.84
696.88	366.89
697.22	364.93
697.56	363.14
697.89	361.35
698.23	359.66
698.56	357.91
698.90	356.20
699.23	354.29
699.57	352.44
699.90	350.67
700.24	348.88
700.58	347.22
700.91	345.59
701.25	344.09
701.58	342.51
701.92	340.96
702.25	339.36
702.59	337.82
702.92	336.34
703.26	334.86
703.59	333.45
703.93	332.20
704.26	330.80
704.60	329.30
704.93	327.86
705.26	326.36
705.60	324.95
705.93	323.50
706.27	322.24
706.60	321.04
706.94	319.79
707.27	318.47
707.61	317.15
707.94	315.82
708.27	314.33
708.61	312.92
708.94	311.60
709.28	310.36
709.61	309.14
709.94	307.98
710.28	306.80
710.61	305.64
710.95	304.18
711.28	303.13
711.61	301.96
711.95	300.89
712.28	299.74
712.61	298.58
712.95	297.54
713.28	296.55
713.61	295.40
713.95	294.27
714.28	293.29
714.61	292.28
714.95	291.25
715.28	290.28
715.61	289.33
715.95	288.44
716.28	287.52
716.61	286.59
716.95	285.60
717.28	284.71
717.61	283.79
717.94	283.00
718.28	282.02
718.61	281.23
718.94	280.30
719.27	279.45
719.61	278.66
719.94	277.79
720.27	276.83
720.60	276.02
720.94	275.27
721.27	274.50
721.60	273.83
721.93	273.14
722.27	272.51
722.60	271.86
722.93	271.16
723.26	270.55
723.59	269.89
723.93	269.32
724.26	268.65
724.59	268.00
724.92	267.44
725.25	266.94
725.59	266.34
725.92	265.85
726.25	265.32
726.58	264.76
726.91	264.20
727.24	263.69
727.57	263.13
727.91	262.52
728.24	261.98
728.57	261.39
728.90	260.90
729.23	260.30
729.56	259.86
729.89	259.33
730.22	258.75
730.55	258.19
730.89	257.66
731.22	257.17
731.55	256.66
731.88	256.16
732.21	255.59
732.54	255.11
732.87	254.61
733.20	254.16
733.53	253.69
733.86	253.24
734.19	252.77
734.52	252.38
734.85	252.14
735.18	251.70
735.51	251.35
735.84	250.89
736.17	250.50
736.50	249.95
736.83	249.80
737.16	249.41
737.49	249.07
737.82	248.68
738.15	248.32
738.48	247.96
738.81	247.58
739.14	247.19
739.47	246.77
739.80	246.41
740.13	246.10
740.46	245.70
740.79	245.37
741.12	245.03
741.45	244.66
741.78	244.22
742.11	243.96
742.44	243.54
742.77	243.30
743.10	243.01
743.43	242.69
743.75	242.15
744.08	242.09
744.41	241.69
744.74	241.34
745.07	240.99
745.40	240.69
745.73	240.48
746.06	240.17
746.39	239.92
746.71	239.56
747.04	239.19
747.37	238.88
747.70	238.55
748.03	238.26
748.36	238.00
748.68	237.71
749.01	237.34
749.34	237.11
749.67	236.78
750.00	236.53
750.33	236.45
750.65	236.21
750.98	235.70
751.31	235.49
751.64	235.30
751.97	235.14
752.29	234.87
752.62	234.51
752.95	234.29
753.28	234.02
753.60	233.80
753.93	233.63
754.26	233.40
754.59	233.18
754.91	232.92
755.24	232.67
755.57	232.45
755.90	232.27
756.22	232.03
756.55	231.78
756.88	231.52
757.20	231.16
757.53	230.88
757.86	230.69
758.19	230.51
758.51	230.27
758.84	230.03
759.17	229.83
759.49	229.65
759.82	229.57
760.15	229.38
760.47	229.21
760.80	228.98
761.13	228.86
761.45	228.65
761.78	228.50
762.11	228.36
762.43	228.16
762.76	227.95
763.08	227.80
763.41	227.69
763.74	227.55
764.06	227.38
764.39	227.23
764.71	227.10
765.04	226.94
765.37	226.78
765.69	226.63
766.02	226.50
766.34	226.35
766.67	226.12
767.00	226.02
767.32	226.02
767.65	226.02
767.97	225.88
768.30	225.79
768.62	225.67
768.95	225.52
769.27	225.41
769.60	225.34
769.92	225.20
770.25	225.02
770.57	224.87
770.90	224.76
771.22	224.61
771.55	224.50
771.87	224.41
772.20	224.32
772.52	224.37
772.85	224.50
773.17	224.42
773.50	224.31
773.82	224.19
774.15	223.98
774.47	223.76
774.80	223.67
775.12	223.54
775.45	223.45
775.77	223.39
776.09	223.30
776.42	223.21
776.74	223.19
777.07	223.11
777.39	223.03
777.72	222.93
778.04	222.91
778.36	222.81
778.69	222.73
779.01	222.64
779.33	222.41
779.66	222.11
779.98	222.01
780.31	221.95
780.63	221.98
780.95	221.96
781.28	221.90
781.60	221.81
781.92	221.77
782.25	221.69
782.57	221.62
782.89	221.58
783.22	221.50
783.54	221.40
783.86	221.35
784.19	221.29
784.51	221.29
784.83	221.21
785.16	221.15
785.48	221.08
785.80	221.04
786.12	220.97
