SpectraSuite Data File
++++++++++++++++++++++++++++++++++++
Date: Tue Jan 29 16:54:14 EST 2013
User: group
Dark Spectrum Present: No
Reference Spectrum Present: No
Number of Sampled Component Spectra: 1
Spectrometers: USB2E7196
Integration Time (usec): 65000 (USB2E7196)
Spectra Averaged: 100 (USB2E7196)
Boxcar Smoothing: 10 (USB2E7196)
Correct for Electrical Dark: No (USB2E7196)
Strobe/Lamp Enabled: No (USB2E7196)
Correct for Detector Non-linearity: No (USB2E7196)
Correct for Stray Light: No (USB2E7196)
Number of Pixels in Processed Spectrum: 2048
>>>>>Begin Processed Spectral Data<<<<<
339.09	0.00
339.48	201.34
339.86	203.15
340.24	204.68
340.63	205.84
341.01	210.06
341.39	208.23
341.78	209.56
342.16	211.11
342.54	211.03
342.93	200.62
343.31	210.75
343.69	211.30
344.07	211.75
344.46	212.21
344.84	212.61
345.22	212.79
345.60	213.08
345.99	213.29
346.37	213.44
346.75	213.58
347.13	213.66
347.52	213.73
347.90	213.87
348.28	213.90
348.66	213.98
349.05	213.95
349.43	214.01
349.81	214.11
350.19	214.19
350.57	214.27
350.96	214.38
351.34	214.50
351.72	214.61
352.10	214.75
352.48	214.81
352.87	214.86
353.25	214.95
353.63	214.99
354.01	215.07
354.39	215.16
354.77	215.21
355.15	215.38
355.54	215.45
355.92	215.45
356.30	215.54
356.68	215.73
357.06	215.84
357.44	215.89
357.82	215.94
358.20	216.02
358.58	216.09
358.97	216.14
359.35	216.25
359.73	216.36
360.11	216.40
360.49	216.46
360.87	216.47
361.25	216.53
361.63	216.66
362.01	216.70
362.39	216.72
362.77	216.80
363.15	216.78
363.53	216.84
363.91	216.86
364.29	216.88
364.67	216.70
365.05	216.70
365.43	216.75
365.81	216.77
366.19	216.84
366.57	216.92
366.95	216.94
367.33	216.86
367.71	216.84
368.09	216.88
368.47	216.85
368.85	216.87
369.23	216.93
369.61	216.85
369.99	216.92
370.37	216.95
370.75	217.03
371.13	216.97
371.51	216.90
371.89	216.91
372.27	216.89
372.65	216.91
373.03	216.91
373.41	216.87
373.78	216.83
374.16	216.70
374.54	216.61
374.92	216.55
375.30	216.54
375.68	216.48
376.06	216.46
376.44	216.42
376.82	216.38
377.19	216.30
377.57	216.25
377.95	216.12
378.33	216.04
378.71	215.88
379.09	215.90
379.47	215.85
379.84	215.79
380.22	215.74
380.60	215.65
380.98	215.58
381.36	215.53
381.73	215.46
382.11	215.47
382.49	215.45
382.87	215.38
383.25	215.33
383.62	215.53
384.00	215.44
384.38	215.41
384.76	215.42
385.13	215.47
385.51	215.42
385.89	215.35
386.27	215.36
386.64	215.34
387.02	215.25
387.40	215.24
387.78	215.23
388.15	215.22
388.53	215.19
388.91	215.13
389.29	215.11
389.66	215.13
390.04	215.09
390.42	215.06
390.79	215.06
391.17	215.05
391.55	214.76
391.92	214.75
392.30	214.79
392.68	214.72
393.05	214.69
393.43	214.70
393.81	214.72
394.18	214.66
394.56	214.69
394.94	214.75
395.31	214.75
395.69	214.81
396.06	214.85
396.44	214.90
396.82	214.92
397.19	215.04
397.57	215.02
397.95	215.07
398.32	215.08
398.70	215.11
399.07	215.19
399.45	215.26
399.82	215.29
400.20	215.30
400.58	215.40
400.95	215.37
401.33	215.48
401.70	215.69
402.08	215.81
402.45	215.88
402.83	216.02
403.20	216.14
403.58	216.22
403.95	216.36
404.33	216.50
404.71	216.68
405.08	216.89
405.46	217.05
405.83	217.26
406.21	217.44
406.58	217.67
406.96	217.89
407.33	218.13
407.70	218.46
408.08	218.92
408.45	219.29
408.83	219.69
409.20	220.06
409.58	220.34
409.95	220.77
410.33	221.25
410.70	221.66
411.08	222.20
411.45	222.79
411.82	223.35
412.20	224.05
412.57	224.89
412.95	225.46
413.32	226.32
413.69	227.16
414.07	228.08
414.44	229.11
414.82	230.14
415.19	231.34
415.56	232.53
415.94	233.75
416.31	235.12
416.68	236.51
417.06	238.13
417.43	239.70
417.81	241.45
418.18	243.23
418.55	245.20
418.93	247.23
419.30	249.36
419.67	251.61
420.04	253.94
420.42	256.33
420.79	259.18
421.16	262.02
421.54	264.92
421.91	267.93
422.28	271.04
422.66	274.38
423.03	277.65
423.40	281.01
423.77	284.64
424.15	288.38
424.52	292.29
424.89	296.47
425.26	300.56
425.64	304.51
426.01	308.80
426.38	313.31
426.75	317.90
427.13	322.68
427.50	327.67
427.87	332.84
428.24	338.04
428.61	343.09
428.99	348.63
429.36	354.71
429.73	360.65
430.10	366.55
430.47	372.68
430.85	379.04
431.22	385.79
431.59	392.90
431.96	399.73
432.33	407.23
432.70	414.54
433.08	423.07
433.45	431.15
433.82	439.21
434.19	448.12
434.56	456.87
434.93	465.21
435.30	473.53
435.68	482.68
436.05	491.76
436.42	500.72
436.79	508.92
437.16	517.73
437.53	527.11
437.90	536.28
438.27	545.20
438.64	554.46
439.01	563.08
439.38	570.70
439.75	578.11
440.13	586.59
440.50	594.58
440.87	601.12
441.24	607.82
441.61	615.24
441.98	620.72
442.35	627.07
442.72	633.46
443.09	639.55
443.46	643.37
443.83	645.88
444.20	648.07
444.57	651.24
444.94	652.74
445.31	654.19
445.68	655.68
446.05	656.39
446.42	655.67
446.79	654.71
447.16	653.70
447.53	652.87
447.90	649.59
448.27	646.33
448.64	641.67
449.01	638.36
449.37	632.49
449.74	626.77
450.11	619.89
450.48	612.45
450.85	605.03
451.22	598.61
451.59	592.48
451.96	586.65
452.33	578.76
452.70	571.59
453.07	563.00
453.43	554.29
453.80	545.92
454.17	537.86
454.54	530.31
454.91	522.04
455.28	514.02
455.65	506.52
456.02	498.92
456.38	492.49
456.75	484.50
457.12	477.82
457.49	471.27
457.86	465.03
458.23	459.58
458.59	453.60
458.96	447.50
459.33	442.08
459.70	436.64
460.07	432.35
460.43	427.37
460.80	422.79
461.17	418.75
461.54	414.51
461.91	410.44
462.27	406.27
462.64	402.82
463.01	399.01
463.38	395.28
463.74	391.54
464.11	388.30
464.48	385.46
464.85	382.35
465.21	379.90
465.58	377.25
465.95	374.13
466.32	371.50
466.68	368.88
467.05	366.30
467.42	363.75
467.78	361.03
468.15	358.49
468.52	356.55
468.88	354.07
469.25	351.87
469.62	350.05
469.98	348.03
470.35	346.18
470.72	344.44
471.08	342.61
471.45	341.13
471.82	339.61
472.18	337.92
472.55	336.71
472.92	335.27
473.28	334.05
473.65	332.85
474.02	331.71
474.38	330.72
474.75	329.96
475.11	329.10
475.48	328.53
475.85	328.00
476.21	327.49
476.58	327.10
476.94	326.83
477.31	326.49
477.67	326.24
478.04	326.06
478.41	326.03
478.77	326.19
479.14	326.08
479.50	326.22
479.87	326.49
480.23	326.82
480.60	327.06
480.96	327.27
481.33	327.85
481.69	328.38
482.06	328.95
482.42	329.41
482.79	330.02
483.15	330.73
483.52	331.69
483.88	332.57
484.25	333.53
484.61	334.54
484.98	335.58
485.34	336.90
485.71	338.29
486.07	339.71
486.44	341.07
486.80	342.69
487.17	344.34
487.53	346.15
487.90	348.01
488.26	350.05
488.62	352.26
488.99	354.29
489.35	356.48
489.72	358.86
490.08	361.44
490.44	364.02
490.81	366.76
491.17	369.49
491.54	372.46
491.90	375.46
492.26	378.67
492.63	382.13
492.99	385.55
493.36	389.19
493.72	393.08
494.08	397.01
494.45	401.24
494.81	405.56
495.17	410.00
495.54	414.68
495.90	419.47
496.26	424.33
496.63	429.54
496.99	434.91
497.35	440.50
497.72	446.21
498.08	452.07
498.44	458.15
498.80	464.58
499.17	471.04
499.53	477.70
499.89	484.60
500.26	491.50
500.62	498.59
500.98	506.02
501.34	513.47
501.71	521.22
502.07	529.02
502.43	537.02
502.79	545.17
503.16	553.57
503.52	562.11
503.88	570.87
504.24	579.77
504.60	588.87
504.97	598.01
505.33	607.26
505.69	617.12
506.05	626.93
506.41	636.72
506.78	646.77
507.14	656.98
507.50	667.33
507.86	678.07
508.22	688.80
508.59	699.40
508.95	710.36
509.31	721.59
509.67	732.98
510.03	744.26
510.39	755.91
510.75	767.64
511.12	779.56
511.48	791.56
511.84	803.84
512.20	816.04
512.56	828.60
512.92	841.38
513.28	854.00
513.64	866.80
514.00	879.66
514.37	892.59
514.73	905.75
515.09	918.77
515.45	931.63
515.81	944.72
516.17	958.06
516.53	971.31
516.89	984.44
517.25	997.70
517.61	1011.33
517.97	1024.78
518.33	1038.01
518.69	1051.49
519.05	1065.27
519.41	1078.95
519.77	1092.85
520.13	1106.18
520.49	1119.43
520.85	1132.77
521.21	1146.00
521.57	1159.66
521.93	1172.70
522.29	1186.43
522.65	1200.02
523.01	1213.64
523.37	1226.88
523.73	1240.30
524.09	1253.56
524.45	1267.06
524.81	1280.56
525.17	1293.92
525.53	1307.16
525.89	1320.39
526.25	1333.58
526.61	1346.38
526.97	1359.55
527.33	1372.57
527.68	1386.01
528.04	1399.44
528.40	1412.59
528.76	1426.03
529.12	1438.93
529.48	1452.33
529.84	1464.58
530.20	1477.39
530.56	1490.13
530.91	1503.30
531.27	1516.19
531.63	1528.86
531.99	1541.57
532.35	1553.74
532.71	1566.15
533.07	1579.08
533.42	1591.52
533.78	1603.71
534.14	1615.84
534.50	1627.09
534.86	1638.78
535.21	1649.73
535.57	1661.36
535.93	1672.78
536.29	1683.87
536.65	1695.60
537.00	1706.66
537.36	1718.14
537.72	1729.23
538.08	1740.59
538.44	1751.70
538.79	1762.83
539.15	1773.84
539.51	1784.72
539.87	1796.01
540.22	1807.00
540.58	1817.99
540.94	1828.85
541.29	1839.21
541.65	1849.11
542.01	1859.64
542.37	1869.68
542.72	1879.98
543.08	1889.81
543.44	1900.28
543.79	1909.66
544.15	1918.97
544.51	1928.94
544.87	1938.86
545.22	1948.08
545.58	1956.98
545.94	1965.96
546.29	1974.47
546.65	1983.09
547.01	1991.43
547.36	1999.40
547.72	2007.12
548.07	2014.74
548.43	2022.58
548.79	2030.40
549.14	2038.57
549.50	2047.13
549.86	2055.16
550.21	2062.58
550.57	2070.34
550.92	2077.32
551.28	2084.91
551.64	2092.16
551.99	2099.73
552.35	2107.05
552.70	2113.96
553.06	2120.61
553.41	2126.90
553.77	2133.61
554.13	2139.84
554.48	2146.80
554.84	2153.91
555.19	2160.50
555.55	2166.77
555.90	2173.03
556.26	2179.89
556.61	2186.06
556.97	2190.88
557.32	2196.53
557.68	2203.02
558.03	2208.78
558.39	2214.11
558.74	2220.04
559.10	2225.74
559.45	2231.23
559.81	2236.67
560.16	2242.23
560.52	2247.97
560.87	2254.26
561.23	2259.84
561.58	2266.48
561.94	2271.69
562.29	2276.23
562.64	2282.13
563.00	2287.83
563.35	2293.31
563.71	2298.99
564.06	2304.65
564.42	2310.43
564.77	2315.56
565.12	2320.70
565.48	2325.76
565.83	2331.14
566.19	2336.27
566.54	2341.35
566.89	2345.82
567.25	2350.21
567.60	2355.85
567.96	2361.00
568.31	2365.42
568.66	2369.73
569.02	2373.45
569.37	2377.11
569.72	2381.43
570.08	2384.77
570.43	2387.64
570.78	2390.66
571.14	2393.01
571.49	2395.86
571.84	2399.40
572.20	2402.15
572.55	2404.96
572.90	2407.09
573.26	2409.58
573.61	2412.18
573.96	2414.18
574.31	2416.16
574.67	2417.82
575.02	2418.41
575.37	2419.75
575.72	2420.38
576.08	2421.60
576.43	2421.77
576.78	2422.02
577.13	2423.23
577.49	2424.39
577.84	2425.47
578.19	2426.49
578.54	2426.85
578.90	2427.16
579.25	2426.80
579.60	2426.52
579.95	2425.62
580.30	2425.45
580.66	2424.58
581.01	2422.60
581.36	2420.07
581.71	2418.49
582.06	2417.30
582.42	2416.32
582.77	2413.81
583.12	2411.97
583.47	2410.36
583.82	2409.43
584.17	2408.04
584.53	2405.80
584.88	2403.39
585.23	2401.21
585.58	2398.79
585.93	2396.74
586.28	2394.56
586.63	2391.75
586.98	2389.23
587.34	2386.91
587.69	2384.20
588.04	2382.00
588.39	2380.38
588.74	2377.82
589.09	2374.89
589.44	2371.52
589.79	2368.72
590.14	2366.55
590.49	2363.49
590.84	2359.55
591.19	2356.15
591.54	2352.72
591.89	2348.55
592.25	2345.12
592.60	2340.79
592.95	2336.57
593.30	2332.12
593.65	2327.51
594.00	2323.18
594.35	2320.14
594.70	2315.61
595.05	2311.03
595.40	2305.35
595.75	2299.51
596.10	2295.70
596.45	2290.72
596.80	2285.98
597.15	2280.59
597.50	2274.59
597.85	2269.52
598.19	2264.27
598.54	2258.49
598.89	2253.11
599.24	2248.41
599.59	2242.16
599.94	2236.22
600.29	2230.16
600.64	2224.28
600.99	2217.58
601.34	2212.04
601.69	2204.94
602.04	2198.40
602.39	2191.64
602.74	2185.52
603.08	2180.03
603.43	2173.49
603.78	2166.66
604.13	2159.59
604.48	2152.40
604.83	2146.37
605.18	2140.17
605.53	2133.23
605.87	2126.19
606.22	2119.34
606.57	2111.57
606.92	2103.65
607.27	2096.79
607.62	2090.17
607.96	2083.17
608.31	2076.70
608.66	2068.83
609.01	2061.27
609.36	2054.07
609.70	2046.48
610.05	2038.64
610.40	2030.35
610.75	2022.00
611.10	2014.25
611.44	2005.48
611.79	1996.86
612.14	1986.98
612.49	1976.30
612.83	1966.96
613.18	1957.75
613.53	1948.41
613.88	1938.86
614.22	1930.34
614.57	1920.53
614.92	1910.02
615.27	1899.73
615.61	1889.71
615.96	1880.13
616.31	1870.63
616.65	1861.27
617.00	1851.61
617.35	1842.22
617.70	1832.49
618.04	1822.59
618.39	1812.59
618.74	1803.05
619.08	1793.41
619.43	1784.57
619.78	1776.48
620.12	1767.97
620.47	1758.56
620.82	1748.55
621.16	1738.90
621.51	1729.09
621.85	1719.38
622.20	1709.16
622.55	1698.90
622.89	1688.93
623.24	1679.27
623.59	1669.51
623.93	1659.51
624.28	1649.80
624.62	1639.88
624.97	1629.81
625.32	1620.10
625.66	1611.22
626.01	1602.43
626.35	1593.25
626.70	1583.49
627.04	1573.67
627.39	1563.66
627.73	1554.39
628.08	1545.52
628.43	1535.99
628.77	1526.90
629.12	1518.16
629.46	1510.40
629.81	1502.05
630.15	1492.70
630.50	1483.12
630.84	1472.75
631.19	1463.05
631.53	1453.96
631.88	1443.85
632.22	1433.99
632.57	1424.67
632.91	1414.69
633.26	1405.05
633.60	1395.58
633.95	1386.36
634.29	1376.86
634.64	1367.71
634.98	1357.91
635.32	1348.66
635.67	1340.35
636.01	1331.22
636.36	1321.44
636.70	1312.02
637.05	1302.85
637.39	1294.05
637.73	1285.44
638.08	1278.00
638.42	1269.87
638.77	1261.07
639.11	1252.98
639.45	1245.17
639.80	1236.91
640.14	1228.36
640.49	1219.60
640.83	1210.83
641.17	1202.78
641.52	1194.77
641.86	1186.29
642.20	1178.58
642.55	1170.07
642.89	1161.29
643.23	1152.73
643.58	1144.88
643.92	1135.90
644.26	1127.29
644.61	1118.98
644.95	1110.30
645.29	1101.27
645.64	1092.24
645.98	1083.87
646.32	1076.03
646.66	1067.64
647.01	1059.39
647.35	1051.37
647.69	1043.11
648.04	1035.04
648.38	1026.26
648.72	1017.68
649.06	1009.30
649.41	1001.09
649.75	993.26
650.09	985.50
650.43	977.61
650.78	969.25
651.12	961.67
651.46	954.25
651.80	947.11
652.14	939.95
652.49	932.42
652.83	925.23
653.17	917.69
653.51	910.15
653.85	903.06
654.20	895.94
654.54	888.61
654.88	881.43
655.22	874.20
655.56	867.21
655.90	860.44
656.25	853.79
656.59	847.04
656.93	840.09
657.27	832.98
657.61	825.91
657.95	819.86
658.29	813.98
658.64	808.00
658.98	801.53
659.32	795.03
659.66	788.88
660.00	782.58
660.34	776.45
660.68	770.39
661.02	764.01
661.36	758.01
661.70	752.18
662.05	746.54
662.39	741.07
662.73	735.72
663.07	730.31
663.41	724.77
663.75	719.05
664.09	713.44
664.43	708.00
664.77	702.83
665.11	697.05
665.45	691.20
665.79	685.33
666.13	679.64
666.47	674.12
666.81	668.65
667.15	663.28
667.49	658.14
667.83	652.87
668.17	647.72
668.51	642.59
668.85	637.60
669.19	632.73
669.53	627.67
669.87	622.57
670.21	617.79
670.55	613.04
670.89	608.60
671.23	604.20
671.57	599.84
671.91	595.48
672.25	591.35
672.58	587.25
672.92	583.25
673.26	579.33
673.60	575.45
673.94	571.67
674.28	568.05
674.62	564.34
674.96	560.55
675.30	556.99
675.64	553.30
675.97	549.70
676.31	546.11
676.65	542.61
676.99	539.20
677.33	535.39
677.67	531.79
678.01	527.84
678.34	524.24
678.68	520.70
679.02	517.12
679.36	513.41
679.70	509.71
680.04	506.07
680.37	502.62
680.71	499.25
681.05	496.02
681.39	492.69
681.73	489.43
682.06	486.39
682.40	483.24
682.74	480.05
683.08	476.87
683.42	473.64
683.75	470.54
684.09	467.45
684.43	464.59
684.77	461.62
685.10	458.81
685.44	455.85
685.78	452.86
686.12	449.99
686.45	447.25
686.79	444.54
687.13	441.98
687.46	439.34
687.80	436.67
688.14	433.81
688.48	431.14
688.81	428.46
689.15	425.86
689.49	423.24
689.82	420.69
690.16	418.04
690.50	415.56
690.83	413.08
691.17	410.53
691.51	408.00
691.84	405.68
692.18	403.46
692.52	401.24
692.85	399.11
693.19	397.00
693.52	394.82
693.86	392.62
694.20	390.42
694.53	388.20
694.87	385.99
695.21	383.87
695.54	381.69
695.88	379.48
696.21	377.26
696.55	375.12
696.88	373.03
697.22	371.03
697.56	369.11
697.89	367.21
698.23	365.44
698.56	363.67
698.90	361.93
699.23	359.99
699.57	358.12
699.90	356.23
700.24	354.34
700.58	352.55
700.91	350.88
701.25	349.30
701.58	347.71
701.92	346.07
702.25	344.43
702.59	342.85
702.92	341.30
703.26	339.73
703.59	338.27
703.93	336.97
704.26	335.56
704.60	334.03
704.93	332.53
705.26	331.02
705.60	329.53
705.93	327.95
706.27	326.60
706.60	325.32
706.94	324.07
707.27	322.73
707.61	321.36
707.94	319.92
708.27	318.40
708.61	316.93
708.94	315.57
709.28	314.25
709.61	312.94
709.94	311.70
710.28	310.49
710.61	309.25
710.95	307.79
711.28	306.66
711.61	305.48
711.95	304.30
712.28	303.07
712.61	301.90
712.95	300.87
713.28	299.81
713.61	298.59
713.95	297.41
714.28	296.33
714.61	295.29
714.95	294.31
715.28	293.25
715.61	292.19
715.95	291.22
716.28	290.22
716.61	289.29
716.95	288.26
717.28	287.27
717.61	286.28
717.94	285.40
718.28	284.33
718.61	283.45
718.94	282.56
719.27	281.71
719.61	280.81
719.94	279.90
720.27	278.94
720.60	278.08
720.94	277.26
721.27	276.52
721.60	275.77
721.93	275.03
722.27	274.39
722.60	273.73
722.93	272.96
723.26	272.33
723.59	271.59
723.93	271.01
724.26	270.39
724.59	269.72
724.92	269.14
725.25	268.56
725.59	267.93
725.92	267.38
726.25	266.78
726.58	266.24
726.91	265.62
727.24	265.07
727.57	264.47
727.91	263.84
728.24	263.26
728.57	262.67
728.90	262.11
729.23	261.51
729.56	261.08
729.89	260.57
730.22	259.96
730.55	259.39
730.89	258.80
731.22	258.24
731.55	257.75
731.88	257.20
732.21	256.69
732.54	256.17
732.87	255.61
733.20	255.10
733.53	254.61
733.86	254.17
734.19	253.69
734.52	253.30
734.85	253.01
735.18	252.54
735.51	252.17
735.84	251.70
736.17	251.30
736.50	250.72
736.83	250.53
737.16	250.17
737.49	249.78
737.82	249.38
738.15	248.96
738.48	248.53
738.81	248.13
739.14	247.69
739.47	247.31
739.80	246.92
740.13	246.57
740.46	246.16
740.79	245.76
741.12	245.35
741.45	244.96
741.78	244.52
742.11	244.25
742.44	243.85
742.77	243.59
743.10	243.22
743.43	242.86
743.75	242.25
744.08	242.15
744.41	241.80
744.74	241.43
745.07	241.06
745.40	240.78
745.73	240.50
746.06	240.20
746.39	239.90
746.71	239.56
747.04	239.24
747.37	238.92
747.70	238.61
748.03	238.33
748.36	238.05
748.68	237.71
749.01	237.33
749.34	237.04
749.67	236.69
750.00	236.43
750.33	236.31
750.65	236.07
750.98	235.55
751.31	235.31
751.64	235.11
751.97	234.98
752.29	234.70
752.62	234.36
752.95	234.12
753.28	233.81
753.60	233.58
753.93	233.39
754.26	233.16
754.59	232.89
754.91	232.61
755.24	232.34
755.57	232.11
755.90	231.87
756.22	231.62
756.55	231.38
756.88	231.10
757.20	230.75
757.53	230.47
757.86	230.26
758.19	230.05
758.51	229.80
758.84	229.49
759.17	229.30
759.49	229.11
759.82	228.99
760.15	228.86
760.47	228.65
760.80	228.41
761.13	228.23
761.45	228.04
761.78	227.87
762.11	227.72
762.43	227.53
762.76	227.38
763.08	227.23
763.41	227.13
763.74	227.01
764.06	226.82
764.39	226.67
764.71	226.51
765.04	226.34
765.37	226.19
765.69	226.02
766.02	225.88
766.34	225.74
766.67	225.52
767.00	225.38
767.32	225.35
767.65	225.30
767.97	225.19
768.30	225.09
768.62	224.98
768.95	224.81
769.27	224.68
769.60	224.60
769.92	224.46
770.25	224.29
770.57	224.11
770.90	223.99
771.22	223.86
771.55	223.71
771.87	223.63
772.20	223.53
772.52	223.57
772.85	223.70
773.17	223.58
773.50	223.46
773.82	223.30
774.15	223.08
774.47	222.86
774.80	222.74
775.12	222.62
775.45	222.51
775.77	222.45
776.09	222.36
776.42	222.20
776.74	222.14
777.07	222.01
777.39	221.98
777.72	221.90
778.04	221.85
778.36	221.78
778.69	221.69
779.01	221.61
779.33	221.38
779.66	221.06
779.98	220.99
780.31	220.90
780.63	220.93
780.95	220.93
781.28	220.89
781.60	220.81
781.92	220.76
782.25	220.69
782.57	220.64
782.89	220.58
783.22	220.54
783.54	220.43
783.86	220.41
784.19	220.29
784.51	220.29
784.83	220.20
785.16	220.15
785.48	220.11
785.80	220.06
786.12	220.03
