SpectraSuite Data File
++++++++++++++++++++++++++++++++++++
Date: Tue Jan 29 16:12:43 EST 2013
User: group
Dark Spectrum Present: No
Reference Spectrum Present: No
Number of Sampled Component Spectra: 1
Spectrometers: USB2E7196
Integration Time (usec): 65000 (USB2E7196)
Spectra Averaged: 100 (USB2E7196)
Boxcar Smoothing: 10 (USB2E7196)
Correct for Electrical Dark: No (USB2E7196)
Strobe/Lamp Enabled: No (USB2E7196)
Correct for Detector Non-linearity: No (USB2E7196)
Correct for Stray Light: No (USB2E7196)
Number of Pixels in Processed Spectrum: 2048
>>>>>Begin Processed Spectral Data<<<<<
339.09	0.00
339.48	202.67
339.86	203.72
340.24	204.84
340.63	206.98
341.01	211.95
341.39	209.91
341.78	210.64
342.16	212.34
342.54	212.88
342.93	201.67
343.31	211.85
343.69	212.41
344.07	212.89
344.46	213.37
344.84	213.75
345.22	213.88
345.60	214.12
345.99	214.34
346.37	214.47
346.75	214.56
347.13	214.62
347.52	214.71
347.90	214.83
348.28	214.86
348.66	214.95
349.05	214.92
349.43	214.96
349.81	215.02
350.19	215.09
350.57	215.19
350.96	215.30
351.34	215.43
351.72	215.51
352.10	215.62
352.48	215.68
352.87	215.70
353.25	215.76
353.63	215.81
354.01	215.86
354.39	215.96
354.77	216.04
355.15	216.17
355.54	216.20
355.92	216.22
356.30	216.30
356.68	216.50
357.06	216.57
357.44	216.62
357.82	216.67
358.20	216.73
358.58	216.77
358.97	216.85
359.35	216.94
359.73	217.02
360.11	217.09
360.49	217.14
360.87	217.24
361.25	217.34
361.63	217.48
362.01	217.57
362.39	217.57
362.77	217.63
363.15	217.61
363.53	217.65
363.91	217.68
364.29	217.69
364.67	217.54
365.05	217.60
365.43	217.65
365.81	217.72
366.19	217.87
366.57	217.95
366.95	217.94
367.33	217.91
367.71	217.91
368.09	217.95
368.47	217.95
368.85	217.91
369.23	217.91
369.61	217.80
369.99	217.80
370.37	217.87
370.75	217.96
371.13	217.92
371.51	217.87
371.89	217.87
372.27	217.89
372.65	217.90
373.03	217.87
373.41	217.82
373.78	217.77
374.16	217.60
374.54	217.52
374.92	217.44
375.30	217.40
375.68	217.30
376.06	217.24
376.44	217.21
376.82	217.20
377.19	217.15
377.57	217.13
377.95	217.02
378.33	216.90
378.71	216.72
379.09	216.76
379.47	216.74
379.84	216.67
380.22	216.61
380.60	216.49
380.98	216.43
381.36	216.39
381.73	216.30
382.11	216.31
382.49	216.28
382.87	216.26
383.25	216.22
383.62	216.44
384.00	216.37
384.38	216.33
384.76	216.36
385.13	216.41
385.51	216.37
385.89	216.34
386.27	216.29
386.64	216.30
387.02	216.21
387.40	216.17
387.78	216.17
388.15	216.14
388.53	216.08
388.91	216.05
389.29	215.99
389.66	216.01
390.04	215.95
390.42	215.96
390.79	215.93
391.17	215.91
391.55	215.67
391.92	215.62
392.30	215.65
392.68	215.56
393.05	215.53
393.43	215.54
393.81	215.56
394.18	215.54
394.56	215.54
394.94	215.59
395.31	215.59
395.69	215.63
396.06	215.68
396.44	215.78
396.82	215.78
397.19	215.93
397.57	215.93
397.95	216.01
398.32	215.97
398.70	216.03
399.07	216.13
399.45	216.17
399.82	216.27
400.20	216.27
400.58	216.30
400.95	216.28
401.33	216.38
401.70	216.57
402.08	216.67
402.45	216.76
402.83	216.88
403.20	217.04
403.58	217.13
403.95	217.25
404.33	217.39
404.71	217.54
405.08	217.80
405.46	217.97
405.83	218.13
406.21	218.34
406.58	218.59
406.96	218.80
407.33	219.06
407.70	219.32
408.08	219.78
408.45	220.17
408.83	220.55
409.20	220.90
409.58	221.16
409.95	221.62
410.33	222.06
410.70	222.49
411.08	223.01
411.45	223.56
411.82	224.12
412.20	224.78
412.57	225.59
412.95	226.11
413.32	226.91
413.69	227.73
414.07	228.59
414.44	229.52
414.82	230.49
415.19	231.62
415.56	232.80
415.94	233.92
416.31	235.26
416.68	236.62
417.06	238.14
417.43	239.66
417.81	241.36
418.18	243.11
418.55	244.95
418.93	246.89
419.30	248.90
419.67	251.07
420.04	253.25
420.42	255.50
420.79	258.25
421.16	260.96
421.54	263.77
421.91	266.65
422.28	269.65
422.66	272.83
423.03	275.94
423.40	279.15
423.77	282.60
424.15	286.14
424.52	289.81
424.89	293.88
425.26	297.80
425.64	301.51
426.01	305.62
426.38	309.99
426.75	314.38
427.13	318.98
427.50	323.78
427.87	328.84
428.24	333.88
428.61	338.69
428.99	344.07
429.36	349.87
429.73	355.53
430.10	361.24
430.47	367.09
430.85	373.19
431.22	379.71
431.59	386.64
431.96	393.23
432.33	400.46
432.70	407.46
433.08	415.67
433.45	423.48
433.82	431.24
434.19	439.82
434.56	448.24
434.93	456.34
435.30	464.30
435.68	473.06
436.05	481.74
436.42	490.33
436.79	498.13
437.16	506.58
437.53	515.59
437.90	524.40
438.27	533.04
438.64	542.00
439.01	550.17
439.38	557.46
439.75	564.52
440.13	572.70
440.50	580.39
440.87	586.66
441.24	593.05
441.61	600.16
441.98	605.35
442.35	611.43
442.72	617.46
443.09	623.38
443.46	626.99
443.83	629.35
444.20	631.48
444.57	634.53
444.94	635.88
445.31	637.20
445.68	638.58
446.05	639.18
446.42	638.33
446.79	637.47
447.16	636.38
447.53	635.65
447.90	632.40
448.27	629.15
448.64	624.62
449.01	621.46
449.37	615.75
449.74	610.22
450.11	603.52
450.48	596.41
450.85	589.13
451.22	582.90
451.59	577.04
451.96	571.42
452.33	563.79
452.70	557.00
453.07	548.86
453.43	540.50
453.80	532.47
454.17	524.76
454.54	517.41
454.91	509.57
455.28	501.88
455.65	494.73
456.02	487.58
456.38	481.44
456.75	473.85
457.12	467.48
457.49	461.24
457.86	455.35
458.23	450.22
458.59	444.54
458.96	438.81
459.33	433.74
459.70	428.55
460.07	424.46
460.43	419.76
460.80	415.37
461.17	411.51
461.54	407.52
461.91	403.71
462.27	399.80
462.64	396.47
463.01	392.80
463.38	389.24
463.74	385.64
464.11	382.49
464.48	379.79
464.85	376.84
465.21	374.53
465.58	371.94
465.95	368.84
466.32	366.33
466.68	363.78
467.05	361.26
467.42	358.84
467.78	356.26
468.15	353.80
468.52	351.97
468.88	349.54
469.25	347.44
469.62	345.73
469.98	343.83
470.35	342.13
470.72	340.55
471.08	338.82
471.45	337.39
471.82	336.00
472.18	334.32
472.55	333.16
472.92	331.82
473.28	330.70
473.65	329.61
474.02	328.56
474.38	327.71
474.75	327.04
475.11	326.26
475.48	325.75
475.85	325.31
476.21	324.88
476.58	324.58
476.94	324.35
477.31	324.06
477.67	323.87
478.04	323.77
478.41	323.75
478.77	324.00
479.14	323.99
479.50	324.13
479.87	324.48
480.23	324.81
480.60	325.10
480.96	325.39
481.33	326.00
481.69	326.58
482.06	327.17
482.42	327.65
482.79	328.30
483.15	329.14
483.52	330.12
483.88	330.97
484.25	331.93
484.61	332.98
484.98	334.02
485.34	335.30
485.71	336.65
486.07	338.07
486.44	339.37
486.80	341.01
487.17	342.68
487.53	344.50
487.90	346.37
488.26	348.41
488.62	350.57
488.99	352.60
489.35	354.75
489.72	357.06
490.08	359.53
490.44	362.04
490.81	364.72
491.17	367.35
491.54	370.33
491.90	373.36
492.26	376.63
492.63	380.02
492.99	383.49
493.36	387.14
493.72	391.02
494.08	394.98
494.45	399.15
494.81	403.47
495.17	407.87
495.54	412.55
495.90	417.28
496.26	422.13
496.63	427.34
496.99	432.67
497.35	438.20
497.72	444.00
498.08	449.93
498.44	455.97
498.80	462.45
499.17	468.89
499.53	475.57
499.89	482.35
500.26	489.29
500.62	496.31
500.98	503.69
501.34	511.08
501.71	518.81
502.07	526.55
502.43	534.55
502.79	542.68
503.16	551.04
503.52	559.56
503.88	568.34
504.24	577.19
504.60	586.17
504.97	595.38
505.33	604.65
505.69	614.39
506.05	624.22
506.41	633.94
506.78	643.91
507.14	654.11
507.50	664.51
507.86	675.15
508.22	685.89
508.59	696.45
508.95	707.43
509.31	718.61
509.67	730.01
510.03	741.33
510.39	752.95
510.75	764.67
511.12	776.56
511.48	788.44
511.84	800.58
512.20	812.92
512.56	825.36
512.92	837.99
513.28	850.54
513.64	863.14
514.00	875.87
514.37	888.72
514.73	901.66
515.09	914.64
515.45	927.42
515.81	940.27
516.17	953.54
516.53	966.63
516.89	979.51
517.25	992.53
517.61	1005.86
517.97	1019.09
518.33	1032.05
518.69	1045.38
519.05	1058.89
519.41	1072.37
519.77	1086.02
520.13	1099.21
520.49	1112.23
520.85	1125.42
521.21	1138.44
521.57	1151.86
521.93	1164.78
522.29	1178.26
522.65	1191.57
523.01	1204.92
523.37	1217.83
523.73	1230.88
524.09	1243.79
524.45	1256.98
524.81	1270.21
525.17	1283.31
525.53	1296.23
525.89	1309.29
526.25	1322.10
526.61	1334.72
526.97	1347.47
527.33	1360.13
527.68	1373.21
528.04	1386.35
528.40	1399.10
528.76	1412.33
529.12	1424.91
529.48	1437.92
529.84	1449.81
530.20	1462.12
530.56	1474.42
530.91	1487.45
531.27	1499.85
531.63	1512.40
531.99	1524.84
532.35	1536.72
532.71	1548.80
533.07	1561.36
533.42	1573.30
533.78	1585.10
534.14	1596.84
534.50	1607.85
534.86	1619.06
535.21	1629.71
535.57	1640.91
535.93	1651.99
536.29	1662.72
536.65	1673.86
537.00	1684.49
537.36	1695.61
537.72	1706.46
538.08	1717.44
538.44	1728.03
538.79	1738.77
539.15	1749.15
539.51	1759.55
539.87	1770.50
540.22	1781.01
540.58	1791.50
540.94	1801.98
541.29	1811.97
541.65	1821.47
542.01	1831.70
542.37	1841.46
542.72	1851.28
543.08	1860.83
543.44	1870.95
543.79	1879.98
544.15	1889.15
544.51	1898.87
544.87	1908.59
545.22	1917.30
545.58	1925.93
545.94	1934.45
546.29	1942.85
546.65	1950.98
547.01	1959.05
547.36	1966.51
547.72	1974.04
548.07	1981.55
548.43	1989.13
548.79	1996.69
549.14	2004.61
549.50	2012.86
549.86	2020.45
550.21	2027.58
550.57	2034.76
550.92	2041.27
551.28	2048.50
551.64	2055.50
551.99	2062.72
552.35	2069.56
552.70	2076.37
553.06	2082.94
553.41	2089.04
553.77	2095.36
554.13	2101.67
554.48	2108.50
554.84	2115.38
555.19	2121.57
555.55	2127.84
555.90	2134.02
556.26	2140.70
556.61	2146.44
556.97	2151.01
557.32	2156.81
557.68	2163.17
558.03	2168.91
558.39	2174.05
558.74	2179.81
559.10	2185.36
559.45	2190.95
559.81	2196.40
560.16	2201.76
560.52	2207.62
560.87	2214.06
561.23	2219.93
561.58	2226.53
561.94	2231.80
562.29	2236.56
562.64	2242.71
563.00	2248.14
563.35	2253.72
563.71	2259.60
564.06	2265.39
564.42	2271.32
564.77	2276.36
565.12	2281.71
565.48	2287.13
565.83	2292.75
566.19	2298.34
566.54	2303.71
566.89	2308.20
567.25	2312.72
567.60	2318.50
567.96	2323.61
568.31	2328.05
568.66	2332.29
569.02	2336.17
569.37	2339.77
569.72	2344.26
570.08	2347.75
570.43	2350.89
570.78	2353.98
571.14	2356.55
571.49	2359.78
571.84	2363.40
572.20	2366.26
572.55	2369.17
572.90	2371.50
573.26	2374.58
573.61	2377.05
573.96	2379.31
574.31	2381.46
574.67	2383.54
575.02	2384.53
575.37	2386.01
575.72	2387.02
576.08	2388.58
576.43	2388.96
576.78	2389.78
577.13	2391.62
577.49	2393.00
577.84	2394.44
578.19	2395.91
578.54	2396.73
578.90	2397.73
579.25	2397.82
579.60	2398.11
579.95	2397.56
580.30	2397.85
580.66	2397.21
581.01	2395.81
581.36	2393.82
581.71	2392.70
582.06	2391.88
582.42	2391.16
582.77	2389.14
583.12	2387.68
583.47	2386.68
583.82	2386.31
584.17	2385.21
584.53	2383.20
584.88	2381.31
585.23	2379.50
585.58	2377.33
585.93	2375.33
586.28	2373.26
586.63	2371.09
586.98	2369.05
587.34	2367.35
587.69	2365.09
588.04	2363.32
588.39	2361.98
588.74	2359.58
589.09	2357.11
589.44	2354.26
589.79	2352.02
590.14	2350.38
590.49	2347.73
590.84	2344.11
591.19	2341.18
591.54	2338.03
591.89	2334.02
592.25	2330.93
592.60	2326.85
592.95	2323.01
593.30	2319.02
593.65	2314.59
594.00	2310.34
594.35	2307.25
594.70	2302.73
595.05	2298.20
595.40	2292.83
595.75	2287.44
596.10	2283.76
596.45	2278.99
596.80	2274.34
597.15	2269.04
597.50	2263.19
597.85	2258.43
598.19	2253.20
598.54	2247.42
598.89	2242.49
599.24	2238.25
599.59	2232.18
599.94	2226.62
600.29	2220.83
600.64	2215.08
600.99	2208.64
601.34	2203.31
601.69	2196.51
602.04	2190.25
602.39	2183.93
602.74	2177.89
603.08	2172.44
603.43	2166.15
603.78	2159.32
604.13	2152.33
604.48	2145.42
604.83	2139.54
605.18	2133.26
605.53	2126.38
605.87	2119.57
606.22	2112.84
606.57	2104.89
606.92	2097.09
607.27	2090.27
607.62	2083.78
607.96	2076.74
608.31	2070.19
608.66	2062.33
609.01	2054.83
609.36	2047.69
609.70	2039.98
610.05	2032.33
610.40	2024.07
610.75	2016.00
611.10	2008.52
611.44	1999.79
611.79	1990.98
612.14	1980.88
612.49	1970.49
612.83	1961.50
613.18	1952.29
613.53	1942.97
613.88	1933.55
614.22	1925.12
614.57	1915.24
614.92	1904.71
615.27	1894.77
615.61	1885.00
615.96	1875.44
616.31	1865.93
616.65	1856.77
617.00	1846.87
617.35	1837.34
617.70	1827.69
618.04	1817.45
618.39	1807.08
618.74	1797.56
619.08	1788.10
619.43	1779.59
619.78	1771.40
620.12	1762.71
620.47	1752.99
620.82	1742.77
621.16	1732.94
621.51	1722.89
621.85	1713.05
622.20	1702.61
622.55	1691.94
622.89	1681.99
623.24	1672.42
623.59	1662.74
623.93	1652.58
624.28	1642.99
624.62	1632.81
624.97	1622.55
625.32	1612.96
625.66	1604.34
626.01	1595.46
626.35	1586.14
626.70	1576.11
627.04	1565.95
627.39	1555.79
627.73	1546.58
628.08	1537.51
628.43	1527.96
628.77	1518.82
629.12	1509.99
629.46	1502.14
629.81	1493.77
630.15	1484.14
630.50	1474.39
630.84	1463.83
631.19	1453.88
631.53	1444.49
631.88	1434.41
632.22	1424.30
632.57	1415.00
632.91	1404.76
633.26	1394.87
633.60	1385.27
633.95	1375.84
634.29	1366.39
634.64	1357.11
634.98	1347.25
635.32	1337.94
635.67	1329.40
636.01	1320.20
636.36	1310.44
636.70	1300.96
637.05	1291.64
637.39	1282.79
637.73	1274.08
638.08	1266.60
638.42	1258.35
638.77	1249.53
639.11	1241.24
639.45	1233.54
639.80	1224.87
640.14	1216.31
640.49	1207.49
640.83	1198.70
641.17	1190.66
641.52	1182.46
641.86	1173.91
642.20	1166.09
642.55	1157.64
642.89	1148.90
643.23	1140.20
643.58	1132.16
643.92	1123.09
644.26	1114.45
644.61	1106.06
644.95	1097.37
645.29	1088.10
645.64	1079.12
645.98	1070.86
646.32	1062.98
646.66	1054.53
647.01	1046.22
647.35	1038.09
647.69	1029.82
648.04	1021.58
648.38	1012.75
648.72	1004.12
649.06	995.68
649.41	987.52
649.75	979.44
650.09	971.62
650.43	963.61
650.78	955.38
651.12	947.85
651.46	940.53
651.80	933.26
652.14	925.92
652.49	918.57
652.83	911.21
653.17	903.52
653.51	895.96
653.85	888.67
654.20	881.51
654.54	873.95
654.88	866.77
655.22	859.66
655.56	852.67
655.90	845.87
656.25	839.25
656.59	832.29
656.93	825.39
657.27	818.29
657.61	811.51
657.95	805.48
658.29	799.63
658.64	793.54
658.98	787.19
659.32	780.67
659.66	774.39
660.00	768.09
660.34	762.09
660.68	756.05
661.02	749.90
661.36	744.00
661.70	738.36
662.05	732.78
662.39	727.26
662.73	721.99
663.07	716.66
663.41	711.14
663.75	705.57
664.09	700.03
664.43	694.69
664.77	689.37
665.11	683.58
665.45	677.75
665.79	671.93
666.13	666.29
666.47	660.90
666.81	655.64
667.15	650.36
667.49	645.18
667.83	640.00
668.17	634.79
668.51	629.79
668.85	624.97
669.19	620.16
669.53	615.30
669.87	610.28
670.21	605.61
670.55	600.98
670.89	596.62
671.23	592.37
671.57	588.10
671.91	583.85
672.25	579.82
672.58	575.70
672.92	571.72
673.26	567.85
673.60	564.08
673.94	560.29
674.28	556.67
674.62	553.03
674.96	549.30
675.30	545.84
675.64	542.22
675.97	538.70
676.31	535.13
676.65	531.58
676.99	528.21
677.33	524.46
677.67	520.88
678.01	517.09
678.34	513.50
678.68	510.00
679.02	506.44
679.36	502.73
679.70	499.16
680.04	495.70
680.37	492.36
680.71	489.11
681.05	485.99
681.39	482.87
681.73	479.79
682.06	476.86
682.40	473.84
682.74	470.66
683.08	467.47
683.42	464.39
683.75	461.44
684.09	458.47
684.43	455.72
684.77	452.82
685.10	450.08
685.44	447.24
685.78	444.40
686.12	441.70
686.45	439.09
686.79	436.49
687.13	434.06
687.46	431.44
687.80	428.76
688.14	425.99
688.48	423.42
688.81	420.76
689.15	418.23
689.49	415.64
689.82	413.22
690.16	410.69
690.50	408.25
690.83	405.80
691.17	403.34
691.51	400.87
691.84	398.69
692.18	396.51
692.52	394.37
692.85	392.23
693.19	390.16
693.52	388.07
693.86	385.89
694.20	383.69
694.53	381.63
694.87	379.51
695.21	377.41
695.54	375.30
695.88	373.22
696.21	371.04
696.55	368.99
696.88	366.97
697.22	365.03
697.56	363.19
697.89	361.34
698.23	359.60
698.56	357.88
698.90	356.16
699.23	354.27
699.57	352.40
699.90	350.61
700.24	348.84
700.58	347.11
700.91	345.53
701.25	344.00
701.58	342.41
701.92	340.90
702.25	339.36
702.59	337.82
702.92	336.32
703.26	334.85
703.59	333.46
703.93	332.24
704.26	330.82
704.60	329.39
704.93	327.95
705.26	326.46
705.60	325.03
705.93	323.52
706.27	322.27
706.60	321.07
706.94	319.90
707.27	318.53
707.61	317.21
707.94	315.90
708.27	314.46
708.61	313.04
708.94	311.71
709.28	310.44
709.61	309.20
709.94	308.02
710.28	306.82
710.61	305.64
710.95	304.19
711.28	303.14
711.61	301.95
711.95	300.83
712.28	299.71
712.61	298.59
712.95	297.63
713.28	296.58
713.61	295.42
713.95	294.28
714.28	293.32
714.61	292.33
714.95	291.31
715.28	290.31
715.61	289.32
715.95	288.37
716.28	287.46
716.61	286.48
716.95	285.47
717.28	284.58
717.61	283.64
717.94	282.81
718.28	281.82
718.61	280.95
718.94	280.07
719.27	279.24
719.61	278.42
719.94	277.50
720.27	276.56
720.60	275.77
720.94	274.96
721.27	274.20
721.60	273.50
721.93	272.77
722.27	272.13
722.60	271.50
722.93	270.80
723.26	270.17
723.59	269.48
723.93	268.89
724.26	268.25
724.59	267.66
724.92	267.07
725.25	266.53
725.59	265.98
725.92	265.45
726.25	264.87
726.58	264.29
726.91	263.71
727.24	263.22
727.57	262.69
727.91	262.11
728.24	261.58
728.57	261.00
728.90	260.48
729.23	259.92
729.56	259.50
729.89	258.96
730.22	258.38
730.55	257.88
730.89	257.34
731.22	256.82
731.55	256.27
731.88	255.75
732.21	255.25
732.54	254.72
732.87	254.26
733.20	253.80
733.53	253.34
733.86	252.94
734.19	252.46
734.52	252.01
734.85	251.76
735.18	251.31
735.51	250.91
735.84	250.50
736.17	250.09
736.50	249.56
736.83	249.47
737.16	249.12
737.49	248.75
737.82	248.39
738.15	248.06
738.48	247.70
738.81	247.30
739.14	246.86
739.47	246.49
739.80	246.10
740.13	245.77
740.46	245.41
740.79	245.00
741.12	244.64
741.45	244.31
741.78	243.89
742.11	243.63
742.44	243.25
742.77	242.99
743.10	242.68
743.43	242.35
743.75	241.77
744.08	241.70
744.41	241.38
744.74	241.03
745.07	240.64
745.40	240.40
745.73	240.18
746.06	239.91
746.39	239.65
746.71	239.34
747.04	239.01
747.37	238.70
747.70	238.43
748.03	238.15
748.36	237.87
748.68	237.55
749.01	237.16
749.34	236.90
749.67	236.58
750.00	236.35
750.33	236.22
750.65	235.96
750.98	235.46
751.31	235.20
751.64	234.96
751.97	234.88
752.29	234.56
752.62	234.20
752.95	233.96
753.28	233.67
753.60	233.40
753.93	233.27
754.26	233.04
754.59	232.75
754.91	232.55
755.24	232.35
755.57	232.14
755.90	231.95
756.22	231.73
756.55	231.52
756.88	231.25
757.20	230.92
757.53	230.68
757.86	230.46
758.19	230.27
758.51	230.07
758.84	229.73
759.17	229.57
759.49	229.44
759.82	229.33
760.15	229.19
760.47	229.03
760.80	228.75
761.13	228.65
761.45	228.49
761.78	228.26
762.11	228.05
762.43	227.85
762.76	227.69
763.08	227.54
763.41	227.36
763.74	227.23
764.06	227.10
764.39	226.98
764.71	226.85
765.04	226.68
765.37	226.56
765.69	226.43
766.02	226.29
766.34	226.14
766.67	225.95
767.00	225.89
767.32	225.87
767.65	225.88
767.97	225.75
768.30	225.66
768.62	225.55
768.95	225.41
769.27	225.32
769.60	225.21
769.92	225.06
770.25	224.93
770.57	224.75
770.90	224.64
771.22	224.50
771.55	224.41
771.87	224.33
772.20	224.18
772.52	224.23
772.85	224.34
773.17	224.20
773.50	224.07
773.82	223.91
774.15	223.71
774.47	223.46
774.80	223.33
775.12	223.22
775.45	223.12
775.77	223.07
776.09	223.00
776.42	222.94
776.74	222.92
777.07	222.82
777.39	222.79
777.72	222.70
778.04	222.62
778.36	222.52
778.69	222.44
779.01	222.38
779.33	222.12
779.66	221.84
779.98	221.77
780.31	221.75
780.63	221.77
780.95	221.74
781.28	221.68
781.60	221.56
781.92	221.50
782.25	221.47
782.57	221.40
782.89	221.33
783.22	221.24
783.54	221.11
783.86	221.08
784.19	221.02
784.51	221.03
784.83	220.97
785.16	220.90
785.48	220.85
785.80	220.79
786.12	220.73
