SpectraSuite Data File
++++++++++++++++++++++++++++++++++++
Date: Tue Jan 29 16:55:21 EST 2013
User: group
Dark Spectrum Present: No
Reference Spectrum Present: No
Number of Sampled Component Spectra: 1
Spectrometers: USB2E7196
Integration Time (usec): 65000 (USB2E7196)
Spectra Averaged: 100 (USB2E7196)
Boxcar Smoothing: 10 (USB2E7196)
Correct for Electrical Dark: No (USB2E7196)
Strobe/Lamp Enabled: No (USB2E7196)
Correct for Detector Non-linearity: No (USB2E7196)
Correct for Stray Light: No (USB2E7196)
Number of Pixels in Processed Spectrum: 2048
>>>>>Begin Processed Spectral Data<<<<<
339.09	0.00
339.48	201.15
339.86	202.75
340.24	203.83
340.63	205.01
341.01	210.34
341.39	208.05
341.78	209.46
342.16	211.46
342.54	211.21
342.93	200.49
343.31	210.64
343.69	211.19
344.07	211.66
344.46	212.10
344.84	212.53
345.22	212.69
345.60	212.99
345.99	213.22
346.37	213.37
346.75	213.50
347.13	213.61
347.52	213.70
347.90	213.83
348.28	213.86
348.66	213.95
349.05	213.92
349.43	213.98
349.81	214.08
350.19	214.14
350.57	214.23
350.96	214.34
351.34	214.46
351.72	214.60
352.10	214.73
352.48	214.84
352.87	214.92
353.25	215.01
353.63	215.06
354.01	215.13
354.39	215.19
354.77	215.30
355.15	215.44
355.54	215.47
355.92	215.46
356.30	215.56
356.68	215.76
357.06	215.87
357.44	215.92
357.82	215.97
358.20	216.08
358.58	216.14
358.97	216.23
359.35	216.30
359.73	216.40
360.11	216.45
360.49	216.52
360.87	216.57
361.25	216.64
361.63	216.77
362.01	216.83
362.39	216.88
362.77	216.91
363.15	216.95
363.53	217.03
363.91	217.10
364.29	217.11
364.67	216.96
365.05	216.97
365.43	217.00
365.81	217.06
366.19	217.15
366.57	217.22
366.95	217.24
367.33	217.21
367.71	217.21
368.09	217.27
368.47	217.27
368.85	217.27
369.23	217.26
369.61	217.18
369.99	217.21
370.37	217.23
370.75	217.31
371.13	217.22
371.51	217.15
371.89	217.11
372.27	217.12
372.65	217.14
373.03	217.09
373.41	217.05
373.78	216.98
374.16	216.82
374.54	216.75
374.92	216.66
375.30	216.63
375.68	216.54
376.06	216.48
376.44	216.37
376.82	216.34
377.19	216.31
377.57	216.23
377.95	216.15
378.33	216.09
378.71	215.93
379.09	215.89
379.47	215.84
379.84	215.79
380.22	215.75
380.60	215.61
380.98	215.59
381.36	215.55
381.73	215.48
382.11	215.48
382.49	215.42
382.87	215.34
383.25	215.27
383.62	215.47
384.00	215.38
384.38	215.38
384.76	215.36
385.13	215.39
385.51	215.35
385.89	215.25
386.27	215.21
386.64	215.21
387.02	215.20
387.40	215.18
387.78	215.15
388.15	215.08
388.53	215.08
388.91	215.02
389.29	214.98
389.66	215.02
390.04	214.98
390.42	214.99
390.79	214.99
391.17	214.98
391.55	214.75
391.92	214.72
392.30	214.73
392.68	214.63
393.05	214.60
393.43	214.61
393.81	214.62
394.18	214.56
394.56	214.57
394.94	214.59
395.31	214.59
395.69	214.66
396.06	214.71
396.44	214.74
396.82	214.74
397.19	214.87
397.57	214.84
397.95	214.87
398.32	214.84
398.70	214.89
399.07	214.97
399.45	215.00
399.82	215.07
400.20	215.09
400.58	215.17
400.95	215.14
401.33	215.26
401.70	215.49
402.08	215.58
402.45	215.66
402.83	215.78
403.20	215.85
403.58	215.96
403.95	216.11
404.33	216.30
404.71	216.46
405.08	216.71
405.46	216.88
405.83	217.14
406.21	217.34
406.58	217.56
406.96	217.76
407.33	218.04
407.70	218.35
408.08	218.81
408.45	219.18
408.83	219.60
409.20	219.97
409.58	220.26
409.95	220.79
410.33	221.29
410.70	221.76
411.08	222.32
411.45	222.89
411.82	223.48
412.20	224.16
412.57	224.96
412.95	225.52
413.32	226.35
413.69	227.14
414.07	228.08
414.44	229.07
414.82	230.11
415.19	231.27
415.56	232.47
415.94	233.68
416.31	235.08
416.68	236.50
417.06	238.10
417.43	239.66
417.81	241.38
418.18	243.15
418.55	245.10
418.93	247.16
419.30	249.24
419.67	251.51
420.04	253.83
420.42	256.24
420.79	259.09
421.16	261.88
421.54	264.83
421.91	267.81
422.28	270.96
422.66	274.28
423.03	277.56
423.40	280.90
423.77	284.54
424.15	288.23
424.52	292.09
424.89	296.28
425.26	300.39
425.64	304.31
426.01	308.64
426.38	313.18
426.75	317.71
427.13	322.52
427.50	327.47
427.87	332.66
428.24	337.88
428.61	342.92
428.99	348.49
429.36	354.50
429.73	360.46
430.10	366.36
430.47	372.47
430.85	378.79
431.22	385.54
431.59	392.62
431.96	399.47
432.33	407.06
432.70	414.33
433.08	422.91
433.45	431.08
433.82	439.14
434.19	448.07
434.56	456.88
434.93	465.27
435.30	473.66
435.68	482.80
436.05	491.89
436.42	500.86
436.79	509.06
437.16	517.90
437.53	527.27
437.90	536.50
438.27	545.55
438.64	554.85
439.01	563.42
439.38	571.09
439.75	578.45
440.13	586.91
440.50	595.00
440.87	601.42
441.24	608.03
441.61	615.34
441.98	620.73
442.35	627.13
442.72	633.49
443.09	639.59
443.46	643.43
443.83	645.94
444.20	648.19
444.57	651.43
444.94	652.92
445.31	654.35
445.68	655.72
446.05	656.36
446.42	655.62
446.79	654.72
447.16	653.68
447.53	652.95
447.90	649.57
448.27	646.25
448.64	641.62
449.01	638.27
449.37	632.40
449.74	626.69
450.11	619.72
450.48	612.32
450.85	604.77
451.22	598.25
451.59	592.04
451.96	586.14
452.33	578.22
452.70	571.06
453.07	562.48
453.43	553.83
453.80	545.47
454.17	537.41
454.54	529.79
454.91	521.50
455.28	513.47
455.65	506.01
456.02	498.42
456.38	492.06
456.75	484.11
457.12	477.50
457.49	470.92
457.86	464.66
458.23	459.20
458.59	453.23
458.96	447.18
459.33	441.87
459.70	436.42
460.07	432.08
460.43	427.14
460.80	422.55
461.17	418.54
461.54	414.28
461.91	410.22
462.27	406.03
462.64	402.61
463.01	398.79
463.38	395.04
463.74	391.31
464.11	388.03
464.48	385.21
464.85	382.12
465.21	379.73
465.58	377.12
465.95	373.99
466.32	371.38
466.68	368.75
467.05	366.13
467.42	363.60
467.78	360.87
468.15	358.29
468.52	356.38
468.88	353.85
469.25	351.57
469.62	349.75
469.98	347.81
470.35	345.95
470.72	344.23
471.08	342.41
471.45	340.88
471.82	339.31
472.18	337.62
472.55	336.35
472.92	334.90
473.28	333.63
473.65	332.42
474.02	331.22
474.38	330.31
474.75	329.55
475.11	328.70
475.48	328.09
475.85	327.63
476.21	327.16
476.58	326.81
476.94	326.57
477.31	326.21
477.67	325.97
478.04	325.81
478.41	325.74
478.77	325.89
479.14	325.81
479.50	325.94
479.87	326.20
480.23	326.48
480.60	326.70
480.96	326.96
481.33	327.56
481.69	328.13
482.06	328.61
482.42	329.06
482.79	329.65
483.15	330.45
483.52	331.38
483.88	332.19
484.25	333.10
484.61	334.08
484.98	335.16
485.34	336.47
485.71	337.82
486.07	339.27
486.44	340.63
486.80	342.27
487.17	343.93
487.53	345.78
487.90	347.69
488.26	349.71
488.62	351.95
488.99	354.02
489.35	356.20
489.72	358.62
490.08	361.18
490.44	363.72
490.81	366.44
491.17	369.11
491.54	372.13
491.90	375.18
492.26	378.44
492.63	381.90
492.99	385.33
493.36	389.01
493.72	392.93
494.08	396.89
494.45	401.08
494.81	405.42
495.17	409.87
495.54	414.59
495.90	419.40
496.26	424.25
496.63	429.44
496.99	434.86
497.35	440.33
497.72	446.10
498.08	452.02
498.44	458.11
498.80	464.55
499.17	470.97
499.53	477.65
499.89	484.52
500.26	491.45
500.62	498.52
500.98	505.91
501.34	513.32
501.71	521.07
502.07	528.85
502.43	536.82
502.79	544.89
503.16	553.27
503.52	561.83
503.88	570.56
504.24	579.50
504.60	588.52
504.97	597.85
505.33	607.08
505.69	616.91
506.05	626.77
506.41	636.59
506.78	646.62
507.14	656.84
507.50	667.29
507.86	677.95
508.22	688.72
508.59	699.40
508.95	710.35
509.31	721.50
509.67	733.04
510.03	744.35
510.39	756.05
510.75	767.78
511.12	779.65
511.48	791.64
511.84	803.76
512.20	815.99
512.56	828.58
512.92	841.36
513.28	853.91
513.64	866.68
514.00	879.51
514.37	892.52
514.73	905.64
515.09	918.66
515.45	931.58
515.81	944.68
516.17	958.03
516.53	971.28
516.89	984.46
517.25	997.51
517.61	1011.18
517.97	1024.55
518.33	1037.65
518.69	1051.21
519.05	1064.94
519.41	1078.72
519.77	1092.64
520.13	1105.97
520.49	1119.15
520.85	1132.59
521.21	1145.87
521.57	1159.51
521.93	1172.56
522.29	1186.23
522.65	1199.75
523.01	1213.40
523.37	1226.56
523.73	1239.93
524.09	1253.29
524.45	1266.70
524.81	1280.22
525.17	1293.55
525.53	1306.83
525.89	1320.26
526.25	1333.39
526.61	1346.28
526.97	1359.43
527.33	1372.35
527.68	1385.84
528.04	1399.28
528.40	1412.41
528.76	1425.84
529.12	1438.85
529.48	1452.19
529.84	1464.51
530.20	1477.37
530.56	1489.84
530.91	1503.12
531.27	1515.87
531.63	1528.47
531.99	1541.31
532.35	1553.64
532.71	1566.11
533.07	1579.17
533.42	1591.52
533.78	1603.73
534.14	1615.83
534.50	1627.06
534.86	1638.83
535.21	1649.62
535.57	1661.48
535.93	1672.81
536.29	1683.89
536.65	1695.35
537.00	1706.43
537.36	1717.96
537.72	1729.03
538.08	1740.78
538.44	1751.88
538.79	1763.11
539.15	1774.31
539.51	1785.25
539.87	1796.67
540.22	1807.49
540.58	1818.49
540.94	1829.40
541.29	1839.69
541.65	1849.63
542.01	1860.13
542.37	1870.23
542.72	1880.54
543.08	1890.18
543.44	1900.85
543.79	1910.15
544.15	1919.67
544.51	1929.64
544.87	1939.59
545.22	1948.81
545.58	1957.72
545.94	1966.61
546.29	1975.22
546.65	1983.59
547.01	1991.78
547.36	1999.42
547.72	2007.18
548.07	2014.65
548.43	2022.38
548.79	2030.32
549.14	2038.52
549.50	2047.12
549.86	2055.15
550.21	2062.66
550.57	2070.41
550.92	2077.22
551.28	2084.72
551.64	2092.00
551.99	2099.47
552.35	2106.56
552.70	2113.51
553.06	2120.09
553.41	2126.29
553.77	2132.82
554.13	2139.08
554.48	2146.09
554.84	2153.27
555.19	2159.91
555.55	2166.29
555.90	2172.69
556.26	2179.55
556.61	2185.69
556.97	2190.45
557.32	2196.09
557.68	2202.46
558.03	2208.23
558.39	2213.68
558.74	2219.81
559.10	2225.22
559.45	2230.79
559.81	2236.39
560.16	2241.88
560.52	2247.71
560.87	2254.13
561.23	2259.91
561.58	2266.60
561.94	2271.88
562.29	2276.40
562.64	2282.24
563.00	2287.89
563.35	2293.28
563.71	2298.84
564.06	2304.36
564.42	2310.27
564.77	2315.12
565.12	2320.34
565.48	2325.26
565.83	2330.47
566.19	2335.57
566.54	2340.75
566.89	2345.18
567.25	2349.57
567.60	2355.13
567.96	2359.93
568.31	2364.29
568.66	2368.50
569.02	2372.28
569.37	2375.82
569.72	2380.12
570.08	2383.50
570.43	2386.57
570.78	2389.87
571.14	2392.18
571.49	2395.22
571.84	2398.61
572.20	2401.67
572.55	2404.36
572.90	2406.76
573.26	2409.37
573.61	2411.92
573.96	2414.18
574.31	2416.28
574.67	2417.96
575.02	2418.49
575.37	2419.97
575.72	2420.52
576.08	2421.82
576.43	2421.73
576.78	2422.00
577.13	2423.31
577.49	2424.48
577.84	2425.21
578.19	2425.94
578.54	2426.37
578.90	2426.61
579.25	2426.11
579.60	2425.65
579.95	2424.75
580.30	2424.15
580.66	2423.44
581.01	2421.65
581.36	2418.84
581.71	2416.98
582.06	2415.71
582.42	2414.78
582.77	2412.35
583.12	2410.59
583.47	2408.86
583.82	2408.19
584.17	2406.74
584.53	2404.60
584.88	2402.22
585.23	2400.11
585.58	2397.78
585.93	2395.81
586.28	2393.68
586.63	2391.22
586.98	2388.81
587.34	2386.69
587.69	2384.01
588.04	2381.61
588.39	2379.83
588.74	2377.44
589.09	2374.61
589.44	2371.18
589.79	2368.38
590.14	2366.21
590.49	2363.30
590.84	2359.35
591.19	2355.93
591.54	2352.70
591.89	2348.48
592.25	2345.13
592.60	2340.81
592.95	2336.65
593.30	2332.29
593.65	2327.61
594.00	2323.04
594.35	2320.05
594.70	2315.32
595.05	2310.97
595.40	2305.49
595.75	2299.57
596.10	2295.72
596.45	2290.77
596.80	2286.24
597.15	2281.09
597.50	2275.19
597.85	2270.07
598.19	2264.91
598.54	2259.19
598.89	2253.64
599.24	2248.96
599.59	2242.75
599.94	2236.80
600.29	2230.71
600.64	2224.63
600.99	2217.90
601.34	2212.29
601.69	2205.19
602.04	2198.77
602.39	2192.05
602.74	2185.90
603.08	2180.35
603.43	2173.94
603.78	2167.20
604.13	2160.14
604.48	2152.70
604.83	2146.48
605.18	2140.36
605.53	2133.53
605.87	2126.44
606.22	2119.80
606.57	2112.02
606.92	2103.97
607.27	2097.03
607.62	2090.32
607.96	2083.42
608.31	2077.02
608.66	2069.35
609.01	2061.71
609.36	2054.50
609.70	2046.91
610.05	2039.17
610.40	2030.96
610.75	2022.48
611.10	2014.70
611.44	2005.74
611.79	1997.08
612.14	1987.18
612.49	1976.42
612.83	1966.91
613.18	1957.49
613.53	1948.19
613.88	1938.45
614.22	1929.97
614.57	1920.16
614.92	1909.61
615.27	1899.26
615.61	1888.93
615.96	1879.27
616.31	1869.79
616.65	1860.38
617.00	1850.86
617.35	1841.15
617.70	1831.45
618.04	1821.67
618.39	1811.77
618.74	1802.16
619.08	1792.64
619.43	1784.08
619.78	1775.89
620.12	1767.33
620.47	1758.00
620.82	1747.65
621.16	1738.08
621.51	1728.22
621.85	1718.55
622.20	1708.51
622.55	1698.15
622.89	1688.39
623.24	1678.91
623.59	1669.22
623.93	1659.31
624.28	1649.36
624.62	1639.48
624.97	1629.34
625.32	1619.57
625.66	1610.55
626.01	1602.05
626.35	1592.80
626.70	1582.78
627.04	1572.99
627.39	1562.98
627.73	1553.76
628.08	1545.07
628.43	1535.62
628.77	1526.61
629.12	1517.92
629.46	1510.13
629.81	1502.04
630.15	1492.93
630.50	1483.14
630.84	1472.70
631.19	1462.79
631.53	1453.81
631.88	1443.82
632.22	1433.96
632.57	1424.68
632.91	1414.76
633.26	1404.92
633.60	1395.55
633.95	1386.51
634.29	1377.03
634.64	1367.87
634.98	1358.05
635.32	1348.88
635.67	1340.64
636.01	1331.40
636.36	1321.75
636.70	1312.27
637.05	1302.97
637.39	1294.04
637.73	1285.61
638.08	1278.20
638.42	1270.31
638.77	1261.60
639.11	1253.42
639.45	1245.77
639.80	1237.56
640.14	1228.95
640.49	1220.16
640.83	1211.34
641.17	1203.16
641.52	1195.10
641.86	1186.68
642.20	1179.05
642.55	1170.42
642.89	1161.53
643.23	1153.03
643.58	1144.95
643.92	1136.07
644.26	1127.47
644.61	1119.16
644.95	1110.42
645.29	1101.35
645.64	1092.30
645.98	1083.79
646.32	1075.97
646.66	1067.51
647.01	1059.19
647.35	1051.14
647.69	1043.04
648.04	1035.04
648.38	1026.33
648.72	1017.74
649.06	1009.36
649.41	1001.11
649.75	993.31
650.09	985.56
650.43	977.59
650.78	969.36
651.12	961.68
651.46	954.28
651.80	947.03
652.14	939.85
652.49	932.31
652.83	925.00
653.17	917.42
653.51	909.81
653.85	902.66
654.20	895.46
654.54	888.20
654.88	880.99
655.22	873.71
655.56	866.72
655.90	859.96
656.25	853.37
656.59	846.62
656.93	839.73
657.27	832.64
657.61	825.74
657.95	819.63
658.29	813.72
658.64	807.74
658.98	801.31
659.32	794.79
659.66	788.70
660.00	782.53
660.34	776.46
660.68	770.44
661.02	764.06
661.36	758.06
661.70	752.23
662.05	746.63
662.39	741.18
662.73	735.80
663.07	730.48
663.41	724.88
663.75	719.14
664.09	713.41
664.43	707.95
664.77	702.64
665.11	696.91
665.45	691.07
665.79	685.19
666.13	679.64
666.47	674.09
666.81	668.58
667.15	663.08
667.49	657.88
667.83	652.68
668.17	647.48
668.51	642.36
668.85	637.40
669.19	632.49
669.53	627.47
669.87	622.34
670.21	617.51
670.55	612.80
670.89	608.31
671.23	603.98
671.57	599.58
671.91	595.20
672.25	591.02
672.58	586.93
672.92	582.85
673.26	578.91
673.60	575.05
673.94	571.25
674.28	567.67
674.62	563.98
674.96	560.18
675.30	556.70
675.64	553.04
675.97	549.38
676.31	545.74
676.65	542.19
676.99	538.82
677.33	534.96
677.67	531.27
678.01	527.43
678.34	523.84
678.68	520.32
679.02	516.76
679.36	513.11
679.70	509.42
680.04	505.86
680.37	502.29
680.71	498.92
681.05	495.72
681.39	492.42
681.73	489.23
682.06	486.11
682.40	482.98
682.74	479.80
683.08	476.60
683.42	473.37
683.75	470.29
684.09	467.18
684.43	464.37
684.77	461.53
685.10	458.69
685.44	455.70
685.78	452.79
686.12	449.96
686.45	447.18
686.79	444.48
687.13	441.89
687.46	439.33
687.80	436.70
688.14	433.83
688.48	431.14
688.81	428.39
689.15	425.81
689.49	423.22
689.82	420.67
690.16	418.04
690.50	415.65
690.83	413.14
691.17	410.54
691.51	408.01
691.84	405.66
692.18	403.38
692.52	401.20
692.85	399.06
693.19	396.92
693.52	394.75
693.86	392.52
694.20	390.30
694.53	388.07
694.87	385.78
695.21	383.62
695.54	381.46
695.88	379.30
696.21	377.11
696.55	374.95
696.88	372.89
697.22	370.94
697.56	368.97
697.89	367.05
698.23	365.30
698.56	363.46
698.90	361.69
699.23	359.83
699.57	357.91
699.90	355.99
700.24	354.19
700.58	352.44
700.91	350.79
701.25	349.20
701.58	347.62
701.92	346.06
702.25	344.45
702.59	342.84
702.92	341.28
703.26	339.69
703.59	338.18
703.93	336.86
704.26	335.39
704.60	333.83
704.93	332.31
705.26	330.83
705.60	329.36
705.93	327.79
706.27	326.39
706.60	325.11
706.94	323.85
707.27	322.44
707.61	321.05
707.94	319.68
708.27	318.18
708.61	316.70
708.94	315.30
709.28	314.02
709.61	312.75
709.94	311.56
710.28	310.37
710.61	309.16
710.95	307.76
711.28	306.67
711.61	305.47
711.95	304.32
712.28	303.08
712.61	301.85
712.95	300.81
713.28	299.74
713.61	298.60
713.95	297.44
714.28	296.41
714.61	295.36
714.95	294.30
715.28	293.27
715.61	292.24
715.95	291.28
716.28	290.27
716.61	289.27
716.95	288.21
717.28	287.25
717.61	286.25
717.94	285.31
718.28	284.23
718.61	283.33
718.94	282.44
719.27	281.55
719.61	280.77
719.94	279.87
720.27	278.90
720.60	278.03
720.94	277.20
721.27	276.39
721.60	275.66
721.93	274.94
722.27	274.27
722.60	273.58
722.93	272.86
723.26	272.19
723.59	271.51
723.93	270.86
724.26	270.19
724.59	269.55
724.92	268.92
725.25	268.40
725.59	267.83
725.92	267.28
726.25	266.69
726.58	266.10
726.91	265.50
727.24	264.92
727.57	264.33
727.91	263.68
728.24	263.13
728.57	262.53
728.90	261.96
729.23	261.32
729.56	260.89
729.89	260.32
730.22	259.74
730.55	259.16
730.89	258.61
731.22	258.05
731.55	257.55
731.88	257.03
732.21	256.46
732.54	255.90
732.87	255.36
733.20	254.91
733.53	254.42
733.86	253.94
734.19	253.46
734.52	253.06
734.85	252.82
735.18	252.35
735.51	252.01
735.84	251.61
736.17	251.24
736.50	250.67
736.83	250.54
737.16	250.15
737.49	249.77
737.82	249.37
738.15	249.00
738.48	248.59
738.81	248.18
739.14	247.78
739.47	247.37
739.80	247.04
740.13	246.65
740.46	246.24
740.79	245.84
741.12	245.49
741.45	245.09
741.78	244.63
742.11	244.36
742.44	243.96
742.77	243.61
743.10	243.27
743.43	242.92
743.75	242.31
744.08	242.26
744.41	241.92
744.74	241.59
745.07	241.20
745.40	240.89
745.73	240.65
746.06	240.32
746.39	240.04
746.71	239.65
747.04	239.29
747.37	238.99
747.70	238.73
748.03	238.39
748.36	238.11
748.68	237.75
749.01	237.38
749.34	237.06
749.67	236.73
750.00	236.43
750.33	236.29
750.65	236.03
750.98	235.45
751.31	235.23
751.64	234.93
751.97	234.80
752.29	234.52
752.62	234.16
752.95	233.89
753.28	233.61
753.60	233.38
753.93	233.23
754.26	232.99
754.59	232.71
754.91	232.47
755.24	232.24
755.57	231.99
755.90	231.74
756.22	231.51
756.55	231.26
756.88	230.99
757.20	230.66
757.53	230.42
757.86	230.20
758.19	229.98
758.51	229.80
758.84	229.47
759.17	229.29
759.49	229.13
759.82	229.04
760.15	228.92
760.47	228.74
760.80	228.49
761.13	228.36
761.45	228.17
761.78	227.99
762.11	227.80
762.43	227.61
762.76	227.46
763.08	227.32
763.41	227.16
763.74	227.03
764.06	226.85
764.39	226.68
764.71	226.50
765.04	226.36
765.37	226.19
765.69	226.08
766.02	225.93
766.34	225.76
766.67	225.56
767.00	225.40
767.32	225.35
767.65	225.38
767.97	225.20
768.30	225.09
768.62	224.98
768.95	224.84
769.27	224.78
769.60	224.68
769.92	224.52
770.25	224.37
770.57	224.22
770.90	224.09
771.22	223.97
771.55	223.88
771.87	223.75
772.20	223.64
772.52	223.66
772.85	223.76
773.17	223.66
773.50	223.56
773.82	223.48
774.15	223.30
774.47	223.03
774.80	222.92
775.12	222.83
775.45	222.71
775.77	222.62
776.09	222.51
776.42	222.40
776.74	222.37
777.07	222.27
777.39	222.18
777.72	222.08
778.04	222.02
778.36	221.92
778.69	221.80
779.01	221.74
779.33	221.49
779.66	221.22
779.98	221.12
780.31	221.01
780.63	220.99
780.95	220.95
781.28	220.86
781.60	220.75
781.92	220.62
782.25	220.57
782.57	220.51
782.89	220.40
783.22	220.31
783.54	220.18
783.86	220.14
784.19	220.05
784.51	220.09
784.83	219.99
785.16	219.93
785.48	219.90
785.80	219.84
786.12	219.81
