SpectraSuite Data File
++++++++++++++++++++++++++++++++++++
Date: Tue Jan 29 16:00:59 EST 2013
User: group
Dark Spectrum Present: No
Reference Spectrum Present: No
Number of Sampled Component Spectra: 1
Spectrometers: USB2E7196
Integration Time (usec): 65000 (USB2E7196)
Spectra Averaged: 100 (USB2E7196)
Boxcar Smoothing: 10 (USB2E7196)
Correct for Electrical Dark: No (USB2E7196)
Strobe/Lamp Enabled: No (USB2E7196)
Correct for Detector Non-linearity: No (USB2E7196)
Correct for Stray Light: No (USB2E7196)
Number of Pixels in Processed Spectrum: 2048
>>>>>Begin Processed Spectral Data<<<<<
339.09	0.00
339.48	203.25
339.86	204.55
340.24	205.49
340.63	207.25
341.01	211.53
341.39	210.05
341.78	211.16
342.16	212.62
342.54	212.62
342.93	201.99
343.31	212.19
343.69	212.69
344.07	213.15
344.46	213.62
344.84	214.03
345.22	214.20
345.60	214.46
345.99	214.67
346.37	214.80
346.75	214.91
347.13	215.00
347.52	215.09
347.90	215.20
348.28	215.21
348.66	215.27
349.05	215.25
349.43	215.33
349.81	215.40
350.19	215.46
350.57	215.49
350.96	215.57
351.34	215.69
351.72	215.80
352.10	215.89
352.48	215.95
352.87	215.97
353.25	216.05
353.63	216.10
354.01	216.15
354.39	216.26
354.77	216.36
355.15	216.45
355.54	216.49
355.92	216.49
356.30	216.60
356.68	216.78
357.06	216.86
357.44	216.88
357.82	216.95
358.20	217.02
358.58	217.09
358.97	217.15
359.35	217.23
359.73	217.34
360.11	217.40
360.49	217.42
360.87	217.47
361.25	217.52
361.63	217.64
362.01	217.73
362.39	217.72
362.77	217.77
363.15	217.80
363.53	217.85
363.91	217.90
364.29	217.90
364.67	217.74
365.05	217.76
365.43	217.82
365.81	217.87
366.19	217.93
366.57	218.05
366.95	218.06
367.33	218.02
367.71	218.02
368.09	218.04
368.47	218.06
368.85	218.08
369.23	218.14
369.61	218.06
369.99	218.07
370.37	218.08
370.75	218.14
371.13	218.11
371.51	218.04
371.89	218.05
372.27	218.04
372.65	218.03
373.03	218.02
373.41	217.97
373.78	217.91
374.16	217.81
374.54	217.70
374.92	217.68
375.30	217.62
375.68	217.52
376.06	217.50
376.44	217.44
376.82	217.39
377.19	217.30
377.57	217.25
377.95	217.15
378.33	217.10
378.71	216.93
379.09	216.88
379.47	216.86
379.84	216.75
380.22	216.71
380.60	216.62
380.98	216.54
381.36	216.50
381.73	216.44
382.11	216.43
382.49	216.42
382.87	216.32
383.25	216.32
383.62	216.53
384.00	216.47
384.38	216.44
384.76	216.46
385.13	216.53
385.51	216.47
385.89	216.44
386.27	216.42
386.64	216.41
387.02	216.37
387.40	216.32
387.78	216.36
388.15	216.32
388.53	216.30
388.91	216.32
389.29	216.27
389.66	216.30
390.04	216.24
390.42	216.22
390.79	216.24
391.17	216.20
391.55	215.96
391.92	215.92
392.30	215.92
392.68	215.84
393.05	215.79
393.43	215.83
393.81	215.83
394.18	215.77
394.56	215.81
394.94	215.89
395.31	215.90
395.69	215.94
396.06	215.99
396.44	216.04
396.82	216.03
397.19	216.17
397.57	216.17
397.95	216.24
398.32	216.23
398.70	216.27
399.07	216.35
399.45	216.37
399.82	216.43
400.20	216.47
400.58	216.57
400.95	216.56
401.33	216.63
401.70	216.87
402.08	216.97
402.45	217.05
402.83	217.17
403.20	217.27
403.58	217.35
403.95	217.49
404.33	217.63
404.71	217.79
405.08	218.01
405.46	218.16
405.83	218.34
406.21	218.51
406.58	218.75
406.96	218.99
407.33	219.27
407.70	219.58
408.08	220.03
408.45	220.35
408.83	220.73
409.20	221.07
409.58	221.30
409.95	221.77
410.33	222.22
410.70	222.65
411.08	223.20
411.45	223.76
411.82	224.31
412.20	224.97
412.57	225.75
412.95	226.29
413.32	227.11
413.69	227.89
414.07	228.78
414.44	229.74
414.82	230.67
415.19	231.81
415.56	232.94
415.94	234.08
416.31	235.42
416.68	236.78
417.06	238.31
417.43	239.81
417.81	241.48
418.18	243.20
418.55	245.02
418.93	246.99
419.30	249.01
419.67	251.16
420.04	253.39
420.42	255.69
420.79	258.42
421.16	261.10
421.54	263.91
421.91	266.77
422.28	269.71
422.66	272.91
423.03	276.02
423.40	279.28
423.77	282.73
424.15	286.24
424.52	289.92
424.89	293.95
425.26	297.88
425.64	301.61
426.01	305.73
426.38	310.07
426.75	314.45
427.13	318.99
427.50	323.79
427.87	328.73
428.24	333.75
428.61	338.55
428.99	343.87
429.36	349.67
429.73	355.38
430.10	361.05
430.47	366.90
430.85	372.98
431.22	379.43
431.59	386.32
431.96	392.90
432.33	400.15
432.70	407.11
433.08	415.32
433.45	423.10
433.82	430.84
434.19	439.36
434.56	447.76
434.93	455.82
435.30	463.84
435.68	472.71
436.05	481.35
436.42	489.89
436.79	497.70
437.16	506.08
437.53	514.99
437.90	523.79
438.27	532.37
438.64	541.30
439.01	549.48
439.38	556.69
439.75	563.78
440.13	571.86
440.50	579.55
440.87	585.76
441.24	592.12
441.61	599.14
441.98	604.35
442.35	610.49
442.72	616.56
443.09	622.35
443.46	625.84
443.83	628.23
444.20	630.35
444.57	633.40
444.94	634.81
445.31	636.16
445.68	637.48
446.05	638.07
446.42	637.25
446.79	636.32
447.16	635.38
447.53	634.65
447.90	631.41
448.27	628.20
448.64	623.66
449.01	620.48
449.37	614.81
449.74	609.31
450.11	602.51
450.48	595.37
450.85	588.16
451.22	581.96
451.59	576.08
451.96	570.43
452.33	562.88
452.70	556.05
453.07	547.93
453.43	539.64
453.80	531.74
454.17	524.03
454.54	516.76
454.91	508.84
455.28	501.13
455.65	494.02
456.02	486.88
456.38	480.84
456.75	473.27
457.12	466.96
457.49	460.77
457.86	454.92
458.23	449.79
458.59	444.12
458.96	438.39
459.33	433.29
459.70	428.17
460.07	424.13
460.43	419.43
460.80	415.06
461.17	411.29
461.54	407.27
461.91	403.46
462.27	399.56
462.64	396.24
463.01	392.59
463.38	389.05
463.74	385.46
464.11	382.30
464.48	379.56
464.85	376.61
465.21	374.21
465.58	371.70
465.95	368.67
466.32	366.13
466.68	363.63
467.05	361.14
467.42	358.69
467.78	356.07
468.15	353.63
468.52	351.85
468.88	349.46
469.25	347.31
469.62	345.58
469.98	343.77
470.35	342.07
470.72	340.45
471.08	338.80
471.45	337.34
471.82	335.93
472.18	334.38
472.55	333.22
472.92	331.96
473.28	330.83
473.65	329.78
474.02	328.78
474.38	327.97
474.75	327.31
475.11	326.57
475.48	326.02
475.85	325.60
476.21	325.09
476.58	324.73
476.94	324.50
477.31	324.23
477.67	323.97
478.04	323.84
478.41	323.84
478.77	324.02
479.14	324.04
479.50	324.23
479.87	324.57
480.23	324.95
480.60	325.25
480.96	325.52
481.33	326.12
481.69	326.71
482.06	327.21
482.42	327.67
482.79	328.28
483.15	329.11
483.52	330.07
483.88	331.00
484.25	331.99
484.61	333.03
484.98	334.07
485.34	335.40
485.71	336.79
486.07	338.24
486.44	339.56
486.80	341.14
487.17	342.76
487.53	344.54
487.90	346.37
488.26	348.40
488.62	350.55
488.99	352.56
489.35	354.71
489.72	357.12
490.08	359.67
490.44	362.25
490.81	364.96
491.17	367.67
491.54	370.67
491.90	373.72
492.26	376.95
492.63	380.41
492.99	383.88
493.36	387.55
493.72	391.40
494.08	395.41
494.45	399.64
494.81	403.98
495.17	408.45
495.54	413.12
495.90	417.88
496.26	422.77
496.63	427.98
496.99	433.32
497.35	438.90
497.72	444.67
498.08	450.62
498.44	456.75
498.80	463.16
499.17	469.60
499.53	476.23
499.89	483.09
500.26	489.95
500.62	497.04
500.98	504.40
501.34	511.85
501.71	519.55
502.07	527.25
502.43	535.29
502.79	543.40
503.16	551.80
503.52	560.41
503.88	569.12
504.24	578.03
504.60	587.07
504.97	596.19
505.33	605.47
505.69	615.21
506.05	624.98
506.41	634.83
506.78	644.87
507.14	655.22
507.50	665.56
507.86	676.27
508.22	687.00
508.59	697.60
508.95	708.67
509.31	719.87
509.67	731.39
510.03	742.85
510.39	754.53
510.75	766.35
511.12	778.20
511.48	790.21
511.84	802.41
512.20	814.64
512.56	827.23
512.92	839.86
513.28	852.45
513.64	865.08
514.00	877.74
514.37	890.61
514.73	903.51
515.09	916.47
515.45	929.19
515.81	942.01
516.17	955.34
516.53	968.42
516.89	981.48
517.25	994.46
517.61	1007.74
517.97	1020.94
518.33	1033.88
518.69	1047.26
519.05	1060.80
519.41	1074.37
519.77	1088.14
520.13	1101.28
520.49	1114.33
520.85	1127.47
521.21	1140.65
521.57	1154.14
521.93	1167.06
522.29	1180.57
522.65	1194.02
523.01	1207.42
523.37	1220.52
523.73	1233.52
524.09	1246.36
524.45	1259.39
524.81	1272.67
525.17	1285.77
525.53	1298.77
525.89	1311.78
526.25	1324.56
526.61	1337.22
526.97	1349.96
527.33	1362.57
527.68	1375.73
528.04	1388.93
528.40	1401.85
528.76	1414.89
529.12	1427.45
529.48	1440.47
529.84	1452.45
530.20	1464.95
530.56	1477.44
530.91	1490.36
531.27	1502.85
531.63	1515.45
531.99	1527.94
532.35	1539.92
532.71	1551.89
533.07	1564.30
533.42	1576.20
533.78	1588.11
534.14	1599.80
534.50	1610.72
534.86	1622.09
535.21	1632.62
535.57	1643.84
535.93	1654.83
536.29	1665.73
536.65	1676.96
537.00	1687.64
537.36	1698.64
537.72	1709.32
538.08	1720.18
538.44	1730.74
538.79	1741.54
539.15	1752.06
539.51	1762.52
539.87	1773.60
540.22	1784.07
540.58	1794.64
540.94	1805.09
541.29	1814.99
541.65	1824.42
542.01	1834.71
542.37	1844.44
542.72	1854.36
543.08	1863.91
543.44	1873.99
543.79	1882.93
544.15	1891.99
544.51	1901.69
544.87	1911.32
545.22	1920.06
545.58	1928.84
545.94	1937.46
546.29	1945.72
546.65	1953.81
547.01	1961.65
547.36	1969.02
547.72	1976.71
548.07	1984.21
548.43	1991.88
548.79	1999.46
549.14	2007.52
549.50	2015.54
549.86	2023.02
550.21	2030.16
550.57	2037.49
550.92	2044.09
551.28	2051.52
551.64	2058.57
551.99	2065.76
552.35	2072.81
552.70	2079.56
553.06	2085.94
553.41	2092.04
553.77	2098.31
554.13	2104.53
554.48	2111.56
554.84	2118.32
555.19	2124.58
555.55	2130.89
555.90	2137.02
556.26	2143.67
556.61	2149.38
556.97	2154.30
557.32	2160.10
557.68	2166.48
558.03	2172.14
558.39	2177.30
558.74	2183.04
559.10	2188.55
559.45	2193.97
559.81	2199.38
560.16	2204.89
560.52	2210.71
560.87	2217.24
561.23	2223.30
561.58	2230.00
561.94	2235.10
562.29	2239.92
562.64	2246.14
563.00	2251.70
563.35	2257.38
563.71	2263.25
564.06	2268.92
564.42	2274.81
564.77	2279.93
565.12	2285.12
565.48	2290.24
565.83	2295.90
566.19	2301.46
566.54	2307.00
566.89	2311.75
567.25	2316.36
567.60	2322.10
567.96	2327.31
568.31	2331.79
568.66	2336.11
569.02	2339.91
569.37	2343.73
569.72	2348.35
570.08	2351.84
570.43	2354.93
570.78	2357.92
571.14	2360.60
571.49	2363.85
571.84	2367.59
572.20	2370.56
572.55	2373.64
572.90	2376.15
573.26	2379.19
573.61	2381.62
573.96	2383.77
574.31	2385.99
574.67	2388.10
575.02	2389.15
575.37	2390.84
575.72	2391.86
576.08	2393.42
576.43	2394.00
576.78	2395.01
577.13	2396.77
577.49	2398.06
577.84	2399.72
578.19	2401.52
578.54	2402.35
578.90	2403.49
579.25	2403.56
579.60	2403.98
579.95	2403.62
580.30	2404.08
580.66	2403.45
581.01	2402.13
581.36	2400.30
581.71	2399.13
582.06	2398.40
582.42	2397.79
582.77	2395.95
583.12	2394.58
583.47	2393.53
583.82	2393.08
584.17	2392.03
584.53	2389.98
584.88	2388.28
585.23	2386.38
585.58	2384.20
585.93	2382.29
586.28	2380.34
586.63	2378.19
586.98	2375.98
587.34	2374.29
587.69	2372.20
588.04	2370.48
588.39	2369.23
588.74	2366.81
589.09	2364.36
589.44	2361.51
589.79	2359.28
590.14	2357.65
590.49	2354.91
590.84	2351.33
591.19	2348.60
591.54	2345.24
591.89	2341.37
592.25	2338.35
592.60	2334.39
592.95	2330.48
593.30	2326.40
593.65	2322.04
594.00	2317.76
594.35	2314.91
594.70	2310.35
595.05	2305.71
595.40	2300.47
595.75	2295.13
596.10	2291.61
596.45	2286.81
596.80	2282.23
597.15	2277.02
597.50	2271.11
597.85	2266.15
598.19	2261.02
598.54	2255.22
598.89	2250.37
599.24	2246.07
599.59	2240.01
599.94	2234.57
600.29	2228.80
600.64	2223.02
600.99	2216.58
601.34	2211.31
601.69	2204.29
602.04	2198.04
602.39	2191.67
602.74	2185.78
603.08	2180.10
603.43	2173.75
603.78	2167.20
604.13	2160.14
604.48	2153.09
604.83	2147.04
605.18	2140.81
605.53	2133.98
605.87	2126.93
606.22	2120.22
606.57	2112.32
606.92	2104.42
607.27	2097.43
607.62	2090.94
607.96	2084.02
608.31	2077.49
608.66	2069.77
609.01	2062.40
609.36	2055.20
609.70	2047.47
610.05	2039.65
610.40	2031.60
610.75	2023.43
611.10	2015.74
611.44	2007.08
611.79	1998.31
612.14	1988.29
612.49	1977.98
612.83	1968.85
613.18	1959.74
613.53	1950.41
613.88	1940.95
614.22	1932.42
614.57	1922.48
614.92	1911.93
615.27	1901.90
615.61	1891.92
615.96	1882.20
616.31	1872.65
616.65	1863.49
617.00	1853.63
617.35	1844.02
617.70	1834.17
618.04	1823.89
618.39	1813.51
618.74	1803.87
619.08	1794.36
619.43	1785.80
619.78	1777.53
620.12	1768.80
620.47	1759.07
620.82	1748.74
621.16	1738.96
621.51	1728.98
621.85	1719.19
622.20	1708.70
622.55	1698.11
622.89	1688.35
623.24	1678.55
623.59	1668.84
623.93	1658.62
624.28	1649.00
624.62	1638.79
624.97	1628.61
625.32	1619.14
625.66	1610.45
626.01	1601.60
626.35	1592.16
626.70	1581.91
627.04	1571.70
627.39	1561.58
627.73	1552.32
628.08	1543.22
628.43	1533.65
628.77	1524.52
629.12	1515.56
629.46	1507.67
629.81	1499.25
630.15	1489.43
630.50	1479.64
630.84	1469.02
631.19	1459.11
631.53	1449.47
631.88	1439.27
632.22	1429.07
632.57	1419.63
632.91	1409.39
633.26	1399.46
633.60	1389.73
633.95	1380.46
634.29	1371.11
634.64	1361.77
634.98	1351.79
635.32	1342.53
635.67	1333.85
636.01	1324.42
636.36	1314.57
636.70	1304.97
637.05	1295.47
637.39	1286.48
637.73	1277.80
638.08	1270.30
638.42	1261.90
638.77	1253.17
639.11	1245.00
639.45	1237.16
639.80	1228.39
640.14	1219.64
640.49	1210.73
640.83	1202.06
641.17	1193.89
641.52	1185.65
641.86	1177.03
642.20	1169.24
642.55	1160.67
642.89	1151.81
643.23	1143.12
643.58	1135.06
643.92	1126.02
644.26	1117.50
644.61	1109.21
644.95	1100.50
645.29	1091.20
645.64	1082.10
645.98	1073.83
646.32	1065.80
646.66	1057.29
647.01	1048.87
647.35	1040.71
647.69	1032.30
648.04	1023.90
648.38	1014.96
648.72	1006.14
649.06	997.57
649.41	989.37
649.75	981.33
650.09	973.39
650.43	965.35
650.78	957.16
651.12	949.59
651.46	942.13
651.80	934.79
652.14	927.46
652.49	919.96
652.83	912.68
653.17	904.82
653.51	897.26
653.85	890.03
654.20	882.89
654.54	875.35
654.88	868.24
655.22	861.02
655.56	854.00
655.90	847.26
656.25	840.69
656.59	833.63
656.93	826.64
657.27	819.66
657.61	812.91
657.95	806.83
658.29	800.90
658.64	794.75
658.98	788.32
659.32	781.71
659.66	775.47
660.00	769.14
660.34	763.30
660.68	757.21
661.02	751.01
661.36	745.09
661.70	739.44
662.05	733.73
662.39	728.39
662.73	723.13
663.07	717.83
663.41	712.29
663.75	706.74
664.09	701.20
664.43	695.84
664.77	690.46
665.11	684.59
665.45	678.78
665.79	673.05
666.13	667.42
666.47	661.96
666.81	656.64
667.15	651.40
667.49	646.13
667.83	640.91
668.17	635.75
668.51	630.70
668.85	625.83
669.19	621.09
669.53	616.07
669.87	610.97
670.21	606.25
670.55	601.56
670.89	597.25
671.23	593.02
671.57	588.70
671.91	584.39
672.25	580.34
672.58	576.20
672.92	572.20
673.26	568.34
673.60	564.62
673.94	560.81
674.28	557.15
674.62	553.46
674.96	549.80
675.30	546.28
675.64	542.74
675.97	539.12
676.31	535.49
676.65	531.97
676.99	528.65
677.33	524.90
677.67	521.26
678.01	517.40
678.34	513.78
678.68	510.29
679.02	506.79
679.36	503.20
679.70	499.60
680.04	496.14
680.37	492.78
680.71	489.51
681.05	486.39
681.39	483.28
681.73	480.25
682.06	477.23
682.40	474.18
682.74	470.96
683.08	467.86
683.42	464.83
683.75	461.88
684.09	458.85
684.43	456.04
684.77	453.17
685.10	450.43
685.44	447.57
685.78	444.71
686.12	441.96
686.45	439.24
686.79	436.63
687.13	434.09
687.46	431.50
687.80	428.84
688.14	426.06
688.48	423.44
688.81	420.75
689.15	418.22
689.49	415.63
689.82	413.22
690.16	410.70
690.50	408.22
690.83	405.74
691.17	403.30
691.51	400.93
691.84	398.75
692.18	396.55
692.52	394.41
692.85	392.28
693.19	390.17
693.52	388.03
693.86	385.87
694.20	383.74
694.53	381.61
694.87	379.45
695.21	377.40
695.54	375.28
695.88	373.18
696.21	371.01
696.55	368.95
696.88	366.93
697.22	365.03
697.56	363.21
697.89	361.39
698.23	359.65
698.56	357.86
698.90	356.10
699.23	354.18
699.57	352.29
699.90	350.50
700.24	348.75
700.58	347.02
700.91	345.40
701.25	343.84
701.58	342.31
701.92	340.76
702.25	339.19
702.59	337.61
702.92	336.09
703.26	334.59
703.59	333.19
703.93	331.95
704.26	330.52
704.60	329.01
704.93	327.60
705.26	326.17
705.60	324.72
705.93	323.30
706.27	322.04
706.60	320.83
706.94	319.62
707.27	318.26
707.61	316.99
707.94	315.70
708.27	314.24
708.61	312.79
708.94	311.46
709.28	310.21
709.61	309.02
709.94	307.91
710.28	306.72
710.61	305.53
710.95	304.12
711.28	303.09
711.61	301.96
711.95	300.83
712.28	299.62
712.61	298.49
712.95	297.44
713.28	296.47
713.61	295.35
713.95	294.24
714.28	293.29
714.61	292.27
714.95	291.25
715.28	290.27
715.61	289.31
715.95	288.42
716.28	287.47
716.61	286.52
716.95	285.51
717.28	284.62
717.61	283.71
717.94	282.82
718.28	281.82
718.61	280.93
718.94	280.06
719.27	279.26
719.61	278.46
719.94	277.62
720.27	276.66
720.60	275.86
720.94	275.11
721.27	274.34
721.60	273.65
721.93	272.99
722.27	272.35
722.60	271.71
722.93	270.99
723.26	270.34
723.59	269.73
723.93	269.10
724.26	268.46
724.59	267.82
724.92	267.28
725.25	266.75
725.59	266.25
725.92	265.73
726.25	265.18
726.58	264.62
726.91	264.02
727.24	263.51
727.57	262.96
727.91	262.34
728.24	261.81
728.57	261.25
728.90	260.69
729.23	260.11
729.56	259.68
729.89	259.16
730.22	258.64
730.55	258.08
730.89	257.58
731.22	257.06
731.55	256.57
731.88	256.04
732.21	255.51
732.54	254.98
732.87	254.46
733.20	254.01
733.53	253.55
733.86	253.13
734.19	252.66
734.52	252.28
734.85	252.03
735.18	251.55
735.51	251.17
735.84	250.74
736.17	250.39
736.50	249.88
736.83	249.73
737.16	249.33
737.49	248.95
737.82	248.56
738.15	248.23
738.48	247.90
738.81	247.53
739.14	247.15
739.47	246.78
739.80	246.44
740.13	246.10
740.46	245.71
740.79	245.36
741.12	245.01
741.45	244.60
741.78	244.16
742.11	243.91
742.44	243.57
742.77	243.31
743.10	242.94
743.43	242.58
743.75	242.03
744.08	242.00
744.41	241.65
744.74	241.30
745.07	240.94
745.40	240.64
745.73	240.37
746.06	240.09
746.39	239.79
746.71	239.44
747.04	239.10
747.37	238.83
747.70	238.55
748.03	238.28
748.36	238.06
748.68	237.75
749.01	237.40
749.34	237.10
749.67	236.81
750.00	236.54
750.33	236.43
750.65	236.20
750.98	235.65
751.31	235.42
751.64	235.20
751.97	235.08
752.29	234.82
752.62	234.50
752.95	234.20
753.28	233.94
753.60	233.72
753.93	233.56
754.26	233.33
754.59	233.09
754.91	232.85
755.24	232.58
755.57	232.37
755.90	232.16
756.22	231.97
756.55	231.76
756.88	231.56
757.20	231.26
757.53	230.98
757.86	230.81
758.19	230.65
758.51	230.45
758.84	230.14
759.17	229.93
759.49	229.77
759.82	229.70
760.15	229.55
760.47	229.36
760.80	229.15
761.13	229.02
761.45	228.81
761.78	228.61
762.11	228.46
762.43	228.29
762.76	228.11
763.08	227.94
763.41	227.77
763.74	227.62
764.06	227.47
764.39	227.31
764.71	227.12
765.04	226.95
765.37	226.81
765.69	226.72
766.02	226.58
766.34	226.42
766.67	226.21
767.00	226.12
767.32	226.12
767.65	226.04
767.97	225.88
768.30	225.76
768.62	225.66
768.95	225.49
769.27	225.36
769.60	225.29
769.92	225.12
770.25	224.95
770.57	224.81
770.90	224.65
771.22	224.55
771.55	224.49
771.87	224.37
772.20	224.25
772.52	224.30
772.85	224.42
773.17	224.32
773.50	224.22
773.82	224.09
774.15	223.86
774.47	223.66
774.80	223.55
775.12	223.44
775.45	223.33
775.77	223.32
776.09	223.27
776.42	223.18
776.74	223.18
777.07	223.10
777.39	223.02
777.72	222.92
778.04	222.86
778.36	222.74
778.69	222.70
779.01	222.63
779.33	222.37
779.66	222.08
779.98	221.99
780.31	221.90
780.63	221.93
780.95	221.91
781.28	221.84
781.60	221.77
781.92	221.71
782.25	221.66
782.57	221.53
782.89	221.44
783.22	221.36
783.54	221.26
783.86	221.22
784.19	221.10
784.51	221.11
784.83	221.05
785.16	220.97
785.48	220.91
785.80	220.83
786.12	220.76
