SpectraSuite Data File
++++++++++++++++++++++++++++++++++++
Date: Tue Jan 29 16:12:03 EST 2013
User: group
Dark Spectrum Present: No
Reference Spectrum Present: No
Number of Sampled Component Spectra: 1
Spectrometers: USB2E7196
Integration Time (usec): 65000 (USB2E7196)
Spectra Averaged: 100 (USB2E7196)
Boxcar Smoothing: 10 (USB2E7196)
Correct for Electrical Dark: No (USB2E7196)
Strobe/Lamp Enabled: No (USB2E7196)
Correct for Detector Non-linearity: No (USB2E7196)
Correct for Stray Light: No (USB2E7196)
Number of Pixels in Processed Spectrum: 2048
>>>>>Begin Processed Spectral Data<<<<<
339.09	0.00
339.48	202.38
339.86	203.82
340.24	205.16
340.63	206.31
341.01	210.65
341.39	209.30
341.78	211.06
342.16	212.02
342.54	211.57
342.93	201.39
343.31	211.56
343.69	212.08
344.07	212.54
344.46	212.96
344.84	213.41
345.22	213.63
345.60	213.88
345.99	214.05
346.37	214.21
346.75	214.36
347.13	214.42
347.52	214.49
347.90	214.65
348.28	214.68
348.66	214.77
349.05	214.75
349.43	214.82
349.81	214.89
350.19	214.93
350.57	215.00
350.96	215.12
351.34	215.23
351.72	215.35
352.10	215.50
352.48	215.59
352.87	215.64
353.25	215.67
353.63	215.76
354.01	215.85
354.39	215.92
354.77	216.01
355.15	216.17
355.54	216.23
355.92	216.22
356.30	216.32
356.68	216.55
357.06	216.66
357.44	216.71
357.82	216.80
358.20	216.91
358.58	217.01
358.97	217.09
359.35	217.22
359.73	217.33
360.11	217.36
360.49	217.44
360.87	217.49
361.25	217.58
361.63	217.71
362.01	217.77
362.39	217.79
362.77	217.88
363.15	217.89
363.53	217.93
363.91	218.01
364.29	218.03
364.67	217.80
365.05	217.80
365.43	217.84
365.81	217.86
366.19	217.97
366.57	218.04
366.95	218.04
367.33	217.97
367.71	217.97
368.09	218.00
368.47	218.00
368.85	217.98
369.23	217.99
369.61	217.92
369.99	217.96
370.37	217.97
370.75	218.01
371.13	217.96
371.51	217.93
371.89	217.89
372.27	217.88
372.65	217.89
373.03	217.87
373.41	217.81
373.78	217.77
374.16	217.60
374.54	217.47
374.92	217.43
375.30	217.42
375.68	217.36
376.06	217.29
376.44	217.24
376.82	217.20
377.19	217.15
377.57	217.07
377.95	216.94
378.33	216.88
378.71	216.73
379.09	216.72
379.47	216.69
379.84	216.64
380.22	216.59
380.60	216.53
380.98	216.49
381.36	216.45
381.73	216.38
382.11	216.41
382.49	216.39
382.87	216.30
383.25	216.26
383.62	216.43
384.00	216.37
384.38	216.35
384.76	216.34
385.13	216.37
385.51	216.35
385.89	216.29
386.27	216.25
386.64	216.23
387.02	216.16
387.40	216.12
387.78	216.07
388.15	216.03
388.53	215.99
388.91	215.98
389.29	215.95
389.66	215.95
390.04	215.89
390.42	215.92
390.79	215.90
391.17	215.86
391.55	215.65
391.92	215.64
392.30	215.64
392.68	215.60
393.05	215.55
393.43	215.58
393.81	215.58
394.18	215.57
394.56	215.55
394.94	215.63
395.31	215.61
395.69	215.68
396.06	215.75
396.44	215.81
396.82	215.79
397.19	215.90
397.57	215.90
397.95	215.96
398.32	215.90
398.70	215.99
399.07	216.06
399.45	216.09
399.82	216.12
400.20	216.14
400.58	216.20
400.95	216.19
401.33	216.27
401.70	216.51
402.08	216.63
402.45	216.74
402.83	216.84
403.20	216.96
403.58	217.02
403.95	217.12
404.33	217.26
404.71	217.40
405.08	217.66
405.46	217.85
405.83	218.01
406.21	218.22
406.58	218.42
406.96	218.63
407.33	218.88
407.70	219.19
408.08	219.67
408.45	219.97
408.83	220.40
409.20	220.70
409.58	220.97
409.95	221.39
410.33	221.88
410.70	222.29
411.08	222.82
411.45	223.40
411.82	223.95
412.20	224.62
412.57	225.47
412.95	226.00
413.32	226.76
413.69	227.59
414.07	228.49
414.44	229.44
414.82	230.47
415.19	231.60
415.56	232.75
415.94	233.85
416.31	235.22
416.68	236.53
417.06	238.12
417.43	239.60
417.81	241.29
418.18	242.98
418.55	244.89
418.93	246.83
419.30	248.87
419.67	251.02
420.04	253.20
420.42	255.45
420.79	258.18
421.16	260.90
421.54	263.67
421.91	266.53
422.28	269.55
422.66	272.70
423.03	275.82
423.40	279.06
423.77	282.55
424.15	286.13
424.52	289.89
424.89	293.91
425.26	297.87
425.64	301.64
426.01	305.75
426.38	310.06
426.75	314.51
427.13	319.08
427.50	323.88
427.87	328.91
428.24	333.96
428.61	338.83
428.99	344.14
429.36	349.95
429.73	355.66
430.10	361.35
430.47	367.18
430.85	373.29
431.22	379.78
431.59	386.62
431.96	393.19
432.33	400.38
432.70	407.43
433.08	415.64
433.45	423.40
433.82	431.21
434.19	439.86
434.56	448.22
434.93	456.28
435.30	464.32
435.68	473.14
436.05	481.80
436.42	490.33
436.79	498.22
437.16	506.72
437.53	515.70
437.90	524.54
438.27	533.22
438.64	542.13
439.01	550.33
439.38	557.69
439.75	564.77
440.13	572.96
440.50	580.54
440.87	586.74
441.24	593.20
441.61	600.32
441.98	605.39
442.35	611.49
442.72	617.65
443.09	623.51
443.46	627.08
443.83	629.50
444.20	631.61
444.57	634.65
444.94	635.99
445.31	637.33
445.68	638.61
446.05	639.21
446.42	638.42
446.79	637.48
447.16	636.38
447.53	635.61
447.90	632.31
448.27	629.14
448.64	624.66
449.01	621.35
449.37	615.59
449.74	610.14
450.11	603.46
450.48	596.23
450.85	588.98
451.22	582.74
451.59	576.81
451.96	571.20
452.33	563.62
452.70	556.84
453.07	548.64
453.43	540.34
453.80	532.34
454.17	524.65
454.54	517.37
454.91	509.48
455.28	501.83
455.65	494.74
456.02	487.56
456.38	481.50
456.75	474.00
457.12	467.67
457.49	461.39
457.86	455.48
458.23	450.35
458.59	444.60
458.96	438.84
459.33	433.77
459.70	428.64
460.07	424.50
460.43	419.73
460.80	415.35
461.17	411.54
461.54	407.47
461.91	403.60
462.27	399.64
462.64	396.37
463.01	392.66
463.38	389.09
463.74	385.49
464.11	382.31
464.48	379.53
464.85	376.56
465.21	374.21
465.58	371.63
465.95	368.55
466.32	366.07
466.68	363.52
467.05	361.04
467.42	358.54
467.78	355.95
468.15	353.55
468.52	351.73
468.88	349.32
469.25	347.20
469.62	345.46
469.98	343.65
470.35	341.91
470.72	340.37
471.08	338.63
471.45	337.22
471.82	335.78
472.18	334.19
472.55	333.02
472.92	331.73
473.28	330.59
473.65	329.56
474.02	328.49
474.38	327.72
474.75	326.99
475.11	326.22
475.48	325.71
475.85	325.28
476.21	324.84
476.58	324.52
476.94	324.34
477.31	324.08
477.67	323.85
478.04	323.77
478.41	323.71
478.77	323.89
479.14	323.87
479.50	324.05
479.87	324.37
480.23	324.74
480.60	325.02
480.96	325.34
481.33	325.90
481.69	326.49
482.06	327.01
482.42	327.49
482.79	328.13
483.15	328.96
483.52	329.89
483.88	330.76
484.25	331.70
484.61	332.71
484.98	333.76
485.34	335.06
485.71	336.39
486.07	337.84
486.44	339.17
486.80	340.75
487.17	342.40
487.53	344.20
487.90	346.03
488.26	348.02
488.62	350.16
488.99	352.21
489.35	354.35
489.72	356.69
490.08	359.26
490.44	361.82
490.81	364.49
491.17	367.17
491.54	370.14
491.90	373.19
492.26	376.39
492.63	379.82
492.99	383.31
493.36	386.98
493.72	390.81
494.08	394.77
494.45	398.99
494.81	403.36
495.17	407.74
495.54	412.45
495.90	417.24
496.26	422.11
496.63	427.32
496.99	432.72
497.35	438.31
497.72	444.06
498.08	450.01
498.44	456.09
498.80	462.47
499.17	468.93
499.53	475.57
499.89	482.50
500.26	489.40
500.62	496.44
500.98	503.81
501.34	511.25
501.71	519.02
502.07	526.76
502.43	534.72
502.79	542.90
503.16	551.21
503.52	559.76
503.88	568.42
504.24	577.32
504.60	586.37
504.97	595.51
505.33	604.76
505.69	614.50
506.05	624.32
506.41	634.13
506.78	644.05
507.14	654.23
507.50	664.62
507.86	675.28
508.22	686.01
508.59	696.58
508.95	707.61
509.31	718.79
509.67	730.18
510.03	741.50
510.39	753.09
510.75	764.91
511.12	776.71
511.48	788.67
511.84	800.83
512.20	813.14
512.56	825.66
512.92	838.32
513.28	850.83
513.64	863.46
514.00	876.11
514.37	888.98
514.73	901.90
515.09	914.66
515.45	927.36
515.81	940.17
516.17	953.38
516.53	966.42
516.89	979.37
517.25	992.35
517.61	1005.65
517.97	1018.86
518.33	1031.73
518.69	1045.14
519.05	1058.71
519.41	1072.10
519.77	1085.74
520.13	1098.90
520.49	1111.81
520.85	1125.11
521.21	1138.16
521.57	1151.66
521.93	1164.53
522.29	1178.18
522.65	1191.58
523.01	1204.99
523.37	1218.02
523.73	1231.05
524.09	1243.97
524.45	1257.09
524.81	1270.41
525.17	1283.49
525.53	1296.39
525.89	1309.39
526.25	1322.20
526.61	1334.90
526.97	1347.71
527.33	1360.24
527.68	1373.42
528.04	1386.62
528.40	1399.37
528.76	1412.38
529.12	1425.00
529.48	1438.04
529.84	1449.90
530.20	1462.45
530.56	1474.74
530.91	1487.69
531.27	1500.44
531.63	1512.94
531.99	1525.35
532.35	1537.22
532.71	1549.31
533.07	1561.72
533.42	1573.66
533.78	1585.50
534.14	1597.12
534.50	1607.96
534.86	1619.30
535.21	1629.91
535.57	1641.08
535.93	1652.15
536.29	1663.07
536.65	1674.21
537.00	1684.87
537.36	1695.98
537.72	1706.56
538.08	1717.42
538.44	1728.09
538.79	1738.67
539.15	1749.12
539.51	1759.64
539.87	1770.70
540.22	1781.23
540.58	1791.89
540.94	1802.51
541.29	1812.47
541.65	1822.00
542.01	1832.31
542.37	1842.09
542.72	1851.88
543.08	1861.40
543.44	1871.33
543.79	1880.32
544.15	1889.34
544.51	1899.04
544.87	1908.72
545.22	1917.60
545.58	1926.49
545.94	1935.01
546.29	1943.21
546.65	1951.43
547.01	1959.30
547.36	1966.76
547.72	1974.25
548.07	1981.75
548.43	1989.33
548.79	1996.84
549.14	2004.72
549.50	2012.77
549.86	2020.24
550.21	2027.48
550.57	2034.90
550.92	2041.53
551.28	2048.81
551.64	2056.01
551.99	2063.27
552.35	2070.09
552.70	2076.80
553.06	2083.26
553.41	2089.34
553.77	2095.81
554.13	2101.90
554.48	2108.74
554.84	2115.65
555.19	2121.89
555.55	2128.24
555.90	2134.42
556.26	2141.01
556.61	2146.76
556.97	2151.59
557.32	2157.34
557.68	2163.58
558.03	2169.12
558.39	2174.42
558.74	2180.28
559.10	2185.80
559.45	2191.30
559.81	2196.65
560.16	2202.14
560.52	2208.04
560.87	2214.47
561.23	2220.30
561.58	2226.95
561.94	2232.29
562.29	2237.03
562.64	2243.31
563.00	2248.93
563.35	2254.40
563.71	2260.28
564.06	2265.99
564.42	2272.04
564.77	2277.25
565.12	2282.38
565.48	2287.73
565.83	2293.15
566.19	2298.65
566.54	2304.02
566.89	2308.60
567.25	2313.37
567.60	2319.18
567.96	2324.27
568.31	2328.76
568.66	2332.97
569.02	2336.83
569.37	2340.48
569.72	2344.96
570.08	2348.50
570.43	2351.55
570.78	2354.73
571.14	2357.40
571.49	2360.65
571.84	2364.14
572.20	2366.94
572.55	2370.12
572.90	2372.45
573.26	2375.46
573.61	2378.00
573.96	2380.19
574.31	2382.40
574.67	2384.39
575.02	2385.26
575.37	2386.80
575.72	2387.81
576.08	2389.61
576.43	2390.04
576.78	2390.83
577.13	2392.56
577.49	2393.72
577.84	2395.18
578.19	2396.67
578.54	2397.52
578.90	2398.60
579.25	2398.65
579.60	2398.97
579.95	2398.44
580.30	2398.77
580.66	2398.30
581.01	2396.79
581.36	2394.75
581.71	2393.42
582.06	2392.55
582.42	2391.91
582.77	2389.90
583.12	2388.39
583.47	2387.19
583.82	2386.68
584.17	2385.52
584.53	2383.59
584.88	2381.85
585.23	2379.95
585.58	2377.79
585.93	2375.66
586.28	2373.62
586.63	2371.48
586.98	2369.37
587.34	2367.62
587.69	2365.43
588.04	2363.54
588.39	2362.13
588.74	2359.81
589.09	2357.47
589.44	2354.59
589.79	2352.21
590.14	2350.42
590.49	2347.82
590.84	2344.21
591.19	2341.41
591.54	2338.36
591.89	2334.24
592.25	2331.06
592.60	2327.03
592.95	2323.14
593.30	2319.14
593.65	2314.77
594.00	2310.62
594.35	2307.76
594.70	2303.14
595.05	2298.52
595.40	2293.17
595.75	2287.83
596.10	2284.29
596.45	2279.51
596.80	2275.03
597.15	2269.85
597.50	2263.98
597.85	2259.15
598.19	2253.99
598.54	2248.41
598.89	2243.50
599.24	2239.21
599.59	2233.17
599.94	2227.57
600.29	2221.76
600.64	2216.01
600.99	2209.51
601.34	2204.01
601.69	2197.05
602.04	2190.74
602.39	2184.42
602.74	2178.55
603.08	2173.01
603.43	2166.62
603.78	2159.84
604.13	2152.70
604.48	2145.74
604.83	2139.73
605.18	2133.47
605.53	2126.50
605.87	2119.37
606.22	2112.46
606.57	2104.70
606.92	2097.01
607.27	2090.12
607.62	2083.56
607.96	2076.54
608.31	2069.95
608.66	2062.26
609.01	2054.81
609.36	2048.00
609.70	2040.25
610.05	2032.58
610.40	2024.43
610.75	2016.23
611.10	2008.76
611.44	2000.09
611.79	1991.47
612.14	1981.57
612.49	1971.10
612.83	1962.06
613.18	1953.05
613.53	1943.85
613.88	1934.33
614.22	1925.68
614.57	1915.83
614.92	1905.33
615.27	1895.40
615.61	1885.58
615.96	1876.07
616.31	1866.48
616.65	1857.10
617.00	1847.21
617.35	1837.56
617.70	1827.91
618.04	1817.71
618.39	1807.20
618.74	1797.69
619.08	1788.07
619.43	1779.51
619.78	1771.32
620.12	1762.64
620.47	1752.83
620.82	1742.57
621.16	1732.81
621.51	1722.75
621.85	1712.90
622.20	1702.66
622.55	1692.12
622.89	1682.30
623.24	1672.58
623.59	1662.87
623.93	1652.58
624.28	1643.06
624.62	1632.96
624.97	1622.56
625.32	1612.90
625.66	1604.30
626.01	1595.43
626.35	1585.96
626.70	1575.79
627.04	1565.67
627.39	1555.63
627.73	1546.41
628.08	1537.38
628.43	1527.82
628.77	1518.73
629.12	1509.94
629.46	1501.96
629.81	1493.49
630.15	1483.91
630.50	1474.05
630.84	1463.58
631.19	1453.83
631.53	1444.42
631.88	1434.29
632.22	1424.32
632.57	1415.10
632.91	1404.95
633.26	1395.08
633.60	1385.45
633.95	1376.26
634.29	1366.85
634.64	1357.48
634.98	1347.68
635.32	1338.50
635.67	1329.94
636.01	1320.80
636.36	1310.98
636.70	1301.50
637.05	1292.16
637.39	1283.17
637.73	1274.55
638.08	1266.93
638.42	1258.66
638.77	1249.93
639.11	1241.77
639.45	1234.07
639.80	1225.41
640.14	1216.74
640.49	1207.89
640.83	1199.27
641.17	1191.15
641.52	1183.02
641.86	1174.40
642.20	1166.56
642.55	1157.90
642.89	1149.12
643.23	1140.44
643.58	1132.41
643.92	1123.32
644.26	1114.79
644.61	1106.36
644.95	1097.58
645.29	1088.44
645.64	1079.36
645.98	1070.98
646.32	1063.04
646.66	1054.43
647.01	1046.17
647.35	1038.02
647.69	1029.79
648.04	1021.51
648.38	1012.61
648.72	1003.85
649.06	995.43
649.41	987.32
649.75	979.44
650.09	971.61
650.43	963.62
650.78	955.40
651.12	947.83
651.46	940.49
651.80	933.26
652.14	926.01
652.49	918.57
652.83	911.20
653.17	903.51
653.51	895.87
653.85	888.79
654.20	881.57
654.54	874.07
654.88	866.91
655.22	859.76
655.56	852.81
655.90	846.07
656.25	839.53
656.59	832.59
656.93	825.57
657.27	818.46
657.61	811.55
657.95	805.52
658.29	799.66
658.64	793.53
658.98	787.11
659.32	780.59
659.66	774.37
660.00	768.24
660.34	762.33
660.68	756.28
661.02	749.97
661.36	744.16
661.70	738.53
662.05	732.83
662.39	727.44
662.73	722.15
663.07	716.85
663.41	711.32
663.75	705.70
664.09	700.11
664.43	694.80
664.77	689.49
665.11	683.73
665.45	677.87
665.79	672.12
666.13	666.56
666.47	661.17
666.81	655.85
667.15	650.53
667.49	645.32
667.83	640.20
668.17	635.09
668.51	629.96
668.85	625.14
669.19	620.39
669.53	615.42
669.87	610.33
670.21	605.63
670.55	600.93
670.89	596.57
671.23	592.39
671.57	588.07
671.91	583.83
672.25	579.75
672.58	575.75
672.92	571.83
673.26	568.00
673.60	564.26
673.94	560.54
674.28	556.96
674.62	553.26
674.96	549.48
675.30	545.91
675.64	542.36
675.97	538.77
676.31	535.21
676.65	531.65
676.99	528.35
677.33	524.58
677.67	520.99
678.01	517.18
678.34	513.59
678.68	510.12
679.02	506.57
679.36	502.95
679.70	499.32
680.04	495.77
680.37	492.34
680.71	489.08
681.05	485.88
681.39	482.66
681.73	479.54
682.06	476.61
682.40	473.62
682.74	470.46
683.08	467.30
683.42	464.15
683.75	461.23
684.09	458.23
684.43	455.42
684.77	452.60
685.10	449.85
685.44	446.99
685.78	444.08
686.12	441.41
686.45	438.72
686.79	436.12
687.13	433.60
687.46	431.04
687.80	428.36
688.14	425.59
688.48	423.01
688.81	420.46
689.15	417.95
689.49	415.39
689.82	412.89
690.16	410.37
690.50	408.00
690.83	405.54
691.17	403.09
691.51	400.76
691.84	398.56
692.18	396.36
692.52	394.18
692.85	392.16
693.19	390.01
693.52	387.88
693.86	385.72
694.20	383.63
694.53	381.56
694.87	379.44
695.21	377.40
695.54	375.26
695.88	373.09
696.21	370.94
696.55	368.88
696.88	366.91
697.22	365.00
697.56	363.16
697.89	361.30
698.23	359.53
698.56	357.74
698.90	355.98
699.23	354.10
699.57	352.29
699.90	350.46
700.24	348.72
700.58	347.01
700.91	345.42
701.25	343.89
701.58	342.30
701.92	340.79
702.25	339.27
702.59	337.72
702.92	336.23
703.26	334.73
703.59	333.32
703.93	332.09
704.26	330.71
704.60	329.23
704.93	327.82
705.26	326.42
705.60	324.96
705.93	323.50
706.27	322.24
706.60	321.05
706.94	319.83
707.27	318.43
707.61	317.13
707.94	315.79
708.27	314.29
708.61	312.85
708.94	311.48
709.28	310.17
709.61	308.97
709.94	307.80
710.28	306.57
710.61	305.38
710.95	303.95
711.28	302.91
711.61	301.71
711.95	300.57
712.28	299.39
712.61	298.26
712.95	297.22
713.28	296.19
713.61	295.03
713.95	293.92
714.28	292.94
714.61	291.88
714.95	290.88
715.28	289.93
715.61	288.94
715.95	288.01
716.28	287.09
716.61	286.19
716.95	285.22
717.28	284.35
717.61	283.42
717.94	282.55
718.28	281.54
718.61	280.74
718.94	279.89
719.27	279.08
719.61	278.30
719.94	277.45
720.27	276.53
720.60	275.70
720.94	274.91
721.27	274.21
721.60	273.63
721.93	272.94
722.27	272.30
722.60	271.68
722.93	270.99
723.26	270.33
723.59	269.61
723.93	268.98
724.26	268.36
724.59	267.73
724.92	267.18
725.25	266.67
725.59	266.09
725.92	265.56
726.25	265.01
726.58	264.42
726.91	263.84
727.24	263.29
727.57	262.75
727.91	262.19
728.24	261.63
728.57	261.04
728.90	260.52
729.23	259.90
729.56	259.46
729.89	258.90
730.22	258.38
730.55	257.85
730.89	257.32
731.22	256.80
731.55	256.29
731.88	255.75
732.21	255.20
732.54	254.68
732.87	254.17
733.20	253.68
733.53	253.22
733.86	252.79
734.19	252.31
734.52	251.93
734.85	251.62
735.18	251.18
735.51	250.78
735.84	250.35
736.17	249.98
736.50	249.50
736.83	249.40
737.16	249.02
737.49	248.70
737.82	248.35
738.15	248.01
738.48	247.63
738.81	247.28
739.14	246.88
739.47	246.50
739.80	246.13
740.13	245.80
740.46	245.41
740.79	245.07
741.12	244.73
741.45	244.32
741.78	243.88
742.11	243.61
742.44	243.25
742.77	242.97
743.10	242.64
743.43	242.27
743.75	241.71
744.08	241.64
744.41	241.25
744.74	240.89
745.07	240.53
745.40	240.25
745.73	239.99
746.06	239.72
746.39	239.45
746.71	239.13
747.04	238.80
747.37	238.50
747.70	238.20
748.03	237.93
748.36	237.69
748.68	237.40
749.01	237.04
749.34	236.77
749.67	236.48
750.00	236.23
750.33	236.12
750.65	235.88
750.98	235.40
751.31	235.19
751.64	234.97
751.97	234.84
752.29	234.59
752.62	234.26
752.95	233.99
753.28	233.75
753.60	233.51
753.93	233.35
754.26	233.15
754.59	232.91
754.91	232.62
755.24	232.38
755.57	232.15
755.90	231.91
756.22	231.69
756.55	231.43
756.88	231.19
757.20	230.87
757.53	230.59
757.86	230.37
758.19	230.15
758.51	229.93
758.84	229.62
759.17	229.44
759.49	229.29
759.82	229.22
760.15	229.06
760.47	228.87
760.80	228.60
761.13	228.47
761.45	228.24
761.78	228.12
762.11	227.99
762.43	227.81
762.76	227.66
763.08	227.52
763.41	227.39
763.74	227.21
764.06	227.05
764.39	226.92
764.71	226.76
765.04	226.60
765.37	226.47
765.69	226.33
766.02	226.19
766.34	226.01
766.67	225.79
767.00	225.68
767.32	225.67
767.65	225.67
767.97	225.51
768.30	225.45
768.62	225.33
768.95	225.20
769.27	225.08
769.60	225.02
769.92	224.87
770.25	224.75
770.57	224.63
770.90	224.50
771.22	224.39
771.55	224.32
771.87	224.24
772.20	224.12
772.52	224.20
772.85	224.33
773.17	224.27
773.50	224.13
773.82	223.99
774.15	223.80
774.47	223.57
774.80	223.47
775.12	223.34
775.45	223.23
775.77	223.15
776.09	223.09
776.42	222.98
776.74	222.98
777.07	222.87
777.39	222.81
777.72	222.72
778.04	222.66
778.36	222.54
778.69	222.48
779.01	222.42
779.33	222.15
779.66	221.82
779.98	221.73
780.31	221.69
780.63	221.72
780.95	221.69
781.28	221.63
781.60	221.53
781.92	221.47
782.25	221.41
782.57	221.30
782.89	221.25
783.22	221.15
783.54	221.02
783.86	220.96
784.19	220.89
784.51	220.90
784.83	220.80
785.16	220.76
785.48	220.73
785.80	220.69
786.12	220.66
