SpectraSuite Data File
++++++++++++++++++++++++++++++++++++
Date: Tue Jan 29 16:26:07 EST 2013
User: group
Dark Spectrum Present: No
Reference Spectrum Present: No
Number of Sampled Component Spectra: 1
Spectrometers: USB2E7196
Integration Time (usec): 65000 (USB2E7196)
Spectra Averaged: 100 (USB2E7196)
Boxcar Smoothing: 10 (USB2E7196)
Correct for Electrical Dark: No (USB2E7196)
Strobe/Lamp Enabled: No (USB2E7196)
Correct for Detector Non-linearity: No (USB2E7196)
Correct for Stray Light: No (USB2E7196)
Number of Pixels in Processed Spectrum: 2048
>>>>>Begin Processed Spectral Data<<<<<
339.09	0.00
339.48	202.08
339.86	203.27
340.24	204.72
340.63	206.43
341.01	211.23
341.39	209.08
341.78	210.75
342.16	212.01
342.54	212.11
342.93	201.26
343.31	211.42
343.69	211.97
344.07	212.45
344.46	212.91
344.84	213.30
345.22	213.45
345.60	213.73
345.99	213.93
346.37	214.05
346.75	214.16
347.13	214.22
347.52	214.26
347.90	214.40
348.28	214.45
348.66	214.54
349.05	214.51
349.43	214.58
349.81	214.59
350.19	214.70
350.57	214.76
350.96	214.84
351.34	214.93
351.72	215.01
352.10	215.11
352.48	215.15
352.87	215.22
353.25	215.28
353.63	215.31
354.01	215.35
354.39	215.44
354.77	215.53
355.15	215.68
355.54	215.73
355.92	215.70
356.30	215.78
356.68	215.97
357.06	216.04
357.44	216.03
357.82	216.11
358.20	216.20
358.58	216.29
358.97	216.37
359.35	216.49
359.73	216.61
360.11	216.68
360.49	216.76
360.87	216.80
361.25	216.88
361.63	217.01
362.01	217.06
362.39	217.11
362.77	217.16
363.15	217.20
363.53	217.27
363.91	217.33
364.29	217.36
364.67	217.23
365.05	217.28
365.43	217.35
365.81	217.41
366.19	217.49
366.57	217.57
366.95	217.58
367.33	217.53
367.71	217.53
368.09	217.53
368.47	217.56
368.85	217.55
369.23	217.57
369.61	217.51
369.99	217.56
370.37	217.56
370.75	217.64
371.13	217.56
371.51	217.50
371.89	217.48
372.27	217.48
372.65	217.44
373.03	217.38
373.41	217.36
373.78	217.29
374.16	217.15
374.54	217.07
374.92	216.96
375.30	216.92
375.68	216.82
376.06	216.82
376.44	216.75
376.82	216.72
377.19	216.67
377.57	216.58
377.95	216.48
378.33	216.42
378.71	216.21
379.09	216.20
379.47	216.21
379.84	216.19
380.22	216.11
380.60	216.05
380.98	216.02
381.36	215.94
381.73	215.88
382.11	215.89
382.49	215.82
382.87	215.83
383.25	215.81
383.62	216.03
384.00	215.95
384.38	215.91
384.76	215.94
385.13	216.01
385.51	216.00
385.89	215.97
386.27	215.93
386.64	215.94
387.02	215.90
387.40	215.82
387.78	215.78
388.15	215.79
388.53	215.78
388.91	215.77
389.29	215.72
389.66	215.74
390.04	215.74
390.42	215.79
390.79	215.76
391.17	215.73
391.55	215.48
391.92	215.46
392.30	215.48
392.68	215.42
393.05	215.35
393.43	215.36
393.81	215.33
394.18	215.31
394.56	215.34
394.94	215.40
395.31	215.40
395.69	215.48
396.06	215.50
396.44	215.52
396.82	215.53
397.19	215.68
397.57	215.67
397.95	215.70
398.32	215.65
398.70	215.71
399.07	215.81
399.45	215.84
399.82	215.88
400.20	215.89
400.58	215.97
400.95	215.97
401.33	216.06
401.70	216.31
402.08	216.40
402.45	216.48
402.83	216.59
403.20	216.70
403.58	216.78
403.95	216.88
404.33	217.03
404.71	217.15
405.08	217.42
405.46	217.59
405.83	217.75
406.21	217.95
406.58	218.19
406.96	218.40
407.33	218.69
407.70	219.01
408.08	219.47
408.45	219.81
408.83	220.18
409.20	220.55
409.58	220.83
409.95	221.29
410.33	221.79
410.70	222.23
411.08	222.82
411.45	223.43
411.82	224.05
412.20	224.74
412.57	225.58
412.95	226.11
413.32	226.94
413.69	227.83
414.07	228.75
414.44	229.69
414.82	230.70
415.19	231.87
415.56	233.04
415.94	234.25
416.31	235.65
416.68	237.08
417.06	238.68
417.43	240.22
417.81	241.99
418.18	243.73
418.55	245.67
418.93	247.67
419.30	249.71
419.67	251.95
420.04	254.24
420.42	256.58
420.79	259.42
421.16	262.21
421.54	265.09
421.91	268.07
422.28	271.19
422.66	274.49
423.03	277.71
423.40	281.03
423.77	284.58
424.15	288.27
424.52	292.10
424.89	296.26
425.26	300.32
425.64	304.15
426.01	308.41
426.38	312.87
426.75	317.40
427.13	322.15
427.50	327.06
427.87	332.23
428.24	337.47
428.61	342.39
428.99	347.90
429.36	353.84
429.73	359.75
430.10	365.58
430.47	371.63
430.85	377.93
431.22	384.60
431.59	391.70
431.96	398.45
432.33	405.90
432.70	413.11
433.08	421.63
433.45	429.73
433.82	437.77
434.19	446.62
434.56	455.31
434.93	463.59
435.30	471.87
435.68	480.95
436.05	489.82
436.42	498.73
436.79	506.85
437.16	515.66
437.53	524.88
437.90	534.07
438.27	543.03
438.64	552.22
439.01	560.80
439.38	568.34
439.75	575.69
440.13	584.10
440.50	592.03
440.87	598.43
441.24	605.04
441.61	612.32
441.98	617.65
442.35	623.93
442.72	630.27
443.09	636.35
443.46	640.09
443.83	642.70
444.20	644.90
444.57	648.02
444.94	649.38
445.31	650.84
445.68	652.20
446.05	652.77
446.42	652.05
446.79	651.09
447.16	650.01
447.53	649.23
447.90	645.90
448.27	642.66
448.64	637.97
449.01	634.60
449.37	628.72
449.74	623.07
450.11	616.16
450.48	608.83
450.85	601.37
451.22	594.88
451.59	588.71
451.96	582.88
452.33	575.03
452.70	567.98
453.07	559.46
453.43	550.86
453.80	542.57
454.17	534.51
454.54	526.95
454.91	518.78
455.28	510.80
455.65	503.43
456.02	495.90
456.38	489.61
456.75	481.74
457.12	475.21
457.49	468.75
457.86	462.61
458.23	457.19
458.59	451.26
458.96	445.31
459.33	440.02
459.70	434.66
460.07	430.44
460.43	425.58
460.80	421.06
461.17	417.09
461.54	412.95
461.91	408.95
462.27	404.85
462.64	401.48
463.01	397.70
463.38	394.02
463.74	390.36
464.11	387.13
464.48	384.36
464.85	381.27
465.21	378.78
465.58	376.14
465.95	373.00
466.32	370.40
466.68	367.82
467.05	365.23
467.42	362.72
467.78	360.05
468.15	357.55
468.52	355.64
468.88	353.15
469.25	350.93
469.62	349.12
469.98	347.19
470.35	345.34
470.72	343.68
471.08	341.88
471.45	340.38
471.82	338.86
472.18	337.18
472.55	335.96
472.92	334.62
473.28	333.42
473.65	332.27
474.02	331.19
474.38	330.28
474.75	329.51
475.11	328.72
475.48	328.15
475.85	327.65
476.21	327.13
476.58	326.77
476.94	326.54
477.31	326.27
477.67	326.00
478.04	325.84
478.41	325.81
478.77	325.95
479.14	325.88
479.50	326.02
479.87	326.31
480.23	326.66
480.60	326.87
480.96	327.19
481.33	327.82
481.69	328.40
482.06	328.94
482.42	329.45
482.79	330.04
483.15	330.80
483.52	331.77
483.88	332.66
484.25	333.62
484.61	334.64
484.98	335.71
485.34	337.07
485.71	338.46
486.07	339.87
486.44	341.24
486.80	342.93
487.17	344.61
487.53	346.45
487.90	348.30
488.26	350.35
488.62	352.53
488.99	354.56
489.35	356.70
489.72	359.08
490.08	361.61
490.44	364.17
490.81	366.90
491.17	369.60
491.54	372.58
491.90	375.61
492.26	378.88
492.63	382.32
492.99	385.80
493.36	389.50
493.72	393.43
494.08	397.46
494.45	401.62
494.81	406.01
495.17	410.47
495.54	415.25
495.90	420.11
496.26	425.02
496.63	430.21
496.99	435.61
497.35	441.19
497.72	447.04
498.08	453.00
498.44	459.08
498.80	465.56
499.17	472.17
499.53	478.95
499.89	485.85
500.26	492.80
500.62	499.94
500.98	507.34
501.34	514.85
501.71	522.60
502.07	530.51
502.43	538.53
502.79	546.80
503.16	555.16
503.52	563.77
503.88	572.55
504.24	581.61
504.60	590.73
504.97	599.98
505.33	609.30
505.69	619.26
506.05	629.26
506.41	639.14
506.78	649.26
507.14	659.53
507.50	670.05
507.86	680.89
508.22	691.76
508.59	702.52
508.95	713.62
509.31	724.95
509.67	736.45
510.03	747.95
510.39	759.73
510.75	771.75
511.12	783.76
511.48	796.04
511.84	808.33
512.20	820.86
512.56	833.65
512.92	846.62
513.28	859.36
513.64	872.30
514.00	885.27
514.37	898.26
514.73	911.49
515.09	924.50
515.45	937.49
515.81	950.61
516.17	964.08
516.53	977.42
516.89	990.76
517.25	1004.10
517.61	1017.72
517.97	1031.20
518.33	1044.48
518.69	1058.12
519.05	1071.89
519.41	1085.78
519.77	1099.81
520.13	1113.25
520.49	1126.49
520.85	1140.03
521.21	1153.43
521.57	1167.26
521.93	1180.48
522.29	1194.38
522.65	1208.23
523.01	1222.04
523.37	1235.40
523.73	1248.90
524.09	1262.28
524.45	1275.67
524.81	1289.29
525.17	1302.87
525.53	1316.27
525.89	1329.66
526.25	1342.96
526.61	1356.01
526.97	1369.08
527.33	1382.11
527.68	1395.63
528.04	1409.20
528.40	1422.39
528.76	1435.77
529.12	1448.80
529.48	1462.22
529.84	1474.61
530.20	1487.57
530.56	1500.29
530.91	1513.65
531.27	1526.68
531.63	1539.56
531.99	1552.48
532.35	1564.82
532.71	1577.23
533.07	1590.16
533.42	1602.43
533.78	1614.63
534.14	1626.75
534.50	1638.11
534.86	1649.74
535.21	1660.87
535.57	1672.58
535.93	1684.03
536.29	1695.35
536.65	1706.77
537.00	1717.91
537.36	1729.43
537.72	1740.42
538.08	1751.88
538.44	1762.86
538.79	1773.93
539.15	1784.88
539.51	1795.71
539.87	1807.13
540.22	1817.96
540.58	1828.90
540.94	1839.91
541.29	1850.29
541.65	1860.13
542.01	1870.81
542.37	1880.95
542.72	1891.07
543.08	1900.87
543.44	1911.22
543.79	1920.47
544.15	1930.13
544.51	1940.17
544.87	1950.13
545.22	1959.47
545.58	1968.39
545.94	1977.33
546.29	1985.96
546.65	1994.51
547.01	2002.84
547.36	2010.65
547.72	2018.59
548.07	2026.43
548.43	2034.21
548.79	2042.11
549.14	2050.44
549.50	2059.03
549.86	2067.06
550.21	2074.70
550.57	2082.46
550.92	2089.48
551.28	2097.11
551.64	2104.30
551.99	2111.81
552.35	2118.90
552.70	2125.86
553.06	2132.60
553.41	2139.19
553.77	2145.77
554.13	2152.24
554.48	2159.34
554.84	2166.45
555.19	2173.03
555.55	2179.28
555.90	2185.76
556.26	2192.71
556.61	2198.72
556.97	2203.49
557.32	2209.14
557.68	2215.48
558.03	2221.12
558.39	2226.47
558.74	2232.52
559.10	2238.15
559.45	2243.86
559.81	2249.54
560.16	2255.06
560.52	2260.95
560.87	2267.19
561.23	2273.12
561.58	2279.73
561.94	2284.95
562.29	2289.61
562.64	2295.80
563.00	2301.73
563.35	2307.32
563.71	2313.18
564.06	2318.92
564.42	2324.90
564.77	2330.05
565.12	2335.41
565.48	2340.76
565.83	2346.45
566.19	2351.89
566.54	2357.32
566.89	2362.00
567.25	2366.59
567.60	2372.37
567.96	2377.60
568.31	2382.24
568.66	2386.63
569.02	2390.56
569.37	2394.45
569.72	2398.97
570.08	2402.42
570.43	2405.34
570.78	2408.57
571.14	2410.98
571.49	2414.03
571.84	2417.64
572.20	2420.69
572.55	2423.74
572.90	2426.05
573.26	2428.93
573.61	2431.44
573.96	2433.71
574.31	2435.64
574.67	2437.55
575.02	2438.32
575.37	2439.72
575.72	2440.55
576.08	2441.98
576.43	2442.06
576.78	2442.61
577.13	2444.17
577.49	2445.40
577.84	2446.56
578.19	2447.80
578.54	2448.53
578.90	2449.32
579.25	2449.23
579.60	2449.18
579.95	2448.42
580.30	2448.39
580.66	2447.63
581.01	2446.02
581.36	2443.64
581.71	2442.39
582.06	2441.36
582.42	2440.67
582.77	2438.59
583.12	2436.95
583.47	2435.57
583.82	2435.10
584.17	2433.80
584.53	2431.75
584.88	2429.64
585.23	2427.72
585.58	2425.43
585.93	2423.35
586.28	2421.37
586.63	2419.05
586.98	2416.82
587.34	2414.85
587.69	2412.54
588.04	2410.57
588.39	2409.21
588.74	2406.66
589.09	2403.90
589.44	2400.61
589.79	2398.04
590.14	2395.94
590.49	2393.20
590.84	2389.38
591.19	2386.25
591.54	2383.03
591.89	2379.00
592.25	2375.79
592.60	2371.85
592.95	2367.77
593.30	2363.66
593.65	2359.11
594.00	2354.59
594.35	2351.66
594.70	2347.04
595.05	2342.53
595.40	2336.92
595.75	2331.13
596.10	2327.55
596.45	2322.70
596.80	2318.20
597.15	2312.89
597.50	2307.00
597.85	2301.93
598.19	2296.78
598.54	2290.83
598.89	2285.53
599.24	2280.91
599.59	2274.59
599.94	2268.66
600.29	2262.62
600.64	2256.52
600.99	2249.65
601.34	2244.09
601.69	2237.05
602.04	2230.55
602.39	2223.83
602.74	2217.73
603.08	2212.07
603.43	2205.47
603.78	2198.55
604.13	2191.41
604.48	2184.05
604.83	2177.99
605.18	2171.78
605.53	2164.79
605.87	2157.79
606.22	2151.04
606.57	2142.95
606.92	2134.97
607.27	2127.87
607.62	2121.30
607.96	2114.28
608.31	2107.97
608.66	2100.06
609.01	2092.45
609.36	2085.26
609.70	2077.47
610.05	2069.52
610.40	2061.15
610.75	2052.80
611.10	2044.99
611.44	2036.03
611.79	2027.29
612.14	2017.13
612.49	2006.26
612.83	1996.77
613.18	1987.56
613.53	1978.09
613.88	1968.55
614.22	1959.92
614.57	1949.94
614.92	1939.12
615.27	1928.92
615.61	1918.54
615.96	1908.89
616.31	1899.09
616.65	1889.62
617.00	1879.76
617.35	1870.12
617.70	1860.24
618.04	1850.14
618.39	1839.94
618.74	1830.25
619.08	1820.54
619.43	1811.86
619.78	1803.46
620.12	1794.89
620.47	1785.09
620.82	1774.64
621.16	1764.76
621.51	1754.74
621.85	1744.85
622.20	1734.47
622.55	1723.73
622.89	1713.81
623.24	1704.06
623.59	1694.35
623.93	1684.18
624.28	1674.37
624.62	1664.12
624.97	1653.87
625.32	1644.04
625.66	1635.04
626.01	1626.20
626.35	1616.80
626.70	1606.53
627.04	1596.52
627.39	1586.23
627.73	1576.88
628.08	1567.90
628.43	1558.27
628.77	1549.05
629.12	1540.00
629.46	1532.15
629.81	1523.76
630.15	1514.14
630.50	1504.22
630.84	1493.40
631.19	1483.37
631.53	1473.99
631.88	1463.86
632.22	1453.74
632.57	1444.28
632.91	1434.08
633.26	1424.10
633.60	1414.42
633.95	1405.13
634.29	1395.56
634.64	1386.12
634.98	1376.09
635.32	1366.63
635.67	1358.02
636.01	1348.63
636.36	1338.81
636.70	1329.06
637.05	1319.64
637.39	1310.56
637.73	1301.78
638.08	1294.25
638.42	1285.97
638.77	1277.03
639.11	1268.67
639.45	1260.77
639.80	1252.09
640.14	1243.18
640.49	1234.21
640.83	1225.32
641.17	1216.93
641.52	1208.73
641.86	1200.07
642.20	1192.12
642.55	1183.38
642.89	1174.45
643.23	1165.75
643.58	1157.55
643.92	1148.35
644.26	1139.47
644.61	1131.01
644.95	1122.16
645.29	1112.78
645.64	1103.58
645.98	1094.88
646.32	1086.85
646.66	1078.20
647.01	1069.78
647.35	1061.60
647.69	1053.19
648.04	1044.80
648.38	1035.90
648.72	1026.92
649.06	1018.33
649.41	1009.99
649.75	1002.02
650.09	994.10
650.43	985.85
650.78	977.50
651.12	969.79
651.46	962.34
651.80	954.97
652.14	947.60
652.49	939.93
652.83	932.48
653.17	924.80
653.51	917.08
653.85	909.78
654.20	902.47
654.54	894.90
654.88	887.57
655.22	880.19
655.56	873.06
655.90	866.18
656.25	859.48
656.59	852.49
656.93	845.44
657.27	838.20
657.61	831.24
657.95	825.11
658.29	819.13
658.64	812.92
658.98	806.35
659.32	799.72
659.66	793.44
660.00	786.99
660.34	780.89
660.68	774.69
661.02	768.24
661.36	762.12
661.70	756.20
662.05	750.53
662.39	745.03
662.73	739.66
663.07	734.27
663.41	728.54
663.75	722.78
664.09	717.01
664.43	711.43
664.77	706.06
665.11	700.07
665.45	694.08
665.79	688.17
666.13	682.40
666.47	676.80
666.81	671.29
667.15	665.90
667.49	660.59
667.83	655.27
668.17	649.95
668.51	644.78
668.85	639.84
669.19	634.83
669.53	629.76
669.87	624.44
670.21	619.54
670.55	614.83
670.89	610.29
671.23	605.92
671.57	601.51
671.91	597.12
672.25	592.93
672.58	588.76
672.92	584.68
673.26	580.70
673.60	576.74
673.94	572.94
674.28	569.26
674.62	565.46
674.96	561.67
675.30	558.20
675.64	554.47
675.97	550.85
676.31	547.15
676.65	543.47
676.99	540.08
677.33	536.22
677.67	532.49
678.01	528.63
678.34	524.96
678.68	521.31
679.02	517.67
679.36	513.93
679.70	510.27
680.04	506.68
680.37	503.15
680.71	499.85
681.05	496.56
681.39	493.25
681.73	490.08
682.06	487.01
682.40	483.84
682.74	480.65
683.08	477.38
683.42	474.20
683.75	471.15
684.09	468.07
684.43	465.21
684.77	462.24
685.10	459.30
685.44	456.29
685.78	453.40
686.12	450.60
686.45	447.82
686.79	445.07
687.13	442.49
687.46	439.89
687.80	437.20
688.14	434.31
688.48	431.63
688.81	428.89
689.15	426.28
689.49	423.58
689.82	421.02
690.16	418.37
690.50	415.93
690.83	413.42
691.17	410.85
691.51	408.35
691.84	406.05
692.18	403.85
692.52	401.60
692.85	399.48
693.19	397.33
693.52	395.16
693.86	392.94
694.20	390.73
694.53	388.59
694.87	386.32
695.21	384.18
695.54	382.01
695.88	379.80
696.21	377.57
696.55	375.46
696.88	373.35
697.22	371.38
697.56	369.43
697.89	367.52
698.23	365.74
698.56	363.92
698.90	362.15
699.23	360.18
699.57	358.33
699.90	356.44
700.24	354.57
700.58	352.78
700.91	351.11
701.25	349.47
701.58	347.81
701.92	346.22
702.25	344.58
702.59	342.91
702.92	341.36
703.26	339.77
703.59	338.26
703.93	336.99
704.26	335.54
704.60	333.97
704.93	332.44
705.26	330.93
705.60	329.45
705.93	327.89
706.27	326.58
706.60	325.27
706.94	323.96
707.27	322.50
707.61	321.15
707.94	319.72
708.27	318.18
708.61	316.68
708.94	315.27
709.28	313.97
709.61	312.71
709.94	311.51
710.28	310.26
710.61	309.09
710.95	307.62
711.28	306.54
711.61	305.34
711.95	304.21
712.28	303.01
712.61	301.84
712.95	300.78
713.28	299.70
713.61	298.52
713.95	297.37
714.28	296.34
714.61	295.27
714.95	294.27
715.28	293.27
715.61	292.28
715.95	291.34
716.28	290.37
716.61	289.42
716.95	288.41
717.28	287.50
717.61	286.48
717.94	285.60
718.28	284.52
718.61	283.62
718.94	282.70
719.27	281.79
719.61	280.95
719.94	280.05
720.27	279.08
720.60	278.25
720.94	277.42
721.27	276.67
721.60	275.97
721.93	275.21
722.27	274.58
722.60	273.91
722.93	273.15
723.26	272.48
723.59	271.75
723.93	271.11
724.26	270.45
724.59	269.78
724.92	269.16
725.25	268.61
725.59	268.02
725.92	267.47
726.25	266.90
726.58	266.29
726.91	265.69
727.24	265.13
727.57	264.52
727.91	263.93
728.24	263.36
728.57	262.76
728.90	262.22
729.23	261.57
729.56	261.10
729.89	260.56
730.22	259.99
730.55	259.42
730.89	258.89
731.22	258.37
731.55	257.84
731.88	257.34
732.21	256.77
732.54	256.24
732.87	255.75
733.20	255.26
733.53	254.76
733.86	254.32
734.19	253.82
734.52	253.40
734.85	253.13
735.18	252.63
735.51	252.22
735.84	251.80
736.17	251.40
736.50	250.90
736.83	250.75
737.16	250.35
737.49	249.97
737.82	249.53
738.15	249.14
738.48	248.78
738.81	248.33
739.14	247.94
739.47	247.57
739.80	247.22
740.13	246.88
740.46	246.53
740.79	246.13
741.12	245.78
741.45	245.40
741.78	244.94
742.11	244.68
742.44	244.34
742.77	244.02
743.10	243.71
743.43	243.33
743.75	242.74
744.08	242.62
744.41	242.28
744.74	241.95
745.07	241.59
745.40	241.28
745.73	241.09
746.06	240.74
746.39	240.40
746.71	240.02
747.04	239.64
747.37	239.30
747.70	239.02
748.03	238.72
748.36	238.47
748.68	238.11
749.01	237.78
749.34	237.52
749.67	237.22
750.00	236.93
750.33	236.78
750.65	236.53
750.98	236.04
751.31	235.78
751.64	235.54
751.97	235.43
752.29	235.14
752.62	234.76
752.95	234.51
753.28	234.25
753.60	233.98
753.93	233.84
754.26	233.61
754.59	233.34
754.91	233.09
755.24	232.81
755.57	232.60
755.90	232.35
756.22	232.07
756.55	231.84
756.88	231.58
757.20	231.28
757.53	231.04
757.86	230.81
758.19	230.61
758.51	230.39
758.84	230.08
759.17	229.88
759.49	229.69
759.82	229.64
760.15	229.51
760.47	229.36
760.80	229.07
761.13	228.91
761.45	228.70
761.78	228.52
762.11	228.34
762.43	228.15
762.76	227.94
763.08	227.82
763.41	227.64
763.74	227.48
764.06	227.28
764.39	227.11
764.71	226.95
765.04	226.78
765.37	226.62
765.69	226.41
766.02	226.29
766.34	226.17
766.67	225.94
767.00	225.80
767.32	225.70
767.65	225.71
767.97	225.55
768.30	225.45
768.62	225.34
768.95	225.22
769.27	225.12
769.60	225.07
769.92	224.88
770.25	224.71
770.57	224.55
770.90	224.44
771.22	224.27
771.55	224.19
771.87	224.11
772.20	223.98
772.52	224.07
772.85	224.19
773.17	224.08
773.50	223.95
773.82	223.83
774.15	223.70
774.47	223.48
774.80	223.37
775.12	223.28
775.45	223.15
775.77	223.03
776.09	222.95
776.42	222.84
776.74	222.83
777.07	222.74
777.39	222.66
777.72	222.57
778.04	222.53
778.36	222.44
778.69	222.33
779.01	222.28
779.33	222.02
779.66	221.69
779.98	221.62
780.31	221.55
780.63	221.55
780.95	221.48
781.28	221.42
781.60	221.30
781.92	221.21
782.25	221.15
782.57	221.08
782.89	221.02
783.22	220.95
783.54	220.84
783.86	220.78
784.19	220.71
784.51	220.72
784.83	220.64
785.16	220.53
785.48	220.50
785.80	220.42
786.12	220.42
