SpectraSuite Data File
++++++++++++++++++++++++++++++++++++
Date: Tue Jan 29 16:40:50 EST 2013
User: group
Dark Spectrum Present: No
Reference Spectrum Present: No
Number of Sampled Component Spectra: 1
Spectrometers: USB2E7196
Integration Time (usec): 65000 (USB2E7196)
Spectra Averaged: 100 (USB2E7196)
Boxcar Smoothing: 10 (USB2E7196)
Correct for Electrical Dark: No (USB2E7196)
Strobe/Lamp Enabled: No (USB2E7196)
Correct for Detector Non-linearity: No (USB2E7196)
Correct for Stray Light: No (USB2E7196)
Number of Pixels in Processed Spectrum: 2048
>>>>>Begin Processed Spectral Data<<<<<
339.09	0.00
339.48	201.47
339.86	203.31
340.24	204.40
340.63	206.07
341.01	210.13
341.39	208.94
341.78	210.24
342.16	211.01
342.54	211.82
342.93	200.94
343.31	211.10
343.69	211.65
344.07	212.10
344.46	212.57
344.84	212.96
345.22	213.15
345.60	213.38
345.99	213.57
346.37	213.72
346.75	213.82
347.13	213.89
347.52	213.94
347.90	214.10
348.28	214.15
348.66	214.26
349.05	214.20
349.43	214.27
349.81	214.30
350.19	214.39
350.57	214.44
350.96	214.52
351.34	214.64
351.72	214.78
352.10	214.91
352.48	214.98
352.87	215.06
353.25	215.12
353.63	215.21
354.01	215.30
354.39	215.39
354.77	215.48
355.15	215.62
355.54	215.69
355.92	215.69
356.30	215.76
356.68	215.97
357.06	216.05
357.44	216.11
357.82	216.21
358.20	216.29
358.58	216.38
358.97	216.47
359.35	216.56
359.73	216.62
360.11	216.70
360.49	216.78
360.87	216.83
361.25	216.96
361.63	217.09
362.01	217.16
362.39	217.20
362.77	217.30
363.15	217.32
363.53	217.35
363.91	217.42
364.29	217.44
364.67	217.29
365.05	217.35
365.43	217.40
365.81	217.42
366.19	217.54
366.57	217.65
366.95	217.64
367.33	217.59
367.71	217.62
368.09	217.67
368.47	217.64
368.85	217.63
369.23	217.64
369.61	217.54
369.99	217.58
370.37	217.59
370.75	217.67
371.13	217.62
371.51	217.61
371.89	217.59
372.27	217.61
372.65	217.58
373.03	217.54
373.41	217.52
373.78	217.47
374.16	217.36
374.54	217.24
374.92	217.23
375.30	217.19
375.68	217.07
376.06	217.02
376.44	216.96
376.82	216.94
377.19	216.89
377.57	216.86
377.95	216.78
378.33	216.72
378.71	216.54
379.09	216.54
379.47	216.52
379.84	216.43
380.22	216.35
380.60	216.25
380.98	216.19
381.36	216.12
381.73	216.03
382.11	215.97
382.49	215.91
382.87	215.80
383.25	215.75
383.62	215.96
384.00	215.88
384.38	215.87
384.76	215.86
385.13	215.87
385.51	215.83
385.89	215.74
386.27	215.71
386.64	215.70
387.02	215.61
387.40	215.56
387.78	215.53
388.15	215.49
388.53	215.47
388.91	215.44
389.29	215.41
389.66	215.41
390.04	215.40
390.42	215.42
390.79	215.45
391.17	215.41
391.55	215.19
391.92	215.16
392.30	215.15
392.68	215.11
393.05	215.07
393.43	215.04
393.81	215.06
394.18	215.03
394.56	215.04
394.94	215.12
395.31	215.07
395.69	215.17
396.06	215.24
396.44	215.30
396.82	215.33
397.19	215.44
397.57	215.47
397.95	215.48
398.32	215.45
398.70	215.49
399.07	215.59
399.45	215.62
399.82	215.66
400.20	215.70
400.58	215.71
400.95	215.68
401.33	215.81
401.70	216.03
402.08	216.13
402.45	216.20
402.83	216.30
403.20	216.45
403.58	216.49
403.95	216.63
404.33	216.75
404.71	216.86
405.08	217.08
405.46	217.25
405.83	217.47
406.21	217.67
406.58	217.92
406.96	218.14
407.33	218.41
407.70	218.72
408.08	219.16
408.45	219.56
408.83	219.97
409.20	220.29
409.58	220.56
409.95	221.02
410.33	221.51
410.70	221.96
411.08	222.48
411.45	223.09
411.82	223.64
412.20	224.31
412.57	225.13
412.95	225.72
413.32	226.58
413.69	227.42
414.07	228.34
414.44	229.30
414.82	230.33
415.19	231.49
415.56	232.69
415.94	233.91
416.31	235.30
416.68	236.75
417.06	238.41
417.43	239.99
417.81	241.72
418.18	243.51
418.55	245.45
418.93	247.49
419.30	249.57
419.67	251.80
420.04	254.09
420.42	256.51
420.79	259.36
421.16	262.13
421.54	265.07
421.91	268.07
422.28	271.21
422.66	274.52
423.03	277.80
423.40	281.15
423.77	284.74
424.15	288.46
424.52	292.28
424.89	296.45
425.26	300.52
425.64	304.40
426.01	308.71
426.38	313.22
426.75	317.81
427.13	322.59
427.50	327.63
427.87	332.87
428.24	338.05
428.61	343.01
428.99	348.60
429.36	354.60
429.73	360.46
430.10	366.37
430.47	372.39
430.85	378.70
431.22	385.51
431.59	392.66
431.96	399.49
432.33	406.99
432.70	414.21
433.08	422.76
433.45	430.90
433.82	438.86
434.19	447.85
434.56	456.55
434.93	464.90
435.30	473.19
435.68	482.36
436.05	491.40
436.42	500.42
436.79	508.59
437.16	517.36
437.53	526.74
437.90	535.88
438.27	544.89
438.64	554.11
439.01	562.62
439.38	570.22
439.75	577.54
440.13	586.03
440.50	594.05
440.87	600.48
441.24	607.10
441.61	614.56
441.98	619.92
442.35	626.24
442.72	632.60
443.09	638.69
443.46	642.40
443.83	644.98
444.20	647.16
444.57	650.26
444.94	651.72
445.31	653.15
445.68	654.53
446.05	655.14
446.42	654.47
446.79	653.51
447.16	652.44
447.53	651.70
447.90	648.31
448.27	645.04
448.64	640.39
449.01	637.10
449.37	631.12
449.74	625.42
450.11	618.58
450.48	611.22
450.85	603.73
451.22	597.25
451.59	591.04
451.96	585.18
452.33	577.31
452.70	570.23
453.07	561.69
453.43	553.08
453.80	544.79
454.17	536.69
454.54	529.08
454.91	520.89
455.28	512.86
455.65	505.46
456.02	497.92
456.38	491.54
456.75	483.64
457.12	477.06
457.49	470.48
457.86	464.19
458.23	458.70
458.59	452.71
458.96	446.69
459.33	441.37
459.70	435.94
460.07	431.72
460.43	426.81
460.80	422.27
461.17	418.26
461.54	414.05
461.91	410.06
462.27	405.94
462.64	402.45
463.01	398.62
463.38	394.89
463.74	391.18
464.11	387.98
464.48	385.15
464.85	382.06
465.21	379.63
465.58	377.00
465.95	373.86
466.32	371.22
466.68	368.59
467.05	365.97
467.42	363.42
467.78	360.68
468.15	358.11
468.52	356.17
468.88	353.63
469.25	351.38
469.62	349.56
469.98	347.62
470.35	345.83
470.72	344.19
471.08	342.37
471.45	340.81
471.82	339.23
472.18	337.54
472.55	336.34
472.92	334.93
473.28	333.68
473.65	332.51
474.02	331.45
474.38	330.60
474.75	329.83
475.11	329.03
475.48	328.45
475.85	327.95
476.21	327.44
476.58	327.11
476.94	326.88
477.31	326.54
477.67	326.26
478.04	326.05
478.41	325.98
478.77	326.15
479.14	326.10
479.50	326.21
479.87	326.49
480.23	326.83
480.60	327.06
480.96	327.36
481.33	327.94
481.69	328.45
482.06	328.91
482.42	329.42
482.79	329.97
483.15	330.75
483.52	331.69
483.88	332.56
484.25	333.51
484.61	334.52
484.98	335.59
485.34	336.90
485.71	338.32
486.07	339.73
486.44	341.05
486.80	342.66
487.17	344.38
487.53	346.18
487.90	348.02
488.26	350.05
488.62	352.19
488.99	354.26
489.35	356.47
489.72	358.92
490.08	361.41
490.44	364.02
490.81	366.68
491.17	369.38
491.54	372.36
491.90	375.44
492.26	378.67
492.63	382.08
492.99	385.58
493.36	389.21
493.72	393.08
494.08	397.11
494.45	401.32
494.81	405.65
495.17	410.08
495.54	414.77
495.90	419.60
496.26	424.55
496.63	429.75
496.99	435.18
497.35	440.70
497.72	446.51
498.08	452.43
498.44	458.57
498.80	465.01
499.17	471.55
499.53	478.19
499.89	485.15
500.26	492.14
500.62	499.17
500.98	506.62
501.34	514.15
501.71	521.96
502.07	529.83
502.43	537.86
502.79	546.08
503.16	554.47
503.52	562.99
503.88	571.72
504.24	580.71
504.60	589.75
504.97	599.02
505.33	608.36
505.69	618.23
506.05	628.09
506.41	637.93
506.78	647.97
507.14	658.33
507.50	668.68
507.86	679.42
508.22	690.29
508.59	700.98
508.95	712.07
509.31	723.21
509.67	734.66
510.03	746.01
510.39	757.80
510.75	769.69
511.12	781.75
511.48	793.88
511.84	806.13
512.20	818.46
512.56	831.16
512.92	843.99
513.28	856.69
513.64	869.63
514.00	882.62
514.37	895.69
514.73	908.73
515.09	921.75
515.45	934.72
515.81	947.81
516.17	961.25
516.53	974.51
516.89	987.78
517.25	1001.05
517.61	1014.79
517.97	1028.13
518.33	1041.32
518.69	1054.89
519.05	1068.75
519.41	1082.50
519.77	1096.42
520.13	1109.77
520.49	1122.98
520.85	1136.47
521.21	1149.78
521.57	1163.55
521.93	1176.65
522.29	1190.49
522.65	1204.33
523.01	1218.04
523.37	1231.29
523.73	1244.62
524.09	1257.92
524.45	1271.35
524.81	1285.03
525.17	1298.36
525.53	1311.75
525.89	1325.15
526.25	1338.41
526.61	1351.38
526.97	1364.67
527.33	1377.76
527.68	1391.32
528.04	1404.87
528.40	1417.99
528.76	1431.43
529.12	1444.33
529.48	1457.75
529.84	1470.20
530.20	1483.04
530.56	1495.73
530.91	1509.10
531.27	1522.12
531.63	1535.00
531.99	1547.90
532.35	1560.17
532.71	1572.66
533.07	1585.69
533.42	1598.05
533.78	1610.25
534.14	1622.37
534.50	1633.63
534.86	1645.42
535.21	1656.45
535.57	1668.21
535.93	1679.66
536.29	1690.93
536.65	1702.48
537.00	1713.64
537.36	1725.21
537.72	1736.30
538.08	1747.70
538.44	1758.75
538.79	1769.89
539.15	1780.95
539.51	1791.97
539.87	1803.32
540.22	1814.40
540.58	1825.43
540.94	1836.54
541.29	1846.94
541.65	1856.78
542.01	1867.36
542.37	1877.46
542.72	1887.65
543.08	1897.34
543.44	1907.93
543.79	1917.28
544.15	1926.89
544.51	1936.73
544.87	1946.63
545.22	1955.95
545.58	1964.90
545.94	1973.89
546.29	1982.55
546.65	1991.02
547.01	1999.11
547.36	2006.90
547.72	2014.63
548.07	2022.20
548.43	2030.04
548.79	2037.89
549.14	2046.20
549.50	2054.68
549.86	2062.64
550.21	2070.17
550.57	2078.10
550.92	2084.74
551.28	2092.35
551.64	2099.71
551.99	2107.42
552.35	2114.60
552.70	2121.53
553.06	2128.31
553.41	2134.57
553.77	2141.18
554.13	2147.43
554.48	2154.56
554.84	2161.75
555.19	2168.43
555.55	2174.90
555.90	2181.05
556.26	2188.02
556.61	2194.00
556.97	2198.89
557.32	2204.71
557.68	2211.14
558.03	2216.81
558.39	2222.36
558.74	2228.33
559.10	2233.71
559.45	2239.29
559.81	2244.92
560.16	2250.36
560.52	2256.23
560.87	2262.72
561.23	2268.58
561.58	2275.27
561.94	2280.60
562.29	2285.18
562.64	2291.12
563.00	2296.85
563.35	2302.41
563.71	2308.04
564.06	2313.74
564.42	2319.76
564.77	2324.86
565.12	2330.05
565.48	2335.11
565.83	2340.56
566.19	2345.82
566.54	2351.32
566.89	2355.90
567.25	2360.34
567.60	2366.10
567.96	2371.30
568.31	2375.79
568.66	2380.05
569.02	2383.80
569.37	2387.37
569.72	2391.81
570.08	2395.17
570.43	2398.07
570.78	2401.21
571.14	2403.74
571.49	2406.79
571.84	2410.18
572.20	2412.95
572.55	2415.94
572.90	2418.26
573.26	2421.03
573.61	2423.51
573.96	2425.58
574.31	2427.47
574.67	2429.28
575.02	2429.89
575.37	2431.15
575.72	2431.76
576.08	2432.99
576.43	2433.11
576.78	2433.55
577.13	2435.01
577.49	2436.09
577.84	2437.15
578.19	2438.30
578.54	2438.89
578.90	2439.46
579.25	2439.23
579.60	2439.03
579.95	2438.13
580.30	2438.08
580.66	2437.31
581.01	2435.67
581.36	2433.12
581.71	2431.61
582.06	2430.32
582.42	2429.39
582.77	2427.09
583.12	2425.24
583.47	2423.80
583.82	2423.16
584.17	2421.66
584.53	2419.49
584.88	2417.37
585.23	2415.25
585.58	2412.81
585.93	2410.52
586.28	2408.29
586.63	2405.68
586.98	2403.31
587.34	2401.14
587.69	2398.57
588.04	2396.19
588.39	2394.52
588.74	2391.89
589.09	2389.01
589.44	2385.77
589.79	2383.22
590.14	2381.13
590.49	2378.33
590.84	2374.41
591.19	2371.12
591.54	2367.90
591.89	2363.67
592.25	2360.29
592.60	2356.00
592.95	2351.73
593.30	2347.45
593.65	2342.89
594.00	2338.47
594.35	2335.45
594.70	2330.82
595.05	2326.23
595.40	2320.87
595.75	2314.91
596.10	2311.22
596.45	2306.24
596.80	2301.55
597.15	2296.13
597.50	2290.04
597.85	2284.85
598.19	2279.52
598.54	2273.66
598.89	2268.37
599.24	2263.68
599.59	2257.42
599.94	2251.56
600.29	2245.64
600.64	2239.74
600.99	2232.81
601.34	2227.29
601.69	2220.26
602.04	2213.70
602.39	2206.97
602.74	2200.71
603.08	2195.34
603.43	2188.65
603.78	2181.89
604.13	2174.73
604.48	2167.39
604.83	2161.27
605.18	2155.10
605.53	2148.24
605.87	2141.16
606.22	2134.22
606.57	2126.27
606.92	2118.28
607.27	2111.30
607.62	2104.56
607.96	2097.46
608.31	2091.11
608.66	2083.23
609.01	2075.50
609.36	2068.46
609.70	2060.62
610.05	2052.95
610.40	2044.46
610.75	2036.25
611.10	2028.47
611.44	2019.61
611.79	2011.03
612.14	2001.01
612.49	1990.35
612.83	1980.97
613.18	1971.53
613.53	1962.32
613.88	1952.76
614.22	1944.21
614.57	1934.34
614.92	1923.73
615.27	1913.39
615.61	1903.26
615.96	1893.53
616.31	1883.82
616.65	1874.27
617.00	1864.69
617.35	1855.01
617.70	1845.36
618.04	1835.50
618.39	1825.25
618.74	1815.66
619.08	1805.97
619.43	1797.29
619.78	1789.12
620.12	1780.52
620.47	1771.10
620.82	1760.78
621.16	1751.06
621.51	1741.21
621.85	1731.39
622.20	1721.08
622.55	1710.67
622.89	1700.77
623.24	1691.16
623.59	1681.49
623.93	1671.47
624.28	1661.58
624.62	1651.42
624.97	1641.18
625.32	1631.27
625.66	1622.48
626.01	1613.68
626.35	1604.42
626.70	1594.38
627.04	1584.18
627.39	1574.10
627.73	1564.98
628.08	1556.10
628.43	1546.60
628.77	1537.39
629.12	1528.63
629.46	1520.89
629.81	1512.55
630.15	1503.02
630.50	1493.26
630.84	1482.84
631.19	1472.96
631.53	1463.73
631.88	1453.57
632.22	1443.54
632.57	1434.24
632.91	1424.18
633.26	1414.35
633.60	1404.78
633.95	1395.65
634.29	1386.26
634.64	1376.87
634.98	1366.73
635.32	1357.42
635.67	1348.84
636.01	1339.56
636.36	1329.75
636.70	1320.20
637.05	1310.92
637.39	1302.09
637.73	1293.50
638.08	1285.95
638.42	1277.86
638.77	1269.14
639.11	1260.99
639.45	1253.22
639.80	1244.74
640.14	1236.01
640.49	1227.18
640.83	1218.42
641.17	1210.20
641.52	1202.21
641.86	1193.67
642.20	1185.98
642.55	1177.37
642.89	1168.57
643.23	1159.94
643.58	1151.88
643.92	1142.86
644.26	1134.15
644.61	1125.74
644.95	1116.98
645.29	1107.85
645.64	1098.71
645.98	1090.18
646.32	1082.29
646.66	1073.70
647.01	1065.30
647.35	1057.21
647.69	1048.88
648.04	1040.51
648.38	1031.73
648.72	1022.81
649.06	1014.37
649.41	1006.08
649.75	998.10
650.09	990.21
650.43	982.12
650.78	973.80
651.12	966.11
651.46	958.63
651.80	951.31
652.14	944.01
652.49	936.44
652.83	929.03
653.17	921.32
653.51	913.63
653.85	906.46
654.20	899.26
654.54	891.83
654.88	884.57
655.22	877.39
655.56	870.26
655.90	863.48
656.25	856.82
656.59	849.96
656.93	843.00
657.27	835.85
657.61	828.89
657.95	822.78
658.29	816.84
658.64	810.72
658.98	804.26
659.32	797.64
659.66	791.39
660.00	785.12
660.34	779.03
660.68	772.90
661.02	766.50
661.36	760.48
661.70	754.61
662.05	748.96
662.39	743.42
662.73	738.12
663.07	732.74
663.41	727.13
663.75	721.42
664.09	715.68
664.43	710.29
664.77	704.99
665.11	699.10
665.45	693.17
665.79	687.38
666.13	681.66
666.47	676.17
666.81	670.68
667.15	665.22
667.49	660.06
667.83	654.76
668.17	649.50
668.51	644.42
668.85	639.39
669.19	634.49
669.53	629.46
669.87	624.22
670.21	619.39
670.55	614.66
670.89	610.18
671.23	605.80
671.57	601.32
671.91	597.00
672.25	592.90
672.58	588.76
672.92	584.64
673.26	580.69
673.60	576.81
673.94	572.96
674.28	569.32
674.62	565.52
674.96	561.77
675.30	558.20
675.64	554.47
675.97	550.98
676.31	547.32
676.65	543.68
676.99	540.27
677.33	536.40
677.67	532.69
678.01	528.79
678.34	525.17
678.68	521.62
679.02	517.92
679.36	514.10
679.70	510.40
680.04	506.83
680.37	503.29
680.71	499.89
681.05	496.66
681.39	493.38
681.73	490.20
682.06	487.16
682.40	484.07
682.74	480.88
683.08	477.58
683.42	474.36
683.75	471.32
684.09	468.22
684.43	465.37
684.77	462.48
685.10	459.62
685.44	456.65
685.78	453.71
686.12	450.91
686.45	448.23
686.79	445.55
687.13	442.91
687.46	440.27
687.80	437.56
688.14	434.71
688.48	432.01
688.81	429.29
689.15	426.70
689.49	424.07
689.82	421.50
690.16	418.90
690.50	416.43
690.83	413.93
691.17	411.32
691.51	408.83
691.84	406.50
692.18	404.21
692.52	402.01
692.85	399.81
693.19	397.69
693.52	395.47
693.86	393.20
694.20	391.02
694.53	388.84
694.87	386.62
695.21	384.45
695.54	382.26
695.88	380.06
696.21	377.76
696.55	375.58
696.88	373.49
697.22	371.45
697.56	369.50
697.89	367.55
698.23	365.79
698.56	363.93
698.90	362.09
699.23	360.22
699.57	358.33
699.90	356.46
700.24	354.60
700.58	352.82
700.91	351.16
701.25	349.55
701.58	347.95
701.92	346.31
702.25	344.64
702.59	343.00
702.92	341.44
703.26	339.89
703.59	338.39
703.93	337.12
704.26	335.67
704.60	334.18
704.93	332.72
705.26	331.19
705.60	329.73
705.93	328.15
706.27	326.77
706.60	325.45
706.94	324.21
707.27	322.80
707.61	321.43
707.94	320.08
708.27	318.54
708.61	317.06
708.94	315.70
709.28	314.43
709.61	313.20
709.94	311.97
710.28	310.76
710.61	309.55
710.95	308.06
711.28	306.97
711.61	305.74
711.95	304.56
712.28	303.36
712.61	302.21
712.95	301.17
713.28	300.09
713.61	298.93
713.95	297.74
714.28	296.72
714.61	295.63
714.95	294.60
715.28	293.58
715.61	292.55
715.95	291.59
716.28	290.60
716.61	289.60
716.95	288.58
717.28	287.61
717.61	286.63
717.94	285.73
718.28	284.66
718.61	283.75
718.94	282.80
719.27	281.93
719.61	281.04
719.94	280.17
720.27	279.22
720.60	278.35
720.94	277.52
721.27	276.73
721.60	276.02
721.93	275.26
722.27	274.64
722.60	274.01
722.93	273.25
723.26	272.60
723.59	271.87
723.93	271.25
724.26	270.61
724.59	269.92
724.92	269.30
725.25	268.76
725.59	268.16
725.92	267.64
726.25	267.04
726.58	266.48
726.91	265.84
727.24	265.26
727.57	264.66
727.91	264.03
728.24	263.46
728.57	262.85
728.90	262.30
729.23	261.64
729.56	261.14
729.89	260.61
730.22	260.03
730.55	259.45
730.89	258.91
731.22	258.34
731.55	257.85
731.88	257.30
732.21	256.72
732.54	256.18
732.87	255.65
733.20	255.20
733.53	254.71
733.86	254.26
734.19	253.77
734.52	253.36
734.85	253.07
735.18	252.57
735.51	252.22
735.84	251.75
736.17	251.37
736.50	250.81
736.83	250.65
737.16	250.27
737.49	249.92
737.82	249.48
738.15	249.11
738.48	248.76
738.81	248.38
739.14	247.99
739.47	247.58
739.80	247.19
740.13	246.82
740.46	246.39
740.79	246.00
741.12	245.65
741.45	245.26
741.78	244.79
742.11	244.55
742.44	244.14
742.77	243.84
743.10	243.48
743.43	243.11
743.75	242.54
744.08	242.44
744.41	242.06
744.74	241.71
745.07	241.37
745.40	241.01
745.73	240.80
746.06	240.45
746.39	240.17
746.71	239.84
747.04	239.46
747.37	239.16
747.70	238.88
748.03	238.59
748.36	238.28
748.68	237.98
749.01	237.58
749.34	237.29
749.67	236.97
750.00	236.69
750.33	236.58
750.65	236.31
750.98	235.78
751.31	235.54
751.64	235.32
751.97	235.18
752.29	234.91
752.62	234.53
752.95	234.29
753.28	234.03
753.60	233.77
753.93	233.64
754.26	233.40
754.59	233.15
754.91	232.89
755.24	232.66
755.57	232.44
755.90	232.23
756.22	231.97
756.55	231.78
756.88	231.55
757.20	231.19
757.53	230.92
757.86	230.75
758.19	230.54
758.51	230.32
758.84	230.00
759.17	229.78
759.49	229.56
759.82	229.47
760.15	229.31
760.47	229.12
760.80	228.83
761.13	228.71
761.45	228.50
761.78	228.32
762.11	228.13
762.43	227.91
762.76	227.69
763.08	227.57
763.41	227.35
763.74	227.17
764.06	227.02
764.39	226.87
764.71	226.68
765.04	226.50
765.37	226.33
765.69	226.14
766.02	226.01
766.34	225.88
766.67	225.66
767.00	225.53
767.32	225.51
767.65	225.53
767.97	225.36
768.30	225.23
768.62	225.10
768.95	224.96
769.27	224.87
769.60	224.83
769.92	224.66
770.25	224.53
770.57	224.38
770.90	224.22
771.22	224.09
771.55	223.98
771.87	223.87
772.20	223.75
772.52	223.84
772.85	223.96
773.17	223.85
773.50	223.72
773.82	223.60
774.15	223.37
774.47	223.12
774.80	222.99
775.12	222.92
775.45	222.81
775.77	222.73
776.09	222.62
776.42	222.51
776.74	222.48
777.07	222.39
777.39	222.30
777.72	222.22
778.04	222.15
778.36	222.05
778.69	221.98
779.01	221.92
779.33	221.67
779.66	221.37
779.98	221.28
780.31	221.22
780.63	221.21
780.95	221.18
781.28	221.12
781.60	221.05
781.92	220.95
782.25	220.90
782.57	220.83
782.89	220.76
783.22	220.70
783.54	220.60
783.86	220.55
784.19	220.49
784.51	220.51
784.83	220.42
785.16	220.36
785.48	220.32
785.80	220.26
786.12	220.22
