SpectraSuite Data File
++++++++++++++++++++++++++++++++++++
Date: Tue Jan 29 16:12:17 EST 2013
User: group
Dark Spectrum Present: No
Reference Spectrum Present: No
Number of Sampled Component Spectra: 1
Spectrometers: USB2E7196
Integration Time (usec): 65000 (USB2E7196)
Spectra Averaged: 100 (USB2E7196)
Boxcar Smoothing: 10 (USB2E7196)
Correct for Electrical Dark: No (USB2E7196)
Strobe/Lamp Enabled: No (USB2E7196)
Correct for Detector Non-linearity: No (USB2E7196)
Correct for Stray Light: No (USB2E7196)
Number of Pixels in Processed Spectrum: 2048
>>>>>Begin Processed Spectral Data<<<<<
339.09	0.00
339.48	202.52
339.86	204.19
340.24	205.72
340.63	206.76
341.01	210.99
341.39	209.38
341.78	211.12
342.16	212.72
342.54	212.77
342.93	201.77
343.31	211.94
343.69	212.49
344.07	212.92
344.46	213.36
344.84	213.75
345.22	213.92
345.60	214.19
345.99	214.39
346.37	214.50
346.75	214.61
347.13	214.70
347.52	214.75
347.90	214.85
348.28	214.88
348.66	215.01
349.05	214.97
349.43	215.04
349.81	215.12
350.19	215.20
350.57	215.27
350.96	215.34
351.34	215.49
351.72	215.60
352.10	215.73
352.48	215.77
352.87	215.84
353.25	215.94
353.63	215.98
354.01	216.05
354.39	216.11
354.77	216.18
355.15	216.32
355.54	216.39
355.92	216.40
356.30	216.47
356.68	216.63
357.06	216.71
357.44	216.74
357.82	216.80
358.20	216.85
358.58	216.91
358.97	216.98
359.35	217.05
359.73	217.15
360.11	217.22
360.49	217.29
360.87	217.32
361.25	217.38
361.63	217.53
362.01	217.59
362.39	217.62
362.77	217.68
363.15	217.68
363.53	217.71
363.91	217.75
364.29	217.80
364.67	217.65
365.05	217.71
365.43	217.72
365.81	217.78
366.19	217.87
366.57	217.97
366.95	217.93
367.33	217.88
367.71	217.84
368.09	217.83
368.47	217.84
368.85	217.87
369.23	217.90
369.61	217.85
369.99	217.92
370.37	217.95
370.75	218.05
371.13	218.01
371.51	217.99
371.89	218.00
372.27	217.97
372.65	217.96
373.03	217.90
373.41	217.85
373.78	217.77
374.16	217.66
374.54	217.55
374.92	217.54
375.30	217.48
375.68	217.45
376.06	217.45
376.44	217.39
376.82	217.36
377.19	217.27
377.57	217.18
377.95	217.04
378.33	216.99
378.71	216.80
379.09	216.76
379.47	216.73
379.84	216.64
380.22	216.57
380.60	216.46
380.98	216.42
381.36	216.35
381.73	216.30
382.11	216.31
382.49	216.25
382.87	216.21
383.25	216.18
383.62	216.32
384.00	216.24
384.38	216.18
384.76	216.16
385.13	216.20
385.51	216.17
385.89	216.09
386.27	216.05
386.64	216.05
387.02	216.02
387.40	215.97
387.78	215.98
388.15	215.97
388.53	215.94
388.91	215.91
389.29	215.95
389.66	215.98
390.04	215.90
390.42	215.94
390.79	215.94
391.17	215.91
391.55	215.71
391.92	215.68
392.30	215.70
392.68	215.65
393.05	215.61
393.43	215.60
393.81	215.60
394.18	215.55
394.56	215.52
394.94	215.54
395.31	215.55
395.69	215.58
396.06	215.61
396.44	215.66
396.82	215.65
397.19	215.74
397.57	215.73
397.95	215.82
398.32	215.76
398.70	215.75
399.07	215.86
399.45	215.88
399.82	215.96
400.20	216.01
400.58	216.07
400.95	216.08
401.33	216.18
401.70	216.42
402.08	216.54
402.45	216.65
402.83	216.79
403.20	216.90
403.58	216.98
403.95	217.14
404.33	217.30
404.71	217.47
405.08	217.72
405.46	217.89
405.83	218.06
406.21	218.27
406.58	218.56
406.96	218.75
407.33	219.01
407.70	219.29
408.08	219.75
408.45	220.09
408.83	220.46
409.20	220.79
409.58	221.06
409.95	221.49
410.33	221.93
410.70	222.34
411.08	222.88
411.45	223.45
411.82	223.98
412.20	224.63
412.57	225.45
412.95	225.99
413.32	226.77
413.69	227.60
414.07	228.46
414.44	229.35
414.82	230.36
415.19	231.50
415.56	232.66
415.94	233.78
416.31	235.16
416.68	236.51
417.06	238.05
417.43	239.56
417.81	241.25
418.18	243.02
418.55	244.89
418.93	246.86
419.30	248.91
419.67	251.05
420.04	253.29
420.42	255.57
420.79	258.29
421.16	260.99
421.54	263.73
421.91	266.67
422.28	269.68
422.66	272.86
423.03	276.00
423.40	279.26
423.77	282.72
424.15	286.21
424.52	289.92
424.89	293.98
425.26	297.88
425.64	301.63
426.01	305.73
426.38	310.08
426.75	314.48
427.13	319.00
427.50	323.80
427.87	328.82
428.24	333.85
428.61	338.66
428.99	344.02
429.36	349.87
429.73	355.56
430.10	361.24
430.47	367.05
430.85	373.13
431.22	379.57
431.59	386.51
431.96	393.14
432.33	400.34
432.70	407.33
433.08	415.55
433.45	423.38
433.82	431.12
434.19	439.67
434.56	448.04
434.93	456.09
435.30	464.12
435.68	472.89
436.05	481.58
436.42	490.19
436.79	498.03
437.16	506.52
437.53	515.44
437.90	524.25
438.27	532.96
438.64	541.90
439.01	550.15
439.38	557.43
439.75	564.52
440.13	572.81
440.50	580.51
440.87	586.69
441.24	593.07
441.61	600.16
441.98	605.35
442.35	611.48
442.72	617.53
443.09	623.37
443.46	627.01
443.83	629.42
444.20	631.58
444.57	634.54
444.94	635.94
445.31	637.32
445.68	638.69
446.05	639.26
446.42	638.49
446.79	637.57
447.16	636.54
447.53	635.79
447.90	632.44
448.27	629.20
448.64	624.70
449.01	621.47
449.37	615.76
449.74	610.31
450.11	603.63
450.48	596.52
450.85	589.28
451.22	582.97
451.59	577.00
451.96	571.32
452.33	563.85
452.70	556.95
453.07	548.77
453.43	540.48
453.80	532.54
454.17	524.82
454.54	517.51
454.91	509.58
455.28	501.92
455.65	494.77
456.02	487.57
456.38	481.52
456.75	473.98
457.12	467.65
457.49	461.39
457.86	455.46
458.23	450.34
458.59	444.62
458.96	438.92
459.33	433.86
459.70	428.66
460.07	424.54
460.43	419.83
460.80	415.42
461.17	411.58
461.54	407.53
461.91	403.65
462.27	399.72
462.64	396.46
463.01	392.78
463.38	389.22
463.74	385.68
464.11	382.58
464.48	379.89
464.85	376.95
465.21	374.56
465.58	372.04
465.95	369.01
466.32	366.52
466.68	364.01
467.05	361.51
467.42	359.08
467.78	356.48
468.15	354.07
468.52	352.26
468.88	349.84
469.25	347.69
469.62	345.97
469.98	344.08
470.35	342.34
470.72	340.69
471.08	339.04
471.45	337.60
471.82	336.09
472.18	334.44
472.55	333.30
472.92	332.00
473.28	330.83
473.65	329.71
474.02	328.71
474.38	327.83
474.75	327.13
475.11	326.35
475.48	325.80
475.85	325.33
476.21	324.86
476.58	324.53
476.94	324.35
477.31	324.11
477.67	323.92
478.04	323.81
478.41	323.81
478.77	323.92
479.14	323.88
479.50	324.05
479.87	324.37
480.23	324.68
480.60	324.92
480.96	325.19
481.33	325.82
481.69	326.36
482.06	326.91
482.42	327.42
482.79	328.02
483.15	328.83
483.52	329.80
483.88	330.70
484.25	331.68
484.61	332.65
484.98	333.71
485.34	334.95
485.71	336.30
486.07	337.74
486.44	339.08
486.80	340.74
487.17	342.43
487.53	344.23
487.90	346.08
488.26	348.09
488.62	350.26
488.99	352.35
489.35	354.53
489.72	356.90
490.08	359.42
490.44	362.02
490.81	364.71
491.17	367.40
491.54	370.38
491.90	373.35
492.26	376.58
492.63	379.95
492.99	383.42
493.36	387.07
493.72	390.91
494.08	394.93
494.45	399.10
494.81	403.42
495.17	407.89
495.54	412.58
495.90	417.37
496.26	422.29
496.63	427.40
496.99	432.76
497.35	438.35
497.72	444.15
498.08	450.06
498.44	456.08
498.80	462.53
499.17	468.95
499.53	475.65
499.89	482.54
500.26	489.54
500.62	496.63
500.98	503.95
501.34	511.43
501.71	519.10
502.07	526.88
502.43	534.88
502.79	542.94
503.16	551.32
503.52	559.90
503.88	568.57
504.24	577.52
504.60	586.57
504.97	595.71
505.33	604.96
505.69	614.81
506.05	624.71
506.41	634.47
506.78	644.45
507.14	654.67
507.50	665.07
507.86	675.63
508.22	686.34
508.59	697.08
508.95	708.04
509.31	719.22
509.67	730.55
510.03	741.88
510.39	753.50
510.75	765.23
511.12	777.14
511.48	789.20
511.84	801.34
512.20	813.50
512.56	826.08
512.92	838.75
513.28	851.17
513.64	863.75
514.00	876.46
514.37	889.36
514.73	902.29
515.09	915.09
515.45	927.91
515.81	940.81
516.17	953.97
516.53	967.07
516.89	980.00
517.25	993.03
517.61	1006.34
517.97	1019.66
518.33	1032.63
518.69	1045.87
519.05	1059.27
519.41	1072.70
519.77	1086.38
520.13	1099.39
520.49	1112.32
520.85	1125.54
521.21	1138.61
521.57	1152.12
521.93	1165.03
522.29	1178.59
522.65	1192.02
523.01	1205.37
523.37	1218.32
523.73	1231.28
524.09	1244.15
524.45	1257.35
524.81	1270.56
525.17	1283.65
525.53	1296.50
525.89	1309.51
526.25	1322.38
526.61	1335.00
526.97	1347.88
527.33	1360.48
527.68	1373.69
528.04	1386.90
528.40	1399.62
528.76	1412.76
529.12	1425.18
529.48	1438.21
529.84	1450.12
530.20	1462.54
530.56	1474.69
530.91	1487.70
531.27	1500.23
531.63	1512.78
531.99	1525.18
532.35	1537.06
532.71	1549.21
533.07	1561.71
533.42	1573.69
533.78	1585.53
534.14	1597.35
534.50	1608.26
534.86	1619.61
535.21	1630.14
535.57	1641.19
535.93	1652.32
536.29	1663.03
536.65	1674.24
537.00	1684.86
537.36	1695.85
537.72	1706.65
538.08	1717.94
538.44	1728.58
538.79	1739.35
539.15	1749.82
539.51	1760.22
539.87	1771.31
540.22	1781.66
540.58	1792.20
540.94	1802.74
541.29	1812.60
541.65	1821.99
542.01	1832.15
542.37	1841.84
542.72	1851.70
543.08	1861.24
543.44	1871.22
543.79	1880.32
544.15	1889.44
544.51	1899.14
544.87	1908.68
545.22	1917.50
545.58	1926.09
545.94	1934.60
546.29	1942.78
546.65	1950.81
547.01	1958.90
547.36	1966.25
547.72	1973.82
548.07	1981.19
548.43	1988.78
548.79	1996.36
549.14	2004.28
549.50	2012.43
549.86	2019.99
550.21	2027.24
550.57	2034.71
550.92	2041.45
551.28	2048.80
551.64	2055.93
551.99	2063.09
552.35	2070.20
552.70	2076.92
553.06	2083.21
553.41	2089.30
553.77	2095.81
554.13	2102.05
554.48	2108.85
554.84	2115.79
555.19	2122.14
555.55	2128.52
555.90	2134.53
556.26	2141.23
556.61	2147.13
556.97	2151.90
557.32	2157.74
557.68	2163.98
558.03	2169.71
558.39	2174.85
558.74	2180.69
559.10	2186.23
559.45	2191.88
559.81	2197.19
560.16	2202.65
560.52	2208.53
560.87	2214.95
561.23	2220.80
561.58	2227.50
561.94	2232.63
562.29	2237.38
562.64	2243.64
563.00	2249.26
563.35	2254.90
563.71	2260.72
564.06	2266.36
564.42	2272.26
564.77	2277.41
565.12	2282.62
565.48	2287.85
565.83	2293.46
566.19	2298.94
566.54	2304.27
566.89	2308.84
567.25	2313.52
567.60	2319.19
567.96	2324.45
568.31	2328.99
568.66	2333.22
569.02	2337.01
569.37	2340.83
569.72	2345.24
570.08	2348.80
570.43	2351.96
570.78	2355.18
571.14	2357.83
571.49	2360.95
571.84	2364.59
572.20	2367.51
572.55	2370.76
572.90	2372.98
573.26	2375.84
573.61	2378.39
573.96	2380.54
574.31	2382.64
574.67	2384.62
575.02	2385.57
575.37	2387.14
575.72	2387.98
576.08	2389.58
576.43	2390.05
576.78	2390.89
577.13	2392.86
577.49	2393.94
577.84	2395.26
578.19	2396.64
578.54	2397.41
578.90	2398.58
579.25	2398.70
579.60	2398.78
579.95	2398.20
580.30	2398.58
580.66	2398.04
581.01	2396.68
581.36	2394.69
581.71	2393.54
582.06	2392.74
582.42	2392.21
582.77	2390.14
583.12	2388.68
583.47	2387.66
583.82	2387.28
584.17	2386.10
584.53	2383.96
584.88	2382.15
585.23	2380.36
585.58	2378.29
585.93	2376.35
586.28	2374.38
586.63	2372.15
586.98	2370.08
587.34	2368.16
587.69	2365.94
588.04	2364.10
588.39	2362.45
588.74	2360.13
589.09	2357.61
589.44	2354.68
589.79	2352.31
590.14	2350.58
590.49	2347.97
590.84	2344.36
591.19	2341.44
591.54	2338.28
591.89	2334.55
592.25	2331.40
592.60	2327.35
592.95	2323.39
593.30	2319.47
593.65	2315.02
594.00	2310.78
594.35	2307.86
594.70	2303.41
595.05	2298.84
595.40	2293.61
595.75	2288.29
596.10	2284.85
596.45	2280.13
596.80	2275.60
597.15	2270.46
597.50	2264.66
597.85	2259.77
598.19	2254.57
598.54	2248.76
598.89	2243.75
599.24	2239.20
599.59	2233.31
599.94	2227.72
600.29	2221.95
600.64	2215.93
600.99	2209.46
601.34	2203.99
601.69	2197.07
602.04	2190.76
602.39	2184.40
602.74	2178.44
603.08	2173.00
603.43	2166.49
603.78	2159.69
604.13	2152.77
604.48	2145.61
604.83	2139.60
605.18	2133.39
605.53	2126.46
605.87	2119.66
606.22	2112.98
606.57	2105.14
606.92	2097.33
607.27	2090.34
607.62	2083.84
607.96	2077.09
608.31	2070.52
608.66	2062.83
609.01	2055.41
609.36	2048.41
609.70	2040.67
610.05	2032.96
610.40	2024.71
610.75	2016.44
611.10	2008.93
611.44	2000.29
611.79	1991.64
612.14	1981.70
612.49	1971.31
612.83	1962.26
613.18	1953.03
613.53	1943.81
613.88	1934.34
614.22	1925.58
614.57	1915.72
614.92	1905.21
615.27	1895.19
615.61	1885.24
615.96	1875.62
616.31	1866.06
616.65	1856.82
617.00	1847.03
617.35	1837.41
617.70	1827.78
618.04	1817.80
618.39	1807.51
618.74	1797.70
619.08	1788.14
619.43	1779.50
619.78	1771.24
620.12	1762.49
620.47	1752.84
620.82	1742.47
621.16	1732.69
621.51	1722.95
621.85	1713.18
622.20	1702.64
622.55	1691.95
622.89	1682.20
623.24	1672.56
623.59	1662.91
623.93	1652.75
624.28	1643.19
624.62	1633.00
624.97	1622.69
625.32	1613.14
625.66	1604.36
626.01	1595.49
626.35	1586.07
626.70	1576.00
627.04	1565.79
627.39	1555.79
627.73	1546.49
628.08	1537.43
628.43	1527.88
628.77	1518.59
629.12	1509.81
629.46	1502.07
629.81	1493.68
630.15	1483.91
630.50	1474.14
630.84	1463.70
631.19	1453.76
631.53	1444.28
631.88	1434.14
632.22	1424.21
632.57	1414.73
632.91	1404.58
633.26	1394.94
633.60	1385.45
633.95	1376.09
634.29	1366.89
634.64	1357.54
634.98	1347.66
635.32	1338.41
635.67	1329.87
636.01	1320.72
636.36	1310.97
636.70	1301.42
637.05	1292.06
637.39	1283.22
637.73	1274.63
638.08	1267.01
638.42	1258.76
638.77	1249.99
639.11	1241.79
639.45	1233.88
639.80	1225.25
640.14	1216.61
640.49	1207.73
640.83	1198.86
641.17	1190.85
641.52	1182.65
641.86	1174.09
642.20	1166.25
642.55	1157.75
642.89	1148.95
643.23	1140.22
643.58	1132.05
643.92	1122.98
644.26	1114.36
644.61	1106.10
644.95	1097.37
645.29	1088.15
645.64	1079.07
645.98	1070.84
646.32	1062.98
646.66	1054.55
647.01	1046.28
647.35	1038.16
647.69	1029.73
648.04	1021.53
648.38	1012.60
648.72	1003.82
649.06	995.37
649.41	987.31
649.75	979.38
650.09	971.52
650.43	963.55
650.78	955.41
651.12	947.93
651.46	940.69
651.80	933.39
652.14	926.09
652.49	918.67
652.83	911.36
653.17	903.59
653.51	895.93
653.85	888.75
654.20	881.51
654.54	873.98
654.88	866.91
655.22	859.76
655.56	852.90
655.90	846.16
656.25	839.56
656.59	832.56
656.93	825.63
657.27	818.53
657.61	811.71
657.95	805.59
658.29	799.75
658.64	793.65
658.98	787.19
659.32	780.72
659.66	774.55
660.00	768.29
660.34	762.33
660.68	756.39
661.02	750.14
661.36	744.30
661.70	738.60
662.05	732.97
662.39	727.55
662.73	722.27
663.07	716.96
663.41	711.48
663.75	705.91
664.09	700.29
664.43	695.01
664.77	689.72
665.11	684.00
665.45	678.10
665.79	672.28
666.13	666.73
666.47	661.30
666.81	655.93
667.15	650.64
667.49	645.52
667.83	640.24
668.17	635.09
668.51	630.04
668.85	625.26
669.19	620.49
669.53	615.62
669.87	610.50
670.21	605.86
670.55	601.10
670.89	596.77
671.23	592.59
671.57	588.35
671.91	584.06
672.25	580.01
672.58	575.89
672.92	571.98
673.26	568.06
673.60	564.25
673.94	560.53
674.28	557.00
674.62	553.31
674.96	549.71
675.30	546.25
675.64	542.66
675.97	539.13
676.31	535.60
676.65	531.96
676.99	528.59
677.33	524.76
677.67	521.26
678.01	517.41
678.34	513.77
678.68	510.28
679.02	506.74
679.36	503.08
679.70	499.54
680.04	496.00
680.37	492.63
680.71	489.40
681.05	486.17
681.39	483.00
681.73	479.88
682.06	476.86
682.40	473.78
682.74	470.68
683.08	467.48
683.42	464.31
683.75	461.37
684.09	458.46
684.43	455.72
684.77	452.81
685.10	450.09
685.44	447.26
685.78	444.33
686.12	441.68
686.45	439.04
686.79	436.43
687.13	433.93
687.46	431.32
687.80	428.67
688.14	426.00
688.48	423.35
688.81	420.74
689.15	418.20
689.49	415.65
689.82	413.14
690.16	410.63
690.50	408.20
690.83	405.77
691.17	403.27
691.51	400.85
691.84	398.67
692.18	396.51
692.52	394.32
692.85	392.24
693.19	390.11
693.52	388.00
693.86	385.88
694.20	383.73
694.53	381.68
694.87	379.47
695.21	377.38
695.54	375.27
695.88	373.15
696.21	371.05
696.55	368.99
696.88	366.99
697.22	365.08
697.56	363.28
697.89	361.45
698.23	359.73
698.56	358.03
698.90	356.27
699.23	354.36
699.57	352.57
699.90	350.77
700.24	349.01
700.58	347.26
700.91	345.61
701.25	344.11
701.58	342.53
701.92	340.98
702.25	339.39
702.59	337.85
702.92	336.38
703.26	334.79
703.59	333.37
703.93	332.13
704.26	330.71
704.60	329.20
704.93	327.76
705.26	326.32
705.60	324.89
705.93	323.42
706.27	322.15
706.60	320.88
706.94	319.66
707.27	318.30
707.61	316.99
707.94	315.73
708.27	314.27
708.61	312.89
708.94	311.60
709.28	310.40
709.61	309.20
709.94	308.03
710.28	306.90
710.61	305.71
710.95	304.29
711.28	303.25
711.61	302.11
711.95	301.01
712.28	299.81
712.61	298.62
712.95	297.59
713.28	296.59
713.61	295.49
713.95	294.37
714.28	293.39
714.61	292.36
714.95	291.30
715.28	290.33
715.61	289.35
715.95	288.39
716.28	287.44
716.61	286.51
716.95	285.56
717.28	284.66
717.61	283.71
717.94	282.87
718.28	281.85
718.61	280.97
718.94	280.08
719.27	279.29
719.61	278.50
719.94	277.63
720.27	276.68
720.60	275.85
720.94	275.10
721.27	274.37
721.60	273.73
721.93	273.06
722.27	272.41
722.60	271.72
722.93	271.05
723.26	270.41
723.59	269.73
723.93	269.08
724.26	268.43
724.59	267.83
724.92	267.26
725.25	266.75
725.59	266.22
725.92	265.72
726.25	265.14
726.58	264.61
726.91	264.05
727.24	263.52
727.57	262.98
727.91	262.39
728.24	261.85
728.57	261.21
728.90	260.67
729.23	260.10
729.56	259.70
729.89	259.20
730.22	258.62
730.55	258.11
730.89	257.59
731.22	257.11
731.55	256.61
731.88	256.10
732.21	255.57
732.54	255.04
732.87	254.52
733.20	254.06
733.53	253.57
733.86	253.17
734.19	252.71
734.52	252.31
734.85	252.05
735.18	251.59
735.51	251.28
735.84	250.86
736.17	250.48
736.50	249.95
736.83	249.79
737.16	249.40
737.49	249.01
737.82	248.61
738.15	248.23
738.48	247.83
738.81	247.44
739.14	247.02
739.47	246.67
739.80	246.31
740.13	245.95
740.46	245.58
740.79	245.17
741.12	244.82
741.45	244.45
741.78	243.97
742.11	243.71
742.44	243.31
742.77	243.04
743.10	242.68
743.43	242.32
743.75	241.75
744.08	241.71
744.41	241.35
744.74	241.02
745.07	240.63
745.40	240.38
745.73	240.15
746.06	239.86
746.39	239.55
746.71	239.22
747.04	238.90
747.37	238.58
747.70	238.33
748.03	238.02
748.36	237.75
748.68	237.47
749.01	237.11
749.34	236.82
749.67	236.52
750.00	236.28
750.33	236.18
750.65	236.00
750.98	235.47
751.31	235.25
751.64	235.03
751.97	234.93
752.29	234.69
752.62	234.32
752.95	234.07
753.28	233.81
753.60	233.58
753.93	233.39
754.26	233.20
754.59	232.88
754.91	232.66
755.24	232.42
755.57	232.19
755.90	231.98
756.22	231.76
756.55	231.48
756.88	231.24
757.20	230.95
757.53	230.65
757.86	230.46
758.19	230.27
758.51	230.04
758.84	229.75
759.17	229.55
759.49	229.44
759.82	229.36
760.15	229.21
760.47	229.03
760.80	228.80
761.13	228.65
761.45	228.48
761.78	228.32
762.11	228.15
762.43	227.97
762.76	227.82
763.08	227.70
763.41	227.58
763.74	227.46
764.06	227.29
764.39	227.13
764.71	226.99
765.04	226.83
765.37	226.70
765.69	226.58
766.02	226.42
766.34	226.27
766.67	226.06
767.00	225.92
767.32	225.94
767.65	225.93
767.97	225.76
768.30	225.67
768.62	225.56
768.95	225.40
769.27	225.30
769.60	225.20
769.92	225.02
770.25	224.88
770.57	224.70
770.90	224.59
771.22	224.47
771.55	224.32
771.87	224.22
772.20	224.09
772.52	224.11
772.85	224.25
773.17	224.15
773.50	224.02
773.82	223.93
774.15	223.72
774.47	223.51
774.80	223.44
775.12	223.36
775.45	223.27
775.77	223.20
776.09	223.08
776.42	223.00
776.74	222.98
777.07	222.90
777.39	222.82
777.72	222.70
778.04	222.67
778.36	222.59
778.69	222.51
779.01	222.44
779.33	222.21
779.66	221.88
779.98	221.77
780.31	221.69
780.63	221.68
780.95	221.62
781.28	221.50
781.60	221.40
781.92	221.32
782.25	221.23
782.57	221.17
782.89	221.12
783.22	221.04
783.54	220.90
783.86	220.86
784.19	220.79
784.51	220.80
784.83	220.69
785.16	220.61
785.48	220.52
785.80	220.49
786.12	220.45
