SpectraSuite Data File
++++++++++++++++++++++++++++++++++++
Date: Tue Jan 29 16:46:45 EST 2013
User: group
Dark Spectrum Present: No
Reference Spectrum Present: No
Number of Sampled Component Spectra: 1
Spectrometers: USB2E7196
Integration Time (usec): 65000 (USB2E7196)
Spectra Averaged: 100 (USB2E7196)
Boxcar Smoothing: 10 (USB2E7196)
Correct for Electrical Dark: No (USB2E7196)
Strobe/Lamp Enabled: No (USB2E7196)
Correct for Detector Non-linearity: No (USB2E7196)
Correct for Stray Light: No (USB2E7196)
Number of Pixels in Processed Spectrum: 2048
>>>>>Begin Processed Spectral Data<<<<<
339.09	0.00
339.48	201.31
339.86	202.92
340.24	204.39
340.63	206.25
341.01	210.20
341.39	208.56
341.78	210.48
342.16	211.80
342.54	211.71
342.93	200.89
343.31	211.01
343.69	211.59
344.07	212.07
344.46	212.55
344.84	212.93
345.22	213.12
345.60	213.36
345.99	213.55
346.37	213.68
346.75	213.80
347.13	213.89
347.52	213.95
347.90	214.08
348.28	214.13
348.66	214.17
349.05	214.15
349.43	214.21
349.81	214.30
350.19	214.35
350.57	214.43
350.96	214.53
351.34	214.65
351.72	214.75
352.10	214.85
352.48	214.91
352.87	214.96
353.25	215.01
353.63	215.09
354.01	215.16
354.39	215.23
354.77	215.27
355.15	215.40
355.54	215.46
355.92	215.43
356.30	215.50
356.68	215.69
357.06	215.76
357.44	215.77
357.82	215.80
358.20	215.88
358.58	215.93
358.97	215.96
359.35	216.03
359.73	216.10
360.11	216.12
360.49	216.18
360.87	216.24
361.25	216.29
361.63	216.37
362.01	216.40
362.39	216.42
362.77	216.48
363.15	216.47
363.53	216.49
363.91	216.61
364.29	216.63
364.67	216.51
365.05	216.52
365.43	216.56
365.81	216.63
366.19	216.70
366.57	216.79
366.95	216.84
367.33	216.80
367.71	216.79
368.09	216.86
368.47	216.83
368.85	216.80
369.23	216.85
369.61	216.79
369.99	216.87
370.37	216.89
370.75	217.01
371.13	216.94
371.51	216.90
371.89	216.85
372.27	216.86
372.65	216.82
373.03	216.81
373.41	216.79
373.78	216.72
374.16	216.59
374.54	216.49
374.92	216.42
375.30	216.40
375.68	216.34
376.06	216.29
376.44	216.23
376.82	216.24
377.19	216.21
377.57	216.18
377.95	216.03
378.33	215.98
378.71	215.81
379.09	215.82
379.47	215.81
379.84	215.75
380.22	215.68
380.60	215.60
380.98	215.55
381.36	215.49
381.73	215.43
382.11	215.44
382.49	215.41
382.87	215.37
383.25	215.35
383.62	215.54
384.00	215.47
384.38	215.46
384.76	215.44
385.13	215.50
385.51	215.46
385.89	215.39
386.27	215.34
386.64	215.32
387.02	215.28
387.40	215.24
387.78	215.24
388.15	215.22
388.53	215.18
388.91	215.17
389.29	215.13
389.66	215.15
390.04	215.12
390.42	215.14
390.79	215.11
391.17	215.11
391.55	214.86
391.92	214.85
392.30	214.85
392.68	214.82
393.05	214.77
393.43	214.77
393.81	214.83
394.18	214.83
394.56	214.83
394.94	214.85
395.31	214.85
395.69	214.94
396.06	214.99
396.44	215.04
396.82	215.04
397.19	215.18
397.57	215.17
397.95	215.19
398.32	215.16
398.70	215.22
399.07	215.31
399.45	215.33
399.82	215.36
400.20	215.41
400.58	215.45
400.95	215.41
401.33	215.53
401.70	215.73
402.08	215.82
402.45	215.94
402.83	216.10
403.20	216.25
403.58	216.30
403.95	216.45
404.33	216.61
404.71	216.76
405.08	217.02
405.46	217.17
405.83	217.38
406.21	217.58
406.58	217.84
406.96	218.02
407.33	218.34
407.70	218.64
408.08	219.12
408.45	219.50
408.83	219.92
409.20	220.25
409.58	220.54
409.95	220.97
410.33	221.44
410.70	221.88
411.08	222.41
411.45	223.02
411.82	223.59
412.20	224.28
412.57	225.09
412.95	225.66
413.32	226.53
413.69	227.37
414.07	228.30
414.44	229.28
414.82	230.35
415.19	231.53
415.56	232.75
415.94	233.94
416.31	235.37
416.68	236.78
417.06	238.40
417.43	239.94
417.81	241.73
418.18	243.52
418.55	245.44
418.93	247.49
419.30	249.60
419.67	251.82
420.04	254.11
420.42	256.53
420.79	259.38
421.16	262.21
421.54	265.13
421.91	268.12
422.28	271.24
422.66	274.53
423.03	277.81
423.40	281.18
423.77	284.77
424.15	288.43
424.52	292.29
424.89	296.51
425.26	300.65
425.64	304.57
426.01	308.87
426.38	313.39
426.75	317.95
427.13	322.68
427.50	327.68
427.87	332.92
428.24	338.19
428.61	343.19
428.99	348.68
429.36	354.72
429.73	360.64
430.10	366.55
430.47	372.63
430.85	378.97
431.22	385.70
431.59	392.84
431.96	399.67
432.33	407.15
432.70	414.43
433.08	422.93
433.45	431.05
433.82	439.07
434.19	447.93
434.56	456.67
434.93	465.07
435.30	473.39
435.68	482.50
436.05	491.49
436.42	500.46
436.79	508.73
437.16	517.57
437.53	526.89
437.90	536.13
438.27	545.12
438.64	554.36
439.01	562.93
439.38	570.55
439.75	577.90
440.13	586.40
440.50	594.37
440.87	600.88
441.24	607.47
441.61	614.85
441.98	620.28
442.35	626.70
442.72	633.08
443.09	639.21
443.46	643.00
443.83	645.54
444.20	647.68
444.57	650.77
444.94	652.21
445.31	653.64
445.68	654.99
446.05	655.65
446.42	654.92
446.79	653.96
447.16	652.91
447.53	652.19
447.90	648.93
448.27	645.62
448.64	640.95
449.01	637.70
449.37	631.81
449.74	626.20
450.11	619.21
450.48	611.80
450.85	604.23
451.22	597.69
451.59	591.55
451.96	585.74
452.33	577.89
452.70	570.71
453.07	562.26
453.43	553.58
453.80	545.23
454.17	537.19
454.54	529.61
454.91	521.38
455.28	513.39
455.65	505.89
456.02	498.34
456.38	491.93
456.75	484.01
457.12	477.38
457.49	470.76
457.86	464.54
458.23	459.06
458.59	453.12
458.96	447.09
459.33	441.69
459.70	436.30
460.07	431.98
460.43	427.06
460.80	422.44
461.17	418.45
461.54	414.21
461.91	410.13
462.27	406.00
462.64	402.56
463.01	398.67
463.38	394.92
463.74	391.21
464.11	387.98
464.48	385.11
464.85	382.02
465.21	379.61
465.58	376.95
465.95	373.83
466.32	371.29
466.68	368.74
467.05	366.15
467.42	363.58
467.78	360.88
468.15	358.37
468.52	356.45
468.88	353.90
469.25	351.65
469.62	349.83
469.98	347.87
470.35	346.02
470.72	344.34
471.08	342.50
471.45	341.01
471.82	339.47
472.18	337.75
472.55	336.55
472.92	335.12
473.28	333.92
473.65	332.72
474.02	331.55
474.38	330.63
474.75	329.85
475.11	328.99
475.48	328.43
475.85	327.91
476.21	327.38
476.58	327.04
476.94	326.85
477.31	326.56
477.67	326.31
478.04	326.13
478.41	326.06
478.77	326.23
479.14	326.13
479.50	326.24
479.87	326.51
480.23	326.79
480.60	326.98
480.96	327.23
481.33	327.81
481.69	328.37
482.06	328.86
482.42	329.37
482.79	330.01
483.15	330.81
483.52	331.78
483.88	332.68
484.25	333.59
484.61	334.58
484.98	335.60
485.34	336.91
485.71	338.35
486.07	339.79
486.44	341.13
486.80	342.79
487.17	344.46
487.53	346.27
487.90	348.16
488.26	350.22
488.62	352.38
488.99	354.44
489.35	356.60
489.72	358.98
490.08	361.49
490.44	364.07
490.81	366.75
491.17	369.46
491.54	372.43
491.90	375.45
492.26	378.68
492.63	382.14
492.99	385.60
493.36	389.18
493.72	393.11
494.08	397.11
494.45	401.31
494.81	405.70
495.17	410.13
495.54	414.86
495.90	419.71
496.26	424.66
496.63	429.94
496.99	435.31
497.35	440.89
497.72	446.71
498.08	452.62
498.44	458.73
498.80	465.23
499.17	471.73
499.53	478.46
499.89	485.39
500.26	492.29
500.62	499.34
500.98	506.73
501.34	514.14
501.71	521.92
502.07	529.69
502.43	537.70
502.79	545.93
503.16	554.23
503.52	562.82
503.88	571.54
504.24	580.44
504.60	589.51
504.97	598.73
505.33	607.96
505.69	617.84
506.05	627.66
506.41	637.46
506.78	647.49
507.14	657.71
507.50	668.11
507.86	678.87
508.22	689.70
508.59	700.42
508.95	711.47
509.31	722.67
509.67	734.12
510.03	745.48
510.39	757.14
510.75	769.05
511.12	780.92
511.48	792.94
511.84	805.17
512.20	817.48
512.56	830.09
512.92	843.06
513.28	855.64
513.64	868.37
514.00	881.19
514.37	894.17
514.73	907.40
515.09	920.43
515.45	933.42
515.81	946.51
516.17	959.93
516.53	973.23
516.89	986.39
517.25	999.61
517.61	1013.23
517.97	1026.74
518.33	1039.93
518.69	1053.49
519.05	1067.25
519.41	1080.89
519.77	1094.79
520.13	1108.24
520.49	1121.37
520.85	1134.75
521.21	1148.23
521.57	1161.95
521.93	1175.10
522.29	1188.84
522.65	1202.59
523.01	1216.06
523.37	1229.24
523.73	1242.60
524.09	1255.82
524.45	1269.26
524.81	1282.82
525.17	1296.18
525.53	1309.40
525.89	1322.66
526.25	1335.92
526.61	1348.87
526.97	1362.07
527.33	1375.22
527.68	1388.64
528.04	1402.27
528.40	1415.53
528.76	1428.99
529.12	1442.01
529.48	1455.36
529.84	1467.69
530.20	1480.43
530.56	1493.23
530.91	1506.58
531.27	1519.39
531.63	1532.12
531.99	1544.93
532.35	1557.24
532.71	1569.72
533.07	1582.72
533.42	1594.97
533.78	1607.13
534.14	1619.23
534.50	1630.58
534.86	1642.18
535.21	1653.16
535.57	1664.64
535.93	1676.03
536.29	1687.14
536.65	1698.71
537.00	1709.71
537.36	1721.08
537.72	1732.21
538.08	1743.60
538.44	1754.64
538.79	1765.92
539.15	1777.00
539.51	1788.08
539.87	1799.50
540.22	1810.42
540.58	1821.37
540.94	1832.54
541.29	1842.92
541.65	1852.79
542.01	1863.25
542.37	1873.37
542.72	1883.69
543.08	1893.59
543.44	1904.21
543.79	1913.44
544.15	1922.78
544.51	1932.95
544.87	1943.14
545.22	1952.42
545.58	1961.33
545.94	1970.39
546.29	1979.01
546.65	1987.46
547.01	1995.52
547.36	2003.21
547.72	2011.03
548.07	2018.59
548.43	2026.50
548.79	2034.33
549.14	2042.72
549.50	2051.29
549.86	2059.27
550.21	2066.65
550.57	2074.38
550.92	2081.26
551.28	2089.04
551.64	2096.39
551.99	2103.83
552.35	2110.87
552.70	2117.75
553.06	2124.61
553.41	2130.93
553.77	2137.46
554.13	2143.67
554.48	2150.82
554.84	2157.99
555.19	2164.53
555.55	2170.97
555.90	2177.30
556.26	2184.27
556.61	2190.29
556.97	2195.09
557.32	2200.85
557.68	2207.30
558.03	2212.98
558.39	2218.14
558.74	2223.94
559.10	2229.34
559.45	2235.01
559.81	2240.54
560.16	2246.10
560.52	2251.93
560.87	2258.20
561.23	2264.00
561.58	2270.77
561.94	2275.93
562.29	2280.37
562.64	2286.32
563.00	2291.97
563.35	2297.28
563.71	2302.85
564.06	2308.45
564.42	2314.49
564.77	2319.66
565.12	2324.83
565.48	2329.94
565.83	2335.41
566.19	2340.72
566.54	2346.07
566.89	2350.53
567.25	2354.97
567.60	2360.56
567.96	2365.47
568.31	2369.90
568.66	2374.08
569.02	2377.99
569.37	2381.71
569.72	2386.20
570.08	2389.72
570.43	2392.79
570.78	2395.90
571.14	2398.35
571.49	2401.33
571.84	2404.64
572.20	2407.34
572.55	2410.19
572.90	2412.35
573.26	2415.02
573.61	2417.54
573.96	2419.68
574.31	2421.56
574.67	2423.40
575.02	2424.05
575.37	2425.52
575.72	2426.12
576.08	2427.49
576.43	2427.47
576.78	2427.72
577.13	2429.15
577.49	2430.15
577.84	2430.91
578.19	2432.02
578.54	2432.49
578.90	2433.03
579.25	2432.81
579.60	2432.59
579.95	2431.63
580.30	2431.54
580.66	2430.75
581.01	2429.02
581.36	2426.41
581.71	2424.97
582.06	2423.62
582.42	2422.57
582.77	2420.17
583.12	2418.24
583.47	2416.65
583.82	2415.94
584.17	2414.51
584.53	2412.20
584.88	2409.97
585.23	2408.14
585.58	2405.75
585.93	2403.71
586.28	2401.40
586.63	2398.74
586.98	2396.38
587.34	2394.40
587.69	2391.85
588.04	2389.58
588.39	2387.93
588.74	2385.41
589.09	2382.45
589.44	2379.10
589.79	2376.48
590.14	2374.28
590.49	2371.43
590.84	2367.47
591.19	2364.17
591.54	2360.85
591.89	2356.85
592.25	2353.40
592.60	2349.07
592.95	2344.75
593.30	2340.36
593.65	2335.77
594.00	2331.26
594.35	2328.14
594.70	2323.40
595.05	2318.78
595.40	2313.20
595.75	2307.27
596.10	2303.57
596.45	2298.67
596.80	2294.04
597.15	2288.74
597.50	2282.75
597.85	2277.80
598.19	2272.66
598.54	2266.83
598.89	2261.30
599.24	2256.74
599.59	2250.50
599.94	2244.50
600.29	2238.56
600.64	2232.56
600.99	2225.69
601.34	2220.08
601.69	2212.94
602.04	2206.39
602.39	2199.71
602.74	2193.64
603.08	2188.07
603.43	2181.50
603.78	2174.50
604.13	2167.45
604.48	2160.21
604.83	2154.04
605.18	2147.75
605.53	2140.73
605.87	2133.67
606.22	2127.06
606.57	2118.89
606.92	2110.95
607.27	2103.91
607.62	2097.21
607.96	2090.24
608.31	2084.01
608.66	2076.36
609.01	2068.76
609.36	2061.60
609.70	2053.97
610.05	2046.23
610.40	2037.87
610.75	2029.48
611.10	2021.86
611.44	2012.95
611.79	2004.24
612.14	1994.43
612.49	1983.96
612.83	1974.53
613.18	1965.25
613.53	1955.92
613.88	1946.45
614.22	1937.83
614.57	1928.05
614.92	1917.41
615.27	1907.15
615.61	1896.88
615.96	1887.27
616.31	1877.64
616.65	1868.24
617.00	1858.34
617.35	1848.60
617.70	1838.91
618.04	1829.09
618.39	1819.04
618.74	1809.36
619.08	1799.74
619.43	1790.97
619.78	1782.59
620.12	1774.01
620.47	1764.52
620.82	1754.34
621.16	1744.59
621.51	1734.88
621.85	1725.15
622.20	1714.96
622.55	1704.43
622.89	1694.49
623.24	1684.81
623.59	1675.16
623.93	1665.12
624.28	1655.49
624.62	1645.65
624.97	1635.48
625.32	1625.67
625.66	1616.70
626.01	1608.12
626.35	1598.87
626.70	1588.94
627.04	1579.01
627.39	1568.94
627.73	1559.65
628.08	1550.77
628.43	1541.26
628.77	1531.94
629.12	1523.11
629.46	1515.38
629.81	1507.21
630.15	1497.82
630.50	1488.08
630.84	1477.66
631.19	1467.91
631.53	1458.67
631.88	1448.42
632.22	1438.48
632.57	1429.24
632.91	1419.26
633.26	1409.38
633.60	1399.85
633.95	1390.52
634.29	1381.09
634.64	1371.87
634.98	1362.04
635.32	1352.76
635.67	1344.38
636.01	1335.27
636.36	1325.63
636.70	1316.14
637.05	1306.81
637.39	1298.00
637.73	1289.49
638.08	1281.98
638.42	1273.93
638.77	1265.20
639.11	1257.08
639.45	1249.47
639.80	1240.90
640.14	1232.25
640.49	1223.49
640.83	1214.75
641.17	1206.72
641.52	1198.64
641.86	1190.28
642.20	1182.53
642.55	1174.05
642.89	1165.25
643.23	1156.71
643.58	1148.67
643.92	1139.65
644.26	1130.97
644.61	1122.60
644.95	1113.85
645.29	1104.77
645.64	1095.59
645.98	1087.09
646.32	1079.25
646.66	1070.68
647.01	1062.45
647.35	1054.34
647.69	1046.12
648.04	1037.89
648.38	1029.05
648.72	1020.29
649.06	1011.77
649.41	1003.52
649.75	995.54
650.09	987.70
650.43	979.72
650.78	971.43
651.12	963.77
651.46	956.38
651.80	949.19
652.14	941.95
652.49	934.45
652.83	927.10
653.17	919.55
653.51	911.92
653.85	904.69
654.20	897.49
654.54	890.08
654.88	882.79
655.22	875.56
655.56	868.62
655.90	861.86
656.25	855.25
656.59	848.42
656.93	841.49
657.27	834.32
657.61	827.29
657.95	821.19
658.29	815.31
658.64	809.28
658.98	802.83
659.32	796.32
659.66	790.08
660.00	783.81
660.34	777.71
660.68	771.59
661.02	765.24
661.36	759.27
661.70	753.50
662.05	747.93
662.39	742.55
662.73	737.10
663.07	731.71
663.41	726.02
663.75	720.31
664.09	714.58
664.43	709.20
664.77	703.91
665.11	698.09
665.45	692.19
665.79	686.33
666.13	680.63
666.47	675.10
666.81	669.62
667.15	664.14
667.49	658.96
667.83	653.71
668.17	648.50
668.51	643.39
668.85	638.46
669.19	633.49
669.53	628.37
669.87	623.25
670.21	618.48
670.55	613.84
670.89	609.43
671.23	605.05
671.57	600.59
671.91	596.27
672.25	592.11
672.58	587.93
672.92	583.81
673.26	579.83
673.60	575.99
673.94	572.21
674.28	568.69
674.62	564.96
674.96	561.20
675.30	557.66
675.64	553.96
675.97	550.30
676.31	546.68
676.65	543.04
676.99	539.60
677.33	535.73
677.67	532.05
678.01	528.11
678.34	524.54
678.68	521.03
679.02	517.43
679.36	513.71
679.70	510.02
680.04	506.47
680.37	503.00
680.71	499.53
681.05	496.24
681.39	492.87
681.73	489.64
682.06	486.56
682.40	483.47
682.74	480.26
683.08	477.05
683.42	473.88
683.75	470.85
684.09	467.79
684.43	465.00
684.77	462.01
685.10	459.15
685.44	456.15
685.78	453.23
686.12	450.38
686.45	447.59
686.79	444.91
687.13	442.37
687.46	439.79
687.80	437.07
688.14	434.23
688.48	431.55
688.81	428.77
689.15	426.15
689.49	423.47
689.82	420.93
690.16	418.28
690.50	415.76
690.83	413.32
691.17	410.78
691.51	408.23
691.84	405.95
692.18	403.69
692.52	401.41
692.85	399.24
693.19	397.07
693.52	394.93
693.86	392.69
694.20	390.44
694.53	388.24
694.87	386.08
695.21	383.95
695.54	381.76
695.88	379.64
696.21	377.42
696.55	375.31
696.88	373.19
697.22	371.20
697.56	369.31
697.89	367.36
698.23	365.58
698.56	363.79
698.90	362.04
699.23	360.14
699.57	358.28
699.90	356.36
700.24	354.52
700.58	352.72
700.91	351.03
701.25	349.44
701.58	347.84
701.92	346.17
702.25	344.56
702.59	342.93
702.92	341.39
703.26	339.84
703.59	338.34
703.93	337.06
704.26	335.63
704.60	334.12
704.93	332.57
705.26	331.07
705.60	329.57
705.93	327.99
706.27	326.64
706.60	325.40
706.94	324.20
707.27	322.84
707.61	321.50
707.94	320.13
708.27	318.60
708.61	317.08
708.94	315.70
709.28	314.38
709.61	313.13
709.94	311.91
710.28	310.68
710.61	309.44
710.95	307.98
711.28	306.90
711.61	305.68
711.95	304.58
712.28	303.32
712.61	302.07
712.95	300.98
713.28	299.92
713.61	298.74
713.95	297.55
714.28	296.49
714.61	295.42
714.95	294.41
715.28	293.38
715.61	292.39
715.95	291.45
716.28	290.43
716.61	289.45
716.95	288.43
717.28	287.50
717.61	286.52
717.94	285.64
718.28	284.53
718.61	283.64
718.94	282.70
719.27	281.85
719.61	281.06
719.94	280.15
720.27	279.15
720.60	278.27
720.94	277.42
721.27	276.64
721.60	275.91
721.93	275.14
722.27	274.50
722.60	273.85
722.93	273.11
723.26	272.41
723.59	271.68
723.93	271.05
724.26	270.39
724.59	269.75
724.92	269.12
725.25	268.62
725.59	268.03
725.92	267.51
726.25	266.91
726.58	266.32
726.91	265.74
727.24	265.20
727.57	264.62
727.91	264.03
728.24	263.47
728.57	262.87
728.90	262.31
729.23	261.67
729.56	261.18
729.89	260.63
730.22	260.08
730.55	259.58
730.89	258.98
731.22	258.43
731.55	257.87
731.88	257.33
732.21	256.77
732.54	256.23
732.87	255.71
733.20	255.22
733.53	254.75
733.86	254.31
734.19	253.79
734.52	253.35
734.85	253.06
735.18	252.57
735.51	252.21
735.84	251.78
736.17	251.44
736.50	250.90
736.83	250.79
737.16	250.40
737.49	250.00
737.82	249.62
738.15	249.22
738.48	248.84
738.81	248.47
739.14	248.02
739.47	247.62
739.80	247.22
740.13	246.85
740.46	246.46
740.79	246.03
741.12	245.70
741.45	245.32
741.78	244.84
742.11	244.59
742.44	244.22
742.77	243.92
743.10	243.53
743.43	243.16
743.75	242.53
744.08	242.45
744.41	242.07
744.74	241.70
745.07	241.33
745.40	241.03
745.73	240.71
746.06	240.38
746.39	240.07
746.71	239.73
747.04	239.38
747.37	239.07
747.70	238.82
748.03	238.50
748.36	238.27
748.68	237.95
749.01	237.56
749.34	237.24
749.67	236.93
750.00	236.65
750.33	236.53
750.65	236.25
750.98	235.71
751.31	235.47
751.64	235.27
751.97	235.14
752.29	234.86
752.62	234.55
752.95	234.30
753.28	234.02
753.60	233.75
753.93	233.58
754.26	233.38
754.59	233.08
754.91	232.83
755.24	232.56
755.57	232.36
755.90	232.13
756.22	231.88
756.55	231.60
756.88	231.37
757.20	231.05
757.53	230.81
757.86	230.59
758.19	230.35
758.51	230.14
758.84	229.83
759.17	229.62
759.49	229.47
759.82	229.42
760.15	229.26
760.47	229.09
760.80	228.79
761.13	228.59
761.45	228.38
761.78	228.20
762.11	228.01
762.43	227.81
762.76	227.67
763.08	227.54
763.41	227.40
763.74	227.23
764.06	227.06
764.39	226.90
764.71	226.71
765.04	226.62
765.37	226.40
765.69	226.24
766.02	226.08
766.34	225.91
766.67	225.67
767.00	225.58
767.32	225.55
767.65	225.55
767.97	225.42
768.30	225.32
768.62	225.17
768.95	225.04
769.27	224.92
769.60	224.78
769.92	224.61
770.25	224.46
770.57	224.31
770.90	224.16
771.22	224.03
771.55	223.92
771.87	223.80
772.20	223.71
772.52	223.76
772.85	223.91
773.17	223.78
773.50	223.70
773.82	223.54
774.15	223.33
774.47	223.14
774.80	223.00
775.12	222.94
775.45	222.85
775.77	222.76
776.09	222.67
776.42	222.60
776.74	222.56
777.07	222.45
777.39	222.36
777.72	222.28
778.04	222.20
778.36	222.12
778.69	222.07
779.01	221.99
779.33	221.76
779.66	221.42
779.98	221.32
780.31	221.26
780.63	221.27
780.95	221.25
781.28	221.16
781.60	221.09
781.92	221.00
782.25	220.96
782.57	220.88
782.89	220.79
783.22	220.69
783.54	220.59
783.86	220.57
784.19	220.50
784.51	220.50
784.83	220.44
785.16	220.38
785.48	220.31
785.80	220.24
786.12	220.24
