SpectraSuite Data File
++++++++++++++++++++++++++++++++++++
Date: Tue Jan 29 16:10:56 EST 2013
User: group
Dark Spectrum Present: No
Reference Spectrum Present: No
Number of Sampled Component Spectra: 1
Spectrometers: USB2E7196
Integration Time (usec): 65000 (USB2E7196)
Spectra Averaged: 100 (USB2E7196)
Boxcar Smoothing: 10 (USB2E7196)
Correct for Electrical Dark: No (USB2E7196)
Strobe/Lamp Enabled: No (USB2E7196)
Correct for Detector Non-linearity: No (USB2E7196)
Correct for Stray Light: No (USB2E7196)
Number of Pixels in Processed Spectrum: 2048
>>>>>Begin Processed Spectral Data<<<<<
339.09	0.00
339.48	202.89
339.86	204.35
340.24	205.60
340.63	206.45
341.01	211.17
341.39	209.58
341.78	211.92
342.16	212.43
342.54	212.48
342.93	201.89
343.31	212.10
343.69	212.63
344.07	213.09
344.46	213.54
344.84	213.96
345.22	214.14
345.60	214.42
345.99	214.61
346.37	214.76
346.75	214.88
347.13	214.97
347.52	215.07
347.90	215.19
348.28	215.24
348.66	215.34
349.05	215.32
349.43	215.39
349.81	215.46
350.19	215.50
350.57	215.56
350.96	215.62
351.34	215.71
351.72	215.82
352.10	215.92
352.48	215.98
352.87	216.07
353.25	216.15
353.63	216.18
354.01	216.22
354.39	216.31
354.77	216.39
355.15	216.52
355.54	216.54
355.92	216.54
356.30	216.58
356.68	216.79
357.06	216.88
357.44	216.88
357.82	216.96
358.20	217.06
358.58	217.15
358.97	217.23
359.35	217.31
359.73	217.37
360.11	217.43
360.49	217.47
360.87	217.49
361.25	217.52
361.63	217.66
362.01	217.70
362.39	217.70
362.77	217.74
363.15	217.71
363.53	217.74
363.91	217.74
364.29	217.79
364.67	217.61
365.05	217.64
365.43	217.69
365.81	217.71
366.19	217.78
366.57	217.82
366.95	217.79
367.33	217.75
367.71	217.77
368.09	217.80
368.47	217.81
368.85	217.79
369.23	217.84
369.61	217.75
369.99	217.79
370.37	217.78
370.75	217.86
371.13	217.85
371.51	217.81
371.89	217.83
372.27	217.80
372.65	217.78
373.03	217.75
373.41	217.69
373.78	217.65
374.16	217.52
374.54	217.44
374.92	217.40
375.30	217.37
375.68	217.28
376.06	217.27
376.44	217.21
376.82	217.18
377.19	217.12
377.57	217.06
377.95	216.97
378.33	216.91
378.71	216.73
379.09	216.71
379.47	216.69
379.84	216.62
380.22	216.57
380.60	216.48
380.98	216.39
381.36	216.37
381.73	216.28
382.11	216.28
382.49	216.28
382.87	216.22
383.25	216.19
383.62	216.39
384.00	216.30
384.38	216.29
384.76	216.31
385.13	216.35
385.51	216.33
385.89	216.28
386.27	216.27
386.64	216.28
387.02	216.22
387.40	216.16
387.78	216.14
388.15	216.11
388.53	216.07
388.91	216.08
389.29	216.03
389.66	216.07
390.04	216.01
390.42	215.99
390.79	215.95
391.17	215.92
391.55	215.65
391.92	215.64
392.30	215.63
392.68	215.55
393.05	215.49
393.43	215.48
393.81	215.48
394.18	215.45
394.56	215.45
394.94	215.48
395.31	215.50
395.69	215.58
396.06	215.64
396.44	215.67
396.82	215.69
397.19	215.80
397.57	215.79
397.95	215.89
398.32	215.90
398.70	215.96
399.07	216.04
399.45	216.13
399.82	216.17
400.20	216.18
400.58	216.27
400.95	216.28
401.33	216.36
401.70	216.59
402.08	216.66
402.45	216.74
402.83	216.90
403.20	217.02
403.58	217.09
403.95	217.23
404.33	217.41
404.71	217.50
405.08	217.77
405.46	217.89
405.83	218.05
406.21	218.24
406.58	218.49
406.96	218.73
407.33	218.95
407.70	219.26
408.08	219.73
408.45	220.05
408.83	220.44
409.20	220.81
409.58	221.04
409.95	221.53
410.33	222.00
410.70	222.42
411.08	222.95
411.45	223.51
411.82	224.06
412.20	224.71
412.57	225.53
412.95	226.07
413.32	226.92
413.69	227.73
414.07	228.61
414.44	229.53
414.82	230.51
415.19	231.64
415.56	232.77
415.94	233.89
416.31	235.24
416.68	236.56
417.06	238.10
417.43	239.62
417.81	241.26
418.18	242.99
418.55	244.84
418.93	246.78
419.30	248.79
419.67	250.94
420.04	253.13
420.42	255.45
420.79	258.19
421.16	260.87
421.54	263.64
421.91	266.47
422.28	269.46
422.66	272.62
423.03	275.69
423.40	278.95
423.77	282.49
424.15	286.07
424.52	289.83
424.89	293.88
425.26	297.85
425.64	301.59
426.01	305.73
426.38	310.02
426.75	314.40
427.13	318.98
427.50	323.80
427.87	328.88
428.24	333.84
428.61	338.65
428.99	344.01
429.36	349.85
429.73	355.57
430.10	361.26
430.47	367.13
430.85	373.29
431.22	379.80
431.59	386.60
431.96	393.21
432.33	400.40
432.70	407.38
433.08	415.59
433.45	423.35
433.82	431.05
434.19	439.67
434.56	448.11
434.93	456.15
435.30	464.12
435.68	472.95
436.05	481.70
436.42	490.26
436.79	498.10
437.16	506.51
437.53	515.51
437.90	524.38
438.27	533.11
438.64	541.99
439.01	550.21
439.38	557.56
439.75	564.58
440.13	572.72
440.50	580.41
440.87	586.58
441.24	593.00
441.61	600.13
441.98	605.29
442.35	611.35
442.72	617.43
443.09	623.32
443.46	626.86
443.83	629.26
444.20	631.38
444.57	634.38
444.94	635.79
445.31	637.11
445.68	638.42
446.05	638.89
446.42	638.15
446.79	637.13
447.16	636.07
447.53	635.33
447.90	632.11
448.27	628.91
448.64	624.46
449.01	621.22
449.37	615.52
449.74	610.02
450.11	603.37
450.48	596.27
450.85	588.99
451.22	582.76
451.59	576.75
451.96	571.11
452.33	563.51
452.70	556.64
453.07	548.49
453.43	540.19
453.80	532.20
454.17	524.49
454.54	517.24
454.91	509.36
455.28	501.65
455.65	494.52
456.02	487.29
456.38	481.23
456.75	473.70
457.12	467.36
457.49	461.16
457.86	455.23
458.23	450.06
458.59	444.39
458.96	438.61
459.33	433.58
459.70	428.42
460.07	424.35
460.43	419.69
460.80	415.25
461.17	411.36
461.54	407.31
461.91	403.47
462.27	399.53
462.64	396.24
463.01	392.59
463.38	389.01
463.74	385.45
464.11	382.25
464.48	379.55
464.85	376.58
465.21	374.26
465.58	371.66
465.95	368.60
466.32	366.07
466.68	363.57
467.05	361.10
467.42	358.67
467.78	356.11
468.15	353.66
468.52	351.87
468.88	349.50
469.25	347.45
469.62	345.72
469.98	343.87
470.35	342.13
470.72	340.53
471.08	338.82
471.45	337.41
471.82	335.95
472.18	334.33
472.55	333.18
472.92	331.83
473.28	330.76
473.65	329.69
474.02	328.65
474.38	327.82
474.75	327.08
475.11	326.33
475.48	325.78
475.85	325.34
476.21	324.88
476.58	324.59
476.94	324.35
477.31	324.04
477.67	323.84
478.04	323.69
478.41	323.73
478.77	323.88
479.14	323.88
479.50	324.06
479.87	324.37
480.23	324.72
480.60	324.96
480.96	325.23
481.33	325.84
481.69	326.44
482.06	326.95
482.42	327.52
482.79	328.11
483.15	328.95
483.52	329.93
483.88	330.83
484.25	331.76
484.61	332.77
484.98	333.83
485.34	335.17
485.71	336.56
486.07	337.99
486.44	339.35
486.80	340.96
487.17	342.62
487.53	344.44
487.90	346.31
488.26	348.36
488.62	350.52
488.99	352.50
489.35	354.63
489.72	357.01
490.08	359.48
490.44	362.03
490.81	364.70
491.17	367.37
491.54	370.30
491.90	373.36
492.26	376.63
492.63	380.04
492.99	383.45
493.36	387.11
493.72	390.97
494.08	394.98
494.45	399.18
494.81	403.49
495.17	407.91
495.54	412.61
495.90	417.45
496.26	422.33
496.63	427.58
496.99	432.97
497.35	438.55
497.72	444.36
498.08	450.26
498.44	456.30
498.80	462.71
499.17	469.21
499.53	475.83
499.89	482.68
500.26	489.64
500.62	496.71
500.98	504.04
501.34	511.44
501.71	519.16
502.07	526.92
502.43	534.94
502.79	543.03
503.16	551.36
503.52	559.89
503.88	568.59
504.24	577.45
504.60	586.39
504.97	595.48
505.33	604.73
505.69	614.49
506.05	624.31
506.41	634.13
506.78	644.11
507.14	654.27
507.50	664.62
507.86	675.24
508.22	685.97
508.59	696.65
508.95	707.64
509.31	718.80
509.67	730.12
510.03	741.53
510.39	753.19
510.75	764.93
511.12	776.71
511.48	788.64
511.84	800.77
512.20	813.13
512.56	825.74
512.92	838.38
513.28	850.95
513.64	863.61
514.00	876.29
514.37	889.14
514.73	902.13
515.09	914.99
515.45	927.67
515.81	940.54
516.17	953.68
516.53	966.67
516.89	979.65
517.25	992.76
517.61	1006.01
517.97	1019.22
518.33	1032.24
518.69	1045.56
519.05	1059.14
519.41	1072.64
519.77	1086.23
520.13	1099.25
520.49	1112.24
520.85	1125.43
521.21	1138.50
521.57	1152.02
521.93	1164.89
522.29	1178.38
522.65	1191.73
523.01	1205.16
523.37	1218.03
523.73	1231.07
524.09	1244.06
524.45	1257.14
524.81	1270.32
525.17	1283.51
525.53	1296.46
525.89	1309.47
526.25	1322.35
526.61	1334.85
526.97	1347.67
527.33	1360.36
527.68	1373.52
528.04	1386.71
528.40	1399.55
528.76	1412.68
529.12	1425.15
529.48	1438.18
529.84	1450.19
530.20	1462.62
530.56	1474.92
530.91	1487.98
531.27	1500.65
531.63	1513.19
531.99	1525.78
532.35	1537.82
532.71	1549.74
533.07	1562.07
533.42	1573.92
533.78	1585.70
534.14	1597.48
534.50	1608.48
534.86	1619.77
535.21	1630.52
535.57	1641.67
535.93	1652.72
536.29	1663.49
536.65	1674.57
537.00	1685.08
537.36	1696.16
537.72	1707.00
538.08	1717.99
538.44	1728.57
538.79	1739.16
539.15	1749.61
539.51	1759.97
539.87	1770.86
540.22	1781.38
540.58	1792.08
540.94	1802.71
541.29	1812.78
541.65	1822.34
542.01	1832.60
542.37	1842.34
542.72	1852.12
543.08	1861.62
543.44	1871.61
543.79	1880.70
544.15	1889.82
544.51	1899.69
544.87	1909.31
545.22	1918.04
545.58	1926.76
545.94	1935.50
546.29	1943.86
546.65	1951.91
547.01	1959.76
547.36	1967.22
547.72	1974.75
548.07	1982.26
548.43	1989.67
548.79	1997.20
549.14	2005.03
549.50	2013.07
549.86	2020.71
550.21	2027.75
550.57	2035.17
550.92	2041.80
551.28	2049.14
551.64	2056.31
551.99	2063.42
552.35	2070.27
552.70	2077.01
553.06	2083.47
553.41	2089.39
553.77	2095.61
554.13	2101.88
554.48	2108.78
554.84	2115.67
555.19	2122.02
555.55	2128.44
555.90	2134.69
556.26	2141.22
556.61	2146.99
556.97	2151.82
557.32	2157.47
557.68	2163.88
558.03	2169.61
558.39	2174.65
558.74	2180.44
559.10	2185.87
559.45	2191.47
559.81	2196.93
560.16	2202.49
560.52	2208.32
560.87	2214.78
561.23	2220.72
561.58	2227.26
561.94	2232.39
562.29	2237.21
562.64	2243.23
563.00	2248.57
563.35	2254.06
563.71	2259.98
564.06	2265.79
564.42	2271.68
564.77	2276.77
565.12	2281.87
565.48	2287.01
565.83	2292.76
566.19	2298.16
566.54	2303.67
566.89	2308.28
567.25	2312.91
567.60	2318.52
567.96	2323.79
568.31	2328.39
568.66	2332.62
569.02	2336.63
569.37	2340.40
569.72	2344.69
570.08	2348.34
570.43	2351.56
570.78	2354.76
571.14	2357.39
571.49	2360.54
571.84	2364.23
572.20	2367.15
572.55	2370.36
572.90	2372.66
573.26	2375.64
573.61	2378.14
573.96	2380.38
574.31	2382.55
574.67	2384.59
575.02	2385.58
575.37	2387.02
575.72	2387.83
576.08	2389.62
576.43	2390.02
576.78	2390.96
577.13	2392.93
577.49	2394.18
577.84	2395.60
578.19	2397.18
578.54	2398.01
578.90	2398.96
579.25	2398.91
579.60	2399.25
579.95	2398.71
580.30	2399.14
580.66	2398.55
581.01	2397.20
581.36	2395.10
581.71	2393.93
582.06	2392.98
582.42	2392.30
582.77	2390.21
583.12	2388.80
583.47	2387.58
583.82	2387.08
584.17	2385.80
584.53	2383.60
584.88	2381.78
585.23	2380.00
585.58	2377.82
585.93	2375.81
586.28	2373.96
586.63	2371.88
586.98	2369.83
587.34	2368.20
587.69	2366.03
588.04	2364.26
588.39	2362.82
588.74	2360.61
589.09	2358.09
589.44	2355.28
589.79	2352.99
590.14	2351.47
590.49	2348.80
590.84	2345.07
591.19	2342.31
591.54	2339.25
591.89	2335.52
592.25	2332.34
592.60	2328.26
592.95	2324.29
593.30	2320.27
593.65	2315.93
594.00	2311.77
594.35	2308.67
594.70	2304.14
595.05	2299.42
595.40	2294.05
595.75	2288.74
596.10	2285.14
596.45	2280.35
596.80	2275.88
597.15	2270.77
597.50	2264.84
597.85	2260.12
598.19	2255.14
598.54	2249.47
598.89	2244.50
599.24	2240.02
599.59	2234.10
599.94	2228.49
600.29	2222.62
600.64	2216.92
600.99	2210.22
601.34	2204.73
601.69	2197.84
602.04	2191.46
602.39	2185.20
602.74	2179.26
603.08	2173.73
603.43	2167.35
603.78	2160.69
604.13	2153.65
604.48	2146.48
604.83	2140.51
605.18	2134.28
605.53	2127.37
605.87	2120.39
606.22	2113.73
606.57	2105.88
606.92	2098.02
607.27	2091.12
607.62	2084.82
607.96	2077.77
608.31	2071.38
608.66	2063.63
609.01	2056.21
609.36	2049.12
609.70	2041.44
610.05	2033.82
610.40	2025.60
610.75	2017.40
611.10	2009.84
611.44	2001.15
611.79	1992.53
612.14	1982.57
612.49	1972.08
612.83	1962.98
613.18	1953.84
613.53	1944.54
613.88	1935.22
614.22	1926.72
614.57	1916.90
614.92	1906.32
615.27	1896.29
615.61	1886.38
615.96	1876.82
616.31	1867.32
616.65	1858.05
617.00	1848.22
617.35	1838.53
617.70	1828.89
618.04	1818.82
618.39	1808.43
618.74	1798.69
619.08	1789.16
619.43	1780.48
619.78	1772.31
620.12	1763.53
620.47	1753.72
620.82	1743.39
621.16	1733.42
621.51	1723.43
621.85	1713.56
622.20	1703.01
622.55	1692.44
622.89	1682.59
623.24	1672.94
623.59	1663.15
623.93	1652.95
624.28	1643.34
624.62	1633.21
624.97	1622.83
625.32	1613.20
625.66	1604.51
626.01	1595.69
626.35	1586.23
626.70	1576.20
627.04	1565.97
627.39	1555.95
627.73	1546.72
628.08	1537.71
628.43	1528.23
628.77	1519.10
629.12	1510.32
629.46	1502.51
629.81	1494.09
630.15	1484.39
630.50	1474.47
630.84	1464.08
631.19	1454.14
631.53	1444.68
631.88	1434.41
632.22	1424.47
632.57	1415.06
632.91	1404.81
633.26	1395.10
633.60	1385.60
633.95	1376.22
634.29	1366.97
634.64	1357.69
634.98	1347.78
635.32	1338.50
635.67	1329.98
636.01	1320.73
636.36	1310.83
636.70	1301.28
637.05	1291.99
637.39	1283.12
637.73	1274.53
638.08	1266.93
638.42	1258.78
638.77	1250.10
639.11	1242.06
639.45	1234.18
639.80	1225.46
640.14	1216.85
640.49	1207.87
640.83	1199.12
641.17	1191.12
641.52	1182.80
641.86	1174.14
642.20	1166.27
642.55	1157.76
642.89	1148.83
643.23	1140.15
643.58	1132.22
643.92	1123.31
644.26	1114.72
644.61	1106.41
644.95	1097.81
645.29	1088.59
645.64	1079.44
645.98	1071.06
646.32	1063.09
646.66	1054.68
647.01	1046.49
647.35	1038.36
647.69	1030.11
648.04	1021.72
648.38	1012.89
648.72	1004.11
649.06	995.68
649.41	987.57
649.75	979.56
650.09	971.79
650.43	963.70
650.78	955.40
651.12	947.73
651.46	940.35
651.80	933.08
652.14	925.66
652.49	918.20
652.83	910.91
653.17	903.25
653.51	895.67
653.85	888.45
654.20	881.22
654.54	873.75
654.88	866.67
655.22	859.62
655.56	852.69
655.90	846.00
656.25	839.44
656.59	832.54
656.93	825.64
657.27	818.66
657.61	811.91
657.95	805.89
658.29	800.09
658.64	793.96
658.98	787.54
659.32	780.98
659.66	774.85
660.00	768.60
660.34	762.55
660.68	756.48
661.02	750.25
661.36	744.38
661.70	738.65
662.05	732.99
662.39	727.54
662.73	722.15
663.07	716.83
663.41	711.29
663.75	705.79
664.09	700.19
664.43	694.79
664.77	689.50
665.11	683.74
665.45	677.85
665.79	672.15
666.13	666.55
666.47	661.22
666.81	655.90
667.15	650.64
667.49	645.54
667.83	640.41
668.17	635.27
668.51	630.25
668.85	625.46
669.19	620.62
669.53	615.66
669.87	610.66
670.21	605.98
670.55	601.40
670.89	596.98
671.23	592.78
671.57	588.49
671.91	584.23
672.25	580.21
672.58	576.13
672.92	572.19
673.26	568.29
673.60	564.46
673.94	560.63
674.28	557.02
674.62	553.31
674.96	549.63
675.30	546.17
675.64	542.52
675.97	539.01
676.31	535.46
676.65	531.88
676.99	528.46
677.33	524.67
677.67	521.00
678.01	517.21
678.34	513.61
678.68	510.14
679.02	506.54
679.36	502.87
679.70	499.31
680.04	495.78
680.37	492.41
680.71	489.15
681.05	486.01
681.39	482.85
681.73	479.71
682.06	476.67
682.40	473.67
682.74	470.60
683.08	467.45
683.42	464.36
683.75	461.46
684.09	458.54
684.43	455.78
684.77	452.93
685.10	450.15
685.44	447.30
685.78	444.41
686.12	441.76
686.45	439.11
686.79	436.50
687.13	434.01
687.46	431.41
687.80	428.76
688.14	425.98
688.48	423.43
688.81	420.83
689.15	418.34
689.49	415.70
689.82	413.16
690.16	410.57
690.50	408.10
690.83	405.66
691.17	403.16
691.51	400.77
691.84	398.59
692.18	396.40
692.52	394.20
692.85	392.17
693.19	390.09
693.52	387.95
693.86	385.80
694.20	383.62
694.53	381.56
694.87	379.44
695.21	377.41
695.54	375.25
695.88	373.12
696.21	370.92
696.55	368.84
696.88	366.86
697.22	364.95
697.56	363.14
697.89	361.31
698.23	359.62
698.56	357.79
698.90	356.04
699.23	354.15
699.57	352.37
699.90	350.52
700.24	348.76
700.58	347.06
700.91	345.43
701.25	343.95
701.58	342.38
701.92	340.82
702.25	339.23
702.59	337.67
702.92	336.21
703.26	334.75
703.59	333.36
703.93	332.17
704.26	330.79
704.60	329.31
704.93	327.88
705.26	326.37
705.60	324.99
705.93	323.53
706.27	322.28
706.60	321.03
706.94	319.85
707.27	318.45
707.61	317.11
707.94	315.80
708.27	314.33
708.61	312.93
708.94	311.63
709.28	310.37
709.61	309.18
709.94	307.98
710.28	306.82
710.61	305.65
710.95	304.23
711.28	303.16
711.61	302.03
711.95	300.93
712.28	299.81
712.61	298.67
712.95	297.62
713.28	296.58
713.61	295.44
713.95	294.33
714.28	293.35
714.61	292.33
714.95	291.32
715.28	290.31
715.61	289.33
715.95	288.41
716.28	287.50
716.61	286.59
716.95	285.61
717.28	284.70
717.61	283.76
717.94	282.87
718.28	281.88
718.61	281.03
718.94	280.18
719.27	279.37
719.61	278.61
719.94	277.75
720.27	276.82
720.60	276.00
720.94	275.23
721.27	274.45
721.60	273.78
721.93	273.10
722.27	272.52
722.60	271.83
722.93	271.09
723.26	270.45
723.59	269.75
723.93	269.16
724.26	268.49
724.59	267.88
724.92	267.32
725.25	266.79
725.59	266.23
725.92	265.67
726.25	265.11
726.58	264.54
726.91	264.00
727.24	263.47
727.57	262.95
727.91	262.34
728.24	261.83
728.57	261.27
728.90	260.75
729.23	260.13
729.56	259.69
729.89	259.17
730.22	258.64
730.55	258.13
730.89	257.65
731.22	257.14
731.55	256.64
731.88	256.11
732.21	255.59
732.54	255.10
732.87	254.59
733.20	254.09
733.53	253.62
733.86	253.18
734.19	252.71
734.52	252.30
734.85	252.03
735.18	251.58
735.51	251.24
735.84	250.81
736.17	250.42
736.50	249.93
736.83	249.79
737.16	249.39
737.49	249.00
737.82	248.58
738.15	248.23
738.48	247.84
738.81	247.49
739.14	247.08
739.47	246.67
739.80	246.31
740.13	245.97
740.46	245.58
740.79	245.20
741.12	244.82
741.45	244.45
741.78	244.01
742.11	243.76
742.44	243.39
742.77	243.10
743.10	242.80
743.43	242.49
743.75	241.97
744.08	241.90
744.41	241.58
744.74	241.25
745.07	240.90
745.40	240.64
745.73	240.37
746.06	240.04
746.39	239.78
746.71	239.44
747.04	239.10
747.37	238.80
747.70	238.54
748.03	238.27
748.36	238.05
748.68	237.74
749.01	237.40
749.34	237.05
749.67	236.74
750.00	236.49
750.33	236.34
750.65	236.06
750.98	235.53
751.31	235.31
751.64	235.11
751.97	234.96
752.29	234.71
752.62	234.40
752.95	234.18
753.28	233.91
753.60	233.65
753.93	233.51
754.26	233.30
754.59	233.00
754.91	232.77
755.24	232.50
755.57	232.26
755.90	232.02
756.22	231.81
756.55	231.57
756.88	231.30
757.20	230.94
757.53	230.69
757.86	230.49
758.19	230.28
758.51	230.09
758.84	229.80
759.17	229.59
759.49	229.42
759.82	229.38
760.15	229.20
760.47	229.05
760.80	228.78
761.13	228.62
761.45	228.46
761.78	228.26
762.11	228.08
762.43	227.92
762.76	227.77
763.08	227.63
763.41	227.49
763.74	227.35
764.06	227.20
764.39	227.06
764.71	226.92
765.04	226.77
765.37	226.59
765.69	226.42
766.02	226.29
766.34	226.13
766.67	225.86
767.00	225.75
767.32	225.75
767.65	225.77
767.97	225.63
768.30	225.55
768.62	225.49
768.95	225.34
769.27	225.19
769.60	225.12
769.92	225.00
770.25	224.86
770.57	224.71
770.90	224.61
771.22	224.48
771.55	224.39
771.87	224.29
772.20	224.19
772.52	224.27
772.85	224.40
773.17	224.30
773.50	224.21
773.82	224.11
774.15	223.88
774.47	223.62
774.80	223.50
775.12	223.40
775.45	223.27
775.77	223.22
776.09	223.14
776.42	223.02
776.74	222.96
777.07	222.87
777.39	222.79
777.72	222.71
778.04	222.65
778.36	222.58
778.69	222.48
779.01	222.40
779.33	222.15
779.66	221.83
779.98	221.74
780.31	221.66
780.63	221.62
780.95	221.60
781.28	221.52
781.60	221.48
781.92	221.42
782.25	221.37
782.57	221.28
782.89	221.18
783.22	221.09
783.54	221.00
783.86	220.93
784.19	220.86
784.51	220.83
784.83	220.74
785.16	220.63
785.48	220.59
785.80	220.56
786.12	220.50
