SpectraSuite Data File
++++++++++++++++++++++++++++++++++++
Date: Tue Jan 29 16:45:58 EST 2013
User: group
Dark Spectrum Present: No
Reference Spectrum Present: No
Number of Sampled Component Spectra: 1
Spectrometers: USB2E7196
Integration Time (usec): 65000 (USB2E7196)
Spectra Averaged: 100 (USB2E7196)
Boxcar Smoothing: 10 (USB2E7196)
Correct for Electrical Dark: No (USB2E7196)
Strobe/Lamp Enabled: No (USB2E7196)
Correct for Detector Non-linearity: No (USB2E7196)
Correct for Stray Light: No (USB2E7196)
Number of Pixels in Processed Spectrum: 2048
>>>>>Begin Processed Spectral Data<<<<<
339.09	0.00
339.48	201.53
339.86	203.39
340.24	204.91
340.63	206.19
341.01	210.69
341.39	208.18
341.78	210.11
342.16	211.64
342.54	211.47
342.93	200.92
343.31	211.06
343.69	211.61
344.07	212.04
344.46	212.46
344.84	212.83
345.22	212.97
345.60	213.27
345.99	213.46
346.37	213.57
346.75	213.68
347.13	213.76
347.52	213.85
347.90	213.95
348.28	213.98
348.66	214.03
349.05	214.02
349.43	214.10
349.81	214.16
350.19	214.20
350.57	214.27
350.96	214.38
351.34	214.46
351.72	214.57
352.10	214.67
352.48	214.72
352.87	214.78
353.25	214.84
353.63	214.87
354.01	214.92
354.39	215.00
354.77	215.11
355.15	215.22
355.54	215.24
355.92	215.26
356.30	215.34
356.68	215.56
357.06	215.62
357.44	215.64
357.82	215.66
358.20	215.75
358.58	215.80
358.97	215.82
359.35	215.93
359.73	216.02
360.11	216.08
360.49	216.18
360.87	216.26
361.25	216.34
361.63	216.48
362.01	216.53
362.39	216.58
362.77	216.59
363.15	216.64
363.53	216.68
363.91	216.70
364.29	216.73
364.67	216.58
365.05	216.62
365.43	216.67
365.81	216.74
366.19	216.87
366.57	216.98
366.95	217.00
367.33	216.95
367.71	216.96
368.09	217.03
368.47	217.02
368.85	216.99
369.23	217.04
369.61	216.94
369.99	217.01
370.37	217.03
370.75	217.12
371.13	217.05
371.51	216.97
371.89	216.99
372.27	216.96
372.65	216.94
373.03	216.95
373.41	216.91
373.78	216.85
374.16	216.71
374.54	216.61
374.92	216.56
375.30	216.54
375.68	216.43
376.06	216.41
376.44	216.35
376.82	216.31
377.19	216.25
377.57	216.21
377.95	216.10
378.33	216.05
378.71	215.93
379.09	215.93
379.47	215.95
379.84	215.90
380.22	215.83
380.60	215.75
380.98	215.67
381.36	215.61
381.73	215.57
382.11	215.54
382.49	215.51
382.87	215.43
383.25	215.40
383.62	215.64
384.00	215.53
384.38	215.52
384.76	215.56
385.13	215.60
385.51	215.59
385.89	215.51
386.27	215.48
386.64	215.44
387.02	215.40
387.40	215.31
387.78	215.29
388.15	215.28
388.53	215.24
388.91	215.17
389.29	215.16
389.66	215.15
390.04	215.11
390.42	215.11
390.79	215.12
391.17	215.08
391.55	214.81
391.92	214.81
392.30	214.81
392.68	214.75
393.05	214.71
393.43	214.70
393.81	214.74
394.18	214.68
394.56	214.72
394.94	214.75
395.31	214.75
395.69	214.84
396.06	214.89
396.44	214.94
396.82	214.97
397.19	215.09
397.57	215.08
397.95	215.16
398.32	215.13
398.70	215.21
399.07	215.28
399.45	215.34
399.82	215.38
400.20	215.38
400.58	215.42
400.95	215.40
401.33	215.50
401.70	215.71
402.08	215.80
402.45	215.87
402.83	215.99
403.20	216.16
403.58	216.22
403.95	216.32
404.33	216.49
404.71	216.66
405.08	216.93
405.46	217.13
405.83	217.31
406.21	217.52
406.58	217.76
406.96	218.02
407.33	218.32
407.70	218.66
408.08	219.16
408.45	219.52
408.83	219.95
409.20	220.30
409.58	220.56
409.95	221.06
410.33	221.54
410.70	221.99
411.08	222.52
411.45	223.12
411.82	223.75
412.20	224.44
412.57	225.25
412.95	225.79
413.32	226.59
413.69	227.42
414.07	228.35
414.44	229.37
414.82	230.37
415.19	231.55
415.56	232.74
415.94	233.92
416.31	235.38
416.68	236.75
417.06	238.40
417.43	239.97
417.81	241.70
418.18	243.49
418.55	245.44
418.93	247.47
419.30	249.60
419.67	251.83
420.04	254.13
420.42	256.57
420.79	259.40
421.16	262.21
421.54	265.16
421.91	268.19
422.28	271.26
422.66	274.54
423.03	277.80
423.40	281.21
423.77	284.80
424.15	288.42
424.52	292.26
424.89	296.49
425.26	300.64
425.64	304.56
426.01	308.84
426.38	313.30
426.75	317.88
427.13	322.61
427.50	327.59
427.87	332.82
428.24	338.01
428.61	343.00
428.99	348.55
429.36	354.58
429.73	360.48
430.10	366.35
430.47	372.49
430.85	378.83
431.22	385.57
431.59	392.74
431.96	399.64
432.33	407.15
432.70	414.37
433.08	422.90
433.45	430.97
433.82	439.01
434.19	447.96
434.56	456.65
434.93	465.02
435.30	473.31
435.68	482.44
436.05	491.50
436.42	500.49
436.79	508.70
437.16	517.44
437.53	526.69
437.90	535.90
438.27	544.91
438.64	554.13
439.01	562.64
439.38	570.19
439.75	577.57
440.13	586.03
440.50	594.08
440.87	600.53
441.24	607.19
441.61	614.55
441.98	619.92
442.35	626.33
442.72	632.70
443.09	638.82
443.46	642.56
443.83	645.06
444.20	647.21
444.57	650.37
444.94	651.88
445.31	653.44
445.68	654.81
446.05	655.43
446.42	654.71
446.79	653.82
447.16	652.81
447.53	652.07
447.90	648.81
448.27	645.54
448.64	640.86
449.01	637.57
449.37	631.69
449.74	626.04
450.11	619.17
450.48	611.72
450.85	604.22
451.22	597.77
451.59	591.62
451.96	585.78
452.33	577.92
452.70	570.77
453.07	562.23
453.43	553.67
453.80	545.31
454.17	537.26
454.54	529.60
454.91	521.33
455.28	513.23
455.65	505.73
456.02	498.10
456.38	491.68
456.75	483.78
457.12	477.19
457.49	470.61
457.86	464.31
458.23	458.94
458.59	452.95
458.96	446.91
459.33	441.58
459.70	436.18
460.07	431.84
460.43	426.92
460.80	422.29
461.17	418.23
461.54	414.03
461.91	409.98
462.27	405.85
462.64	402.44
463.01	398.62
463.38	394.95
463.74	391.26
464.11	388.06
464.48	385.16
464.85	382.03
465.21	379.59
465.58	376.97
465.95	373.78
466.32	371.13
466.68	368.48
467.05	365.88
467.42	363.33
467.78	360.61
468.15	358.07
468.52	356.11
468.88	353.54
469.25	351.28
469.62	349.47
469.98	347.52
470.35	345.68
470.72	343.98
471.08	342.11
471.45	340.60
471.82	339.05
472.18	337.37
472.55	336.14
472.92	334.73
473.28	333.50
473.65	332.32
474.02	331.24
474.38	330.34
474.75	329.55
475.11	328.74
475.48	328.17
475.85	327.69
476.21	327.22
476.58	326.91
476.94	326.70
477.31	326.36
477.67	326.07
478.04	325.89
478.41	325.87
478.77	326.05
479.14	325.97
479.50	326.13
479.87	326.39
480.23	326.72
480.60	326.93
480.96	327.20
481.33	327.80
481.69	328.32
482.06	328.89
482.42	329.33
482.79	329.91
483.15	330.72
483.52	331.69
483.88	332.58
484.25	333.48
484.61	334.46
484.98	335.52
485.34	336.81
485.71	338.21
486.07	339.63
486.44	340.94
486.80	342.59
487.17	344.25
487.53	346.10
487.90	348.00
488.26	350.09
488.62	352.29
488.99	354.37
489.35	356.52
489.72	358.88
490.08	361.47
490.44	364.02
490.81	366.70
491.17	369.39
491.54	372.39
491.90	375.46
492.26	378.70
492.63	382.14
492.99	385.61
493.36	389.21
493.72	393.10
494.08	397.10
494.45	401.30
494.81	405.61
495.17	410.00
495.54	414.67
495.90	419.46
496.26	424.33
496.63	429.50
496.99	434.97
497.35	440.45
497.72	446.22
498.08	452.17
498.44	458.25
498.80	464.61
499.17	471.06
499.53	477.79
499.89	484.73
500.26	491.73
500.62	498.84
500.98	506.31
501.34	513.76
501.71	521.60
502.07	529.43
502.43	537.42
502.79	545.63
503.16	554.10
503.52	562.72
503.88	571.47
504.24	580.48
504.60	589.53
504.97	598.79
505.33	608.05
505.69	617.86
506.05	627.73
506.41	637.64
506.78	647.71
507.14	657.92
507.50	668.33
507.86	678.97
508.22	689.74
508.59	700.32
508.95	711.41
509.31	722.57
509.67	734.00
510.03	745.52
510.39	757.22
510.75	768.96
511.12	780.87
511.48	792.94
511.84	805.15
512.20	817.49
512.56	830.23
512.92	843.03
513.28	855.75
513.64	868.54
514.00	881.34
514.37	894.45
514.73	907.51
515.09	920.59
515.45	933.56
515.81	946.63
516.17	960.05
516.53	973.35
516.89	986.57
517.25	999.77
517.61	1013.30
517.97	1026.78
518.33	1039.97
518.69	1053.42
519.05	1067.20
519.41	1080.91
519.77	1094.77
520.13	1108.10
520.49	1121.36
520.85	1134.79
521.21	1148.13
521.57	1161.89
521.93	1174.81
522.29	1188.61
522.65	1202.27
523.01	1215.86
523.37	1229.08
523.73	1242.45
524.09	1255.65
524.45	1269.05
524.81	1282.67
525.17	1296.03
525.53	1309.23
525.89	1322.62
526.25	1335.99
526.61	1348.95
526.97	1362.11
527.33	1375.23
527.68	1388.77
528.04	1402.50
528.40	1415.64
528.76	1429.07
529.12	1441.94
529.48	1455.39
529.84	1467.68
530.20	1480.49
530.56	1493.21
530.91	1506.59
531.27	1519.45
531.63	1532.06
531.99	1544.89
532.35	1557.07
532.71	1569.61
533.07	1582.62
533.42	1594.97
533.78	1606.97
534.14	1618.97
534.50	1630.29
534.86	1641.81
535.21	1652.63
535.57	1664.09
535.93	1675.37
536.29	1686.45
536.65	1698.13
537.00	1709.13
537.36	1720.74
537.72	1731.80
538.08	1743.18
538.44	1754.24
538.79	1765.64
539.15	1776.90
539.51	1787.70
539.87	1799.11
540.22	1809.87
540.58	1820.76
540.94	1831.78
541.29	1842.29
541.65	1852.21
542.01	1862.71
542.37	1872.91
542.72	1883.20
543.08	1892.98
543.44	1903.59
543.79	1913.16
544.15	1922.63
544.51	1932.73
544.87	1942.65
545.22	1951.85
545.58	1960.89
545.94	1969.83
546.29	1978.33
546.65	1986.80
547.01	1995.22
547.36	2003.01
547.72	2010.87
548.07	2018.60
548.43	2026.30
548.79	2034.19
549.14	2042.46
549.50	2051.07
549.86	2059.09
550.21	2066.65
550.57	2074.48
550.92	2081.38
551.28	2088.83
551.64	2096.14
551.99	2103.71
552.35	2110.95
552.70	2118.01
553.06	2124.72
553.41	2130.97
553.77	2137.64
554.13	2143.98
554.48	2151.08
554.84	2158.25
555.19	2164.94
555.55	2171.31
555.90	2177.72
556.26	2184.68
556.61	2190.89
556.97	2195.77
557.32	2201.52
557.68	2207.86
558.03	2213.73
558.39	2219.14
558.74	2225.10
559.10	2230.60
559.45	2236.17
559.81	2241.71
560.16	2247.16
560.52	2253.06
560.87	2259.56
561.23	2265.26
561.58	2271.81
561.94	2276.99
562.29	2281.63
562.64	2287.50
563.00	2293.15
563.35	2298.61
563.71	2304.11
564.06	2309.64
564.42	2315.44
564.77	2320.41
565.12	2325.70
565.48	2330.65
565.83	2336.06
566.19	2341.26
566.54	2346.53
566.89	2351.02
567.25	2355.53
567.60	2361.33
567.96	2366.43
568.31	2370.82
568.66	2375.13
569.02	2378.97
569.37	2382.53
569.72	2386.88
570.08	2390.39
570.43	2393.44
570.78	2396.52
571.14	2399.07
571.49	2402.01
571.84	2405.52
572.20	2408.31
572.55	2411.06
572.90	2413.17
573.26	2415.97
573.61	2418.66
573.96	2420.69
574.31	2422.59
574.67	2424.36
575.02	2424.97
575.37	2426.22
575.72	2426.71
576.08	2427.88
576.43	2427.88
576.78	2428.07
577.13	2429.47
577.49	2430.48
577.84	2431.32
578.19	2432.35
578.54	2432.75
578.90	2433.22
579.25	2432.85
579.60	2432.70
579.95	2431.84
580.30	2431.71
580.66	2430.73
581.01	2428.81
581.36	2426.36
581.71	2424.77
582.06	2423.36
582.42	2422.24
582.77	2419.85
583.12	2418.21
583.47	2416.61
583.82	2415.88
584.17	2414.63
584.53	2412.41
584.88	2410.23
585.23	2408.32
585.58	2405.87
585.93	2403.78
586.28	2401.63
586.63	2399.17
586.98	2396.81
587.34	2394.79
587.69	2392.33
588.04	2390.05
588.39	2388.44
588.74	2385.63
589.09	2382.85
589.44	2379.53
589.79	2376.80
590.14	2374.62
590.49	2371.54
590.84	2367.62
591.19	2364.31
591.54	2360.99
591.89	2356.72
592.25	2353.27
592.60	2348.93
592.95	2344.87
593.30	2340.53
593.65	2335.96
594.00	2331.39
594.35	2328.34
594.70	2323.59
595.05	2318.99
595.40	2313.52
595.75	2307.60
596.10	2304.19
596.45	2299.37
596.80	2294.67
597.15	2289.41
597.50	2283.49
597.85	2278.58
598.19	2273.43
598.54	2267.62
598.89	2262.22
599.24	2257.67
599.59	2251.49
599.94	2245.47
600.29	2239.30
600.64	2233.40
600.99	2226.50
601.34	2220.95
601.69	2213.79
602.04	2207.43
602.39	2200.63
602.74	2194.37
603.08	2188.86
603.43	2182.09
603.78	2175.14
604.13	2168.20
604.48	2160.97
604.83	2154.82
605.18	2148.55
605.53	2141.61
605.87	2134.70
606.22	2128.00
606.57	2119.96
606.92	2112.01
607.27	2105.13
607.62	2098.56
607.96	2091.48
608.31	2085.19
608.66	2077.48
609.01	2069.85
609.36	2062.57
609.70	2054.94
610.05	2047.26
610.40	2039.03
610.75	2030.84
611.10	2023.06
611.44	2014.14
611.79	2005.43
612.14	1995.45
612.49	1984.78
612.83	1975.41
613.18	1965.96
613.53	1956.57
613.88	1947.00
614.22	1938.39
614.57	1928.57
614.92	1917.96
615.27	1907.85
615.61	1897.61
615.96	1887.88
616.31	1878.34
616.65	1868.91
617.00	1859.20
617.35	1849.47
617.70	1839.71
618.04	1829.77
618.39	1819.55
618.74	1809.99
619.08	1800.30
619.43	1791.60
619.78	1783.41
620.12	1774.87
620.47	1765.36
620.82	1755.03
621.16	1745.39
621.51	1735.41
621.85	1725.67
622.20	1715.46
622.55	1704.84
622.89	1694.92
623.24	1685.19
623.59	1675.48
623.93	1665.40
624.28	1655.62
624.62	1645.79
624.97	1635.65
625.32	1625.78
625.66	1617.01
626.01	1608.29
626.35	1599.06
626.70	1589.10
627.04	1579.11
627.39	1568.95
627.73	1559.71
628.08	1551.00
628.43	1541.48
628.77	1532.39
629.12	1523.49
629.46	1515.65
629.81	1507.35
630.15	1498.00
630.50	1488.26
630.84	1477.85
631.19	1468.08
631.53	1459.01
631.88	1448.78
632.22	1438.77
632.57	1429.57
632.91	1419.50
633.26	1409.66
633.60	1400.26
633.95	1391.09
634.29	1381.57
634.64	1372.38
634.98	1362.54
635.32	1353.26
635.67	1344.80
636.01	1335.63
636.36	1326.02
636.70	1316.58
637.05	1307.33
637.39	1298.45
637.73	1290.07
638.08	1282.64
638.42	1274.58
638.77	1265.77
639.11	1257.64
639.45	1249.92
639.80	1241.41
640.14	1232.85
640.49	1224.10
640.83	1215.26
641.17	1207.09
641.52	1199.05
641.86	1190.50
642.20	1182.78
642.55	1174.16
642.89	1165.39
643.23	1156.85
643.58	1148.74
643.92	1139.71
644.26	1131.02
644.61	1122.70
644.95	1113.84
645.29	1104.57
645.64	1095.36
645.98	1086.93
646.32	1079.13
646.66	1070.66
647.01	1062.41
647.35	1054.31
647.69	1045.97
648.04	1037.77
648.38	1029.00
648.72	1020.31
649.06	1011.95
649.41	1003.66
649.75	995.81
650.09	988.02
650.43	979.98
650.78	971.71
651.12	964.02
651.46	956.66
651.80	949.43
652.14	942.17
652.49	934.71
652.83	927.42
653.17	919.66
653.51	911.99
653.85	904.72
654.20	897.52
654.54	890.02
654.88	882.82
655.22	875.55
655.56	868.58
655.90	861.80
656.25	855.10
656.59	848.37
656.93	841.32
657.27	834.17
657.61	827.16
657.95	821.08
658.29	815.23
658.64	809.12
658.98	802.61
659.32	796.08
659.66	789.84
660.00	783.52
660.34	777.47
660.68	771.34
661.02	765.06
661.36	759.04
661.70	753.24
662.05	747.65
662.39	742.11
662.73	736.72
663.07	731.31
663.41	725.72
663.75	719.88
664.09	714.23
664.43	708.80
664.77	703.51
665.11	697.67
665.45	691.72
665.79	685.93
666.13	680.21
666.47	674.71
666.81	669.27
667.15	663.87
667.49	658.70
667.83	653.44
668.17	648.14
668.51	642.99
668.85	638.07
669.19	633.15
669.53	628.17
669.87	623.05
670.21	618.30
670.55	613.58
670.89	609.20
671.23	604.84
671.57	600.46
671.91	596.10
672.25	592.01
672.58	587.91
672.92	583.79
673.26	579.87
673.60	575.97
673.94	572.17
674.28	568.55
674.62	564.80
674.96	561.03
675.30	557.54
675.64	553.85
675.97	550.23
676.31	546.59
676.65	543.00
676.99	539.55
677.33	535.67
677.67	531.99
678.01	528.13
678.34	524.49
678.68	520.96
679.02	517.38
679.36	513.62
679.70	509.88
680.04	506.35
680.37	502.91
680.71	499.56
681.05	496.31
681.39	493.06
681.73	489.85
682.06	486.85
682.40	483.68
682.74	480.54
683.08	477.29
683.42	474.08
683.75	471.02
684.09	467.95
684.43	465.12
684.77	462.20
685.10	459.31
685.44	456.35
685.78	453.39
686.12	450.57
686.45	447.86
686.79	445.24
687.13	442.62
687.46	439.91
687.80	437.26
688.14	434.38
688.48	431.70
688.81	429.01
689.15	426.37
689.49	423.78
689.82	421.20
690.16	418.60
690.50	416.12
690.83	413.58
691.17	410.98
691.51	408.45
691.84	406.17
692.18	403.94
692.52	401.72
692.85	399.53
693.19	397.34
693.52	395.12
693.86	392.80
694.20	390.58
694.53	388.45
694.87	386.20
695.21	384.06
695.54	381.85
695.88	379.62
696.21	377.40
696.55	375.20
696.88	373.11
697.22	371.11
697.56	369.19
697.89	367.28
698.23	365.49
698.56	363.68
698.90	361.83
699.23	359.88
699.57	357.97
699.90	356.02
700.24	354.17
700.58	352.40
700.91	350.76
701.25	349.18
701.58	347.52
701.92	345.88
702.25	344.25
702.59	342.60
702.92	341.08
703.26	339.52
703.59	338.07
703.93	336.77
704.26	335.29
704.60	333.71
704.93	332.25
705.26	330.71
705.60	329.27
705.93	327.76
706.27	326.41
706.60	325.18
706.94	323.94
707.27	322.54
707.61	321.14
707.94	319.79
708.27	318.23
708.61	316.77
708.94	315.38
709.28	314.07
709.61	312.83
709.94	311.57
710.28	310.35
710.61	309.11
710.95	307.68
711.28	306.61
711.61	305.50
711.95	304.33
712.28	303.12
712.61	301.91
712.95	300.85
713.28	299.80
713.61	298.58
713.95	297.47
714.28	296.46
714.61	295.42
714.95	294.38
715.28	293.37
715.61	292.28
715.95	291.33
716.28	290.33
716.61	289.35
716.95	288.33
717.28	287.37
717.61	286.37
717.94	285.44
718.28	284.40
718.61	283.49
718.94	282.56
719.27	281.68
719.61	280.85
719.94	279.95
720.27	278.93
720.60	278.05
720.94	277.22
721.27	276.46
721.60	275.76
721.93	275.02
722.27	274.35
722.60	273.75
722.93	273.02
723.26	272.35
723.59	271.64
723.93	270.98
724.26	270.34
724.59	269.70
724.92	269.08
725.25	268.51
725.59	267.89
725.92	267.35
726.25	266.80
726.58	266.21
726.91	265.63
727.24	265.08
727.57	264.55
727.91	263.91
728.24	263.28
728.57	262.66
728.90	262.09
729.23	261.48
729.56	261.00
729.89	260.44
730.22	259.88
730.55	259.33
730.89	258.79
731.22	258.20
731.55	257.68
731.88	257.17
732.21	256.61
732.54	256.08
732.87	255.56
733.20	255.05
733.53	254.55
733.86	254.08
734.19	253.60
734.52	253.16
734.85	252.89
735.18	252.46
735.51	252.07
735.84	251.63
736.17	251.24
736.50	250.72
736.83	250.54
737.16	250.16
737.49	249.75
737.82	249.33
738.15	248.96
738.48	248.55
738.81	248.13
739.14	247.71
739.47	247.33
739.80	246.90
740.13	246.55
740.46	246.16
740.79	245.74
741.12	245.39
741.45	244.99
741.78	244.50
742.11	244.20
742.44	243.83
742.77	243.50
743.10	243.11
743.43	242.74
743.75	242.18
744.08	242.06
744.41	241.74
744.74	241.37
745.07	241.01
745.40	240.74
745.73	240.50
746.06	240.18
746.39	239.86
746.71	239.55
747.04	239.20
747.37	238.84
747.70	238.55
748.03	238.23
748.36	237.95
748.68	237.65
749.01	237.29
749.34	236.97
749.67	236.69
750.00	236.42
750.33	236.30
750.65	236.02
750.98	235.51
751.31	235.27
751.64	235.09
751.97	234.94
752.29	234.65
752.62	234.32
752.95	234.04
753.28	233.77
753.60	233.51
753.93	233.33
754.26	233.17
754.59	232.90
754.91	232.63
755.24	232.37
755.57	232.13
755.90	231.91
756.22	231.67
756.55	231.39
756.88	231.14
757.20	230.80
757.53	230.54
757.86	230.33
758.19	230.08
758.51	229.83
758.84	229.54
759.17	229.34
759.49	229.15
759.82	229.08
760.15	228.91
760.47	228.72
760.80	228.46
761.13	228.27
761.45	228.10
761.78	227.94
762.11	227.80
762.43	227.62
762.76	227.42
763.08	227.27
763.41	227.18
763.74	227.05
764.06	226.90
764.39	226.72
764.71	226.56
765.04	226.38
765.37	226.21
765.69	226.08
766.02	225.93
766.34	225.75
766.67	225.55
767.00	225.42
767.32	225.42
767.65	225.42
767.97	225.26
768.30	225.15
768.62	225.01
768.95	224.84
769.27	224.68
769.60	224.61
769.92	224.45
770.25	224.25
770.57	224.08
770.90	223.97
771.22	223.88
771.55	223.78
771.87	223.71
772.20	223.59
772.52	223.65
772.85	223.78
773.17	223.69
773.50	223.56
773.82	223.44
774.15	223.26
774.47	223.04
774.80	222.96
775.12	222.81
775.45	222.73
775.77	222.64
776.09	222.60
776.42	222.48
776.74	222.47
777.07	222.36
777.39	222.29
777.72	222.16
778.04	222.10
778.36	221.99
778.69	221.91
779.01	221.83
779.33	221.56
779.66	221.23
779.98	221.18
780.31	221.11
780.63	221.10
780.95	221.05
781.28	220.98
781.60	220.93
781.92	220.87
782.25	220.80
782.57	220.72
782.89	220.64
783.22	220.58
783.54	220.44
783.86	220.42
784.19	220.34
784.51	220.37
784.83	220.29
785.16	220.23
785.48	220.15
785.80	220.12
786.12	220.09
