SpectraSuite Data File
++++++++++++++++++++++++++++++++++++
Date: Tue Jan 29 16:38:16 EST 2013
User: group
Dark Spectrum Present: No
Reference Spectrum Present: No
Number of Sampled Component Spectra: 1
Spectrometers: USB2E7196
Integration Time (usec): 65000 (USB2E7196)
Spectra Averaged: 100 (USB2E7196)
Boxcar Smoothing: 10 (USB2E7196)
Correct for Electrical Dark: No (USB2E7196)
Strobe/Lamp Enabled: No (USB2E7196)
Correct for Detector Non-linearity: No (USB2E7196)
Correct for Stray Light: No (USB2E7196)
Number of Pixels in Processed Spectrum: 2048
>>>>>Begin Processed Spectral Data<<<<<
339.09	0.00
339.48	201.67
339.86	203.67
340.24	204.75
340.63	206.25
341.01	211.11
341.39	208.76
341.78	210.81
342.16	212.46
342.54	212.42
342.93	201.32
343.31	211.49
343.69	212.05
344.07	212.50
344.46	212.94
344.84	213.35
345.22	213.51
345.60	213.83
345.99	214.02
346.37	214.13
346.75	214.25
347.13	214.29
347.52	214.39
347.90	214.54
348.28	214.59
348.66	214.67
349.05	214.66
349.43	214.76
349.81	214.80
350.19	214.85
350.57	214.92
350.96	215.02
351.34	215.10
351.72	215.19
352.10	215.30
352.48	215.38
352.87	215.39
353.25	215.43
353.63	215.44
354.01	215.48
354.39	215.55
354.77	215.64
355.15	215.77
355.54	215.81
355.92	215.77
356.30	215.82
356.68	215.98
357.06	216.06
357.44	216.05
357.82	216.12
358.20	216.16
358.58	216.21
358.97	216.26
359.35	216.37
359.73	216.46
360.11	216.51
360.49	216.57
360.87	216.61
361.25	216.66
361.63	216.77
362.01	216.84
362.39	216.83
362.77	216.83
363.15	216.84
363.53	216.86
363.91	216.88
364.29	216.92
364.67	216.73
365.05	216.73
365.43	216.80
365.81	216.82
366.19	216.93
366.57	216.99
366.95	216.99
367.33	216.93
367.71	216.89
368.09	216.92
368.47	216.91
368.85	216.93
369.23	216.97
369.61	216.91
369.99	216.96
370.37	216.99
370.75	217.08
371.13	217.02
371.51	216.97
371.89	216.98
372.27	216.96
372.65	216.95
373.03	216.91
373.41	216.85
373.78	216.82
374.16	216.68
374.54	216.61
374.92	216.56
375.30	216.54
375.68	216.49
376.06	216.46
376.44	216.40
376.82	216.38
377.19	216.32
377.57	216.27
377.95	216.17
378.33	216.15
378.71	215.97
379.09	215.94
379.47	215.92
379.84	215.89
380.22	215.83
380.60	215.77
380.98	215.74
381.36	215.69
381.73	215.63
382.11	215.64
382.49	215.57
382.87	215.50
383.25	215.44
383.62	215.66
384.00	215.59
384.38	215.55
384.76	215.59
385.13	215.60
385.51	215.56
385.89	215.49
386.27	215.44
386.64	215.47
387.02	215.45
387.40	215.40
387.78	215.37
388.15	215.37
388.53	215.35
388.91	215.34
389.29	215.33
389.66	215.33
390.04	215.27
390.42	215.31
390.79	215.32
391.17	215.33
391.55	215.08
391.92	215.09
392.30	215.14
392.68	215.04
393.05	215.06
393.43	215.06
393.81	215.07
394.18	215.03
394.56	215.02
394.94	215.08
395.31	215.08
395.69	215.15
396.06	215.18
396.44	215.23
396.82	215.23
397.19	215.34
397.57	215.38
397.95	215.43
398.32	215.42
398.70	215.48
399.07	215.55
399.45	215.57
399.82	215.63
400.20	215.64
400.58	215.75
400.95	215.71
401.33	215.83
401.70	216.04
402.08	216.13
402.45	216.23
402.83	216.35
403.20	216.46
403.58	216.55
403.95	216.73
404.33	216.86
404.71	217.01
405.08	217.27
405.46	217.42
405.83	217.64
406.21	217.81
406.58	218.04
406.96	218.26
407.33	218.54
407.70	218.84
408.08	219.30
408.45	219.63
408.83	220.06
409.20	220.43
409.58	220.75
409.95	221.21
410.33	221.68
410.70	222.10
411.08	222.66
411.45	223.23
411.82	223.78
412.20	224.46
412.57	225.30
412.95	225.89
413.32	226.74
413.69	227.55
414.07	228.46
414.44	229.47
414.82	230.51
415.19	231.70
415.56	232.87
415.94	234.06
416.31	235.47
416.68	236.83
417.06	238.44
417.43	239.98
417.81	241.78
418.18	243.60
418.55	245.53
418.93	247.58
419.30	249.71
419.67	251.91
420.04	254.18
420.42	256.55
420.79	259.37
421.16	262.17
421.54	265.09
421.91	268.08
422.28	271.17
422.66	274.43
423.03	277.66
423.40	281.08
423.77	284.70
424.15	288.37
424.52	292.23
424.89	296.36
425.26	300.47
425.64	304.30
426.01	308.58
426.38	313.08
426.75	317.65
427.13	322.38
427.50	327.41
427.87	332.67
428.24	337.86
428.61	342.83
428.99	348.33
429.36	354.38
429.73	360.31
430.10	366.18
430.47	372.30
430.85	378.67
431.22	385.32
431.59	392.42
431.96	399.28
432.33	406.77
432.70	414.01
433.08	422.50
433.45	430.60
433.82	438.64
434.19	447.53
434.56	456.29
434.93	464.62
435.30	472.96
435.68	482.12
436.05	491.18
436.42	500.20
436.79	508.42
437.16	517.17
437.53	526.47
437.90	535.66
438.27	544.59
438.64	553.82
439.01	562.43
439.38	570.06
439.75	577.39
440.13	585.83
440.50	593.86
440.87	600.35
441.24	607.03
441.61	614.41
441.98	619.86
442.35	626.19
442.72	632.51
443.09	638.57
443.46	642.27
443.83	644.82
444.20	646.97
444.57	650.09
444.94	651.63
445.31	653.05
445.68	654.46
446.05	655.12
446.42	654.29
446.79	653.31
447.16	652.22
447.53	651.45
447.90	648.15
448.27	644.86
448.64	640.22
449.01	636.88
449.37	631.02
449.74	625.34
450.11	618.34
450.48	611.00
450.85	603.47
451.22	597.01
451.59	590.85
451.96	585.00
452.33	577.10
452.70	569.95
453.07	561.49
453.43	552.85
453.80	544.53
454.17	536.54
454.54	528.95
454.91	520.76
455.28	512.76
455.65	505.37
456.02	497.82
456.38	491.44
456.75	483.51
457.12	476.86
457.49	470.29
457.86	464.17
458.23	458.70
458.59	452.79
458.96	446.75
459.33	441.45
459.70	436.04
460.07	431.82
460.43	426.87
460.80	422.27
461.17	418.23
461.54	414.02
461.91	410.02
462.27	405.91
462.64	402.42
463.01	398.59
463.38	394.84
463.74	391.17
464.11	387.93
464.48	385.12
464.85	382.00
465.21	379.56
465.58	376.89
465.95	373.76
466.32	371.15
466.68	368.53
467.05	365.87
467.42	363.33
467.78	360.59
468.15	358.06
468.52	356.12
468.88	353.65
469.25	351.39
469.62	349.55
469.98	347.58
470.35	345.76
470.72	344.10
471.08	342.31
471.45	340.80
471.82	339.19
472.18	337.52
472.55	336.31
472.92	334.84
473.28	333.61
473.65	332.42
474.02	331.31
474.38	330.41
474.75	329.67
475.11	328.80
475.48	328.21
475.85	327.74
476.21	327.21
476.58	326.85
476.94	326.65
477.31	326.30
477.67	326.07
478.04	325.93
478.41	325.87
478.77	326.03
479.14	325.95
479.50	326.13
479.87	326.41
480.23	326.74
480.60	327.06
480.96	327.34
481.33	327.97
481.69	328.49
482.06	329.00
482.42	329.45
482.79	330.10
483.15	330.89
483.52	331.79
483.88	332.69
484.25	333.63
484.61	334.65
484.98	335.75
485.34	337.07
485.71	338.44
486.07	339.89
486.44	341.19
486.80	342.84
487.17	344.51
487.53	346.34
487.90	348.22
488.26	350.21
488.62	352.37
488.99	354.42
489.35	356.63
489.72	359.02
490.08	361.58
490.44	364.14
490.81	366.85
491.17	369.57
491.54	372.56
491.90	375.55
492.26	378.77
492.63	382.15
492.99	385.64
493.36	389.33
493.72	393.15
494.08	397.20
494.45	401.38
494.81	405.80
495.17	410.31
495.54	414.95
495.90	419.82
496.26	424.77
496.63	429.97
496.99	435.35
497.35	440.93
497.72	446.70
498.08	452.69
498.44	458.78
498.80	465.30
499.17	471.81
499.53	478.61
499.89	485.57
500.26	492.55
500.62	499.62
500.98	507.05
501.34	514.59
501.71	522.33
502.07	530.13
502.43	538.12
502.79	546.19
503.16	554.63
503.52	563.23
503.88	571.89
504.24	580.89
504.60	589.96
504.97	599.21
505.33	608.55
505.69	618.43
506.05	628.34
506.41	638.19
506.78	648.29
507.14	658.55
507.50	669.00
507.86	679.76
508.22	690.52
508.59	701.22
508.95	712.24
509.31	723.54
509.67	735.04
510.03	746.43
510.39	758.30
510.75	770.14
511.12	782.10
511.48	794.35
511.84	806.64
512.20	818.97
512.56	831.73
512.92	844.60
513.28	857.27
513.64	870.06
514.00	882.91
514.37	895.99
514.73	909.21
515.09	922.33
515.45	935.36
515.81	948.55
516.17	961.97
516.53	975.36
516.89	988.46
517.25	1001.75
517.61	1015.40
517.97	1028.81
518.33	1042.08
518.69	1055.65
519.05	1069.43
519.41	1083.17
519.77	1097.25
520.13	1110.51
520.49	1123.76
520.85	1137.27
521.21	1150.64
521.57	1164.54
521.93	1177.54
522.29	1191.36
522.65	1205.02
523.01	1218.68
523.37	1232.00
523.73	1245.43
524.09	1258.62
524.45	1272.23
524.81	1285.72
525.17	1299.18
525.53	1312.46
525.89	1325.85
526.25	1339.13
526.61	1351.99
526.97	1365.13
527.33	1378.11
527.68	1391.71
528.04	1405.26
528.40	1418.47
528.76	1431.99
529.12	1444.85
529.48	1458.46
529.84	1470.88
530.20	1483.78
530.56	1496.48
530.91	1509.82
531.27	1522.71
531.63	1535.65
531.99	1548.54
532.35	1561.03
532.71	1573.56
533.07	1586.59
533.42	1598.90
533.78	1611.21
534.14	1623.46
534.50	1634.91
534.86	1646.65
535.21	1657.72
535.57	1669.33
535.93	1680.66
536.29	1691.84
536.65	1703.55
537.00	1714.56
537.36	1726.00
537.72	1737.10
538.08	1748.51
538.44	1759.53
538.79	1770.75
539.15	1781.81
539.51	1792.61
539.87	1803.97
540.22	1814.89
540.58	1825.93
540.94	1837.06
541.29	1847.42
541.65	1857.35
542.01	1867.91
542.37	1878.12
542.72	1888.27
543.08	1898.11
543.44	1908.80
543.79	1918.27
544.15	1927.64
544.51	1937.63
544.87	1947.61
545.22	1956.91
545.58	1965.96
545.94	1975.17
546.29	1983.71
546.65	1992.07
547.01	2000.49
547.36	2008.29
547.72	2016.29
548.07	2023.82
548.43	2031.72
548.79	2039.55
549.14	2047.79
549.50	2056.31
549.86	2064.25
550.21	2071.81
550.57	2079.52
550.92	2086.25
551.28	2093.84
551.64	2101.18
551.99	2108.85
552.35	2116.17
552.70	2123.05
553.06	2129.75
553.41	2135.90
553.77	2142.64
554.13	2149.10
554.48	2156.16
554.84	2163.35
555.19	2169.71
555.55	2176.34
555.90	2182.62
556.26	2189.58
556.61	2195.67
556.97	2200.59
557.32	2206.36
557.68	2212.79
558.03	2218.75
558.39	2224.13
558.74	2230.11
559.10	2235.67
559.45	2241.09
559.81	2246.53
560.16	2252.09
560.52	2258.05
560.87	2264.60
561.23	2270.41
561.58	2277.04
561.94	2282.21
562.29	2286.78
562.64	2292.95
563.00	2298.48
563.35	2303.99
563.71	2309.57
564.06	2315.25
564.42	2321.31
564.77	2326.39
565.12	2331.65
565.48	2336.70
565.83	2342.28
566.19	2347.64
566.54	2353.01
566.89	2357.80
567.25	2362.41
567.60	2368.01
567.96	2373.09
568.31	2377.43
568.66	2381.77
569.02	2385.66
569.37	2389.36
569.72	2393.92
570.08	2397.37
570.43	2400.49
570.78	2403.62
571.14	2406.20
571.49	2409.20
571.84	2412.49
572.20	2415.38
572.55	2418.38
572.90	2420.57
573.26	2423.18
573.61	2425.67
573.96	2427.68
574.31	2429.59
574.67	2431.45
575.02	2432.20
575.37	2433.48
575.72	2434.11
576.08	2435.41
576.43	2435.41
576.78	2435.89
577.13	2437.28
577.49	2438.31
577.84	2439.28
578.19	2440.50
578.54	2441.02
578.90	2441.60
579.25	2441.38
579.60	2441.19
579.95	2440.23
580.30	2440.32
580.66	2439.51
581.01	2437.68
581.36	2435.35
581.71	2433.77
582.06	2432.36
582.42	2431.37
582.77	2428.98
583.12	2427.17
583.47	2425.57
583.82	2425.02
584.17	2423.58
584.53	2421.38
584.88	2419.08
585.23	2417.15
585.58	2414.73
585.93	2412.52
586.28	2410.45
586.63	2407.94
586.98	2405.62
587.34	2403.60
587.69	2401.07
588.04	2398.87
588.39	2397.25
588.74	2394.61
589.09	2391.77
589.44	2388.64
589.79	2386.04
590.14	2384.02
590.49	2381.27
590.84	2377.38
591.19	2374.12
591.54	2370.79
591.89	2366.58
592.25	2363.21
592.60	2358.85
592.95	2354.44
593.30	2350.23
593.65	2345.61
594.00	2341.02
594.35	2337.90
594.70	2333.20
595.05	2328.47
595.40	2323.06
595.75	2317.31
596.10	2313.73
596.45	2308.85
596.80	2304.05
597.15	2298.86
597.50	2292.97
597.85	2287.88
598.19	2282.62
598.54	2276.65
598.89	2271.18
599.24	2266.60
599.59	2260.55
599.94	2254.59
600.29	2248.72
600.64	2242.77
600.99	2235.85
601.34	2230.33
601.69	2223.33
602.04	2216.83
602.39	2210.18
602.74	2204.03
603.08	2198.49
603.43	2191.81
603.78	2184.80
604.13	2177.81
604.48	2170.43
604.83	2164.17
605.18	2157.96
605.53	2150.99
605.87	2144.04
606.22	2137.36
606.57	2129.34
606.92	2121.21
607.27	2114.26
607.62	2107.43
607.96	2100.26
608.31	2093.81
608.66	2086.00
609.01	2078.22
609.36	2071.09
609.70	2063.30
610.05	2055.43
610.40	2046.98
610.75	2038.66
611.10	2031.07
611.44	2022.16
611.79	2013.50
612.14	2003.67
612.49	1992.86
612.83	1983.52
613.18	1974.17
613.53	1964.87
613.88	1955.36
614.22	1946.80
614.57	1936.91
614.92	1926.42
615.27	1916.16
615.61	1906.01
615.96	1896.30
616.31	1886.61
616.65	1877.21
617.00	1867.39
617.35	1857.79
617.70	1848.04
618.04	1838.01
618.39	1827.77
618.74	1818.06
619.08	1808.46
619.43	1799.64
619.78	1791.47
620.12	1782.96
620.47	1773.40
620.82	1763.03
621.16	1753.22
621.51	1743.37
621.85	1733.63
622.20	1723.29
622.55	1712.83
622.89	1702.92
623.24	1693.28
623.59	1683.60
623.93	1673.36
624.28	1663.63
624.62	1653.46
624.97	1643.21
625.32	1633.40
625.66	1624.52
626.01	1615.76
626.35	1606.40
626.70	1596.41
627.04	1586.24
627.39	1575.97
627.73	1566.70
628.08	1557.81
628.43	1548.34
628.77	1538.97
629.12	1530.07
629.46	1522.23
629.81	1514.02
630.15	1504.61
630.50	1494.79
630.84	1484.35
631.19	1474.52
631.53	1465.27
631.88	1455.34
632.22	1445.37
632.57	1436.02
632.91	1425.88
633.26	1416.04
633.60	1406.34
633.95	1397.08
634.29	1387.68
634.64	1378.38
634.98	1368.51
635.32	1359.27
635.67	1350.73
636.01	1341.46
636.36	1331.74
636.70	1322.22
637.05	1312.81
637.39	1303.83
637.73	1295.25
638.08	1287.76
638.42	1279.55
638.77	1270.77
639.11	1262.33
639.45	1254.57
639.80	1246.11
640.14	1237.44
640.49	1228.66
640.83	1219.86
641.17	1211.74
641.52	1203.56
641.86	1195.02
642.20	1187.05
642.55	1178.33
642.89	1169.40
643.23	1160.79
643.58	1152.73
643.92	1143.69
644.26	1134.89
644.61	1126.43
644.95	1117.59
645.29	1108.39
645.64	1099.27
645.98	1090.79
646.32	1082.99
646.66	1074.49
647.01	1066.20
647.35	1058.07
647.69	1049.67
648.04	1041.42
648.38	1032.47
648.72	1023.76
649.06	1015.32
649.41	1007.12
649.75	999.19
650.09	991.32
650.43	983.23
650.78	974.85
651.12	967.09
651.46	959.67
651.80	952.41
652.14	945.17
652.49	937.53
652.83	930.18
653.17	922.50
653.51	914.76
653.85	907.45
654.20	900.12
654.54	892.54
654.88	885.25
655.22	878.00
655.56	870.95
655.90	864.09
656.25	857.37
656.59	850.51
656.93	843.53
657.27	836.36
657.61	829.44
657.95	823.29
658.29	817.37
658.64	811.26
658.98	804.80
659.32	798.17
659.66	791.93
660.00	785.56
660.34	779.40
660.68	773.26
661.02	766.85
661.36	760.88
661.70	755.11
662.05	749.42
662.39	743.92
662.73	738.54
663.07	733.19
663.41	727.53
663.75	721.72
664.09	715.92
664.43	710.43
664.77	705.08
665.11	699.23
665.45	693.38
665.79	687.48
666.13	681.69
666.47	676.20
666.81	670.68
667.15	665.23
667.49	660.04
667.83	654.81
668.17	649.60
668.51	644.41
668.85	639.46
669.19	634.59
669.53	629.55
669.87	624.37
670.21	619.53
670.55	614.76
670.89	610.26
671.23	605.97
671.57	601.62
671.91	597.26
672.25	593.08
672.58	588.87
672.92	584.83
673.26	580.97
673.60	577.00
673.94	573.23
674.28	569.59
674.62	565.79
674.96	562.00
675.30	558.46
675.64	554.70
675.97	551.06
676.31	547.38
676.65	543.70
676.99	540.24
677.33	536.39
677.67	532.79
678.01	528.95
678.34	525.24
678.68	521.65
679.02	518.02
679.36	514.29
679.70	510.59
680.04	506.99
680.37	503.45
680.71	500.13
681.05	496.85
681.39	493.54
681.73	490.37
682.06	487.27
682.40	484.12
682.74	480.93
683.08	477.67
683.42	474.43
683.75	471.40
684.09	468.30
684.43	465.43
684.77	462.40
685.10	459.59
685.44	456.63
685.78	453.66
686.12	450.89
686.45	448.16
686.79	445.48
687.13	442.94
687.46	440.26
687.80	437.51
688.14	434.61
688.48	431.91
688.81	429.18
689.15	426.57
689.49	423.92
689.82	421.34
690.16	418.72
690.50	416.25
690.83	413.72
691.17	411.16
691.51	408.65
691.84	406.34
692.18	404.04
692.52	401.83
692.85	399.70
693.19	397.50
693.52	395.26
693.86	392.99
694.20	390.70
694.53	388.50
694.87	386.29
695.21	384.18
695.54	382.02
695.88	379.81
696.21	377.59
696.55	375.34
696.88	373.27
697.22	371.25
697.56	369.32
697.89	367.44
698.23	365.66
698.56	363.87
698.90	362.11
699.23	360.16
699.57	358.26
699.90	356.33
700.24	354.46
700.58	352.67
700.91	350.95
701.25	349.38
701.58	347.80
701.92	346.20
702.25	344.54
702.59	342.90
702.92	341.39
703.26	339.75
703.59	338.35
703.93	337.03
704.26	335.56
704.60	334.06
704.93	332.55
705.26	331.01
705.60	329.48
705.93	327.93
706.27	326.60
706.60	325.30
706.94	324.04
707.27	322.68
707.61	321.38
707.94	320.05
708.27	318.52
708.61	317.03
708.94	315.62
709.28	314.35
709.61	313.05
709.94	311.81
710.28	310.63
710.61	309.41
710.95	307.99
711.28	306.92
711.61	305.67
711.95	304.49
712.28	303.29
712.61	302.10
712.95	301.04
713.28	299.96
713.61	298.80
713.95	297.64
714.28	296.56
714.61	295.48
714.95	294.46
715.28	293.43
715.61	292.42
715.95	291.48
716.28	290.48
716.61	289.53
716.95	288.48
717.28	287.53
717.61	286.56
717.94	285.64
718.28	284.59
718.61	283.70
718.94	282.79
719.27	281.99
719.61	281.18
719.94	280.29
720.27	279.31
720.60	278.42
720.94	277.63
721.27	276.85
721.60	276.14
721.93	275.42
722.27	274.76
722.60	274.08
722.93	273.33
723.26	272.66
723.59	271.95
723.93	271.36
724.26	270.69
724.59	270.04
724.92	269.43
725.25	268.89
725.59	268.34
725.92	267.82
726.25	267.20
726.58	266.64
726.91	266.01
727.24	265.48
727.57	264.90
727.91	264.28
728.24	263.72
728.57	263.09
728.90	262.50
729.23	261.87
729.56	261.38
729.89	260.81
730.22	260.24
730.55	259.68
730.89	259.09
731.22	258.55
731.55	258.03
731.88	257.46
732.21	256.88
732.54	256.30
732.87	255.77
733.20	255.24
733.53	254.71
733.86	254.24
734.19	253.72
734.52	253.29
734.85	252.98
735.18	252.50
735.51	252.12
735.84	251.67
736.17	251.31
736.50	250.76
736.83	250.62
737.16	250.24
737.49	249.88
737.82	249.46
738.15	249.07
738.48	248.69
738.81	248.34
739.14	247.93
739.47	247.51
739.80	247.12
740.13	246.76
740.46	246.36
740.79	245.98
741.12	245.62
741.45	245.23
741.78	244.79
742.11	244.52
742.44	244.12
742.77	243.84
743.10	243.45
743.43	243.12
743.75	242.53
744.08	242.42
744.41	242.02
744.74	241.69
745.07	241.28
745.40	240.96
745.73	240.69
746.06	240.37
746.39	240.08
746.71	239.73
747.04	239.37
747.37	239.03
747.70	238.77
748.03	238.48
748.36	238.25
748.68	237.90
749.01	237.56
749.34	237.30
749.67	236.98
750.00	236.74
750.33	236.63
750.65	236.36
750.98	235.87
751.31	235.65
751.64	235.40
751.97	235.30
752.29	235.03
752.62	234.67
752.95	234.42
753.28	234.14
753.60	233.91
753.93	233.77
754.26	233.56
754.59	233.22
754.91	232.98
755.24	232.68
755.57	232.45
755.90	232.19
756.22	231.91
756.55	231.65
756.88	231.37
757.20	231.02
757.53	230.77
757.86	230.54
758.19	230.35
758.51	230.15
758.84	229.84
759.17	229.62
759.49	229.48
759.82	229.40
760.15	229.25
760.47	229.06
760.80	228.78
761.13	228.62
761.45	228.44
761.78	228.27
762.11	228.12
762.43	227.91
762.76	227.76
763.08	227.64
763.41	227.48
763.74	227.32
764.06	227.15
764.39	227.00
764.71	226.85
765.04	226.64
765.37	226.48
765.69	226.36
766.02	226.24
766.34	226.06
766.67	225.83
767.00	225.73
767.32	225.70
767.65	225.72
767.97	225.63
768.30	225.54
768.62	225.40
768.95	225.24
769.27	225.18
769.60	225.09
769.92	224.90
770.25	224.76
770.57	224.62
770.90	224.49
771.22	224.34
771.55	224.20
771.87	224.13
772.20	224.00
772.52	224.05
772.85	224.20
773.17	224.11
773.50	223.99
773.82	223.89
774.15	223.68
774.47	223.42
774.80	223.28
775.12	223.15
775.45	223.06
775.77	222.99
776.09	222.89
776.42	222.75
776.74	222.74
777.07	222.65
777.39	222.58
777.72	222.50
778.04	222.50
778.36	222.41
778.69	222.32
779.01	222.26
779.33	222.01
779.66	221.66
779.98	221.57
780.31	221.49
780.63	221.46
780.95	221.41
781.28	221.35
781.60	221.24
781.92	221.18
782.25	221.07
782.57	221.02
782.89	220.96
783.22	220.89
783.54	220.79
783.86	220.72
784.19	220.65
784.51	220.65
784.83	220.49
785.16	220.46
785.48	220.39
785.80	220.32
786.12	220.25
