SpectraSuite Data File
++++++++++++++++++++++++++++++++++++
Date: Tue Jan 29 16:05:55 EST 2013
User: group
Dark Spectrum Present: No
Reference Spectrum Present: No
Number of Sampled Component Spectra: 1
Spectrometers: USB2E7196
Integration Time (usec): 65000 (USB2E7196)
Spectra Averaged: 100 (USB2E7196)
Boxcar Smoothing: 10 (USB2E7196)
Correct for Electrical Dark: No (USB2E7196)
Strobe/Lamp Enabled: No (USB2E7196)
Correct for Detector Non-linearity: No (USB2E7196)
Correct for Stray Light: No (USB2E7196)
Number of Pixels in Processed Spectrum: 2048
>>>>>Begin Processed Spectral Data<<<<<
339.09	0.00
339.48	202.69
339.86	204.12
340.24	205.65
340.63	206.93
341.01	211.87
341.39	209.84
341.78	211.30
342.16	212.27
342.54	212.80
342.93	201.88
343.31	212.09
343.69	212.62
344.07	213.09
344.46	213.55
344.84	213.95
345.22	214.08
345.60	214.35
345.99	214.55
346.37	214.69
346.75	214.81
347.13	214.87
347.52	214.95
347.90	215.07
348.28	215.12
348.66	215.20
349.05	215.13
349.43	215.18
349.81	215.24
350.19	215.30
350.57	215.37
350.96	215.45
351.34	215.52
351.72	215.60
352.10	215.70
352.48	215.73
352.87	215.77
353.25	215.86
353.63	215.91
354.01	215.98
354.39	216.06
354.77	216.13
355.15	216.26
355.54	216.31
355.92	216.32
356.30	216.38
356.68	216.60
357.06	216.73
357.44	216.75
357.82	216.79
358.20	216.90
358.58	216.93
358.97	217.01
359.35	217.14
359.73	217.26
360.11	217.28
360.49	217.37
360.87	217.39
361.25	217.44
361.63	217.53
362.01	217.55
362.39	217.60
362.77	217.64
363.15	217.65
363.53	217.68
363.91	217.73
364.29	217.73
364.67	217.59
365.05	217.61
365.43	217.67
365.81	217.74
366.19	217.83
366.57	217.92
366.95	217.92
367.33	217.86
367.71	217.86
368.09	217.93
368.47	217.94
368.85	217.96
369.23	218.01
369.61	217.93
369.99	217.99
370.37	217.97
370.75	218.07
371.13	218.04
371.51	217.99
371.89	217.96
372.27	217.98
372.65	217.93
373.03	217.88
373.41	217.84
373.78	217.78
374.16	217.63
374.54	217.54
374.92	217.46
375.30	217.43
375.68	217.36
376.06	217.35
376.44	217.31
376.82	217.27
377.19	217.22
377.57	217.18
377.95	217.09
378.33	217.03
378.71	216.84
379.09	216.81
379.47	216.77
379.84	216.72
380.22	216.64
380.60	216.56
380.98	216.54
381.36	216.49
381.73	216.42
382.11	216.43
382.49	216.40
382.87	216.36
383.25	216.33
383.62	216.50
384.00	216.42
384.38	216.34
384.76	216.34
385.13	216.37
385.51	216.35
385.89	216.30
386.27	216.31
386.64	216.33
387.02	216.30
387.40	216.27
387.78	216.27
388.15	216.27
388.53	216.26
388.91	216.22
389.29	216.17
389.66	216.20
390.04	216.14
390.42	216.12
390.79	216.11
391.17	216.11
391.55	215.84
391.92	215.84
392.30	215.87
392.68	215.81
393.05	215.76
393.43	215.77
393.81	215.78
394.18	215.74
394.56	215.71
394.94	215.74
395.31	215.76
395.69	215.80
396.06	215.85
396.44	215.86
396.82	215.87
397.19	216.00
397.57	215.98
397.95	216.05
398.32	216.02
398.70	216.08
399.07	216.15
399.45	216.20
399.82	216.24
400.20	216.26
400.58	216.30
400.95	216.31
401.33	216.41
401.70	216.61
402.08	216.71
402.45	216.79
402.83	216.94
403.20	217.04
403.58	217.09
403.95	217.25
404.33	217.41
404.71	217.54
405.08	217.80
405.46	217.98
405.83	218.16
406.21	218.37
406.58	218.59
406.96	218.80
407.33	219.09
407.70	219.34
408.08	219.82
408.45	220.18
408.83	220.58
409.20	220.91
409.58	221.19
409.95	221.64
410.33	222.07
410.70	222.48
411.08	223.02
411.45	223.59
411.82	224.13
412.20	224.81
412.57	225.64
412.95	226.17
413.32	226.95
413.69	227.75
414.07	228.66
414.44	229.60
414.82	230.59
415.19	231.69
415.56	232.88
415.94	234.00
416.31	235.35
416.68	236.69
417.06	238.26
417.43	239.74
417.81	241.39
418.18	243.15
418.55	245.00
418.93	246.98
419.30	249.02
419.67	251.15
420.04	253.32
420.42	255.58
420.79	258.31
421.16	261.02
421.54	263.81
421.91	266.65
422.28	269.66
422.66	272.86
423.03	276.00
423.40	279.26
423.77	282.71
424.15	286.25
424.52	289.95
424.89	293.94
425.26	297.86
425.64	301.59
426.01	305.76
426.38	310.12
426.75	314.48
427.13	319.05
427.50	323.87
427.87	328.90
428.24	333.98
428.61	338.81
428.99	344.19
429.36	350.04
429.73	355.80
430.10	361.45
430.47	367.33
430.85	373.42
431.22	379.83
431.59	386.72
431.96	393.29
432.33	400.56
432.70	407.60
433.08	415.83
433.45	423.62
433.82	431.30
434.19	439.88
434.56	448.31
434.93	456.40
435.30	464.45
435.68	473.25
436.05	481.86
436.42	490.46
436.79	498.23
437.16	506.63
437.53	515.59
437.90	524.40
438.27	532.93
438.64	541.85
439.01	550.14
439.38	557.49
439.75	564.63
440.13	572.72
440.50	580.26
440.87	586.46
441.24	592.90
441.61	599.99
441.98	605.13
442.35	611.20
442.72	617.22
443.09	623.01
443.46	626.55
443.83	628.95
444.20	631.02
444.57	634.13
444.94	635.48
445.31	636.74
445.68	638.07
446.05	638.66
446.42	637.80
446.79	636.81
447.16	635.74
447.53	634.92
447.90	631.72
448.27	628.53
448.64	624.07
449.01	620.81
449.37	615.14
449.74	609.67
450.11	602.99
450.48	595.85
450.85	588.66
451.22	582.48
451.59	576.61
451.96	571.00
452.33	563.35
452.70	556.50
453.07	548.34
453.43	540.08
453.80	532.09
454.17	524.44
454.54	517.22
454.91	509.29
455.28	501.66
455.65	494.54
456.02	487.41
456.38	481.32
456.75	473.80
457.12	467.46
457.49	461.21
457.86	455.25
458.23	450.10
458.59	444.42
458.96	438.64
459.33	433.54
459.70	428.34
460.07	424.30
460.43	419.63
460.80	415.22
461.17	411.41
461.54	407.43
461.91	403.63
462.27	399.70
462.64	396.37
463.01	392.70
463.38	389.14
463.74	385.56
464.11	382.38
464.48	379.59
464.85	376.62
465.21	374.26
465.58	371.74
465.95	368.74
466.32	366.20
466.68	363.70
467.05	361.20
467.42	358.81
467.78	356.21
468.15	353.83
468.52	352.05
468.88	349.65
469.25	347.55
469.62	345.77
469.98	343.91
470.35	342.28
470.72	340.66
471.08	338.94
471.45	337.56
471.82	336.15
472.18	334.59
472.55	333.46
472.92	332.13
473.28	330.96
473.65	329.86
474.02	328.83
474.38	327.98
474.75	327.31
475.11	326.52
475.48	325.97
475.85	325.47
476.21	325.01
476.58	324.64
476.94	324.42
477.31	324.15
477.67	323.90
478.04	323.73
478.41	323.70
478.77	323.87
479.14	323.83
479.50	323.99
479.87	324.30
480.23	324.63
480.60	324.88
480.96	325.22
481.33	325.88
481.69	326.45
482.06	327.01
482.42	327.50
482.79	328.11
483.15	328.97
483.52	330.00
483.88	330.90
484.25	331.87
484.61	332.84
484.98	333.94
485.34	335.22
485.71	336.56
486.07	337.96
486.44	339.26
486.80	340.86
487.17	342.57
487.53	344.40
487.90	346.25
488.26	348.30
488.62	350.42
488.99	352.42
489.35	354.58
489.72	356.95
490.08	359.45
490.44	362.01
490.81	364.72
491.17	367.39
491.54	370.35
491.90	373.39
492.26	376.65
492.63	380.06
492.99	383.55
493.36	387.24
493.72	391.13
494.08	395.20
494.45	399.37
494.81	403.62
495.17	408.03
495.54	412.78
495.90	417.62
496.26	422.59
496.63	427.79
496.99	433.13
497.35	438.63
497.72	444.41
498.08	450.32
498.44	456.41
498.80	462.74
499.17	469.21
499.53	475.89
499.89	482.82
500.26	489.72
500.62	496.78
500.98	504.21
501.34	511.65
501.71	519.34
502.07	527.12
502.43	535.19
502.79	543.32
503.16	551.64
503.52	560.15
503.88	568.81
504.24	577.71
504.60	586.75
504.97	595.90
505.33	605.13
505.69	614.94
506.05	624.78
506.41	634.60
506.78	644.63
507.14	654.86
507.50	665.23
507.86	675.93
508.22	686.76
508.59	697.35
508.95	708.38
509.31	719.57
509.67	730.98
510.03	742.35
510.39	753.99
510.75	765.80
511.12	777.62
511.48	789.62
511.84	801.78
512.20	813.98
512.56	826.63
512.92	839.37
513.28	851.93
513.64	864.43
514.00	877.18
514.37	889.95
514.73	902.91
515.09	915.77
515.45	928.37
515.81	941.21
516.17	954.46
516.53	967.49
516.89	980.56
517.25	993.56
517.61	1006.85
517.97	1020.19
518.33	1033.15
518.69	1046.65
519.05	1060.22
519.41	1073.69
519.77	1087.42
520.13	1100.51
520.49	1113.47
520.85	1126.69
521.21	1139.97
521.57	1153.46
521.93	1166.52
522.29	1180.14
522.65	1193.50
523.01	1206.94
523.37	1219.83
523.73	1232.88
524.09	1245.85
524.45	1258.97
524.81	1272.28
525.17	1285.37
525.53	1298.21
525.89	1311.27
526.25	1324.06
526.61	1336.57
526.97	1349.36
527.33	1362.06
527.68	1375.27
528.04	1388.53
528.40	1401.27
528.76	1414.16
529.12	1426.76
529.48	1439.63
529.84	1451.51
530.20	1464.10
530.56	1476.48
530.91	1489.60
531.27	1502.17
531.63	1514.73
531.99	1527.13
532.35	1539.09
532.71	1551.18
533.07	1563.72
533.42	1575.55
533.78	1587.33
534.14	1599.14
534.50	1610.24
534.86	1621.47
535.21	1632.00
535.57	1643.12
535.93	1654.33
536.29	1665.34
536.65	1676.53
537.00	1687.30
537.36	1698.42
537.72	1709.11
538.08	1720.15
538.44	1730.76
538.79	1741.51
539.15	1751.98
539.51	1762.44
539.87	1773.49
540.22	1784.01
540.58	1794.64
540.94	1805.38
541.29	1815.37
541.65	1824.89
542.01	1835.08
542.37	1844.87
542.72	1854.77
543.08	1864.30
543.44	1874.35
543.79	1883.30
544.15	1892.51
544.51	1902.20
544.87	1911.75
545.22	1920.57
545.58	1929.26
545.94	1937.74
546.29	1945.97
546.65	1954.10
547.01	1962.10
547.36	1969.52
547.72	1977.01
548.07	1984.42
548.43	1991.83
548.79	1999.54
549.14	2007.50
549.50	2015.54
549.86	2023.12
550.21	2030.27
550.57	2037.71
550.92	2044.18
551.28	2051.56
551.64	2058.53
551.99	2065.78
552.35	2072.78
552.70	2079.34
553.06	2085.76
553.41	2091.78
553.77	2098.22
554.13	2104.46
554.48	2111.41
554.84	2118.07
555.19	2124.39
555.55	2130.82
555.90	2136.88
556.26	2143.49
556.61	2149.27
556.97	2154.14
557.32	2159.94
557.68	2166.25
558.03	2171.88
558.39	2177.15
558.74	2182.80
559.10	2188.34
559.45	2193.93
559.81	2199.33
560.16	2205.06
560.52	2210.96
560.87	2217.52
561.23	2223.46
561.58	2230.05
561.94	2235.14
562.29	2240.19
562.64	2246.35
563.00	2251.85
563.35	2257.61
563.71	2263.55
564.06	2269.16
564.42	2275.25
564.77	2280.39
565.12	2285.60
565.48	2290.83
565.83	2296.53
566.19	2302.10
566.54	2307.58
566.89	2312.25
567.25	2316.89
567.60	2322.51
567.96	2327.82
568.31	2332.48
568.66	2336.72
569.02	2340.65
569.37	2344.47
569.72	2348.78
570.08	2352.45
570.43	2355.48
570.78	2358.52
571.14	2361.07
571.49	2364.43
571.84	2367.83
572.20	2370.71
572.55	2374.03
572.90	2376.29
573.26	2379.16
573.61	2381.75
573.96	2383.97
574.31	2386.03
574.67	2388.18
575.02	2389.31
575.37	2390.74
575.72	2391.64
576.08	2393.24
576.43	2393.59
576.78	2394.44
577.13	2396.46
577.49	2397.60
577.84	2399.15
578.19	2400.72
578.54	2401.67
578.90	2402.78
579.25	2402.92
579.60	2403.16
579.95	2402.57
580.30	2403.10
580.66	2402.62
581.01	2401.16
581.36	2399.18
581.71	2397.96
582.06	2397.02
582.42	2396.30
582.77	2394.27
583.12	2392.87
583.47	2391.88
583.82	2391.49
584.17	2390.31
584.53	2388.15
584.88	2386.54
585.23	2384.85
585.58	2382.70
585.93	2380.63
586.28	2378.53
586.63	2376.30
586.98	2374.21
587.34	2372.59
587.69	2370.29
588.04	2368.41
588.39	2367.18
588.74	2364.82
589.09	2362.45
589.44	2359.60
589.79	2357.34
590.14	2355.82
590.49	2353.09
590.84	2349.40
591.19	2346.57
591.54	2343.55
591.89	2339.74
592.25	2336.56
592.60	2332.42
592.95	2328.49
593.30	2324.52
593.65	2320.21
594.00	2316.12
594.35	2313.24
594.70	2308.61
595.05	2304.05
595.40	2298.75
595.75	2293.41
596.10	2289.87
596.45	2285.18
596.80	2280.67
597.15	2275.53
597.50	2269.68
597.85	2264.83
598.19	2259.68
598.54	2253.94
598.89	2248.91
599.24	2244.45
599.59	2238.43
599.94	2232.86
600.29	2227.20
600.64	2221.43
600.99	2215.03
601.34	2209.63
601.69	2202.73
602.04	2196.40
602.39	2189.99
602.74	2184.00
603.08	2178.41
603.43	2171.99
603.78	2165.22
604.13	2158.17
604.48	2151.12
604.83	2145.11
605.18	2138.92
605.53	2131.99
605.87	2125.01
606.22	2118.26
606.57	2110.57
606.92	2102.73
607.27	2095.80
607.62	2089.23
607.96	2082.23
608.31	2075.61
608.66	2067.96
609.01	2060.56
609.36	2053.48
609.70	2045.89
610.05	2038.26
610.40	2029.97
610.75	2021.75
611.10	2014.15
611.44	2005.52
611.79	1996.68
612.14	1986.64
612.49	1976.16
612.83	1967.12
613.18	1958.19
613.53	1948.94
613.88	1939.28
614.22	1930.68
614.57	1920.82
614.92	1910.21
615.27	1900.06
615.61	1890.05
615.96	1880.38
616.31	1870.76
616.65	1861.56
617.00	1851.72
617.35	1842.09
617.70	1832.43
618.04	1822.40
618.39	1811.99
618.74	1802.32
619.08	1792.83
619.43	1784.16
619.78	1775.91
620.12	1767.10
620.47	1757.21
620.82	1746.90
621.16	1737.18
621.51	1727.29
621.85	1717.35
622.20	1706.93
622.55	1696.32
622.89	1686.54
623.24	1676.76
623.59	1666.98
623.93	1656.68
624.28	1646.98
624.62	1636.87
624.97	1626.51
625.32	1616.81
625.66	1608.22
626.01	1599.31
626.35	1589.79
626.70	1579.67
627.04	1569.50
627.39	1559.45
627.73	1550.20
628.08	1541.10
628.43	1531.46
628.77	1522.21
629.12	1513.40
629.46	1505.56
629.81	1497.16
630.15	1487.51
630.50	1477.70
630.84	1467.27
631.19	1457.51
631.53	1448.10
631.88	1437.91
632.22	1427.91
632.57	1418.47
632.91	1408.07
633.26	1398.26
633.60	1388.76
633.95	1379.50
634.29	1370.03
634.64	1360.65
634.98	1350.78
635.32	1341.47
635.67	1332.93
636.01	1323.60
636.36	1313.79
636.70	1304.31
637.05	1294.96
637.39	1286.02
637.73	1277.31
638.08	1269.72
638.42	1261.28
638.77	1252.47
639.11	1244.23
639.45	1236.40
639.80	1227.78
640.14	1219.15
640.49	1210.16
640.83	1201.36
641.17	1193.30
641.52	1185.09
641.86	1176.39
642.20	1168.56
642.55	1160.02
642.89	1151.18
643.23	1142.47
643.58	1134.45
643.92	1125.40
644.26	1116.82
644.61	1108.28
644.95	1099.55
645.29	1090.26
645.64	1081.22
645.98	1072.96
646.32	1064.92
646.66	1056.44
647.01	1048.05
647.35	1039.95
647.69	1031.65
648.04	1023.32
648.38	1014.35
648.72	1005.65
649.06	997.29
649.41	989.05
649.75	981.02
650.09	973.12
650.43	965.22
650.78	956.92
651.12	949.26
651.46	941.91
651.80	934.61
652.14	927.35
652.49	919.89
652.83	912.61
653.17	904.79
653.51	897.23
653.85	889.99
654.20	882.73
654.54	875.19
654.88	868.02
655.22	860.81
655.56	853.90
655.90	847.13
656.25	840.56
656.59	833.67
656.93	826.66
657.27	819.59
657.61	812.69
657.95	806.62
658.29	800.68
658.64	794.36
658.98	788.05
659.32	781.45
659.66	775.30
660.00	768.95
660.34	762.93
660.68	756.93
661.02	750.66
661.36	744.82
661.70	739.12
662.05	733.52
662.39	728.12
662.73	722.76
663.07	717.42
663.41	711.85
663.75	706.17
664.09	700.62
664.43	695.29
664.77	689.96
665.11	684.22
665.45	678.41
665.79	672.76
666.13	667.10
666.47	661.71
666.81	656.34
667.15	651.12
667.49	646.03
667.83	640.83
668.17	635.63
668.51	630.63
668.85	625.81
669.19	621.01
669.53	616.07
669.87	611.03
670.21	606.36
670.55	601.64
670.89	597.30
671.23	593.10
671.57	588.76
671.91	584.51
672.25	580.42
672.58	576.28
672.92	572.26
673.26	568.39
673.60	564.58
673.94	560.75
674.28	557.12
674.62	553.39
674.96	549.64
675.30	546.22
675.64	542.61
675.97	539.00
676.31	535.36
676.65	531.81
676.99	528.40
677.33	524.64
677.67	521.05
678.01	517.24
678.34	513.61
678.68	510.12
679.02	506.53
679.36	502.87
679.70	499.33
680.04	495.86
680.37	492.53
680.71	489.30
681.05	486.13
681.39	482.94
681.73	479.83
682.06	476.88
682.40	473.80
682.74	470.58
683.08	467.50
683.42	464.40
683.75	461.45
684.09	458.50
684.43	455.70
684.77	452.79
685.10	450.02
685.44	447.16
685.78	444.29
686.12	441.60
686.45	438.97
686.79	436.37
687.13	433.89
687.46	431.28
687.80	428.57
688.14	425.78
688.48	423.20
688.81	420.52
689.15	417.99
689.49	415.47
689.82	413.04
690.16	410.46
690.50	408.06
690.83	405.58
691.17	403.05
691.51	400.68
691.84	398.53
692.18	396.34
692.52	394.22
692.85	392.16
693.19	390.08
693.52	387.93
693.86	385.77
694.20	383.63
694.53	381.54
694.87	379.40
695.21	377.33
695.54	375.22
695.88	373.17
696.21	371.03
696.55	368.93
696.88	366.89
697.22	364.98
697.56	363.11
697.89	361.30
698.23	359.61
698.56	357.84
698.90	356.10
699.23	354.26
699.57	352.41
699.90	350.55
700.24	348.79
700.58	347.06
700.91	345.44
701.25	343.91
701.58	342.35
701.92	340.81
702.25	339.30
702.59	337.75
702.92	336.25
703.26	334.74
703.59	333.28
703.93	332.05
704.26	330.65
704.60	329.22
704.93	327.76
705.26	326.32
705.60	324.90
705.93	323.44
706.27	322.15
706.60	320.93
706.94	319.74
707.27	318.36
707.61	317.09
707.94	315.77
708.27	314.28
708.61	312.85
708.94	311.50
709.28	310.25
709.61	309.01
709.94	307.83
710.28	306.66
710.61	305.49
710.95	304.09
711.28	303.07
711.61	301.89
711.95	300.83
712.28	299.66
712.61	298.52
712.95	297.49
713.28	296.48
713.61	295.35
713.95	294.27
714.28	293.27
714.61	292.25
714.95	291.25
715.28	290.26
715.61	289.29
715.95	288.40
716.28	287.41
716.61	286.50
716.95	285.56
717.28	284.60
717.61	283.68
717.94	282.84
718.28	281.79
718.61	280.94
718.94	280.05
719.27	279.24
719.61	278.47
719.94	277.62
720.27	276.70
720.60	275.89
720.94	275.11
721.27	274.38
721.60	273.71
721.93	272.96
722.27	272.37
722.60	271.74
722.93	271.04
723.26	270.41
723.59	269.73
723.93	269.11
724.26	268.50
724.59	267.89
724.92	267.30
725.25	266.83
725.59	266.31
725.92	265.78
726.25	265.20
726.58	264.61
726.91	263.99
727.24	263.48
727.57	262.93
727.91	262.31
728.24	261.81
728.57	261.21
728.90	260.71
729.23	260.10
729.56	259.65
729.89	259.12
730.22	258.59
730.55	258.05
730.89	257.52
731.22	257.00
731.55	256.50
731.88	256.00
732.21	255.43
732.54	254.89
732.87	254.37
733.20	253.93
733.53	253.47
733.86	253.05
734.19	252.56
734.52	252.16
734.85	251.89
735.18	251.41
735.51	251.06
735.84	250.62
736.17	250.25
736.50	249.71
736.83	249.56
737.16	249.20
737.49	248.85
737.82	248.45
738.15	248.11
738.48	247.79
738.81	247.40
739.14	247.02
739.47	246.67
739.80	246.33
740.13	245.96
740.46	245.62
740.79	245.25
741.12	244.93
741.45	244.54
741.78	244.14
742.11	243.85
742.44	243.48
742.77	243.21
743.10	242.87
743.43	242.56
743.75	242.02
744.08	241.94
744.41	241.59
744.74	241.27
745.07	240.90
745.40	240.55
745.73	240.29
746.06	239.96
746.39	239.66
746.71	239.33
747.04	239.00
747.37	238.62
747.70	238.35
748.03	238.04
748.36	237.79
748.68	237.47
749.01	237.14
749.34	236.84
749.67	236.55
750.00	236.33
750.33	236.20
750.65	235.92
750.98	235.43
751.31	235.21
751.64	234.98
751.97	234.88
752.29	234.65
752.62	234.35
752.95	234.11
753.28	233.85
753.60	233.62
753.93	233.49
754.26	233.30
754.59	233.02
754.91	232.77
755.24	232.50
755.57	232.28
755.90	232.06
756.22	231.82
756.55	231.60
756.88	231.32
757.20	230.98
757.53	230.77
757.86	230.57
758.19	230.35
758.51	230.17
758.84	229.85
759.17	229.67
759.49	229.50
759.82	229.40
760.15	229.27
760.47	229.06
760.80	228.80
761.13	228.66
761.45	228.47
761.78	228.31
762.11	228.16
762.43	228.00
762.76	227.85
763.08	227.75
763.41	227.59
763.74	227.44
764.06	227.31
764.39	227.17
764.71	227.01
765.04	226.85
765.37	226.69
765.69	226.55
766.02	226.41
766.34	226.24
766.67	226.04
767.00	225.92
767.32	225.92
767.65	225.91
767.97	225.78
768.30	225.69
768.62	225.60
768.95	225.44
769.27	225.32
769.60	225.24
769.92	225.07
770.25	224.94
770.57	224.79
770.90	224.67
771.22	224.52
771.55	224.42
771.87	224.36
772.20	224.24
772.52	224.31
772.85	224.45
773.17	224.36
773.50	224.27
773.82	224.12
774.15	223.91
774.47	223.68
774.80	223.59
775.12	223.47
775.45	223.34
775.77	223.26
776.09	223.19
776.42	223.08
776.74	223.05
777.07	222.94
777.39	222.87
777.72	222.76
778.04	222.72
778.36	222.62
778.69	222.53
779.01	222.44
779.33	222.21
779.66	221.89
779.98	221.77
780.31	221.72
780.63	221.74
780.95	221.70
781.28	221.63
781.60	221.53
781.92	221.47
782.25	221.45
782.57	221.42
782.89	221.32
783.22	221.18
783.54	221.08
783.86	221.06
784.19	220.99
784.51	221.01
784.83	220.90
785.16	220.84
785.48	220.79
785.80	220.75
786.12	220.71
