SpectraSuite Data File
++++++++++++++++++++++++++++++++++++
Date: Tue Jan 29 16:18:39 EST 2013
User: group
Dark Spectrum Present: No
Reference Spectrum Present: No
Number of Sampled Component Spectra: 1
Spectrometers: USB2E7196
Integration Time (usec): 65000 (USB2E7196)
Spectra Averaged: 100 (USB2E7196)
Boxcar Smoothing: 10 (USB2E7196)
Correct for Electrical Dark: No (USB2E7196)
Strobe/Lamp Enabled: No (USB2E7196)
Correct for Detector Non-linearity: No (USB2E7196)
Correct for Stray Light: No (USB2E7196)
Number of Pixels in Processed Spectrum: 2048
>>>>>Begin Processed Spectral Data<<<<<
339.09	0.00
339.48	202.02
339.86	203.52
340.24	205.56
340.63	206.88
341.01	210.98
341.39	209.14
341.78	210.85
342.16	212.32
342.54	212.25
342.93	201.51
343.31	211.68
343.69	212.22
344.07	212.68
344.46	213.12
344.84	213.49
345.22	213.67
345.60	213.95
345.99	214.16
346.37	214.27
346.75	214.36
347.13	214.41
347.52	214.48
347.90	214.60
348.28	214.60
348.66	214.69
349.05	214.69
349.43	214.75
349.81	214.82
350.19	214.85
350.57	214.89
350.96	215.01
351.34	215.10
351.72	215.18
352.10	215.30
352.48	215.35
352.87	215.43
353.25	215.44
353.63	215.51
354.01	215.54
354.39	215.63
354.77	215.71
355.15	215.89
355.54	215.96
355.92	215.93
356.30	216.02
356.68	216.21
357.06	216.28
357.44	216.32
357.82	216.36
358.20	216.45
358.58	216.54
358.97	216.59
359.35	216.74
359.73	216.86
360.11	216.90
360.49	216.95
360.87	216.99
361.25	217.10
361.63	217.18
362.01	217.24
362.39	217.26
362.77	217.33
363.15	217.37
363.53	217.40
363.91	217.46
364.29	217.50
364.67	217.34
365.05	217.39
365.43	217.43
365.81	217.52
366.19	217.62
366.57	217.68
366.95	217.69
367.33	217.61
367.71	217.62
368.09	217.68
368.47	217.69
368.85	217.70
369.23	217.75
369.61	217.68
369.99	217.75
370.37	217.79
370.75	217.89
371.13	217.80
371.51	217.77
371.89	217.77
372.27	217.76
372.65	217.74
373.03	217.72
373.41	217.69
373.78	217.62
374.16	217.47
374.54	217.38
374.92	217.31
375.30	217.29
375.68	217.22
376.06	217.21
376.44	217.18
376.82	217.13
377.19	217.08
377.57	217.05
377.95	216.93
378.33	216.87
378.71	216.71
379.09	216.71
379.47	216.68
379.84	216.59
380.22	216.55
380.60	216.47
380.98	216.40
381.36	216.35
381.73	216.28
382.11	216.32
382.49	216.31
382.87	216.24
383.25	216.18
383.62	216.36
384.00	216.24
384.38	216.17
384.76	216.19
385.13	216.21
385.51	216.18
385.89	216.15
386.27	216.14
386.64	216.11
387.02	216.05
387.40	216.00
387.78	216.01
388.15	215.95
388.53	215.91
388.91	215.89
389.29	215.85
389.66	215.87
390.04	215.79
390.42	215.80
390.79	215.82
391.17	215.82
391.55	215.58
391.92	215.58
392.30	215.62
392.68	215.55
393.05	215.54
393.43	215.55
393.81	215.58
394.18	215.53
394.56	215.53
394.94	215.56
395.31	215.55
395.69	215.62
396.06	215.70
396.44	215.77
396.82	215.75
397.19	215.88
397.57	215.87
397.95	215.95
398.32	215.88
398.70	215.93
399.07	216.03
399.45	216.10
399.82	216.15
400.20	216.18
400.58	216.28
400.95	216.22
401.33	216.32
401.70	216.51
402.08	216.62
402.45	216.77
402.83	216.90
403.20	217.04
403.58	217.12
403.95	217.26
404.33	217.42
404.71	217.60
405.08	217.85
405.46	218.03
405.83	218.18
406.21	218.40
406.58	218.64
406.96	218.85
407.33	219.08
407.70	219.37
408.08	219.79
408.45	220.12
408.83	220.55
409.20	220.86
409.58	221.09
409.95	221.54
410.33	221.96
410.70	222.38
411.08	222.87
411.45	223.43
411.82	224.00
412.20	224.64
412.57	225.43
412.95	225.96
413.32	226.75
413.69	227.58
414.07	228.47
414.44	229.42
414.82	230.39
415.19	231.53
415.56	232.70
415.94	233.84
416.31	235.18
416.68	236.52
417.06	238.12
417.43	239.67
417.81	241.36
418.18	243.11
418.55	244.97
418.93	246.98
419.30	248.97
419.67	251.08
420.04	253.28
420.42	255.60
420.79	258.37
421.16	261.10
421.54	263.91
421.91	266.79
422.28	269.78
422.66	272.99
423.03	276.17
423.40	279.39
423.77	282.87
424.15	286.41
424.52	290.08
424.89	294.11
425.26	298.03
425.64	301.77
426.01	305.87
426.38	310.22
426.75	314.57
427.13	319.19
427.50	324.06
427.87	329.09
428.24	334.13
428.61	338.96
428.99	344.28
429.36	350.06
429.73	355.78
430.10	361.47
430.47	367.30
430.85	373.35
431.22	379.85
431.59	386.66
431.96	393.25
432.33	400.51
432.70	407.44
433.08	415.66
433.45	423.44
433.82	431.14
434.19	439.75
434.56	448.16
434.93	456.21
435.30	464.14
435.68	472.97
436.05	481.64
436.42	490.17
436.79	498.02
437.16	506.46
437.53	515.41
437.90	524.26
438.27	532.94
438.64	541.87
439.01	550.08
439.38	557.46
439.75	564.54
440.13	572.75
440.50	580.49
440.87	586.72
441.24	593.17
441.61	600.30
441.98	605.45
442.35	611.57
442.72	617.63
443.09	623.45
443.46	627.04
443.83	629.43
444.20	631.66
444.57	634.66
444.94	636.09
445.31	637.49
445.68	638.79
446.05	639.37
446.42	638.64
446.79	637.75
447.16	636.75
447.53	636.06
447.90	632.82
448.27	629.61
448.64	625.15
449.01	621.89
449.37	616.11
449.74	610.59
450.11	603.95
450.48	596.81
450.85	589.63
451.22	583.37
451.59	577.47
451.96	571.76
452.33	564.21
452.70	557.36
453.07	549.08
453.43	540.77
453.80	532.76
454.17	524.98
454.54	517.63
454.91	509.72
455.28	501.95
455.65	494.73
456.02	487.55
456.38	481.41
456.75	473.81
457.12	467.51
457.49	461.26
457.86	455.29
458.23	450.18
458.59	444.51
458.96	438.74
459.33	433.64
459.70	428.45
460.07	424.35
460.43	419.62
460.80	415.26
461.17	411.40
461.54	407.34
461.91	403.48
462.27	399.57
462.64	396.24
463.01	392.56
463.38	388.99
463.74	385.37
464.11	382.24
464.48	379.56
464.85	376.62
465.21	374.28
465.58	371.70
465.95	368.62
466.32	366.07
466.68	363.54
467.05	361.06
467.42	358.63
467.78	356.05
468.15	353.64
468.52	351.81
468.88	349.42
469.25	347.29
469.62	345.57
469.98	343.72
470.35	341.95
470.72	340.35
471.08	338.68
471.45	337.23
471.82	335.76
472.18	334.15
472.55	333.00
472.92	331.69
473.28	330.55
473.65	329.45
474.02	328.38
474.38	327.59
474.75	326.87
475.11	326.09
475.48	325.52
475.85	325.04
476.21	324.58
476.58	324.25
476.94	324.04
477.31	323.78
477.67	323.55
478.04	323.47
478.41	323.48
478.77	323.67
479.14	323.62
479.50	323.80
479.87	324.10
480.23	324.42
480.60	324.71
480.96	324.95
481.33	325.50
481.69	326.06
482.06	326.56
482.42	327.05
482.79	327.62
483.15	328.40
483.52	329.39
483.88	330.27
484.25	331.23
484.61	332.25
484.98	333.29
485.34	334.60
485.71	335.95
486.07	337.37
486.44	338.59
486.80	340.25
487.17	341.91
487.53	343.74
487.90	345.54
488.26	347.52
488.62	349.76
488.99	351.84
489.35	354.02
489.72	356.35
490.08	358.85
490.44	361.46
490.81	364.15
491.17	366.82
491.54	369.82
491.90	372.82
492.26	376.06
492.63	379.45
492.99	382.89
493.36	386.57
493.72	390.42
494.08	394.50
494.45	398.68
494.81	402.99
495.17	407.42
495.54	412.15
495.90	416.93
496.26	421.75
496.63	426.93
496.99	432.35
497.35	437.92
497.72	443.76
498.08	449.67
498.44	455.77
498.80	462.17
499.17	468.56
499.53	475.30
499.89	482.15
500.26	489.13
500.62	496.24
500.98	503.55
501.34	511.03
501.71	518.70
502.07	526.44
502.43	534.43
502.79	542.56
503.16	550.92
503.52	559.51
503.88	568.26
504.24	577.22
504.60	586.17
504.97	595.35
505.33	604.50
505.69	614.26
506.05	624.01
506.41	633.76
506.78	643.86
507.14	653.94
507.50	664.25
507.86	674.78
508.22	685.40
508.59	696.02
508.95	706.97
509.31	718.16
509.67	729.56
510.03	740.92
510.39	752.51
510.75	764.21
511.12	776.00
511.48	787.88
511.84	799.93
512.20	812.14
512.56	824.72
512.92	837.40
513.28	849.89
513.64	862.50
514.00	875.23
514.37	887.94
514.73	900.97
515.09	913.86
515.45	926.57
515.81	939.43
516.17	952.55
516.53	965.52
516.89	978.34
517.25	991.26
517.61	1004.48
517.97	1017.63
518.33	1030.58
518.69	1043.86
519.05	1057.41
519.41	1070.88
519.77	1084.57
520.13	1097.64
520.49	1110.62
520.85	1123.75
521.21	1136.87
521.57	1150.28
521.93	1163.15
522.29	1176.60
522.65	1190.00
523.01	1203.46
523.37	1216.41
523.73	1229.52
524.09	1242.53
524.45	1255.77
524.81	1268.93
525.17	1282.06
525.53	1294.92
525.89	1307.95
526.25	1320.86
526.61	1333.35
526.97	1346.20
527.33	1358.76
527.68	1371.85
528.04	1384.97
528.40	1397.78
528.76	1410.73
529.12	1423.22
529.48	1436.19
529.84	1448.12
530.20	1460.44
530.56	1472.62
530.91	1485.54
531.27	1498.05
531.63	1510.45
531.99	1522.90
532.35	1534.91
532.71	1546.91
533.07	1559.63
533.42	1571.50
533.78	1583.22
534.14	1594.95
534.50	1605.84
534.86	1617.18
535.21	1627.75
535.57	1639.00
535.93	1649.90
536.29	1660.73
536.65	1671.92
537.00	1682.64
537.36	1693.68
537.72	1704.32
538.08	1715.44
538.44	1726.00
538.79	1736.73
539.15	1747.26
539.51	1757.70
539.87	1768.60
540.22	1779.02
540.58	1789.49
540.94	1800.07
541.29	1809.91
541.65	1819.47
542.01	1829.55
542.37	1839.27
542.72	1849.00
543.08	1858.37
543.44	1868.47
543.79	1877.43
544.15	1886.62
544.51	1896.23
544.87	1905.73
545.22	1914.80
545.58	1923.35
545.94	1932.00
546.29	1940.32
546.65	1948.40
547.01	1956.21
547.36	1963.53
547.72	1971.11
548.07	1978.41
548.43	1985.95
548.79	1993.68
549.14	2001.53
549.50	2009.69
549.86	2017.33
550.21	2024.63
550.57	2032.09
550.92	2038.72
551.28	2046.04
551.64	2052.96
551.99	2060.15
552.35	2067.08
552.70	2073.76
553.06	2080.14
553.41	2086.26
553.77	2092.59
554.13	2098.78
554.48	2105.72
554.84	2112.85
555.19	2119.19
555.55	2125.52
555.90	2131.55
556.26	2138.09
556.61	2144.08
556.97	2148.74
557.32	2154.36
557.68	2160.58
558.03	2166.29
558.39	2171.47
558.74	2177.36
559.10	2182.94
559.45	2188.48
559.81	2194.07
560.16	2199.41
560.52	2205.15
560.87	2211.50
561.23	2217.30
561.58	2224.01
561.94	2229.27
562.29	2233.94
562.64	2240.16
563.00	2245.82
563.35	2251.48
563.71	2257.34
564.06	2262.74
564.42	2268.82
564.77	2273.88
565.12	2279.14
565.48	2284.14
565.83	2289.76
566.19	2295.03
566.54	2300.40
566.89	2304.89
567.25	2309.51
567.60	2315.23
567.96	2320.47
568.31	2325.00
568.66	2329.35
569.02	2333.20
569.37	2336.84
569.72	2341.03
570.08	2344.47
570.43	2347.54
570.78	2350.61
571.14	2353.18
571.49	2356.55
571.84	2360.26
572.20	2363.16
572.55	2366.30
572.90	2368.75
573.26	2371.68
573.61	2374.47
573.96	2376.69
574.31	2378.90
574.67	2380.75
575.02	2381.67
575.37	2383.30
575.72	2384.06
576.08	2385.52
576.43	2385.72
576.78	2386.39
577.13	2388.25
577.49	2389.52
577.84	2390.71
578.19	2392.11
578.54	2392.82
578.90	2393.62
579.25	2393.58
579.60	2393.93
579.95	2393.24
580.30	2393.44
580.66	2392.79
581.01	2391.21
581.36	2389.09
581.71	2387.81
582.06	2386.80
582.42	2385.94
582.77	2383.98
583.12	2382.63
583.47	2381.47
583.82	2381.09
584.17	2380.05
584.53	2378.15
584.88	2376.19
585.23	2374.51
585.58	2372.46
585.93	2370.65
586.28	2368.74
586.63	2366.46
586.98	2364.28
587.34	2362.60
587.69	2360.37
588.04	2358.52
588.39	2357.26
588.74	2354.93
589.09	2352.60
589.44	2349.74
589.79	2347.57
590.14	2345.58
590.49	2342.96
590.84	2339.33
591.19	2336.46
591.54	2333.49
591.89	2329.60
592.25	2326.48
592.60	2322.48
592.95	2318.62
593.30	2314.61
593.65	2310.26
594.00	2305.91
594.35	2303.08
594.70	2298.45
595.05	2294.15
595.40	2288.91
595.75	2283.31
596.10	2279.86
596.45	2275.11
596.80	2270.64
597.15	2265.72
597.50	2260.00
597.85	2255.27
598.19	2250.29
598.54	2244.53
598.89	2239.18
599.24	2234.76
599.59	2228.90
599.94	2223.17
600.29	2217.24
600.64	2211.33
600.99	2204.77
601.34	2199.41
601.69	2192.47
602.04	2186.17
602.39	2179.54
602.74	2173.51
603.08	2168.12
603.43	2161.62
603.78	2154.88
604.13	2147.93
604.48	2140.61
604.83	2134.61
605.18	2128.35
605.53	2121.37
605.87	2114.55
606.22	2108.04
606.57	2100.16
606.92	2092.19
607.27	2085.35
607.62	2078.86
607.96	2072.06
608.31	2065.78
608.66	2058.06
609.01	2050.57
609.36	2043.66
609.70	2036.06
610.05	2028.45
610.40	2020.23
610.75	2012.13
611.10	2004.32
611.44	1995.43
611.79	1986.92
612.14	1976.90
612.49	1966.35
612.83	1957.21
613.18	1947.97
613.53	1938.63
613.88	1929.10
614.22	1920.61
614.57	1910.90
614.92	1900.33
615.27	1890.11
615.61	1880.05
615.96	1870.64
616.31	1861.05
616.65	1851.55
617.00	1841.91
617.35	1832.23
617.70	1822.59
618.04	1812.44
618.39	1802.44
618.74	1792.90
619.08	1783.20
619.43	1774.73
619.78	1766.50
620.12	1757.84
620.47	1748.36
620.82	1738.14
621.16	1728.47
621.51	1718.66
621.85	1708.76
622.20	1698.47
622.55	1687.92
622.89	1678.03
623.24	1668.36
623.59	1658.72
623.93	1648.72
624.28	1638.97
624.62	1629.00
624.97	1618.66
625.32	1609.11
625.66	1600.26
626.01	1591.62
626.35	1582.33
626.70	1572.22
627.04	1562.18
627.39	1552.17
627.73	1542.85
628.08	1533.94
628.43	1524.40
628.77	1515.14
629.12	1506.29
629.46	1498.47
629.81	1490.26
630.15	1480.78
630.50	1470.89
630.84	1460.28
631.19	1450.52
631.53	1441.21
631.88	1431.04
632.22	1421.19
632.57	1411.82
632.91	1401.75
633.26	1391.82
633.60	1382.24
633.95	1373.09
634.29	1363.66
634.64	1354.36
634.98	1344.44
635.32	1335.22
635.67	1326.81
636.01	1317.53
636.36	1307.86
636.70	1298.45
637.05	1289.10
637.39	1280.29
637.73	1271.77
638.08	1264.36
638.42	1256.17
638.77	1247.44
639.11	1239.28
639.45	1231.44
639.80	1222.93
640.14	1214.33
640.49	1205.62
640.83	1196.85
641.17	1188.73
641.52	1180.71
641.86	1172.19
642.20	1164.29
642.55	1155.73
642.89	1146.81
643.23	1138.28
643.58	1130.26
643.92	1121.19
644.26	1112.56
644.61	1104.08
644.95	1095.33
645.29	1086.12
645.64	1076.93
645.98	1068.48
646.32	1060.59
646.66	1052.17
647.01	1043.89
647.35	1035.70
647.69	1027.44
648.04	1019.30
648.38	1010.50
648.72	1001.83
649.06	993.42
649.41	985.31
649.75	977.41
650.09	969.79
650.43	961.84
650.78	953.59
651.12	946.00
651.46	938.68
651.80	931.54
652.14	924.34
652.49	917.01
652.83	909.82
653.17	902.20
653.51	894.61
653.85	887.35
654.20	880.19
654.54	872.81
654.88	865.64
655.22	858.43
655.56	851.54
655.90	844.77
656.25	838.19
656.59	831.47
656.93	824.50
657.27	817.42
657.61	810.48
657.95	804.44
658.29	798.56
658.64	792.44
658.98	786.06
659.32	779.60
659.66	773.42
660.00	767.15
660.34	761.21
660.68	755.20
661.02	749.01
661.36	743.07
661.70	737.44
662.05	731.82
662.39	726.40
662.73	721.08
663.07	715.76
663.41	710.27
663.75	704.61
664.09	699.08
664.43	693.69
664.77	688.43
665.11	682.77
665.45	677.01
665.79	671.38
666.13	665.80
666.47	660.30
666.81	654.94
667.15	649.65
667.49	644.54
667.83	639.38
668.17	634.30
668.51	629.28
668.85	624.40
669.19	619.55
669.53	614.67
669.87	609.60
670.21	604.93
670.55	600.25
670.89	595.88
671.23	591.59
671.57	587.30
671.91	583.12
672.25	578.99
672.58	574.96
672.92	570.96
673.26	566.99
673.60	563.27
673.94	559.53
674.28	555.97
674.62	552.37
674.96	548.64
675.30	545.15
675.64	541.57
675.97	538.03
676.31	534.59
676.65	531.09
676.99	527.75
677.33	524.00
677.67	520.44
678.01	516.66
678.34	513.07
678.68	509.59
679.02	506.04
679.36	502.45
679.70	498.86
680.04	495.38
680.37	492.04
680.71	488.75
681.05	485.63
681.39	482.42
681.73	479.23
682.06	476.31
682.40	473.23
682.74	470.06
683.08	466.93
683.42	463.83
683.75	460.90
684.09	457.91
684.43	455.10
684.77	452.23
685.10	449.47
685.44	446.60
685.78	443.79
686.12	441.10
686.45	438.40
686.79	435.78
687.13	433.28
687.46	430.76
687.80	428.11
688.14	425.34
688.48	422.79
688.81	420.15
689.15	417.65
689.49	415.15
689.82	412.71
690.16	410.18
690.50	407.76
690.83	405.30
691.17	402.82
691.51	400.46
691.84	398.26
692.18	396.09
692.52	393.95
692.85	391.83
693.19	389.77
693.52	387.65
693.86	385.51
694.20	383.39
694.53	381.26
694.87	379.13
695.21	377.06
695.54	374.94
695.88	372.83
696.21	370.69
696.55	368.59
696.88	366.56
697.22	364.66
697.56	362.78
697.89	360.96
698.23	359.26
698.56	357.49
698.90	355.74
699.23	353.87
699.57	352.08
699.90	350.29
700.24	348.48
700.58	346.82
700.91	345.18
701.25	343.70
701.58	342.13
701.92	340.64
702.25	339.07
702.59	337.46
702.92	336.00
703.26	334.47
703.59	333.07
703.93	331.87
704.26	330.46
704.60	329.00
704.93	327.53
705.26	326.07
705.60	324.64
705.93	323.18
706.27	321.89
706.60	320.62
706.94	319.39
707.27	318.04
707.61	316.70
707.94	315.35
708.27	313.81
708.61	312.38
708.94	311.01
709.28	309.76
709.61	308.57
709.94	307.46
710.28	306.27
710.61	305.09
710.95	303.69
711.28	302.65
711.61	301.51
711.95	300.45
712.28	299.32
712.61	298.17
712.95	297.15
713.28	296.16
713.61	295.09
713.95	293.97
714.28	292.98
714.61	291.98
714.95	291.02
715.28	290.08
715.61	289.12
715.95	288.22
716.28	287.26
716.61	286.38
716.95	285.32
717.28	284.44
717.61	283.54
717.94	282.69
718.28	281.64
718.61	280.80
718.94	279.92
719.27	279.08
719.61	278.32
719.94	277.47
720.27	276.53
720.60	275.70
720.94	274.93
721.27	274.21
721.60	273.54
721.93	272.86
722.27	272.22
722.60	271.58
722.93	270.87
723.26	270.23
723.59	269.51
723.93	268.93
724.26	268.31
724.59	267.66
724.92	267.08
725.25	266.58
725.59	266.01
725.92	265.49
726.25	264.96
726.58	264.38
726.91	263.80
727.24	263.31
727.57	262.75
727.91	262.18
728.24	261.66
728.57	261.07
728.90	260.50
729.23	259.88
729.56	259.47
729.89	258.93
730.22	258.39
730.55	257.88
730.89	257.32
731.22	256.80
731.55	256.28
731.88	255.75
732.21	255.21
732.54	254.70
732.87	254.18
733.20	253.69
733.53	253.20
733.86	252.77
734.19	252.28
734.52	251.93
734.85	251.67
735.18	251.21
735.51	250.85
735.84	250.45
736.17	250.09
736.50	249.61
736.83	249.50
737.16	249.13
737.49	248.76
737.82	248.40
738.15	248.01
738.48	247.68
738.81	247.32
739.14	246.92
739.47	246.57
739.80	246.24
740.13	245.94
740.46	245.53
740.79	245.15
741.12	244.78
741.45	244.42
741.78	243.94
742.11	243.64
742.44	243.26
742.77	242.99
743.10	242.64
743.43	242.29
743.75	241.75
744.08	241.67
744.41	241.31
744.74	240.99
745.07	240.68
745.40	240.38
745.73	240.15
746.06	239.87
746.39	239.57
746.71	239.21
747.04	238.84
747.37	238.59
747.70	238.33
748.03	238.06
748.36	237.76
748.68	237.51
749.01	237.19
749.34	236.94
749.67	236.67
750.00	236.42
750.33	236.26
750.65	235.97
750.98	235.44
751.31	235.24
751.64	235.03
751.97	234.92
752.29	234.66
752.62	234.31
752.95	234.06
753.28	233.81
753.60	233.57
753.93	233.40
754.26	233.15
754.59	232.90
754.91	232.66
755.24	232.44
755.57	232.21
755.90	231.98
756.22	231.72
756.55	231.44
756.88	231.21
757.20	230.89
757.53	230.64
757.86	230.45
758.19	230.25
758.51	230.01
758.84	229.70
759.17	229.53
759.49	229.37
759.82	229.31
760.15	229.15
760.47	228.98
760.80	228.73
761.13	228.62
761.45	228.40
761.78	228.20
762.11	228.00
762.43	227.79
762.76	227.61
763.08	227.49
763.41	227.39
763.74	227.24
764.06	227.06
764.39	226.94
764.71	226.78
765.04	226.61
765.37	226.45
765.69	226.27
766.02	226.12
766.34	225.98
766.67	225.72
767.00	225.62
767.32	225.61
767.65	225.60
767.97	225.46
768.30	225.35
768.62	225.24
768.95	225.14
769.27	225.05
769.60	224.96
769.92	224.80
770.25	224.61
770.57	224.47
770.90	224.39
771.22	224.25
771.55	224.13
771.87	224.03
772.20	223.92
772.52	223.99
772.85	224.15
773.17	224.05
773.50	223.97
773.82	223.81
774.15	223.61
774.47	223.43
774.80	223.33
775.12	223.25
775.45	223.17
775.77	223.09
776.09	222.99
776.42	222.90
776.74	222.87
777.07	222.81
777.39	222.74
777.72	222.62
778.04	222.55
778.36	222.46
778.69	222.43
779.01	222.38
779.33	222.13
779.66	221.80
779.98	221.72
780.31	221.67
780.63	221.67
780.95	221.66
781.28	221.58
781.60	221.46
781.92	221.39
782.25	221.33
782.57	221.24
782.89	221.16
783.22	221.06
783.54	220.96
783.86	220.89
784.19	220.83
784.51	220.85
784.83	220.80
785.16	220.74
785.48	220.66
785.80	220.59
786.12	220.56
