SpectraSuite Data File
++++++++++++++++++++++++++++++++++++
Date: Tue Jan 29 16:10:23 EST 2013
User: group
Dark Spectrum Present: No
Reference Spectrum Present: No
Number of Sampled Component Spectra: 1
Spectrometers: USB2E7196
Integration Time (usec): 65000 (USB2E7196)
Spectra Averaged: 100 (USB2E7196)
Boxcar Smoothing: 10 (USB2E7196)
Correct for Electrical Dark: No (USB2E7196)
Strobe/Lamp Enabled: No (USB2E7196)
Correct for Detector Non-linearity: No (USB2E7196)
Correct for Stray Light: No (USB2E7196)
Number of Pixels in Processed Spectrum: 2048
>>>>>Begin Processed Spectral Data<<<<<
339.09	0.00
339.48	201.79
339.86	204.19
340.24	205.37
340.63	207.17
341.01	211.06
341.39	209.45
341.78	211.26
342.16	212.56
342.54	212.60
342.93	201.77
343.31	211.95
343.69	212.55
344.07	212.99
344.46	213.44
344.84	213.85
345.22	214.03
345.60	214.31
345.99	214.51
346.37	214.66
346.75	214.77
347.13	214.83
347.52	214.91
347.90	215.04
348.28	215.08
348.66	215.15
349.05	215.11
349.43	215.17
349.81	215.28
350.19	215.34
350.57	215.46
350.96	215.56
351.34	215.67
351.72	215.74
352.10	215.88
352.48	215.94
352.87	215.98
353.25	216.08
353.63	216.14
354.01	216.19
354.39	216.25
354.77	216.33
355.15	216.48
355.54	216.51
355.92	216.49
356.30	216.56
356.68	216.74
357.06	216.85
357.44	216.86
357.82	216.89
358.20	216.98
358.58	217.02
358.97	217.07
359.35	217.20
359.73	217.31
360.11	217.36
360.49	217.44
360.87	217.45
361.25	217.54
361.63	217.68
362.01	217.72
362.39	217.75
362.77	217.83
363.15	217.83
363.53	217.86
363.91	217.91
364.29	217.92
364.67	217.76
365.05	217.75
365.43	217.80
365.81	217.84
366.19	217.96
366.57	218.04
366.95	218.06
367.33	217.99
367.71	218.00
368.09	218.03
368.47	218.03
368.85	218.04
369.23	218.04
369.61	217.92
369.99	217.98
370.37	217.98
370.75	218.04
371.13	217.99
371.51	217.93
371.89	217.94
372.27	217.95
372.65	217.94
373.03	217.94
373.41	217.89
373.78	217.81
374.16	217.62
374.54	217.51
374.92	217.43
375.30	217.41
375.68	217.29
376.06	217.26
376.44	217.20
376.82	217.14
377.19	217.08
377.57	217.04
377.95	216.92
378.33	216.87
378.71	216.70
379.09	216.68
379.47	216.68
379.84	216.62
380.22	216.54
380.60	216.46
380.98	216.37
381.36	216.31
381.73	216.28
382.11	216.29
382.49	216.27
382.87	216.21
383.25	216.16
383.62	216.38
384.00	216.25
384.38	216.19
384.76	216.22
385.13	216.24
385.51	216.20
385.89	216.15
386.27	216.09
386.64	216.08
387.02	216.03
387.40	215.99
387.78	215.96
388.15	215.95
388.53	215.93
388.91	215.91
389.29	215.88
389.66	215.90
390.04	215.90
390.42	215.91
390.79	215.91
391.17	215.90
391.55	215.69
391.92	215.72
392.30	215.73
392.68	215.67
393.05	215.64
393.43	215.67
393.81	215.70
394.18	215.67
394.56	215.67
394.94	215.71
395.31	215.69
395.69	215.74
396.06	215.80
396.44	215.85
396.82	215.88
397.19	216.02
397.57	216.02
397.95	216.04
398.32	216.00
398.70	216.05
399.07	216.11
399.45	216.13
399.82	216.18
400.20	216.23
400.58	216.29
400.95	216.29
401.33	216.39
401.70	216.59
402.08	216.69
402.45	216.78
402.83	216.92
403.20	217.01
403.58	217.10
403.95	217.21
404.33	217.32
404.71	217.45
405.08	217.72
405.46	217.87
405.83	218.06
406.21	218.28
406.58	218.51
406.96	218.75
407.33	219.03
407.70	219.32
408.08	219.80
408.45	220.14
408.83	220.52
409.20	220.86
409.58	221.10
409.95	221.59
410.33	222.07
410.70	222.49
411.08	223.06
411.45	223.62
411.82	224.15
412.20	224.80
412.57	225.60
412.95	226.10
413.32	226.89
413.69	227.71
414.07	228.57
414.44	229.50
414.82	230.46
415.19	231.58
415.56	232.73
415.94	233.84
416.31	235.21
416.68	236.59
417.06	238.11
417.43	239.62
417.81	241.27
418.18	242.99
418.55	244.85
418.93	246.79
419.30	248.79
419.67	250.98
420.04	253.21
420.42	255.52
420.79	258.29
421.16	261.01
421.54	263.81
421.91	266.71
422.28	269.71
422.66	272.88
423.03	276.00
423.40	279.24
423.77	282.70
424.15	286.23
424.52	289.94
424.89	293.97
425.26	297.91
425.64	301.69
426.01	305.84
426.38	310.21
426.75	314.62
427.13	319.26
427.50	324.06
427.87	329.09
428.24	334.12
428.61	338.88
428.99	344.21
429.36	350.02
429.73	355.73
430.10	361.40
430.47	367.25
430.85	373.36
431.22	379.85
431.59	386.74
431.96	393.36
432.33	400.55
432.70	407.52
433.08	415.80
433.45	423.59
433.82	431.29
434.19	439.86
434.56	448.23
434.93	456.23
435.30	464.20
435.68	472.94
436.05	481.60
436.42	490.27
436.79	498.10
437.16	506.56
437.53	515.54
437.90	524.38
438.27	533.03
438.64	541.94
439.01	550.16
439.38	557.52
439.75	564.59
440.13	572.79
440.50	580.50
440.87	586.68
441.24	593.07
441.61	600.19
441.98	605.35
442.35	611.51
442.72	617.57
443.09	623.47
443.46	627.16
443.83	629.58
444.20	631.68
444.57	634.73
444.94	636.10
445.31	637.45
445.68	638.74
446.05	639.37
446.42	638.60
446.79	637.63
447.16	636.54
447.53	635.75
447.90	632.46
448.27	629.23
448.64	624.74
449.01	621.54
449.37	615.81
449.74	610.35
450.11	603.64
450.48	596.55
450.85	589.26
451.22	582.98
451.59	577.05
451.96	571.36
452.33	563.78
452.70	556.95
453.07	548.75
453.43	540.46
453.80	532.46
454.17	524.80
454.54	517.59
454.91	509.72
455.28	502.05
455.65	494.93
456.02	487.76
456.38	481.63
456.75	474.02
457.12	467.71
457.49	461.43
457.86	455.48
458.23	450.37
458.59	444.74
458.96	439.01
459.33	433.93
459.70	428.81
460.07	424.72
460.43	420.02
460.80	415.64
461.17	411.79
461.54	407.72
461.91	403.85
462.27	399.87
462.64	396.53
463.01	392.88
463.38	389.30
463.74	385.76
464.11	382.61
464.48	379.87
464.85	376.87
465.21	374.57
465.58	372.03
465.95	368.97
466.32	366.43
466.68	363.90
467.05	361.40
467.42	358.96
467.78	356.36
468.15	353.91
468.52	352.08
468.88	349.68
469.25	347.58
469.62	345.84
469.98	344.00
470.35	342.26
470.72	340.66
471.08	338.96
471.45	337.52
471.82	336.09
472.18	334.55
472.55	333.43
472.92	332.05
473.28	330.89
473.65	329.81
474.02	328.73
474.38	327.90
474.75	327.21
475.11	326.39
475.48	325.85
475.85	325.40
476.21	324.98
476.58	324.70
476.94	324.48
477.31	324.20
477.67	323.95
478.04	323.84
478.41	323.84
478.77	324.01
479.14	323.99
479.50	324.18
479.87	324.44
480.23	324.76
480.60	325.04
480.96	325.34
481.33	325.93
481.69	326.52
482.06	327.05
482.42	327.55
482.79	328.20
483.15	328.99
483.52	329.97
483.88	330.81
484.25	331.70
484.61	332.77
484.98	333.84
485.34	335.16
485.71	336.55
486.07	337.95
486.44	339.28
486.80	340.87
487.17	342.53
487.53	344.35
487.90	346.19
488.26	348.25
488.62	350.46
488.99	352.47
489.35	354.60
489.72	356.95
490.08	359.41
490.44	361.93
490.81	364.58
491.17	367.29
491.54	370.25
491.90	373.30
492.26	376.50
492.63	379.92
492.99	383.38
493.36	387.05
493.72	390.91
494.08	394.91
494.45	399.12
494.81	403.45
495.17	407.91
495.54	412.60
495.90	417.38
496.26	422.25
496.63	427.48
496.99	432.88
497.35	438.44
497.72	444.25
498.08	450.18
498.44	456.31
498.80	462.68
499.17	469.18
499.53	475.88
499.89	482.73
500.26	489.60
500.62	496.68
500.98	504.03
501.34	511.49
501.71	519.21
502.07	526.99
502.43	534.96
502.79	543.03
503.16	551.39
503.52	559.96
503.88	568.60
504.24	577.50
504.60	586.55
504.97	595.76
505.33	604.99
505.69	614.80
506.05	624.65
506.41	634.49
506.78	644.51
507.14	654.78
507.50	665.23
507.86	675.88
508.22	686.59
508.59	697.20
508.95	708.18
509.31	719.34
509.67	730.70
510.03	742.02
510.39	753.75
510.75	765.47
511.12	777.34
511.48	789.36
511.84	801.50
512.20	813.67
512.56	826.14
512.92	838.87
513.28	851.42
513.64	864.00
514.00	876.71
514.37	889.45
514.73	902.28
515.09	915.07
515.45	927.78
515.81	940.66
516.17	953.87
516.53	966.87
516.89	979.87
517.25	992.89
517.61	1006.23
517.97	1019.42
518.33	1032.45
518.69	1045.67
519.05	1059.24
519.41	1072.72
519.77	1086.46
520.13	1099.47
520.49	1112.42
520.85	1125.56
521.21	1138.61
521.57	1151.97
521.93	1164.87
522.29	1178.53
522.65	1191.98
523.01	1205.44
523.37	1218.45
523.73	1231.52
524.09	1244.57
524.45	1257.62
524.81	1270.90
525.17	1284.06
525.53	1296.94
525.89	1309.91
526.25	1322.81
526.61	1335.37
526.97	1348.11
527.33	1360.77
527.68	1374.05
528.04	1387.25
528.40	1400.04
528.76	1413.24
529.12	1425.93
529.48	1438.91
529.84	1450.75
530.20	1463.07
530.56	1475.47
530.91	1488.39
531.27	1500.98
531.63	1513.40
531.99	1525.96
532.35	1537.86
532.71	1549.85
533.07	1562.42
533.42	1574.31
533.78	1586.08
534.14	1597.76
534.50	1608.70
534.86	1620.01
535.21	1630.54
535.57	1641.66
535.93	1652.54
536.29	1663.30
536.65	1674.43
537.00	1685.19
537.36	1696.32
537.72	1707.12
538.08	1718.02
538.44	1728.57
538.79	1739.26
539.15	1749.85
539.51	1760.29
539.87	1771.37
540.22	1781.85
540.58	1792.41
540.94	1803.09
541.29	1813.14
541.65	1822.75
542.01	1833.08
542.37	1842.88
542.72	1852.85
543.08	1862.43
543.44	1872.83
543.79	1881.88
544.15	1891.00
544.51	1900.68
544.87	1910.20
545.22	1919.02
545.58	1927.72
545.94	1936.22
546.29	1944.52
546.65	1952.64
547.01	1960.58
547.36	1967.87
547.72	1975.51
548.07	1983.02
548.43	1990.53
548.79	1998.11
549.14	2005.98
549.50	2014.22
549.86	2021.74
550.21	2028.92
550.57	2036.30
550.92	2042.75
551.28	2050.01
551.64	2057.12
551.99	2064.45
552.35	2071.39
552.70	2078.12
553.06	2084.48
553.41	2090.72
553.77	2097.00
554.13	2103.18
554.48	2110.03
554.84	2116.94
555.19	2123.29
555.55	2129.56
555.90	2135.65
556.26	2142.34
556.61	2148.16
556.97	2152.84
557.32	2158.59
557.68	2164.83
558.03	2170.41
558.39	2175.63
558.74	2181.43
559.10	2186.99
559.45	2192.46
559.81	2197.94
560.16	2203.43
560.52	2209.49
560.87	2215.92
561.23	2221.98
561.58	2228.60
561.94	2233.85
562.29	2238.65
562.64	2244.76
563.00	2250.32
563.35	2255.95
563.71	2261.81
564.06	2267.48
564.42	2273.43
564.77	2278.40
565.12	2283.62
565.48	2288.94
565.83	2294.49
566.19	2300.08
566.54	2305.42
566.89	2310.14
567.25	2314.91
567.60	2320.65
567.96	2325.79
568.31	2330.34
568.66	2334.50
569.02	2338.41
569.37	2342.13
569.72	2346.58
570.08	2350.07
570.43	2353.19
570.78	2356.26
571.14	2358.88
571.49	2362.05
571.84	2365.64
572.20	2368.69
572.55	2371.85
572.90	2374.13
573.26	2377.20
573.61	2379.78
573.96	2382.00
574.31	2384.03
574.67	2385.90
575.02	2386.88
575.37	2388.28
575.72	2389.12
576.08	2390.84
576.43	2391.16
576.78	2391.91
577.13	2393.67
577.49	2394.91
577.84	2396.32
578.19	2397.94
578.54	2398.70
578.90	2399.83
579.25	2399.84
579.60	2400.02
579.95	2399.50
580.30	2399.90
580.66	2399.28
581.01	2397.75
581.36	2395.72
581.71	2394.58
582.06	2393.83
582.42	2393.23
582.77	2391.31
583.12	2390.04
583.47	2388.79
583.82	2388.37
584.17	2387.35
584.53	2385.45
584.88	2383.53
585.23	2381.83
585.58	2379.71
585.93	2377.70
586.28	2375.56
586.63	2373.44
586.98	2371.48
587.34	2369.74
587.69	2367.52
588.04	2365.68
588.39	2364.41
588.74	2362.05
589.09	2359.60
589.44	2356.51
589.79	2354.13
590.14	2352.37
590.49	2349.52
590.84	2345.92
591.19	2343.05
591.54	2339.95
591.89	2336.03
592.25	2332.91
592.60	2328.86
592.95	2324.79
593.30	2320.78
593.65	2316.54
594.00	2312.23
594.35	2309.25
594.70	2304.75
595.05	2300.16
595.40	2294.78
595.75	2289.26
596.10	2285.69
596.45	2280.81
596.80	2276.47
597.15	2271.38
597.50	2265.56
597.85	2260.78
598.19	2255.65
598.54	2249.93
598.89	2244.89
599.24	2240.45
599.59	2234.66
599.94	2229.03
600.29	2223.40
600.64	2217.61
600.99	2210.98
601.34	2205.67
601.69	2198.81
602.04	2192.46
602.39	2186.15
602.74	2180.23
603.08	2174.87
603.43	2168.55
603.78	2161.87
604.13	2154.72
604.48	2147.62
604.83	2141.70
605.18	2135.48
605.53	2128.59
605.87	2121.80
606.22	2115.02
606.57	2107.23
606.92	2099.41
607.27	2092.54
607.62	2086.00
607.96	2079.05
608.31	2072.64
608.66	2064.84
609.01	2057.20
609.36	2050.10
609.70	2042.47
610.05	2034.86
610.40	2026.46
610.75	2018.28
611.10	2010.64
611.44	2001.94
611.79	1993.25
612.14	1983.24
612.49	1972.95
612.83	1963.78
613.18	1954.51
613.53	1945.31
613.88	1935.84
614.22	1927.24
614.57	1917.29
614.92	1906.69
615.27	1896.63
615.61	1886.75
615.96	1877.18
616.31	1867.83
616.65	1858.58
617.00	1848.75
617.35	1839.18
617.70	1829.55
618.04	1819.38
618.39	1809.08
618.74	1799.48
619.08	1789.94
619.43	1781.28
619.78	1772.91
620.12	1764.19
620.47	1754.39
620.82	1744.00
621.16	1734.15
621.51	1724.19
621.85	1714.37
622.20	1703.90
622.55	1693.36
622.89	1683.42
623.24	1673.75
623.59	1663.96
623.93	1653.74
624.28	1644.04
624.62	1633.73
624.97	1623.53
625.32	1613.90
625.66	1605.20
626.01	1596.45
626.35	1586.98
626.70	1576.83
627.04	1566.76
627.39	1556.81
627.73	1547.58
628.08	1538.63
628.43	1529.07
628.77	1519.88
629.12	1510.97
629.46	1503.12
629.81	1494.71
630.15	1485.19
630.50	1475.34
630.84	1464.90
631.19	1455.12
631.53	1445.70
631.88	1435.72
632.22	1425.58
632.57	1416.38
632.91	1406.19
633.26	1396.29
633.60	1386.75
633.95	1377.46
634.29	1368.04
634.64	1358.60
634.98	1348.85
635.32	1339.57
635.67	1330.99
636.01	1321.80
636.36	1312.03
636.70	1302.60
637.05	1293.32
637.39	1284.35
637.73	1275.68
638.08	1268.13
638.42	1259.89
638.77	1251.12
639.11	1242.81
639.45	1235.09
639.80	1226.35
640.14	1217.70
640.49	1208.77
640.83	1199.92
641.17	1191.90
641.52	1183.71
641.86	1175.22
642.20	1167.28
642.55	1158.69
642.89	1149.86
643.23	1141.09
643.58	1133.04
643.92	1124.02
644.26	1115.26
644.61	1106.81
644.95	1098.06
645.29	1088.75
645.64	1079.60
645.98	1071.23
646.32	1063.42
646.66	1054.89
647.01	1046.50
647.35	1038.41
647.69	1030.14
648.04	1021.95
648.38	1013.08
648.72	1004.37
649.06	995.89
649.41	987.84
649.75	979.87
650.09	972.15
650.43	964.16
650.78	955.85
651.12	948.27
651.46	940.95
651.80	933.82
652.14	926.56
652.49	919.13
652.83	911.85
653.17	904.20
653.51	896.56
653.85	889.32
654.20	882.13
654.54	874.58
654.88	867.44
655.22	860.32
655.56	853.42
655.90	846.59
656.25	840.02
656.59	833.04
656.93	826.12
657.27	818.93
657.61	812.02
657.95	806.11
658.29	800.22
658.64	794.06
658.98	787.63
659.32	781.14
659.66	774.99
660.00	768.69
660.34	762.64
660.68	756.54
661.02	750.40
661.36	744.58
661.70	738.87
662.05	733.32
662.39	727.86
662.73	722.53
663.07	717.26
663.41	711.73
663.75	706.18
664.09	700.66
664.43	695.35
664.77	690.12
665.11	684.34
665.45	678.53
665.79	672.81
666.13	667.17
666.47	661.74
666.81	656.32
667.15	651.02
667.49	645.97
667.83	640.80
668.17	635.61
668.51	630.49
668.85	625.75
669.19	620.87
669.53	615.94
669.87	610.92
670.21	606.17
670.55	601.50
670.89	597.12
671.23	592.87
671.57	588.55
671.91	584.25
672.25	580.15
672.58	576.08
672.92	572.13
673.26	568.28
673.60	564.54
673.94	560.83
674.28	557.26
674.62	553.52
674.96	549.82
675.30	546.31
675.64	542.80
675.97	539.17
676.31	535.62
676.65	532.01
676.99	528.56
677.33	524.79
677.67	521.19
678.01	517.30
678.34	513.68
678.68	510.21
679.02	506.71
679.36	503.09
679.70	499.49
680.04	495.99
680.37	492.57
680.71	489.27
681.05	486.12
681.39	482.95
681.73	479.86
682.06	476.90
682.40	473.86
682.74	470.64
683.08	467.51
683.42	464.39
683.75	461.53
684.09	458.56
684.43	455.78
684.77	452.89
685.10	450.17
685.44	447.27
685.78	444.44
686.12	441.74
686.45	439.02
686.79	436.40
687.13	433.89
687.46	431.30
687.80	428.65
688.14	425.86
688.48	423.34
688.81	420.72
689.15	418.18
689.49	415.62
689.82	413.19
690.16	410.68
690.50	408.28
690.83	405.80
691.17	403.33
691.51	400.93
691.84	398.74
692.18	396.57
692.52	394.39
692.85	392.27
693.19	390.13
693.52	388.01
693.86	385.81
694.20	383.68
694.53	381.64
694.87	379.52
695.21	377.46
695.54	375.29
695.88	373.15
696.21	371.06
696.55	369.00
696.88	366.99
697.22	365.06
697.56	363.19
697.89	361.32
698.23	359.58
698.56	357.89
698.90	356.12
699.23	354.23
699.57	352.45
699.90	350.64
700.24	348.91
700.58	347.20
700.91	345.65
701.25	344.13
701.58	342.55
701.92	340.94
702.25	339.36
702.59	337.79
702.92	336.31
703.26	334.76
703.59	333.32
703.93	332.07
704.26	330.65
704.60	329.18
704.93	327.78
705.26	326.35
705.60	324.88
705.93	323.42
706.27	322.14
706.60	320.93
706.94	319.73
707.27	318.37
707.61	317.06
707.94	315.74
708.27	314.29
708.61	312.85
708.94	311.53
709.28	310.30
709.61	309.09
709.94	307.88
710.28	306.65
710.61	305.51
710.95	304.14
711.28	303.10
711.61	301.92
711.95	300.81
712.28	299.62
712.61	298.45
712.95	297.46
713.28	296.47
713.61	295.31
713.95	294.18
714.28	293.18
714.61	292.19
714.95	291.23
715.28	290.23
715.61	289.27
715.95	288.36
716.28	287.35
716.61	286.41
716.95	285.49
717.28	284.63
717.61	283.68
717.94	282.82
718.28	281.85
718.61	281.02
718.94	280.13
719.27	279.34
719.61	278.59
719.94	277.71
720.27	276.75
720.60	275.96
720.94	275.20
721.27	274.47
721.60	273.77
721.93	273.02
722.27	272.37
722.60	271.72
722.93	271.02
723.26	270.43
723.59	269.74
723.93	269.12
724.26	268.45
724.59	267.83
724.92	267.25
725.25	266.72
725.59	266.17
725.92	265.64
726.25	265.11
726.58	264.54
726.91	263.95
727.24	263.47
727.57	262.91
727.91	262.31
728.24	261.78
728.57	261.20
728.90	260.68
729.23	260.08
729.56	259.63
729.89	259.11
730.22	258.57
730.55	258.05
730.89	257.55
731.22	257.07
731.55	256.56
731.88	256.07
732.21	255.51
732.54	255.02
732.87	254.52
733.20	254.00
733.53	253.55
733.86	253.13
734.19	252.61
734.52	252.23
734.85	251.95
735.18	251.51
735.51	251.15
735.84	250.75
736.17	250.41
736.50	249.94
736.83	249.85
737.16	249.46
737.49	249.10
737.82	248.69
738.15	248.32
738.48	247.97
738.81	247.55
739.14	247.17
739.47	246.79
739.80	246.44
740.13	246.12
740.46	245.74
740.79	245.39
741.12	245.04
741.45	244.69
741.78	244.24
742.11	243.97
742.44	243.59
742.77	243.31
743.10	242.97
743.43	242.61
743.75	242.01
744.08	241.95
744.41	241.60
744.74	241.26
745.07	240.90
745.40	240.62
745.73	240.38
746.06	240.08
746.39	239.78
746.71	239.47
747.04	239.12
747.37	238.81
747.70	238.52
748.03	238.26
748.36	237.99
748.68	237.72
749.01	237.39
749.34	237.12
749.67	236.79
750.00	236.57
750.33	236.44
750.65	236.18
750.98	235.68
751.31	235.47
751.64	235.25
751.97	235.16
752.29	234.90
752.62	234.64
752.95	234.34
753.28	234.09
753.60	233.85
753.93	233.70
754.26	233.49
754.59	233.22
754.91	232.99
755.24	232.75
755.57	232.53
755.90	232.30
756.22	232.07
756.55	231.84
756.88	231.57
757.20	231.21
757.53	230.94
757.86	230.77
758.19	230.58
758.51	230.39
758.84	230.05
759.17	229.84
759.49	229.64
759.82	229.59
760.15	229.42
760.47	229.25
760.80	229.02
761.13	228.86
761.45	228.68
761.78	228.45
762.11	228.27
762.43	228.09
762.76	227.89
763.08	227.75
763.41	227.60
763.74	227.48
764.06	227.35
764.39	227.26
764.71	227.09
765.04	226.92
765.37	226.73
765.69	226.61
766.02	226.48
766.34	226.31
766.67	226.10
767.00	225.99
767.32	225.98
767.65	225.95
767.97	225.85
768.30	225.74
768.62	225.64
768.95	225.53
769.27	225.37
769.60	225.31
769.92	225.14
770.25	224.97
770.57	224.80
770.90	224.71
771.22	224.59
771.55	224.48
771.87	224.39
772.20	224.31
772.52	224.37
772.85	224.52
773.17	224.42
773.50	224.31
773.82	224.23
774.15	224.02
774.47	223.84
774.80	223.69
775.12	223.59
775.45	223.51
775.77	223.42
776.09	223.39
776.42	223.27
776.74	223.29
777.07	223.23
777.39	223.14
777.72	222.98
778.04	222.91
778.36	222.79
778.69	222.70
779.01	222.61
779.33	222.34
779.66	221.97
779.98	221.90
780.31	221.84
780.63	221.83
780.95	221.78
781.28	221.68
781.60	221.60
781.92	221.54
782.25	221.43
782.57	221.35
782.89	221.23
783.22	221.17
783.54	221.02
783.86	220.94
784.19	220.88
784.51	220.89
784.83	220.77
785.16	220.69
785.48	220.64
785.80	220.59
786.12	220.56
