SpectraSuite Data File
++++++++++++++++++++++++++++++++++++
Date: Tue Jan 29 16:29:41 EST 2013
User: group
Dark Spectrum Present: No
Reference Spectrum Present: No
Number of Sampled Component Spectra: 1
Spectrometers: USB2E7196
Integration Time (usec): 65000 (USB2E7196)
Spectra Averaged: 100 (USB2E7196)
Boxcar Smoothing: 10 (USB2E7196)
Correct for Electrical Dark: No (USB2E7196)
Strobe/Lamp Enabled: No (USB2E7196)
Correct for Detector Non-linearity: No (USB2E7196)
Correct for Stray Light: No (USB2E7196)
Number of Pixels in Processed Spectrum: 2048
>>>>>Begin Processed Spectral Data<<<<<
339.09	0.00
339.48	201.92
339.86	203.35
340.24	204.87
340.63	206.27
341.01	210.46
341.39	209.67
341.78	210.34
342.16	212.09
342.54	212.41
342.93	201.30
343.31	211.47
343.69	212.03
344.07	212.51
344.46	212.96
344.84	213.37
345.22	213.54
345.60	213.79
345.99	214.00
346.37	214.12
346.75	214.23
347.13	214.29
347.52	214.39
347.90	214.52
348.28	214.57
348.66	214.63
349.05	214.58
349.43	214.66
349.81	214.73
350.19	214.79
350.57	214.86
350.96	214.92
351.34	215.02
351.72	215.13
352.10	215.26
352.48	215.32
352.87	215.38
353.25	215.47
353.63	215.57
354.01	215.65
354.39	215.74
354.77	215.82
355.15	215.93
355.54	215.97
355.92	215.96
356.30	216.03
356.68	216.23
357.06	216.36
357.44	216.39
357.82	216.45
358.20	216.54
358.58	216.57
358.97	216.67
359.35	216.78
359.73	216.86
360.11	216.88
360.49	216.94
360.87	216.97
361.25	217.06
361.63	217.12
362.01	217.18
362.39	217.20
362.77	217.25
363.15	217.31
363.53	217.34
363.91	217.36
364.29	217.40
364.67	217.24
365.05	217.25
365.43	217.30
365.81	217.36
366.19	217.48
366.57	217.58
366.95	217.58
367.33	217.51
367.71	217.50
368.09	217.56
368.47	217.54
368.85	217.55
369.23	217.56
369.61	217.50
369.99	217.52
370.37	217.55
370.75	217.62
371.13	217.54
371.51	217.47
371.89	217.48
372.27	217.46
372.65	217.44
373.03	217.41
373.41	217.35
373.78	217.27
374.16	217.11
374.54	217.01
374.92	216.95
375.30	216.93
375.68	216.88
376.06	216.82
376.44	216.79
376.82	216.75
377.19	216.69
377.57	216.62
377.95	216.51
378.33	216.43
378.71	216.27
379.09	216.24
379.47	216.24
379.84	216.18
380.22	216.13
380.60	216.05
380.98	215.99
381.36	215.92
381.73	215.87
382.11	215.88
382.49	215.87
382.87	215.83
383.25	215.79
383.62	215.96
384.00	215.90
384.38	215.87
384.76	215.90
385.13	215.96
385.51	215.91
385.89	215.87
386.27	215.86
386.64	215.86
387.02	215.83
387.40	215.78
387.78	215.73
388.15	215.73
388.53	215.68
388.91	215.67
389.29	215.67
389.66	215.66
390.04	215.62
390.42	215.66
390.79	215.65
391.17	215.64
391.55	215.44
391.92	215.43
392.30	215.43
392.68	215.34
393.05	215.30
393.43	215.34
393.81	215.38
394.18	215.37
394.56	215.35
394.94	215.41
395.31	215.40
395.69	215.49
396.06	215.49
396.44	215.53
396.82	215.53
397.19	215.67
397.57	215.68
397.95	215.74
398.32	215.67
398.70	215.71
399.07	215.78
399.45	215.78
399.82	215.82
400.20	215.86
400.58	215.95
400.95	215.92
401.33	216.01
401.70	216.19
402.08	216.26
402.45	216.36
402.83	216.48
403.20	216.62
403.58	216.70
403.95	216.86
404.33	217.03
404.71	217.22
405.08	217.45
405.46	217.65
405.83	217.84
406.21	218.08
406.58	218.34
406.96	218.55
407.33	218.82
407.70	219.11
408.08	219.57
408.45	219.95
408.83	220.36
409.20	220.68
409.58	220.91
409.95	221.37
410.33	221.86
410.70	222.31
411.08	222.87
411.45	223.45
411.82	224.03
412.20	224.69
412.57	225.52
412.95	226.09
413.32	226.92
413.69	227.73
414.07	228.61
414.44	229.57
414.82	230.63
415.19	231.82
415.56	233.00
415.94	234.16
416.31	235.53
416.68	236.93
417.06	238.54
417.43	240.10
417.81	241.84
418.18	243.65
418.55	245.52
418.93	247.53
419.30	249.67
419.67	251.87
420.04	254.17
420.42	256.53
420.79	259.35
421.16	262.11
421.54	265.01
421.91	267.99
422.28	271.09
422.66	274.36
423.03	277.59
423.40	280.98
423.77	284.60
424.15	288.27
424.52	292.11
424.89	296.31
425.26	300.41
425.64	304.26
426.01	308.52
426.38	313.00
426.75	317.57
427.13	322.26
427.50	327.23
427.87	332.40
428.24	337.56
428.61	342.57
428.99	348.12
429.36	354.14
429.73	360.05
430.10	365.93
430.47	372.00
430.85	378.33
431.22	385.02
431.59	392.11
431.96	398.92
432.33	406.36
432.70	413.57
433.08	422.05
433.45	430.16
433.82	438.18
434.19	447.11
434.56	455.76
434.93	464.13
435.30	472.38
435.68	481.49
436.05	490.43
436.42	499.31
436.79	507.32
437.16	516.06
437.53	525.33
437.90	534.42
438.27	543.34
438.64	552.54
439.01	561.03
439.38	568.59
439.75	575.88
440.13	584.37
440.50	592.30
440.87	598.78
441.24	605.41
441.61	612.72
441.98	618.03
442.35	624.40
442.72	630.65
443.09	636.72
443.46	640.53
443.83	643.15
444.20	645.39
444.57	648.58
444.94	649.95
445.31	651.39
445.68	652.85
446.05	653.45
446.42	652.67
446.79	651.75
447.16	650.72
447.53	649.98
447.90	646.67
448.27	643.40
448.64	638.68
449.01	635.36
449.37	629.50
449.74	623.91
450.11	617.01
450.48	609.66
450.85	602.29
451.22	595.76
451.59	589.60
451.96	583.78
452.33	575.94
452.70	568.93
453.07	560.38
453.43	551.75
453.80	543.47
454.17	535.48
454.54	527.89
454.91	519.66
455.28	511.66
455.65	504.24
456.02	496.75
456.38	490.47
456.75	482.59
457.12	476.01
457.49	469.47
457.86	463.32
458.23	457.95
458.59	452.01
458.96	446.04
459.33	440.72
459.70	435.30
460.07	431.11
460.43	426.21
460.80	421.70
461.17	417.70
461.54	413.56
461.91	409.55
462.27	405.50
462.64	402.10
463.01	398.33
463.38	394.63
463.74	390.94
464.11	387.65
464.48	384.84
464.85	381.72
465.21	379.28
465.58	376.62
465.95	373.46
466.32	370.80
466.68	368.16
467.05	365.58
467.42	363.03
467.78	360.32
468.15	357.79
468.52	355.87
468.88	353.38
469.25	351.12
469.62	349.31
469.98	347.36
470.35	345.48
470.72	343.81
471.08	341.99
471.45	340.48
471.82	338.99
472.18	337.29
472.55	336.12
472.92	334.73
473.28	333.52
473.65	332.36
474.02	331.29
474.38	330.40
474.75	329.62
475.11	328.81
475.48	328.24
475.85	327.77
476.21	327.32
476.58	326.96
476.94	326.74
477.31	326.44
477.67	326.15
478.04	326.05
478.41	326.00
478.77	326.24
479.14	326.17
479.50	326.30
479.87	326.63
480.23	326.92
480.60	327.17
480.96	327.42
481.33	328.08
481.69	328.60
482.06	329.12
482.42	329.62
482.79	330.21
483.15	331.01
483.52	331.94
483.88	332.79
484.25	333.71
484.61	334.71
484.98	335.75
485.34	337.08
485.71	338.44
486.07	339.84
486.44	341.13
486.80	342.79
487.17	344.47
487.53	346.32
487.90	348.19
488.26	350.22
488.62	352.36
488.99	354.37
489.35	356.56
489.72	358.96
490.08	361.48
490.44	364.08
490.81	366.77
491.17	369.51
491.54	372.50
491.90	375.56
492.26	378.85
492.63	382.25
492.99	385.75
493.36	389.43
493.72	393.29
494.08	397.27
494.45	401.48
494.81	405.89
495.17	410.33
495.54	415.10
495.90	419.98
496.26	424.96
496.63	430.18
496.99	435.56
497.35	441.17
497.72	447.01
498.08	452.94
498.44	459.05
498.80	465.54
499.17	472.09
499.53	478.80
499.89	485.71
500.26	492.74
500.62	499.82
500.98	507.30
501.34	514.77
501.71	522.60
502.07	530.44
502.43	538.46
502.79	546.62
503.16	555.01
503.52	563.58
503.88	572.32
504.24	581.32
504.60	590.49
504.97	599.75
505.33	609.04
505.69	618.96
506.05	628.94
506.41	638.80
506.78	648.88
507.14	659.21
507.50	669.68
507.86	680.50
508.22	691.38
508.59	702.10
508.95	713.31
509.31	724.67
509.67	736.21
510.03	747.65
510.39	759.47
510.75	771.36
511.12	783.39
511.48	795.57
511.84	807.91
512.20	820.30
512.56	833.03
512.92	845.95
513.28	858.72
513.64	871.60
514.00	884.51
514.37	897.64
514.73	910.82
515.09	923.98
515.45	936.89
515.81	950.05
516.17	963.53
516.53	976.87
516.89	990.09
517.25	1003.36
517.61	1016.99
517.97	1030.47
518.33	1043.81
518.69	1057.44
519.05	1071.27
519.41	1085.03
519.77	1099.01
520.13	1112.44
520.49	1125.69
520.85	1139.17
521.21	1152.56
521.57	1166.40
521.93	1179.57
522.29	1193.49
522.65	1207.28
523.01	1221.04
523.37	1234.36
523.73	1247.74
524.09	1261.04
524.45	1274.57
524.81	1288.26
525.17	1301.88
525.53	1315.25
525.89	1328.73
526.25	1341.94
526.61	1354.99
526.97	1368.18
527.33	1381.26
527.68	1394.85
528.04	1408.44
528.40	1421.77
528.76	1435.20
529.12	1448.20
529.48	1461.56
529.84	1473.97
530.20	1486.69
530.56	1499.42
530.91	1512.69
531.27	1525.69
531.63	1538.47
531.99	1551.39
532.35	1563.65
532.71	1576.11
533.07	1589.06
533.42	1601.39
533.78	1613.68
534.14	1625.84
534.50	1637.22
534.86	1648.95
535.21	1659.92
535.57	1671.59
535.93	1682.97
536.29	1694.21
536.65	1705.81
537.00	1716.90
537.36	1728.25
537.72	1739.46
538.08	1751.02
538.44	1762.20
538.79	1773.47
539.15	1784.46
539.51	1795.31
539.87	1806.76
540.22	1817.66
540.58	1828.62
540.94	1839.53
541.29	1849.93
541.65	1859.76
542.01	1870.44
542.37	1880.58
542.72	1890.89
543.08	1900.66
543.44	1911.19
543.79	1920.54
544.15	1930.08
544.51	1940.22
544.87	1950.29
545.22	1959.72
545.58	1968.62
545.94	1977.71
546.29	1986.28
546.65	1994.76
547.01	2003.06
547.36	2010.80
547.72	2018.79
548.07	2026.53
548.43	2034.48
548.79	2042.43
549.14	2050.69
549.50	2059.24
549.86	2067.16
550.21	2074.64
550.57	2082.49
550.92	2089.28
551.28	2096.91
551.64	2104.23
551.99	2111.80
552.35	2118.99
552.70	2125.88
553.06	2132.53
553.41	2138.77
553.77	2145.33
554.13	2151.90
554.48	2158.98
554.84	2166.10
555.19	2172.56
555.55	2179.10
555.90	2185.39
556.26	2192.29
556.61	2198.39
556.97	2203.32
557.32	2209.16
557.68	2215.56
558.03	2221.48
558.39	2226.96
558.74	2232.96
559.10	2238.48
559.45	2244.25
559.81	2249.83
560.16	2255.31
560.52	2261.35
560.87	2267.78
561.23	2273.79
561.58	2280.43
561.94	2285.77
562.29	2290.57
562.64	2296.60
563.00	2302.22
563.35	2307.77
563.71	2313.54
564.06	2319.27
564.42	2325.23
564.77	2330.38
565.12	2335.76
565.48	2340.77
565.83	2346.34
566.19	2351.77
566.54	2357.20
566.89	2361.72
567.25	2366.43
567.60	2372.25
567.96	2377.38
568.31	2382.01
568.66	2386.12
569.02	2390.22
569.37	2393.82
569.72	2398.35
570.08	2401.94
570.43	2405.08
570.78	2408.25
571.14	2410.81
571.49	2413.81
571.84	2417.27
572.20	2420.21
572.55	2423.09
572.90	2425.50
573.26	2428.25
573.61	2430.87
573.96	2433.09
574.31	2435.14
574.67	2437.00
575.02	2437.77
575.37	2439.18
575.72	2439.77
576.08	2441.20
576.43	2441.19
576.78	2441.77
577.13	2443.34
577.49	2444.45
577.84	2445.58
578.19	2446.90
578.54	2447.45
578.90	2448.36
579.25	2448.29
579.60	2448.13
579.95	2447.39
580.30	2447.44
580.66	2446.64
581.01	2444.86
581.36	2442.47
581.71	2440.98
582.06	2439.69
582.42	2438.66
582.77	2436.46
583.12	2434.87
583.47	2433.53
583.82	2433.02
584.17	2431.73
584.53	2429.46
584.88	2427.47
585.23	2425.46
585.58	2423.11
585.93	2421.01
586.28	2418.60
586.63	2415.99
586.98	2413.74
587.34	2411.83
587.69	2409.33
588.04	2407.38
588.39	2405.93
588.74	2403.41
589.09	2400.71
589.44	2397.56
589.79	2395.12
590.14	2393.13
590.49	2390.30
590.84	2386.51
591.19	2383.20
591.54	2379.89
591.89	2375.74
592.25	2372.37
592.60	2368.10
592.95	2363.92
593.30	2359.71
593.65	2355.23
594.00	2350.89
594.35	2347.82
594.70	2342.94
595.05	2338.26
595.40	2332.55
595.75	2326.72
596.10	2323.09
596.45	2318.08
596.80	2313.46
597.15	2308.21
597.50	2302.19
597.85	2297.23
598.19	2292.01
598.54	2286.22
598.89	2280.90
599.24	2276.33
599.59	2270.07
599.94	2264.13
600.29	2258.06
600.64	2252.09
600.99	2245.46
601.34	2239.84
601.69	2232.86
602.04	2226.59
602.39	2219.85
602.74	2213.76
603.08	2208.28
603.43	2201.60
603.78	2194.74
604.13	2187.76
604.48	2180.46
604.83	2174.30
605.18	2167.87
605.53	2160.86
605.87	2153.80
606.22	2147.03
606.57	2139.03
606.92	2130.96
607.27	2124.05
607.62	2117.50
607.96	2110.44
608.31	2103.86
608.66	2096.09
609.01	2088.50
609.36	2081.41
609.70	2073.86
610.05	2065.95
610.40	2057.48
610.75	2049.11
611.10	2041.37
611.44	2032.40
611.79	2023.60
612.14	2013.45
612.49	2002.77
612.83	1993.32
613.18	1984.04
613.53	1974.60
613.88	1964.95
614.22	1956.42
614.57	1946.55
614.92	1935.86
615.27	1925.58
615.61	1915.42
615.96	1905.68
616.31	1896.00
616.65	1886.34
617.00	1876.43
617.35	1866.89
617.70	1857.19
618.04	1847.09
618.39	1836.70
618.74	1826.92
619.08	1817.24
619.43	1808.53
619.78	1800.29
620.12	1791.66
620.47	1781.96
620.82	1771.68
621.16	1761.95
621.51	1751.95
621.85	1742.01
622.20	1731.49
622.55	1720.77
622.89	1710.82
623.24	1701.06
623.59	1691.09
623.93	1681.04
624.28	1671.22
624.62	1661.08
624.97	1650.63
625.32	1640.86
625.66	1632.05
626.01	1623.21
626.35	1613.89
626.70	1603.85
627.04	1593.64
627.39	1583.63
627.73	1574.35
628.08	1565.41
628.43	1555.76
628.77	1546.44
629.12	1537.43
629.46	1529.62
629.81	1521.38
630.15	1511.74
630.50	1501.84
630.84	1491.43
631.19	1481.34
631.53	1471.97
631.88	1461.63
632.22	1451.57
632.57	1442.11
632.91	1431.98
633.26	1422.03
633.60	1412.35
633.95	1402.94
634.29	1393.41
634.64	1383.88
634.98	1373.64
635.32	1364.08
635.67	1355.57
636.01	1346.24
636.36	1336.51
636.70	1326.88
637.05	1317.39
637.39	1308.57
637.73	1299.84
638.08	1292.15
638.42	1283.94
638.77	1275.05
639.11	1266.88
639.45	1259.03
639.80	1250.43
640.14	1241.59
640.49	1232.69
640.83	1223.74
641.17	1215.63
641.52	1207.51
641.86	1198.75
642.20	1190.95
642.55	1182.35
642.89	1173.35
643.23	1164.62
643.58	1156.37
643.92	1147.29
644.26	1138.57
644.61	1130.06
644.95	1121.30
645.29	1112.03
645.64	1102.76
645.98	1094.13
646.32	1086.15
646.66	1077.60
647.01	1069.20
647.35	1060.95
647.69	1052.63
648.04	1044.33
648.38	1035.31
648.72	1026.46
649.06	1018.04
649.41	1009.74
649.75	1001.80
650.09	993.90
650.43	985.86
650.78	977.54
651.12	969.82
651.46	962.30
651.80	954.85
652.14	947.51
652.49	939.92
652.83	932.64
653.17	924.89
653.51	917.16
653.85	909.81
654.20	902.47
654.54	894.99
654.88	887.54
655.22	880.30
655.56	873.21
655.90	866.35
656.25	859.61
656.59	852.69
656.93	845.49
657.27	838.28
657.61	831.17
657.95	825.01
658.29	818.94
658.64	812.77
658.98	806.27
659.32	799.56
659.66	793.25
660.00	786.84
660.34	780.82
660.68	774.61
661.02	768.22
661.36	762.24
661.70	756.31
662.05	750.68
662.39	745.07
662.73	739.63
663.07	734.18
663.41	728.54
663.75	722.78
664.09	717.07
664.43	711.57
664.77	706.23
665.11	700.33
665.45	694.43
665.79	688.55
666.13	682.81
666.47	677.31
666.81	671.81
667.15	666.34
667.49	661.00
667.83	655.70
668.17	650.39
668.51	645.22
668.85	640.26
669.19	635.30
669.53	630.22
669.87	625.06
670.21	620.25
670.55	615.39
670.89	610.86
671.23	606.46
671.57	602.06
671.91	597.68
672.25	593.51
672.58	589.33
672.92	585.17
673.26	581.16
673.60	577.24
673.94	573.34
674.28	569.68
674.62	565.97
674.96	562.22
675.30	558.64
675.64	554.95
675.97	551.29
676.31	547.65
676.65	544.01
676.99	540.57
677.33	536.67
677.67	533.09
678.01	529.18
678.34	525.54
678.68	521.94
679.02	518.34
679.36	514.56
679.70	510.83
680.04	507.27
680.37	503.79
680.71	500.39
681.05	497.14
681.39	493.84
681.73	490.60
682.06	487.47
682.40	484.40
682.74	481.11
683.08	477.89
683.42	474.64
683.75	471.59
684.09	468.44
684.43	465.51
684.77	462.49
685.10	459.58
685.44	456.61
685.78	453.65
686.12	450.82
686.45	448.01
686.79	445.35
687.13	442.74
687.46	440.05
687.80	437.30
688.14	434.46
688.48	431.80
688.81	429.06
689.15	426.47
689.49	423.76
689.82	421.19
690.16	418.58
690.50	416.09
690.83	413.55
691.17	411.04
691.51	408.56
691.84	406.25
692.18	404.00
692.52	401.79
692.85	399.62
693.19	397.49
693.52	395.39
693.86	393.10
694.20	390.93
694.53	388.79
694.87	386.59
695.21	384.43
695.54	382.24
695.88	380.06
696.21	377.84
696.55	375.69
696.88	373.63
697.22	371.65
697.56	369.72
697.89	367.80
698.23	366.01
698.56	364.13
698.90	362.34
699.23	360.44
699.57	358.50
699.90	356.54
700.24	354.68
700.58	352.84
700.91	351.17
701.25	349.54
701.58	347.89
701.92	346.29
702.25	344.70
702.59	343.02
702.92	341.49
703.26	339.85
703.59	338.38
703.93	337.08
704.26	335.61
704.60	334.10
704.93	332.60
705.26	331.04
705.60	329.64
705.93	328.07
706.27	326.70
706.60	325.44
706.94	324.26
707.27	322.82
707.61	321.42
707.94	320.07
708.27	318.53
708.61	317.05
708.94	315.63
709.28	314.31
709.61	313.03
709.94	311.77
710.28	310.54
710.61	309.34
710.95	307.88
711.28	306.73
711.61	305.54
711.95	304.41
712.28	303.23
712.61	301.99
712.95	300.94
713.28	299.89
713.61	298.71
713.95	297.52
714.28	296.48
714.61	295.44
714.95	294.39
715.28	293.36
715.61	292.35
715.95	291.38
716.28	290.38
716.61	289.42
716.95	288.44
717.28	287.56
717.61	286.57
717.94	285.69
718.28	284.70
718.61	283.77
718.94	282.84
719.27	281.97
719.61	281.15
719.94	280.34
720.27	279.38
720.60	278.51
720.94	277.70
721.27	276.94
721.60	276.25
721.93	275.52
722.27	274.83
722.60	274.14
722.93	273.41
723.26	272.75
723.59	272.05
723.93	271.38
724.26	270.67
724.59	270.04
724.92	269.42
725.25	268.87
725.59	268.32
725.92	267.77
726.25	267.15
726.58	266.57
726.91	265.87
727.24	265.30
727.57	264.72
727.91	264.09
728.24	263.55
728.57	262.95
728.90	262.36
729.23	261.76
729.56	261.33
729.89	260.75
730.22	260.17
730.55	259.66
730.89	259.10
731.22	258.59
731.55	258.03
731.88	257.50
732.21	256.91
732.54	256.35
732.87	255.84
733.20	255.38
733.53	254.88
733.86	254.46
734.19	253.97
734.52	253.56
734.85	253.28
735.18	252.81
735.51	252.41
735.84	252.02
736.17	251.65
736.50	251.07
736.83	250.92
737.16	250.53
737.49	250.11
737.82	249.69
738.15	249.33
738.48	248.98
738.81	248.61
739.14	248.21
739.47	247.85
739.80	247.45
740.13	247.10
740.46	246.69
740.79	246.27
741.12	245.88
741.45	245.51
741.78	245.07
742.11	244.78
742.44	244.37
742.77	244.03
743.10	243.66
743.43	243.33
743.75	242.76
744.08	242.66
744.41	242.28
744.74	241.95
745.07	241.54
745.40	241.21
745.73	240.95
746.06	240.63
746.39	240.28
746.71	239.92
747.04	239.56
747.37	239.26
747.70	238.98
748.03	238.68
748.36	238.37
748.68	238.06
749.01	237.69
749.34	237.40
749.67	237.12
750.00	236.84
750.33	236.75
750.65	236.51
750.98	235.97
751.31	235.70
751.64	235.50
751.97	235.38
752.29	235.10
752.62	234.73
752.95	234.49
753.28	234.21
753.60	233.97
753.93	233.81
754.26	233.58
754.59	233.30
754.91	233.08
755.24	232.88
755.57	232.62
755.90	232.41
756.22	232.16
756.55	231.92
756.88	231.66
757.20	231.27
757.53	231.00
757.86	230.83
758.19	230.66
758.51	230.42
758.84	230.10
759.17	229.88
759.49	229.74
759.82	229.65
760.15	229.51
760.47	229.35
760.80	229.07
761.13	228.90
761.45	228.72
761.78	228.51
762.11	228.32
762.43	228.15
762.76	227.95
763.08	227.84
763.41	227.69
763.74	227.60
764.06	227.46
764.39	227.31
764.71	227.14
765.04	226.96
765.37	226.83
765.69	226.71
766.02	226.56
766.34	226.36
766.67	226.13
767.00	226.02
767.32	225.99
767.65	225.96
767.97	225.85
768.30	225.75
768.62	225.63
768.95	225.47
769.27	225.35
769.60	225.27
769.92	225.08
770.25	224.90
770.57	224.68
770.90	224.55
771.22	224.41
771.55	224.29
771.87	224.19
772.20	224.03
772.52	224.08
772.85	224.25
773.17	224.14
773.50	224.03
773.82	223.91
774.15	223.68
774.47	223.49
774.80	223.33
775.12	223.21
775.45	223.11
775.77	223.01
776.09	222.91
776.42	222.79
776.74	222.77
777.07	222.67
777.39	222.60
777.72	222.51
778.04	222.45
778.36	222.38
778.69	222.27
779.01	222.23
779.33	221.97
779.66	221.64
779.98	221.57
780.31	221.48
780.63	221.48
780.95	221.46
781.28	221.37
781.60	221.35
781.92	221.31
782.25	221.25
782.57	221.21
782.89	221.13
783.22	221.04
783.54	220.91
783.86	220.87
784.19	220.81
784.51	220.80
784.83	220.71
785.16	220.63
785.48	220.59
785.80	220.51
786.12	220.47
