SpectraSuite Data File
++++++++++++++++++++++++++++++++++++
Date: Tue Jan 29 16:44:52 EST 2013
User: group
Dark Spectrum Present: No
Reference Spectrum Present: No
Number of Sampled Component Spectra: 1
Spectrometers: USB2E7196
Integration Time (usec): 65000 (USB2E7196)
Spectra Averaged: 100 (USB2E7196)
Boxcar Smoothing: 10 (USB2E7196)
Correct for Electrical Dark: No (USB2E7196)
Strobe/Lamp Enabled: No (USB2E7196)
Correct for Detector Non-linearity: No (USB2E7196)
Correct for Stray Light: No (USB2E7196)
Number of Pixels in Processed Spectrum: 2048
>>>>>Begin Processed Spectral Data<<<<<
339.09	0.00
339.48	202.29
339.86	202.68
340.24	204.31
340.63	205.83
341.01	210.66
341.39	208.45
341.78	209.84
342.16	211.23
342.54	211.37
342.93	200.81
343.31	210.97
343.69	211.48
344.07	211.95
344.46	212.39
344.84	212.80
345.22	212.94
345.60	213.23
345.99	213.41
346.37	213.57
346.75	213.72
347.13	213.81
347.52	213.92
347.90	214.07
348.28	214.13
348.66	214.21
349.05	214.19
349.43	214.24
349.81	214.34
350.19	214.39
350.57	214.46
350.96	214.55
351.34	214.66
351.72	214.76
352.10	214.91
352.48	215.00
352.87	215.04
353.25	215.13
353.63	215.18
354.01	215.26
354.39	215.33
354.77	215.40
355.15	215.53
355.54	215.56
355.92	215.55
356.30	215.62
356.68	215.80
357.06	215.87
357.44	215.89
357.82	215.97
358.20	216.04
358.58	216.10
358.97	216.17
359.35	216.27
359.73	216.38
360.11	216.43
360.49	216.51
360.87	216.57
361.25	216.64
361.63	216.75
362.01	216.82
362.39	216.83
362.77	216.90
363.15	216.92
363.53	216.99
363.91	216.99
364.29	217.01
364.67	216.86
365.05	216.92
365.43	217.00
365.81	217.02
366.19	217.13
366.57	217.23
366.95	217.21
367.33	217.14
367.71	217.11
368.09	217.12
368.47	217.11
368.85	217.09
369.23	217.13
369.61	217.03
369.99	217.08
370.37	217.12
370.75	217.18
371.13	217.11
371.51	217.04
371.89	217.07
372.27	217.04
372.65	217.01
373.03	216.99
373.41	216.91
373.78	216.86
374.16	216.72
374.54	216.60
374.92	216.55
375.30	216.52
375.68	216.47
376.06	216.44
376.44	216.41
376.82	216.39
377.19	216.33
377.57	216.32
377.95	216.21
378.33	216.11
378.71	215.93
379.09	215.93
379.47	215.93
379.84	215.89
380.22	215.86
380.60	215.77
380.98	215.71
381.36	215.68
381.73	215.60
382.11	215.57
382.49	215.55
382.87	215.48
383.25	215.44
383.62	215.61
384.00	215.53
384.38	215.48
384.76	215.46
385.13	215.51
385.51	215.44
385.89	215.38
386.27	215.40
386.64	215.43
387.02	215.34
387.40	215.29
387.78	215.23
388.15	215.23
388.53	215.21
388.91	215.16
389.29	215.10
389.66	215.13
390.04	215.08
390.42	215.10
390.79	215.13
391.17	215.11
391.55	214.91
391.92	214.89
392.30	214.92
392.68	214.89
393.05	214.87
393.43	214.90
393.81	214.90
394.18	214.85
394.56	214.86
394.94	214.95
395.31	214.93
395.69	215.02
396.06	215.06
396.44	215.10
396.82	215.12
397.19	215.26
397.57	215.24
397.95	215.30
398.32	215.28
398.70	215.30
399.07	215.39
399.45	215.41
399.82	215.48
400.20	215.51
400.58	215.58
400.95	215.55
401.33	215.62
401.70	215.87
402.08	215.94
402.45	216.00
402.83	216.13
403.20	216.26
403.58	216.34
403.95	216.47
404.33	216.63
404.71	216.77
405.08	217.03
405.46	217.20
405.83	217.41
406.21	217.60
406.58	217.86
406.96	218.10
407.33	218.40
407.70	218.66
408.08	219.12
408.45	219.49
408.83	219.89
409.20	220.24
409.58	220.49
409.95	220.98
410.33	221.48
410.70	221.92
411.08	222.49
411.45	223.10
411.82	223.70
412.20	224.40
412.57	225.22
412.95	225.79
413.32	226.65
413.69	227.50
414.07	228.43
414.44	229.40
414.82	230.41
415.19	231.57
415.56	232.78
415.94	233.95
416.31	235.33
416.68	236.74
417.06	238.34
417.43	239.93
417.81	241.66
418.18	243.46
418.55	245.39
418.93	247.44
419.30	249.53
419.67	251.74
420.04	254.05
420.42	256.46
420.79	259.32
421.16	262.10
421.54	265.00
421.91	268.02
422.28	271.17
422.66	274.51
423.03	277.78
423.40	281.18
423.77	284.86
424.15	288.53
424.52	292.46
424.89	296.69
425.26	300.81
425.64	304.76
426.01	309.03
426.38	313.55
426.75	318.13
427.13	322.89
427.50	327.90
427.87	333.10
428.24	338.34
428.61	343.37
428.99	348.93
429.36	355.02
429.73	360.93
430.10	366.77
430.47	372.85
430.85	379.15
431.22	385.86
431.59	392.97
431.96	399.82
432.33	407.29
432.70	414.53
433.08	423.08
433.45	431.17
433.82	439.29
434.19	448.23
434.56	456.98
434.93	465.32
435.30	473.61
435.68	482.75
436.05	491.78
436.42	500.72
436.79	508.87
437.16	517.62
437.53	526.93
437.90	536.09
438.27	545.12
438.64	554.44
439.01	563.03
439.38	570.67
439.75	578.02
440.13	586.46
440.50	594.45
440.87	600.91
441.24	607.55
441.61	614.86
441.98	620.24
442.35	626.55
442.72	632.95
443.09	639.09
443.46	642.88
443.83	645.36
444.20	647.52
444.57	650.71
444.94	652.21
445.31	653.68
445.68	655.15
446.05	655.70
446.42	654.88
446.79	653.92
447.16	652.87
447.53	652.13
447.90	648.78
448.27	645.54
448.64	640.88
449.01	637.59
449.37	631.75
449.74	626.05
450.11	619.09
450.48	611.69
450.85	604.17
451.22	597.72
451.59	591.62
451.96	585.82
452.33	577.92
452.70	570.75
453.07	562.24
453.43	553.55
453.80	545.30
454.17	537.32
454.54	529.74
454.91	521.44
455.28	513.43
455.65	505.99
456.02	498.42
456.38	492.02
456.75	484.08
457.12	477.46
457.49	470.87
457.86	464.72
458.23	459.32
458.59	453.37
458.96	447.31
459.33	441.94
459.70	436.52
460.07	432.24
460.43	427.34
460.80	422.69
461.17	418.66
461.54	414.43
461.91	410.37
462.27	406.20
462.64	402.76
463.01	398.96
463.38	395.30
463.74	391.56
464.11	388.30
464.48	385.51
464.85	382.36
465.21	379.93
465.58	377.28
465.95	374.09
466.32	371.42
466.68	368.76
467.05	366.16
467.42	363.61
467.78	360.91
468.15	358.34
468.52	356.42
468.88	353.94
469.25	351.70
469.62	349.83
469.98	347.92
470.35	346.10
470.72	344.37
471.08	342.52
471.45	341.01
471.82	339.43
472.18	337.66
472.55	336.47
472.92	335.06
473.28	333.77
473.65	332.60
474.02	331.51
474.38	330.66
474.75	329.89
475.11	329.05
475.48	328.45
475.85	327.96
476.21	327.45
476.58	327.05
476.94	326.80
477.31	326.52
477.67	326.25
478.04	326.07
478.41	326.02
478.77	326.14
479.14	326.09
479.50	326.24
479.87	326.56
480.23	326.88
480.60	327.12
480.96	327.45
481.33	328.04
481.69	328.59
482.06	329.09
482.42	329.57
482.79	330.15
483.15	330.94
483.52	331.86
483.88	332.76
484.25	333.71
484.61	334.73
484.98	335.78
485.34	337.06
485.71	338.44
486.07	339.85
486.44	341.19
486.80	342.80
487.17	344.49
487.53	346.37
487.90	348.21
488.26	350.28
488.62	352.41
488.99	354.46
489.35	356.64
489.72	359.03
490.08	361.55
490.44	364.09
490.81	366.82
491.17	369.54
491.54	372.56
491.90	375.65
492.26	378.89
492.63	382.30
492.99	385.80
493.36	389.52
493.72	393.42
494.08	397.45
494.45	401.64
494.81	406.02
495.17	410.40
495.54	415.12
495.90	419.91
496.26	424.86
496.63	430.06
496.99	435.47
497.35	441.04
497.72	446.86
498.08	452.82
498.44	458.90
498.80	465.36
499.17	471.78
499.53	478.48
499.89	485.34
500.26	492.33
500.62	499.44
500.98	506.75
501.34	514.20
501.71	521.99
502.07	529.80
502.43	537.74
502.79	545.93
503.16	554.29
503.52	562.86
503.88	571.55
504.24	580.48
504.60	589.54
504.97	598.77
505.33	608.07
505.69	617.92
506.05	627.76
506.41	637.58
506.78	647.71
507.14	657.89
507.50	668.32
507.86	679.02
508.22	689.82
508.59	700.49
508.95	711.52
509.31	722.75
509.67	734.24
510.03	745.64
510.39	757.36
510.75	769.19
511.12	781.12
511.48	793.26
511.84	805.61
512.20	817.93
512.56	830.60
512.92	843.42
513.28	856.09
513.64	868.80
514.00	881.82
514.37	894.76
514.73	907.98
515.09	921.07
515.45	934.02
515.81	947.02
516.17	960.49
516.53	973.83
516.89	986.93
517.25	1000.27
517.61	1013.87
517.97	1027.28
518.33	1040.54
518.69	1054.19
519.05	1067.99
519.41	1081.56
519.77	1095.54
520.13	1108.73
520.49	1121.89
520.85	1135.33
521.21	1148.87
521.57	1162.40
521.93	1175.59
522.29	1189.31
522.65	1202.98
523.01	1216.63
523.37	1229.97
523.73	1243.29
524.09	1256.51
524.45	1270.06
524.81	1283.48
525.17	1296.82
525.53	1310.08
525.89	1323.46
526.25	1336.64
526.61	1349.46
526.97	1362.76
527.33	1375.79
527.68	1389.52
528.04	1403.16
528.40	1416.35
528.76	1429.67
529.12	1442.73
529.48	1456.14
529.84	1468.44
530.20	1481.28
530.56	1494.01
530.91	1507.26
531.27	1520.17
531.63	1533.03
531.99	1545.90
532.35	1558.26
532.71	1570.86
533.07	1583.84
533.42	1596.07
533.78	1608.21
534.14	1620.37
534.50	1631.61
534.86	1643.21
535.21	1654.05
535.57	1665.62
535.93	1676.94
536.29	1688.08
536.65	1699.65
537.00	1710.75
537.36	1722.28
537.72	1733.42
538.08	1744.87
538.44	1755.89
538.79	1767.06
539.15	1778.09
539.51	1788.87
539.87	1800.24
540.22	1811.13
540.58	1822.21
540.94	1833.26
541.29	1843.51
541.65	1853.37
542.01	1864.05
542.37	1874.24
542.72	1884.47
543.08	1894.20
543.44	1904.83
543.79	1914.27
544.15	1923.90
544.51	1933.79
544.87	1943.80
545.22	1953.09
545.58	1962.12
545.94	1971.14
546.29	1979.74
546.65	1988.21
547.01	1996.62
547.36	2004.38
547.72	2012.16
548.07	2019.68
548.43	2027.60
548.79	2035.67
549.14	2043.78
549.50	2052.21
549.86	2060.10
550.21	2067.68
550.57	2075.60
550.92	2082.40
551.28	2089.95
551.64	2097.07
551.99	2104.64
552.35	2111.88
552.70	2118.78
553.06	2125.33
553.41	2131.52
553.77	2138.09
554.13	2144.42
554.48	2151.43
554.84	2158.64
555.19	2165.28
555.55	2171.90
555.90	2178.05
556.26	2184.96
556.61	2191.21
556.97	2196.05
557.32	2201.87
557.68	2208.37
558.03	2214.07
558.39	2219.60
558.74	2225.58
559.10	2231.15
559.45	2236.71
559.81	2242.16
560.16	2247.57
560.52	2253.54
560.87	2260.08
561.23	2265.91
561.58	2272.53
561.94	2277.60
562.29	2282.07
562.64	2287.97
563.00	2293.52
563.35	2299.13
563.71	2304.76
564.06	2310.31
564.42	2316.25
564.77	2321.34
565.12	2326.39
565.48	2331.42
565.83	2336.72
566.19	2342.03
566.54	2347.31
566.89	2351.87
567.25	2356.37
567.60	2362.10
567.96	2367.05
568.31	2371.65
568.66	2375.93
569.02	2379.80
569.37	2383.56
569.72	2387.97
570.08	2391.38
570.43	2394.47
570.78	2397.54
571.14	2399.82
571.49	2402.97
571.84	2406.31
572.20	2409.00
572.55	2412.03
572.90	2414.38
573.26	2416.98
573.61	2419.46
573.96	2421.55
574.31	2423.40
574.67	2425.19
575.02	2425.78
575.37	2427.16
575.72	2427.65
576.08	2428.96
576.43	2428.94
576.78	2429.16
577.13	2430.60
577.49	2431.78
577.84	2432.59
578.19	2433.76
578.54	2434.43
578.90	2434.89
579.25	2434.80
579.60	2434.74
579.95	2433.63
580.30	2433.43
580.66	2432.65
581.01	2430.73
581.36	2428.13
581.71	2426.69
582.06	2425.39
582.42	2424.43
582.77	2421.99
583.12	2420.14
583.47	2418.54
583.82	2417.75
584.17	2416.50
584.53	2414.34
584.88	2411.99
585.23	2409.98
585.58	2407.50
585.93	2405.46
586.28	2403.18
586.63	2400.51
586.98	2398.01
587.34	2395.98
587.69	2393.27
588.04	2391.09
588.39	2389.60
588.74	2387.01
589.09	2384.15
589.44	2380.86
589.79	2378.07
590.14	2376.04
590.49	2373.16
590.84	2369.20
591.19	2365.92
591.54	2362.57
591.89	2358.38
592.25	2355.11
592.60	2350.80
592.95	2346.48
593.30	2341.89
593.65	2337.44
594.00	2332.85
594.35	2329.80
594.70	2325.13
595.05	2320.77
595.40	2315.18
595.75	2309.31
596.10	2305.60
596.45	2300.74
596.80	2296.07
597.15	2291.03
597.50	2285.00
597.85	2279.87
598.19	2274.65
598.54	2268.78
598.89	2263.41
599.24	2258.77
599.59	2252.48
599.94	2246.55
600.29	2240.58
600.64	2234.59
600.99	2227.66
601.34	2222.14
601.69	2215.17
602.04	2208.65
602.39	2201.69
602.74	2195.57
603.08	2190.00
603.43	2183.56
603.78	2176.52
604.13	2169.39
604.48	2161.94
604.83	2155.77
605.18	2149.65
605.53	2142.73
605.87	2135.67
606.22	2128.87
606.57	2120.98
606.92	2113.00
607.27	2106.01
607.62	2099.26
607.96	2092.42
608.31	2085.97
608.66	2078.28
609.01	2070.66
609.36	2063.64
609.70	2056.04
610.05	2048.28
610.40	2039.90
610.75	2031.50
611.10	2023.86
611.44	2015.03
611.79	2006.41
612.14	1996.53
612.49	1985.86
612.83	1976.37
613.18	1967.19
613.53	1957.87
613.88	1948.14
614.22	1939.52
614.57	1929.70
614.92	1919.21
615.27	1909.00
615.61	1898.76
615.96	1888.96
616.31	1879.29
616.65	1869.83
617.00	1860.15
617.35	1850.45
617.70	1840.76
618.04	1830.70
618.39	1820.58
618.74	1810.90
619.08	1801.24
619.43	1792.50
619.78	1784.11
620.12	1775.64
620.47	1766.13
620.82	1755.85
621.16	1746.20
621.51	1736.41
621.85	1726.64
622.20	1716.40
622.55	1705.86
622.89	1696.11
623.24	1686.54
623.59	1676.82
623.93	1666.75
624.28	1657.07
624.62	1647.08
624.97	1636.98
625.32	1627.30
625.66	1618.56
626.01	1609.86
626.35	1600.58
626.70	1590.53
627.04	1580.62
627.39	1570.64
627.73	1561.37
628.08	1552.55
628.43	1543.08
628.77	1533.86
629.12	1525.12
629.46	1517.31
629.81	1509.07
630.15	1499.67
630.50	1489.88
630.84	1479.37
631.19	1469.52
631.53	1460.21
631.88	1450.08
632.22	1440.11
632.57	1430.76
632.91	1420.60
633.26	1410.85
633.60	1401.35
633.95	1392.23
634.29	1382.86
634.64	1373.56
634.98	1363.65
635.32	1354.40
635.67	1345.94
636.01	1336.68
636.36	1326.99
636.70	1317.52
637.05	1308.18
637.39	1299.23
637.73	1290.62
638.08	1283.23
638.42	1275.10
638.77	1266.36
639.11	1258.26
639.45	1250.40
639.80	1242.09
640.14	1233.42
640.49	1224.58
640.83	1215.66
641.17	1207.57
641.52	1199.47
641.86	1190.96
642.20	1183.12
642.55	1174.58
642.89	1165.71
643.23	1157.21
643.58	1149.13
643.92	1140.09
644.26	1131.45
644.61	1123.16
644.95	1114.49
645.29	1105.34
645.64	1096.20
645.98	1087.74
646.32	1079.95
646.66	1071.50
647.01	1063.19
647.35	1055.07
647.69	1046.83
648.04	1038.71
648.38	1029.87
648.72	1021.15
649.06	1012.77
649.41	1004.60
649.75	996.72
650.09	988.96
650.43	980.97
650.78	972.60
651.12	964.92
651.46	957.49
651.80	950.21
652.14	942.98
652.49	935.39
652.83	928.13
653.17	920.43
653.51	912.68
653.85	905.49
654.20	898.23
654.54	890.77
654.88	883.55
655.22	876.25
655.56	869.25
655.90	862.49
656.25	855.79
656.59	848.93
656.93	841.85
657.27	834.72
657.61	827.66
657.95	821.63
658.29	815.76
658.64	809.63
658.98	803.10
659.32	796.52
659.66	790.39
660.00	783.97
660.34	777.94
660.68	771.90
661.02	765.55
661.36	759.59
661.70	753.81
662.05	748.15
662.39	742.74
662.73	737.30
663.07	731.86
663.41	726.16
663.75	720.42
664.09	714.73
664.43	709.31
664.77	704.03
665.11	698.14
665.45	692.23
665.79	686.41
666.13	680.74
666.47	675.21
666.81	669.64
667.15	664.27
667.49	659.03
667.83	653.79
668.17	648.49
668.51	643.32
668.85	638.46
669.19	633.56
669.53	628.57
669.87	623.42
670.21	618.65
670.55	613.92
670.89	609.48
671.23	605.17
671.57	600.73
671.91	596.39
672.25	592.32
672.58	588.18
672.92	584.12
673.26	580.22
673.60	576.41
673.94	572.58
674.28	568.98
674.62	565.26
674.96	561.40
675.30	557.92
675.64	554.24
675.97	550.58
676.31	546.91
676.65	543.27
676.99	539.86
677.33	535.98
677.67	532.37
678.01	528.52
678.34	524.85
678.68	521.31
679.02	517.70
679.36	513.91
679.70	510.25
680.04	506.61
680.37	503.07
680.71	499.65
681.05	496.44
681.39	493.11
681.73	489.89
682.06	486.86
682.40	483.72
682.74	480.49
683.08	477.27
683.42	474.05
683.75	471.02
684.09	467.92
684.43	465.16
684.77	462.21
685.10	459.30
685.44	456.34
685.78	453.38
686.12	450.57
686.45	447.82
686.79	445.10
687.13	442.56
687.46	439.98
687.80	437.25
688.14	434.38
688.48	431.69
688.81	428.97
689.15	426.39
689.49	423.75
689.82	421.18
690.16	418.52
690.50	416.04
690.83	413.48
691.17	410.89
691.51	408.30
691.84	405.97
692.18	403.75
692.52	401.49
692.85	399.40
693.19	397.20
693.52	395.06
693.86	392.84
694.20	390.65
694.53	388.44
694.87	386.26
695.21	384.12
695.54	382.00
695.88	379.85
696.21	377.61
696.55	375.42
696.88	373.30
697.22	371.29
697.56	369.36
697.89	367.47
698.23	365.72
698.56	363.93
698.90	362.14
699.23	360.20
699.57	358.34
699.90	356.37
700.24	354.57
700.58	352.80
700.91	351.07
701.25	349.45
701.58	347.80
701.92	346.16
702.25	344.56
702.59	342.91
702.92	341.34
703.26	339.73
703.59	338.30
703.93	337.07
704.26	335.59
704.60	334.07
704.93	332.57
705.26	331.04
705.60	329.55
705.93	328.04
706.27	326.70
706.60	325.41
706.94	324.20
707.27	322.76
707.61	321.33
707.94	319.98
708.27	318.44
708.61	317.00
708.94	315.64
709.28	314.31
709.61	313.01
709.94	311.75
710.28	310.53
710.61	309.35
710.95	307.89
711.28	306.82
711.61	305.63
711.95	304.48
712.28	303.26
712.61	302.04
712.95	300.94
713.28	299.89
713.61	298.74
713.95	297.52
714.28	296.51
714.61	295.44
714.95	294.40
715.28	293.40
715.61	292.35
715.95	291.37
716.28	290.41
716.61	289.44
716.95	288.43
717.28	287.51
717.61	286.48
717.94	285.55
718.28	284.52
718.61	283.62
718.94	282.74
719.27	281.89
719.61	281.07
719.94	280.16
720.27	279.19
720.60	278.29
720.94	277.47
721.27	276.72
721.60	276.02
721.93	275.28
722.27	274.59
722.60	273.92
722.93	273.18
723.26	272.49
723.59	271.77
723.93	271.09
724.26	270.42
724.59	269.75
724.92	269.14
725.25	268.58
725.59	267.99
725.92	267.43
726.25	266.84
726.58	266.29
726.91	265.69
727.24	265.16
727.57	264.57
727.91	263.95
728.24	263.36
728.57	262.75
728.90	262.22
729.23	261.63
729.56	261.15
729.89	260.59
730.22	260.02
730.55	259.52
730.89	259.01
731.22	258.47
731.55	257.98
731.88	257.42
732.21	256.84
732.54	256.24
732.87	255.68
733.20	255.17
733.53	254.66
733.86	254.21
734.19	253.68
734.52	253.28
734.85	253.02
735.18	252.55
735.51	252.18
735.84	251.70
736.17	251.31
736.50	250.82
736.83	250.68
737.16	250.28
737.49	249.88
737.82	249.45
738.15	249.03
738.48	248.64
738.81	248.27
739.14	247.90
739.47	247.54
739.80	247.17
740.13	246.79
740.46	246.38
740.79	245.98
741.12	245.64
741.45	245.23
741.78	244.75
742.11	244.46
742.44	244.04
742.77	243.75
743.10	243.38
743.43	243.00
743.75	242.38
744.08	242.33
744.41	241.94
744.74	241.62
745.07	241.28
745.40	240.98
745.73	240.72
746.06	240.37
746.39	240.03
746.71	239.70
747.04	239.37
747.37	239.06
747.70	238.76
748.03	238.44
748.36	238.18
748.68	237.86
749.01	237.51
749.34	237.21
749.67	236.90
750.00	236.65
750.33	236.52
750.65	236.27
750.98	235.71
751.31	235.52
751.64	235.27
751.97	235.17
752.29	234.87
752.62	234.51
752.95	234.26
753.28	234.02
753.60	233.78
753.93	233.57
754.26	233.35
754.59	233.10
754.91	232.85
755.24	232.59
755.57	232.35
755.90	232.12
756.22	231.91
756.55	231.66
756.88	231.39
757.20	231.02
757.53	230.78
757.86	230.60
758.19	230.32
758.51	230.10
758.84	229.76
759.17	229.55
759.49	229.40
759.82	229.30
760.15	229.16
760.47	228.98
760.80	228.76
761.13	228.61
761.45	228.38
761.78	228.19
762.11	228.01
762.43	227.89
762.76	227.69
763.08	227.53
763.41	227.39
763.74	227.25
764.06	227.09
764.39	226.90
764.71	226.73
765.04	226.63
765.37	226.46
765.69	226.33
766.02	226.19
766.34	226.03
766.67	225.78
767.00	225.64
767.32	225.62
767.65	225.59
767.97	225.44
768.30	225.33
768.62	225.21
768.95	225.06
769.27	224.88
769.60	224.80
769.92	224.66
770.25	224.49
770.57	224.31
770.90	224.22
771.22	224.08
771.55	223.97
771.87	223.83
772.20	223.73
772.52	223.82
772.85	223.93
773.17	223.81
773.50	223.71
773.82	223.58
774.15	223.36
774.47	223.14
774.80	223.03
775.12	222.93
775.45	222.80
775.77	222.72
776.09	222.62
776.42	222.51
776.74	222.48
777.07	222.38
777.39	222.30
777.72	222.20
778.04	222.18
778.36	222.06
778.69	222.01
779.01	221.93
779.33	221.62
779.66	221.33
779.98	221.23
780.31	221.17
780.63	221.17
780.95	221.14
781.28	221.05
781.60	220.99
781.92	220.91
782.25	220.87
782.57	220.81
782.89	220.73
783.22	220.65
783.54	220.54
783.86	220.46
784.19	220.41
784.51	220.38
784.83	220.27
785.16	220.20
785.48	220.10
785.80	220.03
786.12	219.99
