SpectraSuite Data File
++++++++++++++++++++++++++++++++++++
Date: Tue Jan 29 16:43:37 EST 2013
User: group
Dark Spectrum Present: No
Reference Spectrum Present: No
Number of Sampled Component Spectra: 1
Spectrometers: USB2E7196
Integration Time (usec): 65000 (USB2E7196)
Spectra Averaged: 100 (USB2E7196)
Boxcar Smoothing: 10 (USB2E7196)
Correct for Electrical Dark: No (USB2E7196)
Strobe/Lamp Enabled: No (USB2E7196)
Correct for Detector Non-linearity: No (USB2E7196)
Correct for Stray Light: No (USB2E7196)
Number of Pixels in Processed Spectrum: 2048
>>>>>Begin Processed Spectral Data<<<<<
339.09	0.00
339.48	202.24
339.86	202.70
340.24	204.74
340.63	205.68
341.01	209.89
341.39	209.02
341.78	210.50
342.16	212.31
342.54	211.54
342.93	201.02
343.31	211.14
343.69	211.66
344.07	212.17
344.46	212.62
344.84	213.05
345.22	213.27
345.60	213.53
345.99	213.70
346.37	213.79
346.75	213.91
347.13	214.00
347.52	214.06
347.90	214.18
348.28	214.25
348.66	214.34
349.05	214.30
349.43	214.35
349.81	214.40
350.19	214.47
350.57	214.54
350.96	214.63
351.34	214.74
351.72	214.83
352.10	214.92
352.48	214.97
352.87	215.00
353.25	215.08
353.63	215.14
354.01	215.23
354.39	215.33
354.77	215.43
355.15	215.53
355.54	215.61
355.92	215.58
356.30	215.65
356.68	215.86
357.06	215.97
357.44	215.98
357.82	216.06
358.20	216.11
358.58	216.19
358.97	216.25
359.35	216.37
359.73	216.47
360.11	216.52
360.49	216.59
360.87	216.66
361.25	216.69
361.63	216.82
362.01	216.85
362.39	216.83
362.77	216.88
363.15	216.93
363.53	216.96
363.91	217.00
364.29	217.01
364.67	216.80
365.05	216.78
365.43	216.86
365.81	216.92
366.19	217.02
366.57	217.09
366.95	217.10
367.33	217.03
367.71	217.07
368.09	217.09
368.47	217.06
368.85	217.05
369.23	217.07
369.61	217.00
369.99	217.04
370.37	217.09
370.75	217.17
371.13	217.09
371.51	217.07
371.89	217.07
372.27	217.05
372.65	217.07
373.03	217.06
373.41	217.02
373.78	216.97
374.16	216.83
374.54	216.74
374.92	216.67
375.30	216.67
375.68	216.56
376.06	216.57
376.44	216.60
376.82	216.53
377.19	216.50
377.57	216.45
377.95	216.36
378.33	216.27
378.71	216.12
379.09	216.09
379.47	216.06
379.84	215.96
380.22	215.91
380.60	215.83
380.98	215.79
381.36	215.72
381.73	215.65
382.11	215.68
382.49	215.63
382.87	215.59
383.25	215.53
383.62	215.70
384.00	215.61
384.38	215.56
384.76	215.60
385.13	215.63
385.51	215.55
385.89	215.51
386.27	215.50
386.64	215.52
387.02	215.45
387.40	215.41
387.78	215.42
388.15	215.40
388.53	215.38
388.91	215.35
389.29	215.33
389.66	215.32
390.04	215.24
390.42	215.26
390.79	215.25
391.17	215.28
391.55	215.04
391.92	215.04
392.30	215.03
392.68	214.98
393.05	214.97
393.43	214.99
393.81	214.97
394.18	214.93
394.56	214.90
394.94	214.96
395.31	214.95
395.69	215.00
396.06	215.07
396.44	215.08
396.82	215.10
397.19	215.23
397.57	215.24
397.95	215.30
398.32	215.27
398.70	215.32
399.07	215.34
399.45	215.38
399.82	215.38
400.20	215.39
400.58	215.42
400.95	215.40
401.33	215.54
401.70	215.76
402.08	215.87
402.45	215.96
402.83	216.09
403.20	216.20
403.58	216.28
403.95	216.42
404.33	216.58
404.71	216.70
405.08	216.95
405.46	217.11
405.83	217.32
406.21	217.55
406.58	217.79
406.96	218.06
407.33	218.34
407.70	218.67
408.08	219.17
408.45	219.52
408.83	219.90
409.20	220.22
409.58	220.48
409.95	220.92
410.33	221.39
410.70	221.84
411.08	222.41
411.45	222.96
411.82	223.51
412.20	224.19
412.57	225.05
412.95	225.62
413.32	226.45
413.69	227.28
414.07	228.19
414.44	229.17
414.82	230.17
415.19	231.40
415.56	232.58
415.94	233.77
416.31	235.19
416.68	236.59
417.06	238.23
417.43	239.79
417.81	241.57
418.18	243.37
418.55	245.30
418.93	247.35
419.30	249.50
419.67	251.75
420.04	254.02
420.42	256.41
420.79	259.27
421.16	262.08
421.54	264.98
421.91	268.01
422.28	271.13
422.66	274.44
423.03	277.65
423.40	281.08
423.77	284.68
424.15	288.38
424.52	292.24
424.89	296.42
425.26	300.52
425.64	304.37
426.01	308.71
426.38	313.21
426.75	317.76
427.13	322.52
427.50	327.50
427.87	332.73
428.24	337.93
428.61	342.92
428.99	348.47
429.36	354.53
429.73	360.45
430.10	366.35
430.47	372.43
430.85	378.85
431.22	385.55
431.59	392.67
431.96	399.51
432.33	407.08
432.70	414.34
433.08	422.88
433.45	430.98
433.82	439.01
434.19	447.93
434.56	456.64
434.93	464.98
435.30	473.28
435.68	482.43
436.05	491.42
436.42	500.38
436.79	508.52
437.16	517.33
437.53	526.60
437.90	535.80
438.27	544.81
438.64	554.05
439.01	562.63
439.38	570.21
439.75	577.54
440.13	585.99
440.50	593.95
440.87	600.42
441.24	607.17
441.61	614.58
441.98	619.96
442.35	626.31
442.72	632.69
443.09	638.81
443.46	642.59
443.83	645.18
444.20	647.39
444.57	650.63
444.94	652.11
445.31	653.53
445.68	654.93
446.05	655.56
446.42	654.75
446.79	653.76
447.16	652.69
447.53	651.99
447.90	648.68
448.27	645.44
448.64	640.80
449.01	637.41
449.37	631.45
449.74	625.82
450.11	618.93
450.48	611.52
450.85	604.05
451.22	597.58
451.59	591.45
451.96	585.62
452.33	577.69
452.70	570.54
453.07	562.04
453.43	553.38
453.80	545.00
454.17	536.97
454.54	529.41
454.91	521.24
455.28	513.21
455.65	505.73
456.02	498.16
456.38	491.78
456.75	483.90
457.12	477.30
457.49	470.78
457.86	464.59
458.23	459.15
458.59	453.15
458.96	447.12
459.33	441.81
459.70	436.39
460.07	432.11
460.43	427.20
460.80	422.63
461.17	418.59
461.54	414.39
461.91	410.37
462.27	406.26
462.64	402.81
463.01	398.98
463.38	395.29
463.74	391.59
464.11	388.33
464.48	385.45
464.85	382.31
465.21	379.82
465.58	377.15
465.95	373.98
466.32	371.38
466.68	368.75
467.05	366.12
467.42	363.54
467.78	360.83
468.15	358.26
468.52	356.34
468.88	353.87
469.25	351.65
469.62	349.80
469.98	347.83
470.35	345.98
470.72	344.29
471.08	342.46
471.45	340.93
471.82	339.43
472.18	337.82
472.55	336.59
472.92	335.18
473.28	333.93
473.65	332.80
474.02	331.65
474.38	330.74
474.75	329.97
475.11	329.15
475.48	328.57
475.85	328.06
476.21	327.57
476.58	327.17
476.94	326.91
477.31	326.57
477.67	326.34
478.04	326.24
478.41	326.17
478.77	326.34
479.14	326.26
479.50	326.39
479.87	326.62
480.23	326.96
480.60	327.20
480.96	327.50
481.33	328.12
481.69	328.68
482.06	329.20
482.42	329.68
482.79	330.27
483.15	331.02
483.52	332.03
483.88	332.86
484.25	333.84
484.61	334.85
484.98	335.93
485.34	337.24
485.71	338.57
486.07	340.02
486.44	341.33
486.80	342.93
487.17	344.59
487.53	346.47
487.90	348.34
488.26	350.35
488.62	352.52
488.99	354.50
489.35	356.66
489.72	359.04
490.08	361.55
490.44	364.09
490.81	366.83
491.17	369.54
491.54	372.54
491.90	375.58
492.26	378.80
492.63	382.24
492.99	385.69
493.36	389.34
493.72	393.21
494.08	397.22
494.45	401.44
494.81	405.77
495.17	410.16
495.54	414.84
495.90	419.70
496.26	424.59
496.63	429.84
496.99	435.23
497.35	440.77
497.72	446.57
498.08	452.54
498.44	458.63
498.80	465.08
499.17	471.63
499.53	478.31
499.89	485.29
500.26	492.26
500.62	499.38
500.98	506.77
501.34	514.25
501.71	522.02
502.07	529.87
502.43	537.87
502.79	546.02
503.16	554.49
503.52	563.10
503.88	571.82
504.24	580.83
504.60	589.98
504.97	599.20
505.33	608.49
505.69	618.40
506.05	628.27
506.41	638.07
506.78	648.04
507.14	658.32
507.50	668.79
507.86	679.52
508.22	690.26
508.59	700.95
508.95	711.98
509.31	723.19
509.67	734.59
510.03	746.07
510.39	757.79
510.75	769.62
511.12	781.56
511.48	793.62
511.84	805.81
512.20	818.14
512.56	830.86
512.92	843.73
513.28	856.35
513.64	869.07
514.00	881.91
514.37	894.95
514.73	908.02
515.09	921.02
515.45	933.90
515.81	947.01
516.17	960.44
516.53	973.79
516.89	987.00
517.25	1000.33
517.61	1013.89
517.97	1027.44
518.33	1040.64
518.69	1054.18
519.05	1068.00
519.41	1081.73
519.77	1095.60
520.13	1108.86
520.49	1121.99
520.85	1135.43
521.21	1148.91
521.57	1162.75
521.93	1175.89
522.29	1189.75
522.65	1203.46
523.01	1217.14
523.37	1230.39
523.73	1243.73
524.09	1256.86
524.45	1270.33
524.81	1283.84
525.17	1297.31
525.53	1310.49
525.89	1323.83
526.25	1337.03
526.61	1349.94
526.97	1363.13
527.33	1376.23
527.68	1389.85
528.04	1403.29
528.40	1416.53
528.76	1429.89
529.12	1442.80
529.48	1456.25
529.84	1468.54
530.20	1481.33
530.56	1494.04
530.91	1507.42
531.27	1520.34
531.63	1533.11
531.99	1545.87
532.35	1558.21
532.71	1570.55
533.07	1583.52
533.42	1595.86
533.78	1608.04
534.14	1620.14
534.50	1631.46
534.86	1642.98
535.21	1653.94
535.57	1665.70
535.93	1676.98
536.29	1688.19
536.65	1699.79
537.00	1710.91
537.36	1722.45
537.72	1733.49
538.08	1744.95
538.44	1755.95
538.79	1767.22
539.15	1778.34
539.51	1789.36
539.87	1800.75
540.22	1811.65
540.58	1822.66
540.94	1833.77
541.29	1844.25
541.65	1854.27
542.01	1864.84
542.37	1875.06
542.72	1885.26
543.08	1894.92
543.44	1905.56
543.79	1914.95
544.15	1924.37
544.51	1934.34
544.87	1944.28
545.22	1953.63
545.58	1962.64
545.94	1971.66
546.29	1980.23
546.65	1988.66
547.01	1996.72
547.36	2004.45
547.72	2012.35
548.07	2020.03
548.43	2027.71
548.79	2035.48
549.14	2043.74
549.50	2052.21
549.86	2060.28
550.21	2067.86
550.57	2075.86
550.92	2082.68
551.28	2090.27
551.64	2097.67
551.99	2105.15
552.35	2112.39
552.70	2119.21
553.06	2125.90
553.41	2132.16
553.77	2138.71
554.13	2145.16
554.48	2152.39
554.84	2159.58
555.19	2166.16
555.55	2172.60
555.90	2178.92
556.26	2185.89
556.61	2191.91
556.97	2196.89
557.32	2202.67
557.68	2209.11
558.03	2214.78
558.39	2220.15
558.74	2226.08
559.10	2231.55
559.45	2237.15
559.81	2242.60
560.16	2248.14
560.52	2254.07
560.87	2260.39
561.23	2266.23
561.58	2272.89
561.94	2278.16
562.29	2282.82
562.64	2288.80
563.00	2294.49
563.35	2300.01
563.71	2305.75
564.06	2311.47
564.42	2317.32
564.77	2322.20
565.12	2327.46
565.48	2332.56
565.83	2338.02
566.19	2343.29
566.54	2348.73
566.89	2353.28
567.25	2357.87
567.60	2363.62
567.96	2368.52
568.31	2373.11
568.66	2377.34
569.02	2381.12
569.37	2384.81
569.72	2389.00
570.08	2392.43
570.43	2395.53
570.78	2398.61
571.14	2400.86
571.49	2403.76
571.84	2407.05
572.20	2410.02
572.55	2412.86
572.90	2414.97
573.26	2417.54
573.61	2420.00
573.96	2422.09
574.31	2424.01
574.67	2425.82
575.02	2426.45
575.37	2427.81
575.72	2428.30
576.08	2429.76
576.43	2429.92
576.78	2430.15
577.13	2431.75
577.49	2432.84
577.84	2433.59
578.19	2434.78
578.54	2435.24
578.90	2435.79
579.25	2435.71
579.60	2435.46
579.95	2434.54
580.30	2434.66
580.66	2433.96
581.01	2432.19
581.36	2429.41
581.71	2427.99
582.06	2426.67
582.42	2425.60
582.77	2423.20
583.12	2421.44
583.47	2419.67
583.82	2418.84
584.17	2417.43
584.53	2415.14
584.88	2412.78
585.23	2410.84
585.58	2408.33
585.93	2406.34
586.28	2404.12
586.63	2401.48
586.98	2399.13
587.34	2397.04
587.69	2394.31
588.04	2392.07
588.39	2390.45
588.74	2388.07
589.09	2384.95
589.44	2381.57
589.79	2378.90
590.14	2376.84
590.49	2373.96
590.84	2370.06
591.19	2366.62
591.54	2363.30
591.89	2359.30
592.25	2355.98
592.60	2351.72
592.95	2347.44
593.30	2343.18
593.65	2338.58
594.00	2334.02
594.35	2330.81
594.70	2325.86
595.05	2321.28
595.40	2315.78
595.75	2309.88
596.10	2306.02
596.45	2301.33
596.80	2296.71
597.15	2291.48
597.50	2285.59
597.85	2280.48
598.19	2275.27
598.54	2269.57
598.89	2264.31
599.24	2259.55
599.59	2253.40
599.94	2247.31
600.29	2241.38
600.64	2235.36
600.99	2228.43
601.34	2222.95
601.69	2215.96
602.04	2209.62
602.39	2202.92
602.74	2196.78
603.08	2191.38
603.43	2184.90
603.78	2177.88
604.13	2170.83
604.48	2163.52
604.83	2157.32
605.18	2151.00
605.53	2144.10
605.87	2137.12
606.22	2130.26
606.57	2122.33
606.92	2114.32
607.27	2107.37
607.62	2100.79
607.96	2093.74
608.31	2087.35
608.66	2079.52
609.01	2071.92
609.36	2064.91
609.70	2057.22
610.05	2049.35
610.40	2041.01
610.75	2032.66
611.10	2024.94
611.44	2015.94
611.79	2007.21
612.14	1997.21
612.49	1986.74
612.83	1977.36
613.18	1968.06
613.53	1958.76
613.88	1949.11
614.22	1940.43
614.57	1930.62
614.92	1919.99
615.27	1909.70
615.61	1899.55
615.96	1889.93
616.31	1880.29
616.65	1870.74
617.00	1861.07
617.35	1851.50
617.70	1841.70
618.04	1831.69
618.39	1821.69
618.74	1812.10
619.08	1802.48
619.43	1793.86
619.78	1785.58
620.12	1776.98
620.47	1767.50
620.82	1757.10
621.16	1747.36
621.51	1737.53
621.85	1727.77
622.20	1717.44
622.55	1707.05
622.89	1697.19
623.24	1687.53
623.59	1677.87
623.93	1667.83
624.28	1657.91
624.62	1647.89
624.97	1637.68
625.32	1627.92
625.66	1618.84
626.01	1610.16
626.35	1600.94
626.70	1590.94
627.04	1580.92
627.39	1570.78
627.73	1561.49
628.08	1552.78
628.43	1543.30
628.77	1534.13
629.12	1525.29
629.46	1517.46
629.81	1509.13
630.15	1499.72
630.50	1490.00
630.84	1479.55
631.19	1469.70
631.53	1460.59
631.88	1450.40
632.22	1440.50
632.57	1431.21
632.91	1421.15
633.26	1411.37
633.60	1401.81
633.95	1392.50
634.29	1383.13
634.64	1373.93
634.98	1363.93
635.32	1354.55
635.67	1346.13
636.01	1336.92
636.36	1327.28
636.70	1317.86
637.05	1308.58
637.39	1299.65
637.73	1290.94
638.08	1283.44
638.42	1275.36
638.77	1266.67
639.11	1258.49
639.45	1250.71
639.80	1242.27
640.14	1233.73
640.49	1224.98
640.83	1216.18
641.17	1208.12
641.52	1199.95
641.86	1191.41
642.20	1183.64
642.55	1175.11
642.89	1166.31
643.23	1157.77
643.58	1149.74
643.92	1140.82
644.26	1132.10
644.61	1123.73
644.95	1115.04
645.29	1105.96
645.64	1096.85
645.98	1088.33
646.32	1080.51
646.66	1072.03
647.01	1063.67
647.35	1055.55
647.69	1047.23
648.04	1039.00
648.38	1030.20
648.72	1021.52
649.06	1013.10
649.41	1004.96
649.75	997.01
650.09	989.12
650.43	981.06
650.78	972.73
651.12	964.91
651.46	957.46
651.80	950.27
652.14	942.98
652.49	935.42
652.83	928.05
653.17	920.37
653.51	912.74
653.85	905.56
654.20	898.32
654.54	890.88
654.88	883.66
655.22	876.42
655.56	869.37
655.90	862.50
656.25	855.90
656.59	849.02
656.93	842.08
657.27	834.98
657.61	827.98
657.95	821.80
658.29	815.92
658.64	809.87
658.98	803.34
659.32	796.86
659.66	790.62
660.00	784.34
660.34	778.24
660.68	772.11
661.02	765.69
661.36	759.80
661.70	753.99
662.05	748.30
662.39	742.87
662.73	737.54
663.07	732.17
663.41	726.50
663.75	720.78
664.09	715.05
664.43	709.52
664.77	704.20
665.11	698.39
665.45	692.48
665.79	686.59
666.13	680.92
666.47	675.34
666.81	669.87
667.15	664.43
667.49	659.29
667.83	654.02
668.17	648.77
668.51	643.64
668.85	638.68
669.19	633.73
669.53	628.74
669.87	623.51
670.21	618.76
670.55	614.05
670.89	609.58
671.23	605.28
671.57	600.90
671.91	596.62
672.25	592.39
672.58	588.23
672.92	584.21
673.26	580.28
673.60	576.41
673.94	572.54
674.28	568.95
674.62	565.17
674.96	561.38
675.30	557.87
675.64	554.16
675.97	550.52
676.31	546.92
676.65	543.25
676.99	539.84
677.33	535.94
677.67	532.27
678.01	528.35
678.34	524.67
678.68	521.18
679.02	517.58
679.36	513.96
679.70	510.28
680.04	506.68
680.37	503.17
680.71	499.86
681.05	496.65
681.39	493.35
681.73	490.12
682.06	487.11
682.40	483.94
682.74	480.74
683.08	477.53
683.42	474.29
683.75	471.29
684.09	468.20
684.43	465.41
684.77	462.43
685.10	459.60
685.44	456.67
685.78	453.73
686.12	450.88
686.45	448.13
686.79	445.49
687.13	442.92
687.46	440.29
687.80	437.57
688.14	434.72
688.48	432.00
688.81	429.27
689.15	426.59
689.49	423.99
689.82	421.36
690.16	418.71
690.50	416.22
690.83	413.69
691.17	411.14
691.51	408.60
691.84	406.32
692.18	404.01
692.52	401.70
692.85	399.53
693.19	397.38
693.52	395.19
693.86	392.90
694.20	390.69
694.53	388.53
694.87	386.32
695.21	384.15
695.54	382.02
695.88	379.85
696.21	377.66
696.55	375.50
696.88	373.44
697.22	371.46
697.56	369.54
697.89	367.56
698.23	365.78
698.56	363.95
698.90	362.16
699.23	360.30
699.57	358.44
699.90	356.52
700.24	354.66
700.58	352.89
700.91	351.23
701.25	349.60
701.58	347.93
701.92	346.30
702.25	344.65
702.59	342.98
702.92	341.45
703.26	339.86
703.59	338.33
703.93	337.08
704.26	335.57
704.60	334.04
704.93	332.57
705.26	331.07
705.60	329.58
705.93	328.01
706.27	326.59
706.60	325.31
706.94	324.07
707.27	322.68
707.61	321.25
707.94	319.87
708.27	318.34
708.61	316.89
708.94	315.48
709.28	314.20
709.61	312.94
709.94	311.70
710.28	310.49
710.61	309.31
710.95	307.84
711.28	306.82
711.61	305.65
711.95	304.48
712.28	303.25
712.61	302.04
712.95	300.99
713.28	299.98
713.61	298.83
713.95	297.67
714.28	296.65
714.61	295.62
714.95	294.57
715.28	293.57
715.61	292.53
715.95	291.54
716.28	290.52
716.61	289.54
716.95	288.49
717.28	287.54
717.61	286.52
717.94	285.59
718.28	284.48
718.61	283.56
718.94	282.67
719.27	281.81
719.61	280.98
719.94	280.08
720.27	279.08
720.60	278.18
720.94	277.36
721.27	276.58
721.60	275.88
721.93	275.16
722.27	274.50
722.60	273.84
722.93	273.12
723.26	272.50
723.59	271.76
723.93	271.15
724.26	270.48
724.59	269.86
724.92	269.28
725.25	268.74
725.59	268.15
725.92	267.59
726.25	267.01
726.58	266.43
726.91	265.81
727.24	265.28
727.57	264.72
727.91	264.09
728.24	263.52
728.57	262.91
728.90	262.32
729.23	261.67
729.56	261.23
729.89	260.69
730.22	260.07
730.55	259.60
730.89	259.02
731.22	258.52
731.55	258.00
731.88	257.47
732.21	256.91
732.54	256.38
732.87	255.87
733.20	255.36
733.53	254.86
733.86	254.38
734.19	253.87
734.52	253.44
734.85	253.14
735.18	252.68
735.51	252.31
735.84	251.90
736.17	251.51
736.50	250.94
736.83	250.78
737.16	250.41
737.49	249.99
737.82	249.56
738.15	249.16
738.48	248.75
738.81	248.35
739.14	247.93
739.47	247.52
739.80	247.08
740.13	246.73
740.46	246.36
740.79	245.99
741.12	245.63
741.45	245.26
741.78	244.81
742.11	244.50
742.44	244.07
742.77	243.78
743.10	243.44
743.43	243.07
743.75	242.51
744.08	242.41
744.41	242.04
744.74	241.66
745.07	241.28
745.40	240.96
745.73	240.72
746.06	240.41
746.39	240.13
746.71	239.83
747.04	239.47
747.37	239.11
747.70	238.86
748.03	238.54
748.36	238.28
748.68	238.00
749.01	237.62
749.34	237.32
749.67	236.98
750.00	236.71
750.33	236.59
750.65	236.32
750.98	235.79
751.31	235.56
751.64	235.33
751.97	235.22
752.29	234.98
752.62	234.62
752.95	234.35
753.28	234.06
753.60	233.77
753.93	233.63
754.26	233.44
754.59	233.13
754.91	232.89
755.24	232.61
755.57	232.34
755.90	232.13
756.22	231.91
756.55	231.68
756.88	231.39
757.20	231.08
757.53	230.81
757.86	230.59
758.19	230.36
758.51	230.19
758.84	229.87
759.17	229.65
759.49	229.47
759.82	229.41
760.15	229.24
760.47	229.10
760.80	228.81
761.13	228.62
761.45	228.44
761.78	228.24
762.11	228.05
762.43	227.85
762.76	227.69
763.08	227.55
763.41	227.42
763.74	227.28
764.06	227.10
764.39	226.95
764.71	226.80
765.04	226.66
765.37	226.50
765.69	226.34
766.02	226.20
766.34	226.06
766.67	225.78
767.00	225.68
767.32	225.64
767.65	225.65
767.97	225.50
768.30	225.43
768.62	225.32
768.95	225.17
769.27	225.06
769.60	224.96
769.92	224.80
770.25	224.65
770.57	224.49
770.90	224.39
771.22	224.27
771.55	224.18
771.87	224.07
772.20	223.91
772.52	223.97
772.85	224.14
773.17	224.04
773.50	223.95
773.82	223.81
774.15	223.60
774.47	223.36
774.80	223.25
775.12	223.09
775.45	223.00
775.77	222.90
776.09	222.83
776.42	222.73
776.74	222.71
777.07	222.58
777.39	222.50
777.72	222.35
778.04	222.30
778.36	222.19
778.69	222.10
779.01	222.05
779.33	221.80
779.66	221.45
779.98	221.36
780.31	221.27
780.63	221.31
780.95	221.26
781.28	221.19
781.60	221.13
781.92	221.05
782.25	220.99
782.57	220.93
782.89	220.83
783.22	220.74
783.54	220.61
783.86	220.59
784.19	220.54
784.51	220.54
784.83	220.46
785.16	220.38
785.48	220.33
785.80	220.28
786.12	220.22
