SpectraSuite Data File
++++++++++++++++++++++++++++++++++++
Date: Tue Jan 29 16:28:00 EST 2013
User: group
Dark Spectrum Present: No
Reference Spectrum Present: No
Number of Sampled Component Spectra: 1
Spectrometers: USB2E7196
Integration Time (usec): 65000 (USB2E7196)
Spectra Averaged: 100 (USB2E7196)
Boxcar Smoothing: 10 (USB2E7196)
Correct for Electrical Dark: No (USB2E7196)
Strobe/Lamp Enabled: No (USB2E7196)
Correct for Detector Non-linearity: No (USB2E7196)
Correct for Stray Light: No (USB2E7196)
Number of Pixels in Processed Spectrum: 2048
>>>>>Begin Processed Spectral Data<<<<<
339.09	0.00
339.48	201.76
339.86	203.46
340.24	205.46
340.63	206.99
341.01	210.21
341.39	208.94
341.78	210.67
342.16	211.85
342.54	212.11
342.93	201.38
343.31	211.58
343.69	212.15
344.07	212.62
344.46	213.04
344.84	213.39
345.22	213.59
345.60	213.85
345.99	214.05
346.37	214.19
346.75	214.33
347.13	214.40
347.52	214.44
347.90	214.57
348.28	214.60
348.66	214.69
349.05	214.65
349.43	214.73
349.81	214.81
350.19	214.88
350.57	214.95
350.96	215.02
351.34	215.11
351.72	215.20
352.10	215.33
352.48	215.39
352.87	215.45
353.25	215.51
353.63	215.61
354.01	215.66
354.39	215.73
354.77	215.79
355.15	215.90
355.54	215.96
355.92	215.97
356.30	216.05
356.68	216.25
357.06	216.35
357.44	216.38
357.82	216.44
358.20	216.54
358.58	216.59
358.97	216.65
359.35	216.73
359.73	216.83
360.11	216.85
360.49	216.92
360.87	217.00
361.25	217.09
361.63	217.22
362.01	217.28
362.39	217.32
362.77	217.36
363.15	217.43
363.53	217.50
363.91	217.54
364.29	217.55
364.67	217.40
365.05	217.41
365.43	217.48
365.81	217.53
366.19	217.64
366.57	217.75
366.95	217.79
367.33	217.77
367.71	217.78
368.09	217.81
368.47	217.83
368.85	217.82
369.23	217.84
369.61	217.73
369.99	217.80
370.37	217.82
370.75	217.91
371.13	217.84
371.51	217.78
371.89	217.79
372.27	217.82
372.65	217.79
373.03	217.75
373.41	217.70
373.78	217.63
374.16	217.45
374.54	217.37
374.92	217.28
375.30	217.25
375.68	217.12
376.06	217.12
376.44	217.05
376.82	217.03
377.19	216.98
377.57	216.94
377.95	216.83
378.33	216.77
378.71	216.59
379.09	216.57
379.47	216.52
379.84	216.43
380.22	216.33
380.60	216.26
380.98	216.25
381.36	216.17
381.73	216.11
382.11	216.11
382.49	216.04
382.87	215.99
383.25	215.96
383.62	216.19
384.00	216.09
384.38	216.07
384.76	216.06
385.13	216.09
385.51	216.06
385.89	215.99
386.27	215.95
386.64	215.97
387.02	215.89
387.40	215.85
387.78	215.80
388.15	215.82
388.53	215.78
388.91	215.73
389.29	215.70
389.66	215.71
390.04	215.67
390.42	215.68
390.79	215.67
391.17	215.64
391.55	215.41
391.92	215.41
392.30	215.42
392.68	215.38
393.05	215.38
393.43	215.35
393.81	215.37
394.18	215.34
394.56	215.38
394.94	215.45
395.31	215.46
395.69	215.54
396.06	215.55
396.44	215.61
396.82	215.63
397.19	215.75
397.57	215.72
397.95	215.78
398.32	215.74
398.70	215.80
399.07	215.88
399.45	215.91
399.82	215.95
400.20	215.99
400.58	216.03
400.95	215.97
401.33	216.08
401.70	216.30
402.08	216.40
402.45	216.44
402.83	216.56
403.20	216.68
403.58	216.77
403.95	216.92
404.33	217.05
404.71	217.18
405.08	217.46
405.46	217.64
405.83	217.84
406.21	218.04
406.58	218.25
406.96	218.48
407.33	218.73
407.70	219.05
408.08	219.52
408.45	219.84
408.83	220.25
409.20	220.57
409.58	220.84
409.95	221.33
410.33	221.80
410.70	222.26
411.08	222.81
411.45	223.41
411.82	223.98
412.20	224.70
412.57	225.52
412.95	226.09
413.32	226.93
413.69	227.77
414.07	228.65
414.44	229.65
414.82	230.66
415.19	231.83
415.56	233.00
415.94	234.15
416.31	235.58
416.68	236.96
417.06	238.58
417.43	240.14
417.81	241.81
418.18	243.64
418.55	245.53
418.93	247.52
419.30	249.62
419.67	251.88
420.04	254.13
420.42	256.52
420.79	259.32
421.16	262.10
421.54	264.99
421.91	268.00
422.28	271.08
422.66	274.37
423.03	277.64
423.40	280.99
423.77	284.61
424.15	288.24
424.52	292.08
424.89	296.26
425.26	300.32
425.64	304.23
426.01	308.52
426.38	312.98
426.75	317.49
427.13	322.20
427.50	327.17
427.87	332.35
428.24	337.55
428.61	342.52
428.99	348.04
429.36	354.06
429.73	359.97
430.10	365.80
430.47	371.86
430.85	378.18
431.22	384.86
431.59	391.95
431.96	398.82
432.33	406.26
432.70	413.49
433.08	421.99
433.45	430.02
433.82	438.03
434.19	446.91
434.56	455.64
434.93	463.95
435.30	472.21
435.68	481.25
436.05	490.17
436.42	499.11
436.79	507.24
437.16	515.96
437.53	525.20
437.90	534.38
438.27	543.30
438.64	552.46
439.01	561.02
439.38	568.58
439.75	575.80
440.13	584.19
440.50	592.08
440.87	598.47
441.24	605.07
441.61	612.34
441.98	617.72
442.35	624.05
442.72	630.37
443.09	636.37
443.46	640.24
443.83	642.84
444.20	645.01
444.57	648.11
444.94	649.53
445.31	650.95
445.68	652.35
446.05	652.93
446.42	652.09
446.79	651.12
447.16	650.05
447.53	649.28
447.90	646.06
448.27	642.88
448.64	638.24
449.01	634.93
449.37	629.12
449.74	623.44
450.11	616.57
450.48	609.12
450.85	601.68
451.22	595.15
451.59	588.98
451.96	583.09
452.33	575.25
452.70	568.20
453.07	559.72
453.43	551.10
453.80	542.87
454.17	534.95
454.54	527.41
454.91	519.24
455.28	511.32
455.65	503.85
456.02	496.27
456.38	489.92
456.75	482.06
457.12	475.40
457.49	468.89
457.86	462.65
458.23	457.33
458.59	451.45
458.96	445.44
459.33	440.13
459.70	434.78
460.07	430.60
460.43	425.72
460.80	421.21
461.17	417.22
461.54	413.06
461.91	409.03
462.27	404.92
462.64	401.51
463.01	397.76
463.38	394.10
463.74	390.44
464.11	387.28
464.48	384.44
464.85	381.40
465.21	378.97
465.58	376.39
465.95	373.25
466.32	370.61
466.68	368.03
467.05	365.43
467.42	362.91
467.78	360.18
468.15	357.62
468.52	355.68
468.88	353.23
469.25	350.98
469.62	349.21
469.98	347.27
470.35	345.45
470.72	343.74
471.08	341.94
471.45	340.47
471.82	338.91
472.18	337.23
472.55	336.03
472.92	334.67
473.28	333.41
473.65	332.26
474.02	331.13
474.38	330.27
474.75	329.55
475.11	328.74
475.48	328.17
475.85	327.69
476.21	327.20
476.58	326.83
476.94	326.56
477.31	326.20
477.67	325.97
478.04	325.78
478.41	325.73
478.77	325.87
479.14	325.80
479.50	325.96
479.87	326.29
480.23	326.58
480.60	326.83
480.96	327.16
481.33	327.76
481.69	328.35
482.06	328.83
482.42	329.28
482.79	329.89
483.15	330.68
483.52	331.60
483.88	332.47
484.25	333.41
484.61	334.45
484.98	335.54
485.34	336.83
485.71	338.22
486.07	339.65
486.44	340.97
486.80	342.58
487.17	344.31
487.53	346.18
487.90	348.06
488.26	350.11
488.62	352.31
488.99	354.38
489.35	356.58
489.72	358.96
490.08	361.51
490.44	364.08
490.81	366.84
491.17	369.59
491.54	372.62
491.90	375.68
492.26	378.97
492.63	382.39
492.99	385.88
493.36	389.58
493.72	393.50
494.08	397.50
494.45	401.78
494.81	406.13
495.17	410.62
495.54	415.34
495.90	420.15
496.26	425.04
496.63	430.25
496.99	435.69
497.35	441.36
497.72	447.30
498.08	453.28
498.44	459.38
498.80	465.88
499.17	472.42
499.53	479.17
499.89	486.08
500.26	493.11
500.62	500.24
500.98	507.66
501.34	515.17
501.71	523.07
502.07	530.91
502.43	538.92
502.79	547.05
503.16	555.44
503.52	564.08
503.88	572.90
504.24	581.99
504.60	591.06
504.97	600.36
505.33	609.59
505.69	619.49
506.05	629.39
506.41	639.23
506.78	649.35
507.14	659.70
507.50	670.25
507.86	680.97
508.22	691.79
508.59	702.51
508.95	713.66
509.31	724.94
509.67	736.38
510.03	747.91
510.39	759.72
510.75	771.72
511.12	783.78
511.48	795.90
511.84	808.15
512.20	820.61
512.56	833.30
512.92	846.19
513.28	859.03
513.64	871.95
514.00	884.88
514.37	897.87
514.73	910.99
515.09	924.05
515.45	937.17
515.81	950.42
516.17	963.86
516.53	977.17
516.89	990.36
517.25	1003.78
517.61	1017.32
517.97	1030.89
518.33	1044.13
518.69	1057.65
519.05	1071.58
519.41	1085.36
519.77	1099.38
520.13	1112.80
520.49	1126.04
520.85	1139.38
521.21	1152.83
521.57	1166.64
521.93	1179.87
522.29	1193.70
522.65	1207.45
523.01	1221.14
523.37	1234.42
523.73	1247.92
524.09	1261.31
524.45	1274.86
524.81	1288.43
525.17	1302.00
525.53	1315.32
525.89	1328.76
526.25	1342.05
526.61	1354.93
526.97	1368.08
527.33	1380.98
527.68	1394.57
528.04	1408.24
528.40	1421.56
528.76	1435.07
529.12	1448.02
529.48	1461.41
529.84	1473.85
530.20	1486.70
530.56	1499.38
530.91	1512.79
531.27	1525.77
531.63	1538.52
531.99	1551.43
532.35	1563.78
532.71	1576.31
533.07	1589.27
533.42	1601.54
533.78	1613.89
534.14	1626.16
534.50	1637.62
534.86	1649.46
535.21	1660.41
535.57	1672.03
535.93	1683.38
536.29	1694.38
536.65	1706.02
537.00	1717.18
537.36	1728.80
537.72	1739.91
538.08	1751.31
538.44	1762.25
538.79	1773.55
539.15	1784.56
539.51	1795.36
539.87	1806.85
540.22	1817.69
540.58	1828.68
540.94	1839.81
541.29	1850.17
541.65	1860.06
542.01	1870.70
542.37	1880.80
542.72	1891.01
543.08	1900.88
543.44	1911.48
543.79	1921.00
544.15	1930.61
544.51	1940.69
544.87	1950.67
545.22	1959.99
545.58	1969.10
545.94	1978.19
546.29	1986.65
546.65	1995.13
547.01	2003.57
547.36	2011.24
547.72	2019.14
548.07	2026.79
548.43	2034.61
548.79	2042.58
549.14	2050.67
549.50	2059.21
549.86	2067.26
550.21	2074.68
550.57	2082.37
550.92	2089.23
551.28	2096.85
551.64	2104.18
551.99	2111.76
552.35	2118.78
552.70	2125.62
553.06	2132.46
553.41	2138.91
553.77	2145.43
554.13	2151.72
554.48	2158.70
554.84	2165.82
555.19	2172.52
555.55	2179.05
555.90	2185.34
556.26	2192.07
556.61	2198.28
556.97	2203.00
557.32	2208.77
557.68	2215.44
558.03	2221.35
558.39	2226.69
558.74	2232.63
559.10	2238.10
559.45	2243.70
559.81	2249.35
560.16	2255.04
560.52	2260.84
560.87	2267.01
561.23	2273.02
561.58	2279.97
561.94	2285.31
562.29	2290.18
562.64	2296.19
563.00	2301.91
563.35	2307.45
563.71	2313.29
564.06	2319.03
564.42	2325.18
564.77	2330.32
565.12	2335.69
565.48	2340.82
565.83	2346.45
566.19	2351.85
566.54	2357.36
566.89	2361.88
567.25	2366.49
567.60	2372.22
567.96	2377.38
568.31	2382.06
568.66	2386.43
569.02	2390.35
569.37	2394.08
569.72	2398.47
570.08	2402.03
570.43	2405.13
570.78	2408.35
571.14	2410.81
571.49	2413.99
571.84	2417.53
572.20	2420.49
572.55	2423.48
572.90	2425.78
573.26	2428.63
573.61	2431.23
573.96	2433.44
574.31	2435.68
574.67	2437.51
575.02	2438.30
575.37	2439.74
575.72	2440.54
576.08	2441.88
576.43	2442.03
576.78	2442.54
577.13	2444.21
577.49	2445.32
577.84	2446.37
578.19	2447.59
578.54	2448.37
578.90	2449.08
579.25	2448.94
579.60	2448.85
579.95	2447.79
580.30	2447.88
580.66	2447.14
581.01	2445.45
581.36	2443.13
581.71	2441.62
582.06	2440.57
582.42	2439.87
582.77	2437.74
583.12	2436.02
583.47	2434.88
583.82	2434.29
584.17	2433.11
584.53	2430.85
584.88	2428.85
585.23	2427.08
585.58	2425.01
585.93	2423.03
586.28	2420.74
586.63	2418.30
586.98	2416.04
587.34	2414.26
587.69	2411.86
588.04	2409.88
588.39	2408.45
588.74	2405.89
589.09	2402.99
589.44	2399.85
589.79	2397.21
590.14	2395.21
590.49	2392.37
590.84	2388.35
591.19	2385.16
591.54	2381.84
591.89	2377.87
592.25	2374.53
592.60	2370.16
592.95	2365.97
593.30	2361.70
593.65	2357.34
594.00	2352.76
594.35	2349.82
594.70	2345.15
595.05	2340.55
595.40	2334.98
595.75	2329.19
596.10	2325.52
596.45	2320.86
596.80	2316.30
597.15	2311.13
597.50	2305.10
597.85	2300.21
598.19	2294.93
598.54	2289.08
598.89	2283.78
599.24	2279.18
599.59	2272.92
599.94	2267.14
600.29	2260.98
600.64	2255.03
600.99	2248.14
601.34	2242.66
601.69	2235.48
602.04	2229.06
602.39	2222.29
602.74	2216.10
603.08	2210.51
603.43	2203.90
603.78	2196.99
604.13	2189.77
604.48	2182.22
604.83	2176.07
605.18	2169.79
605.53	2162.85
605.87	2155.81
606.22	2148.89
606.57	2140.80
606.92	2132.81
607.27	2125.82
607.62	2119.11
607.96	2112.01
608.31	2105.61
608.66	2097.90
609.01	2090.39
609.36	2083.27
609.70	2075.62
610.05	2067.80
610.40	2059.37
610.75	2051.10
611.10	2043.33
611.44	2034.38
611.79	2025.69
612.14	2015.74
612.49	2005.01
612.83	1995.59
613.18	1986.28
613.53	1976.98
613.88	1967.43
614.22	1958.86
614.57	1948.95
614.92	1938.37
615.27	1927.97
615.61	1917.68
615.96	1907.82
616.31	1898.06
616.65	1888.49
617.00	1878.64
617.35	1868.95
617.70	1859.25
618.04	1849.08
618.39	1838.73
618.74	1829.06
619.08	1819.40
619.43	1810.61
619.78	1802.26
620.12	1793.59
620.47	1783.84
620.82	1773.42
621.16	1763.50
621.51	1753.50
621.85	1743.58
622.20	1733.18
622.55	1722.65
622.89	1712.72
623.24	1703.06
623.59	1693.24
623.93	1683.06
624.28	1673.22
624.62	1663.00
624.97	1652.55
625.32	1642.63
625.66	1633.77
626.01	1624.92
626.35	1615.45
626.70	1605.16
627.04	1594.95
627.39	1584.82
627.73	1575.49
628.08	1566.46
628.43	1556.83
628.77	1547.46
629.12	1538.58
629.46	1530.66
629.81	1522.29
630.15	1512.54
630.50	1502.57
630.84	1492.00
631.19	1482.02
631.53	1472.72
631.88	1462.53
632.22	1452.44
632.57	1443.06
632.91	1432.87
633.26	1422.89
633.60	1413.30
633.95	1404.13
634.29	1394.66
634.64	1385.21
634.98	1375.17
635.32	1365.87
635.67	1357.33
636.01	1348.00
636.36	1338.05
636.70	1328.39
637.05	1318.89
637.39	1309.99
637.73	1301.27
638.08	1293.66
638.42	1285.45
638.77	1276.58
639.11	1268.24
639.45	1260.35
639.80	1251.70
640.14	1242.83
640.49	1233.94
640.83	1224.95
641.17	1216.67
641.52	1208.49
641.86	1199.90
642.20	1192.02
642.55	1183.25
642.89	1174.28
643.23	1165.47
643.58	1157.25
643.92	1148.12
644.26	1139.37
644.61	1130.89
644.95	1121.97
645.29	1112.56
645.64	1103.24
645.98	1094.60
646.32	1086.63
646.66	1078.11
647.01	1069.75
647.35	1061.60
647.69	1053.13
648.04	1044.80
648.38	1035.73
648.72	1026.82
649.06	1018.25
649.41	1009.87
649.75	1001.82
650.09	993.87
650.43	985.90
650.78	977.54
651.12	969.78
651.46	962.28
651.80	954.91
652.14	947.57
652.49	940.00
652.83	932.62
653.17	924.85
653.51	917.14
653.85	909.78
654.20	902.44
654.54	894.88
654.88	887.55
655.22	880.23
655.56	873.20
655.90	866.30
656.25	859.54
656.59	852.64
656.93	845.62
657.27	838.41
657.61	831.26
657.95	825.07
658.29	819.11
658.64	812.98
658.98	806.44
659.32	799.83
659.66	793.61
660.00	787.19
660.34	781.07
660.68	774.88
661.02	768.44
661.36	762.41
661.70	756.51
662.05	750.86
662.39	745.34
662.73	739.91
663.07	734.44
663.41	728.73
663.75	722.91
664.09	717.12
664.43	711.63
664.77	706.19
665.11	700.32
665.45	694.36
665.79	688.32
666.13	682.56
666.47	677.04
666.81	671.45
667.15	665.94
667.49	660.65
667.83	655.30
668.17	650.04
668.51	644.79
668.85	639.82
669.19	634.87
669.53	629.78
669.87	624.61
670.21	619.79
670.55	615.03
670.89	610.58
671.23	606.23
671.57	601.77
671.91	597.51
672.25	593.33
672.58	589.12
672.92	585.11
673.26	581.13
673.60	577.20
673.94	573.32
674.28	569.76
674.62	565.96
674.96	562.17
675.30	558.61
675.64	554.94
675.97	551.30
676.31	547.63
676.65	543.93
676.99	540.46
677.33	536.56
677.67	532.88
678.01	528.95
678.34	525.25
678.68	521.67
679.02	518.02
679.36	514.24
679.70	510.59
680.04	506.95
680.37	503.44
680.71	500.06
681.05	496.84
681.39	493.41
681.73	490.20
682.06	487.14
682.40	484.02
682.74	480.77
683.08	477.54
683.42	474.31
683.75	471.24
684.09	468.15
684.43	465.30
684.77	462.33
685.10	459.45
685.44	456.52
685.78	453.59
686.12	450.73
686.45	447.94
686.79	445.26
687.13	442.66
687.46	440.02
687.80	437.33
688.14	434.40
688.48	431.84
688.81	429.09
689.15	426.46
689.49	423.79
689.82	421.19
690.16	418.53
690.50	416.02
690.83	413.53
691.17	410.93
691.51	408.47
691.84	406.19
692.18	403.92
692.52	401.66
692.85	399.46
693.19	397.32
693.52	395.14
693.86	392.85
694.20	390.66
694.53	388.48
694.87	386.25
695.21	384.10
695.54	381.89
695.88	379.69
696.21	377.45
696.55	375.32
696.88	373.33
697.22	371.31
697.56	369.36
697.89	367.46
698.23	365.68
698.56	363.83
698.90	362.05
699.23	360.09
699.57	358.23
699.90	356.38
700.24	354.49
700.58	352.73
700.91	351.05
701.25	349.44
701.58	347.82
701.92	346.18
702.25	344.57
702.59	342.91
702.92	341.35
703.26	339.80
703.59	338.30
703.93	336.96
704.26	335.55
704.60	334.05
704.93	332.52
705.26	330.98
705.60	329.50
705.93	327.93
706.27	326.58
706.60	325.26
706.94	324.01
707.27	322.61
707.61	321.26
707.94	319.88
708.27	318.34
708.61	316.86
708.94	315.47
709.28	314.16
709.61	312.85
709.94	311.66
710.28	310.40
710.61	309.19
710.95	307.73
711.28	306.63
711.61	305.41
711.95	304.30
712.28	303.11
712.61	301.89
712.95	300.78
713.28	299.76
713.61	298.60
713.95	297.39
714.28	296.38
714.61	295.26
714.95	294.19
715.28	293.16
715.61	292.13
715.95	291.14
716.28	290.18
716.61	289.24
716.95	288.20
717.28	287.27
717.61	286.32
717.94	285.43
718.28	284.37
718.61	283.50
718.94	282.58
719.27	281.73
719.61	280.92
719.94	280.08
720.27	279.11
720.60	278.23
720.94	277.45
721.27	276.70
721.60	276.01
721.93	275.28
722.27	274.66
722.60	274.02
722.93	273.32
723.26	272.63
723.59	271.93
723.93	271.30
724.26	270.66
724.59	270.01
724.92	269.41
725.25	268.86
725.59	268.29
725.92	267.76
726.25	267.16
726.58	266.55
726.91	265.94
727.24	265.40
727.57	264.83
727.91	264.23
728.24	263.66
728.57	263.07
728.90	262.57
729.23	261.91
729.56	261.43
729.89	260.87
730.22	260.31
730.55	259.75
730.89	259.21
731.22	258.63
731.55	258.10
731.88	257.58
732.21	256.98
732.54	256.40
732.87	255.86
733.20	255.38
733.53	254.91
733.86	254.48
734.19	253.99
734.52	253.56
734.85	253.30
735.18	252.78
735.51	252.39
735.84	251.92
736.17	251.57
736.50	251.04
736.83	250.90
737.16	250.52
737.49	250.14
737.82	249.73
738.15	249.37
738.48	248.96
738.81	248.55
739.14	248.16
739.47	247.78
739.80	247.38
740.13	247.03
740.46	246.61
740.79	246.17
741.12	245.75
741.45	245.39
741.78	244.88
742.11	244.66
742.44	244.27
742.77	243.99
743.10	243.60
743.43	243.25
743.75	242.61
744.08	242.53
744.41	242.15
744.74	241.79
745.07	241.42
745.40	241.11
745.73	240.87
746.06	240.58
746.39	240.30
746.71	239.98
747.04	239.63
747.37	239.31
747.70	239.05
748.03	238.76
748.36	238.49
748.68	238.20
749.01	237.79
749.34	237.52
749.67	237.21
750.00	236.95
750.33	236.81
750.65	236.59
750.98	236.05
751.31	235.83
751.64	235.63
751.97	235.49
752.29	235.25
752.62	234.88
752.95	234.59
753.28	234.30
753.60	234.07
753.93	233.87
754.26	233.66
754.59	233.41
754.91	233.18
755.24	232.89
755.57	232.64
755.90	232.40
756.22	232.12
756.55	231.86
756.88	231.59
757.20	231.20
757.53	230.94
757.86	230.72
758.19	230.50
758.51	230.27
758.84	229.94
759.17	229.74
759.49	229.58
759.82	229.48
760.15	229.33
760.47	229.12
760.80	228.88
761.13	228.72
761.45	228.49
761.78	228.32
762.11	228.15
762.43	227.96
762.76	227.82
763.08	227.71
763.41	227.55
763.74	227.41
764.06	227.30
764.39	227.15
764.71	226.98
765.04	226.85
765.37	226.68
765.69	226.53
766.02	226.42
766.34	226.26
766.67	226.05
767.00	225.93
767.32	225.93
767.65	225.91
767.97	225.76
768.30	225.67
768.62	225.53
768.95	225.41
769.27	225.31
769.60	225.22
769.92	225.08
770.25	224.92
770.57	224.78
770.90	224.66
771.22	224.53
771.55	224.42
771.87	224.32
772.20	224.24
772.52	224.32
772.85	224.40
773.17	224.33
773.50	224.23
773.82	224.10
774.15	223.87
774.47	223.67
774.80	223.56
775.12	223.43
775.45	223.35
775.77	223.24
776.09	223.16
776.42	223.04
776.74	223.00
777.07	222.91
777.39	222.83
777.72	222.67
778.04	222.64
778.36	222.55
778.69	222.46
779.01	222.37
779.33	222.10
779.66	221.81
779.98	221.68
780.31	221.63
780.63	221.63
780.95	221.62
781.28	221.56
781.60	221.51
781.92	221.45
782.25	221.38
782.57	221.32
782.89	221.22
783.22	221.16
783.54	221.04
783.86	221.02
784.19	220.95
784.51	220.98
784.83	220.85
785.16	220.77
785.48	220.71
785.80	220.63
786.12	220.62
