SpectraSuite Data File
++++++++++++++++++++++++++++++++++++
Date: Tue Jan 29 16:09:15 EST 2013
User: group
Dark Spectrum Present: No
Reference Spectrum Present: No
Number of Sampled Component Spectra: 1
Spectrometers: USB2E7196
Integration Time (usec): 65000 (USB2E7196)
Spectra Averaged: 100 (USB2E7196)
Boxcar Smoothing: 10 (USB2E7196)
Correct for Electrical Dark: No (USB2E7196)
Strobe/Lamp Enabled: No (USB2E7196)
Correct for Detector Non-linearity: No (USB2E7196)
Correct for Stray Light: No (USB2E7196)
Number of Pixels in Processed Spectrum: 2048
>>>>>Begin Processed Spectral Data<<<<<
339.09	0.00
339.48	202.09
339.86	203.83
340.24	205.72
340.63	207.47
341.01	211.34
341.39	209.54
341.78	211.79
342.16	212.10
342.54	212.99
342.93	201.98
343.31	212.18
343.69	212.75
344.07	213.20
344.46	213.63
344.84	213.99
345.22	214.16
345.60	214.46
345.99	214.63
346.37	214.77
346.75	214.85
347.13	214.95
347.52	214.99
347.90	215.12
348.28	215.15
348.66	215.22
349.05	215.19
349.43	215.24
349.81	215.30
350.19	215.37
350.57	215.42
350.96	215.53
351.34	215.63
351.72	215.74
352.10	215.89
352.48	215.97
352.87	216.07
353.25	216.16
353.63	216.20
354.01	216.25
354.39	216.34
354.77	216.43
355.15	216.55
355.54	216.60
355.92	216.55
356.30	216.63
356.68	216.80
357.06	216.88
357.44	216.91
357.82	216.98
358.20	217.09
358.58	217.14
358.97	217.17
359.35	217.26
359.73	217.35
360.11	217.40
360.49	217.45
360.87	217.47
361.25	217.54
361.63	217.66
362.01	217.73
362.39	217.75
362.77	217.82
363.15	217.87
363.53	217.90
363.91	217.95
364.29	217.93
364.67	217.79
365.05	217.79
365.43	217.82
365.81	217.84
366.19	217.90
366.57	218.00
366.95	218.00
367.33	217.96
367.71	217.95
368.09	217.97
368.47	217.96
368.85	217.96
369.23	217.99
369.61	217.91
369.99	217.95
370.37	217.97
370.75	218.02
371.13	217.95
371.51	217.92
371.89	217.91
372.27	217.94
372.65	217.90
373.03	217.91
373.41	217.86
373.78	217.80
374.16	217.65
374.54	217.53
374.92	217.47
375.30	217.44
375.68	217.35
376.06	217.30
376.44	217.26
376.82	217.23
377.19	217.16
377.57	217.11
377.95	217.03
378.33	216.99
378.71	216.85
379.09	216.85
379.47	216.85
379.84	216.79
380.22	216.74
380.60	216.70
380.98	216.63
381.36	216.60
381.73	216.55
382.11	216.56
382.49	216.56
382.87	216.51
383.25	216.49
383.62	216.73
384.00	216.65
384.38	216.62
384.76	216.61
385.13	216.65
385.51	216.61
385.89	216.53
386.27	216.47
386.64	216.47
387.02	216.40
387.40	216.34
387.78	216.34
388.15	216.32
388.53	216.29
388.91	216.27
389.29	216.23
389.66	216.21
390.04	216.17
390.42	216.18
390.79	216.17
391.17	216.17
391.55	215.92
391.92	215.91
392.30	215.92
392.68	215.86
393.05	215.82
393.43	215.80
393.81	215.82
394.18	215.79
394.56	215.78
394.94	215.82
395.31	215.84
395.69	215.91
396.06	215.95
396.44	215.97
396.82	215.98
397.19	216.12
397.57	216.13
397.95	216.18
398.32	216.17
398.70	216.21
399.07	216.28
399.45	216.30
399.82	216.35
400.20	216.36
400.58	216.45
400.95	216.45
401.33	216.60
401.70	216.79
402.08	216.93
402.45	217.02
402.83	217.16
403.20	217.22
403.58	217.28
403.95	217.39
404.33	217.56
404.71	217.72
405.08	217.93
405.46	218.09
405.83	218.31
406.21	218.52
406.58	218.74
406.96	218.94
407.33	219.21
407.70	219.53
408.08	220.01
408.45	220.35
408.83	220.73
409.20	221.03
409.58	221.33
409.95	221.73
410.33	222.24
410.70	222.63
411.08	223.17
411.45	223.71
411.82	224.27
412.20	224.90
412.57	225.70
412.95	226.26
413.32	227.05
413.69	227.84
414.07	228.67
414.44	229.60
414.82	230.56
415.19	231.71
415.56	232.85
415.94	233.99
416.31	235.30
416.68	236.63
417.06	238.21
417.43	239.67
417.81	241.35
418.18	243.01
418.55	244.90
418.93	246.86
419.30	248.91
419.67	251.03
420.04	253.27
420.42	255.53
420.79	258.24
421.16	260.94
421.54	263.71
421.91	266.58
422.28	269.60
422.66	272.81
423.03	275.92
423.40	279.09
423.77	282.57
424.15	286.12
424.52	289.78
424.89	293.78
425.26	297.67
425.64	301.45
426.01	305.62
426.38	309.96
426.75	314.35
427.13	318.93
427.50	323.78
427.87	328.79
428.24	333.84
428.61	338.71
428.99	344.02
429.36	349.84
429.73	355.57
430.10	361.24
430.47	367.06
430.85	373.20
431.22	379.71
431.59	386.59
431.96	393.14
432.33	400.44
432.70	407.43
433.08	415.71
433.45	423.44
433.82	431.20
434.19	439.80
434.56	448.27
434.93	456.32
435.30	464.36
435.68	473.17
436.05	481.84
436.42	490.45
436.79	498.34
437.16	506.84
437.53	515.74
437.90	524.54
438.27	533.25
438.64	542.14
439.01	550.40
439.38	557.68
439.75	564.80
440.13	572.91
440.50	580.60
440.87	586.83
441.24	593.31
441.61	600.34
441.98	605.44
442.35	611.47
442.72	617.51
443.09	623.36
443.46	626.93
443.83	629.31
444.20	631.37
444.57	634.40
444.94	635.75
445.31	637.12
445.68	638.52
446.05	639.06
446.42	638.27
446.79	637.37
447.16	636.35
447.53	635.59
447.90	632.37
448.27	629.17
448.64	624.69
449.01	621.43
449.37	615.74
449.74	610.30
450.11	603.61
450.48	596.54
450.85	589.23
451.22	583.03
451.59	577.19
451.96	571.59
452.33	563.98
452.70	557.10
453.07	548.95
453.43	540.64
453.80	532.60
454.17	524.90
454.54	517.61
454.91	509.74
455.28	502.06
455.65	494.91
456.02	487.71
456.38	481.66
456.75	474.11
457.12	467.80
457.49	461.56
457.86	455.68
458.23	450.44
458.59	444.80
458.96	439.01
459.33	433.86
459.70	428.69
460.07	424.61
460.43	419.93
460.80	415.57
461.17	411.75
461.54	407.77
461.91	403.93
462.27	399.98
462.64	396.65
463.01	393.00
463.38	389.43
463.74	385.87
464.11	382.71
464.48	380.00
464.85	377.01
465.21	374.65
465.58	372.11
465.95	369.10
466.32	366.56
466.68	364.03
467.05	361.52
467.42	359.06
467.78	356.49
468.15	354.05
468.52	352.22
468.88	349.78
469.25	347.64
469.62	345.86
469.98	344.02
470.35	342.27
470.72	340.66
471.08	338.94
471.45	337.52
471.82	336.04
472.18	334.41
472.55	333.25
472.92	331.93
473.28	330.76
473.65	329.70
474.02	328.61
474.38	327.81
474.75	327.10
475.11	326.30
475.48	325.78
475.85	325.34
476.21	324.87
476.58	324.53
476.94	324.33
477.31	324.06
477.67	323.78
478.04	323.67
478.41	323.67
478.77	323.87
479.14	323.82
479.50	323.95
479.87	324.28
480.23	324.62
480.60	324.91
480.96	325.17
481.33	325.79
481.69	326.43
482.06	326.95
482.42	327.44
482.79	328.05
483.15	328.85
483.52	329.83
483.88	330.74
484.25	331.74
484.61	332.75
484.98	333.87
485.34	335.18
485.71	336.59
486.07	338.02
486.44	339.32
486.80	340.96
487.17	342.65
487.53	344.43
487.90	346.26
488.26	348.27
488.62	350.44
488.99	352.46
489.35	354.65
489.72	357.01
490.08	359.56
490.44	362.11
490.81	364.84
491.17	367.52
491.54	370.50
491.90	373.53
492.26	376.76
492.63	380.11
492.99	383.64
493.36	387.28
493.72	391.10
494.08	395.16
494.45	399.35
494.81	403.72
495.17	408.14
495.54	412.83
495.90	417.60
496.26	422.49
496.63	427.70
496.99	433.01
497.35	438.60
497.72	444.30
498.08	450.24
498.44	456.32
498.80	462.71
499.17	469.18
499.53	475.91
499.89	482.81
500.26	489.76
500.62	496.75
500.98	504.10
501.34	511.54
501.71	519.29
502.07	527.02
502.43	534.96
502.79	543.08
503.16	551.44
503.52	560.03
503.88	568.70
504.24	577.59
504.60	586.60
504.97	595.74
505.33	605.02
505.69	614.83
506.05	624.64
506.41	634.40
506.78	644.37
507.14	654.44
507.50	664.76
507.86	675.44
508.22	686.24
508.59	696.83
508.95	707.87
509.31	719.08
509.67	730.44
510.03	741.85
510.39	753.61
510.75	765.42
511.12	777.30
511.48	789.30
511.84	801.45
512.20	813.75
512.56	826.31
512.92	839.04
513.28	851.61
513.64	864.22
514.00	876.99
514.37	889.77
514.73	902.84
515.09	915.73
515.45	928.41
515.81	941.22
516.17	954.51
516.53	967.58
516.89	980.44
517.25	993.53
517.61	1006.84
517.97	1020.01
518.33	1032.97
518.69	1046.21
519.05	1059.82
519.41	1073.35
519.77	1086.95
520.13	1100.06
520.49	1113.00
520.85	1126.13
521.21	1139.23
521.57	1152.66
521.93	1165.70
522.29	1179.07
522.65	1192.53
523.01	1205.88
523.37	1218.93
523.73	1231.85
524.09	1244.82
524.45	1258.06
524.81	1271.34
525.17	1284.36
525.53	1297.30
525.89	1310.34
526.25	1323.25
526.61	1335.77
526.97	1348.47
527.33	1361.10
527.68	1374.27
528.04	1387.48
528.40	1400.35
528.76	1413.35
529.12	1425.97
529.48	1438.87
529.84	1450.95
530.20	1463.30
530.56	1475.79
530.91	1488.75
531.27	1501.47
531.63	1513.88
531.99	1526.32
532.35	1538.17
532.71	1550.31
533.07	1562.73
533.42	1574.65
533.78	1586.38
534.14	1598.05
534.50	1609.09
534.86	1620.36
535.21	1630.90
535.57	1642.07
535.93	1653.05
536.29	1663.94
536.65	1675.09
537.00	1685.78
537.36	1696.88
537.72	1707.73
538.08	1718.70
538.44	1729.30
538.79	1739.95
539.15	1750.58
539.51	1761.00
539.87	1772.01
540.22	1782.51
540.58	1793.14
540.94	1803.72
541.29	1813.74
541.65	1823.18
542.01	1833.38
542.37	1843.28
542.72	1853.22
543.08	1862.66
543.44	1872.86
543.79	1881.83
544.15	1891.04
544.51	1900.78
544.87	1910.32
545.22	1919.08
545.58	1927.62
545.94	1936.24
546.29	1944.53
546.65	1952.52
547.01	1960.39
547.36	1967.96
547.72	1975.56
548.07	1982.86
548.43	1990.32
548.79	1997.93
549.14	2005.93
549.50	2014.05
549.86	2021.53
550.21	2028.79
550.57	2036.35
550.92	2042.76
551.28	2050.08
551.64	2057.06
551.99	2064.30
552.35	2071.27
552.70	2078.00
553.06	2084.56
553.41	2090.55
553.77	2096.85
554.13	2103.06
554.48	2110.09
554.84	2116.79
555.19	2123.03
555.55	2129.52
555.90	2135.73
556.26	2142.30
556.61	2148.03
556.97	2152.84
557.32	2158.68
557.68	2164.90
558.03	2170.59
558.39	2175.88
558.74	2181.78
559.10	2187.43
559.45	2192.91
559.81	2198.23
560.16	2203.77
560.52	2209.57
560.87	2215.92
561.23	2221.84
561.58	2228.51
561.94	2233.59
562.29	2238.49
562.64	2244.66
563.00	2250.03
563.35	2255.53
563.71	2261.52
564.06	2267.32
564.42	2273.17
564.77	2278.24
565.12	2283.32
565.48	2288.55
565.83	2294.21
566.19	2299.67
566.54	2304.95
566.89	2309.69
567.25	2314.47
567.60	2320.08
567.96	2325.34
568.31	2330.06
568.66	2334.39
569.02	2338.28
569.37	2342.16
569.72	2346.57
570.08	2350.04
570.43	2353.34
570.78	2356.72
571.14	2359.16
571.49	2362.41
571.84	2366.25
572.20	2369.19
572.55	2372.43
572.90	2374.57
573.26	2377.48
573.61	2380.01
573.96	2382.31
574.31	2384.31
574.67	2386.35
575.02	2387.38
575.37	2388.87
575.72	2389.72
576.08	2391.40
576.43	2391.75
576.78	2392.57
577.13	2394.40
577.49	2395.64
577.84	2397.23
578.19	2398.57
578.54	2399.52
578.90	2400.70
579.25	2400.69
579.60	2401.02
579.95	2400.53
580.30	2401.05
580.66	2400.44
581.01	2398.99
581.36	2396.87
581.71	2395.77
582.06	2394.98
582.42	2394.28
582.77	2392.42
583.12	2391.16
583.47	2389.95
583.82	2389.62
584.17	2388.37
584.53	2386.36
584.88	2384.65
585.23	2382.65
585.58	2380.52
585.93	2378.55
586.28	2376.58
586.63	2374.36
586.98	2372.22
587.34	2370.54
587.69	2368.23
588.04	2366.38
588.39	2365.03
588.74	2362.78
589.09	2360.33
589.44	2357.35
589.79	2355.12
590.14	2353.45
590.49	2350.64
590.84	2347.11
591.19	2344.28
591.54	2341.15
591.89	2337.29
592.25	2334.21
592.60	2330.24
592.95	2326.37
593.30	2322.30
593.65	2317.74
594.00	2313.48
594.35	2310.53
594.70	2305.91
595.05	2301.37
595.40	2296.15
595.75	2290.73
596.10	2287.24
596.45	2282.37
596.80	2277.92
597.15	2272.65
597.50	2266.55
597.85	2261.73
598.19	2256.38
598.54	2250.65
598.89	2245.65
599.24	2241.14
599.59	2235.10
599.94	2229.48
600.29	2223.72
600.64	2217.91
600.99	2211.36
601.34	2206.12
601.69	2199.13
602.04	2192.84
602.39	2186.47
602.74	2180.63
603.08	2175.19
603.43	2168.64
603.78	2162.03
604.13	2155.03
604.48	2147.94
604.83	2142.04
605.18	2135.80
605.53	2129.10
605.87	2122.11
606.22	2115.33
606.57	2107.57
606.92	2099.71
607.27	2092.85
607.62	2086.24
607.96	2079.26
608.31	2072.82
608.66	2064.93
609.01	2057.48
609.36	2050.54
609.70	2042.94
610.05	2035.27
610.40	2027.05
610.75	2019.03
611.10	2011.35
611.44	2002.55
611.79	1993.98
612.14	1984.00
612.49	1973.55
612.83	1964.39
613.18	1955.32
613.53	1946.16
613.88	1936.63
614.22	1928.08
614.57	1918.26
614.92	1907.78
615.27	1897.90
615.61	1888.10
615.96	1878.62
616.31	1869.23
616.65	1859.83
617.00	1849.89
617.35	1840.18
617.70	1830.44
618.04	1820.21
618.39	1810.01
618.74	1800.46
619.08	1790.95
619.43	1782.38
619.78	1774.22
620.12	1765.51
620.47	1755.72
620.82	1745.36
621.16	1735.61
621.51	1725.79
621.85	1715.91
622.20	1705.48
622.55	1694.75
622.89	1684.80
623.24	1674.96
623.59	1665.11
623.93	1654.97
624.28	1645.27
624.62	1635.11
624.97	1624.85
625.32	1615.28
625.66	1606.45
626.01	1597.53
626.35	1588.00
626.70	1577.78
627.04	1567.60
627.39	1557.59
627.73	1548.27
628.08	1539.26
628.43	1529.60
628.77	1520.30
629.12	1511.49
629.46	1503.77
629.81	1495.47
630.15	1485.83
630.50	1476.00
630.84	1465.54
631.19	1455.66
631.53	1446.36
631.88	1436.13
632.22	1426.14
632.57	1416.73
632.91	1406.60
633.26	1396.73
633.60	1387.26
633.95	1378.07
634.29	1368.63
634.64	1359.18
634.98	1349.37
635.32	1340.12
635.67	1331.65
636.01	1322.44
636.36	1312.61
636.70	1302.92
637.05	1293.58
637.39	1284.70
637.73	1276.24
638.08	1268.64
638.42	1260.34
638.77	1251.52
639.11	1243.40
639.45	1235.62
639.80	1227.00
640.14	1218.32
640.49	1209.54
640.83	1200.67
641.17	1192.58
641.52	1184.36
641.86	1175.77
642.20	1167.95
642.55	1159.33
642.89	1150.52
643.23	1141.84
643.58	1133.67
643.92	1124.67
644.26	1115.97
644.61	1107.54
644.95	1098.71
645.29	1089.47
645.64	1080.34
645.98	1071.94
646.32	1064.02
646.66	1055.48
647.01	1047.16
647.35	1038.99
647.69	1030.60
648.04	1022.40
648.38	1013.47
648.72	1004.71
649.06	996.30
649.41	988.20
649.75	980.20
650.09	972.38
650.43	964.32
650.78	956.29
651.12	948.68
651.46	941.34
651.80	934.06
652.14	926.82
652.49	919.28
652.83	911.91
653.17	904.26
653.51	896.62
653.85	889.41
654.20	882.15
654.54	874.67
654.88	867.51
655.22	860.30
655.56	853.44
655.90	846.74
656.25	840.19
656.59	833.14
656.93	826.24
657.27	819.15
657.61	812.34
657.95	806.20
658.29	800.38
658.64	794.27
658.98	787.90
659.32	781.31
659.66	775.18
660.00	769.06
660.34	763.11
660.68	757.10
661.02	750.81
661.36	745.02
661.70	739.27
662.05	733.69
662.39	728.23
662.73	722.90
663.07	717.59
663.41	712.06
663.75	706.48
664.09	700.97
664.43	695.66
664.77	690.31
665.11	684.48
665.45	678.58
665.79	672.87
666.13	667.19
666.47	661.82
666.81	656.47
667.15	651.15
667.49	645.98
667.83	640.73
668.17	635.66
668.51	630.58
668.85	625.80
669.19	621.00
669.53	616.06
669.87	611.01
670.21	606.29
670.55	601.60
670.89	597.29
671.23	593.01
671.57	588.67
671.91	584.49
672.25	580.39
672.58	576.25
672.92	572.25
673.26	568.37
673.60	564.59
673.94	560.84
674.28	557.23
674.62	553.53
674.96	549.90
675.30	546.38
675.64	542.77
675.97	539.16
676.31	535.58
676.65	532.02
676.99	528.58
677.33	524.84
677.67	521.22
678.01	517.37
678.34	513.75
678.68	510.25
679.02	506.63
679.36	503.03
679.70	499.50
680.04	496.06
680.37	492.72
680.71	489.45
681.05	486.31
681.39	483.12
681.73	480.04
682.06	477.02
682.40	473.98
682.74	470.80
683.08	467.70
683.42	464.58
683.75	461.66
684.09	458.75
684.43	455.98
684.77	453.15
685.10	450.37
685.44	447.52
685.78	444.64
686.12	441.97
686.45	439.30
686.79	436.72
687.13	434.16
687.46	431.54
687.80	428.87
688.14	426.10
688.48	423.57
688.81	420.91
689.15	418.44
689.49	415.88
689.82	413.42
690.16	410.89
690.50	408.52
690.83	406.07
691.17	403.56
691.51	401.16
691.84	398.97
692.18	396.79
692.52	394.66
692.85	392.61
693.19	390.52
693.52	388.41
693.86	386.21
694.20	384.07
694.53	381.97
694.87	379.82
695.21	377.75
695.54	375.63
695.88	373.51
696.21	371.30
696.55	369.22
696.88	367.22
697.22	365.32
697.56	363.46
697.89	361.63
698.23	359.95
698.56	358.21
698.90	356.46
699.23	354.60
699.57	352.72
699.90	350.88
700.24	349.08
700.58	347.34
700.91	345.75
701.25	344.29
701.58	342.75
701.92	341.22
702.25	339.64
702.59	338.03
702.92	336.55
703.26	335.02
703.59	333.59
703.93	332.31
704.26	330.86
704.60	329.38
704.93	327.96
705.26	326.49
705.60	325.03
705.93	323.53
706.27	322.26
706.60	321.04
706.94	319.82
707.27	318.47
707.61	317.20
707.94	315.85
708.27	314.30
708.61	312.89
708.94	311.55
709.28	310.39
709.61	309.24
709.94	308.05
710.28	306.89
710.61	305.73
710.95	304.36
711.28	303.26
711.61	302.12
711.95	300.98
712.28	299.82
712.61	298.68
712.95	297.67
713.28	296.59
713.61	295.50
713.95	294.41
714.28	293.47
714.61	292.42
714.95	291.41
715.28	290.45
715.61	289.47
715.95	288.54
716.28	287.53
716.61	286.56
716.95	285.61
717.28	284.74
717.61	283.81
717.94	282.99
718.28	282.04
718.61	281.18
718.94	280.29
719.27	279.44
719.61	278.63
719.94	277.77
720.27	276.88
720.60	276.04
720.94	275.26
721.27	274.50
721.60	273.86
721.93	273.20
722.27	272.58
722.60	271.95
722.93	271.25
723.26	270.59
723.59	269.91
723.93	269.31
724.26	268.66
724.59	268.02
724.92	267.44
725.25	266.92
725.59	266.37
725.92	265.88
726.25	265.33
726.58	264.75
726.91	264.18
727.24	263.66
727.57	263.12
727.91	262.56
728.24	261.97
728.57	261.39
728.90	260.85
729.23	260.25
729.56	259.78
729.89	259.27
730.22	258.72
730.55	258.17
730.89	257.64
731.22	257.13
731.55	256.64
731.88	256.13
732.21	255.58
732.54	255.05
732.87	254.53
733.20	254.07
733.53	253.64
733.86	253.23
734.19	252.78
734.52	252.35
734.85	252.09
735.18	251.67
735.51	251.28
735.84	250.86
736.17	250.49
736.50	250.02
736.83	249.89
737.16	249.54
737.49	249.20
737.82	248.80
738.15	248.43
738.48	248.08
738.81	247.65
739.14	247.24
739.47	246.87
739.80	246.48
740.13	246.17
740.46	245.78
740.79	245.38
741.12	245.02
741.45	244.65
741.78	244.18
742.11	243.93
742.44	243.57
742.77	243.28
743.10	242.90
743.43	242.57
743.75	241.98
744.08	241.89
744.41	241.54
744.74	241.21
745.07	240.85
745.40	240.53
745.73	240.30
746.06	240.00
746.39	239.69
746.71	239.41
747.04	239.02
747.37	238.71
747.70	238.44
748.03	238.15
748.36	237.90
748.68	237.62
749.01	237.22
749.34	236.94
749.67	236.64
750.00	236.40
750.33	236.24
750.65	235.99
750.98	235.50
751.31	235.29
751.64	235.07
751.97	235.00
752.29	234.71
752.62	234.38
752.95	234.11
753.28	233.88
753.60	233.63
753.93	233.46
754.26	233.25
754.59	232.94
754.91	232.73
755.24	232.48
755.57	232.20
755.90	232.02
756.22	231.79
756.55	231.56
756.88	231.36
757.20	231.06
757.53	230.82
757.86	230.62
758.19	230.41
758.51	230.21
758.84	229.86
759.17	229.68
759.49	229.54
759.82	229.50
760.15	229.35
760.47	229.16
760.80	228.93
761.13	228.78
761.45	228.62
761.78	228.42
762.11	228.27
762.43	228.11
762.76	227.92
763.08	227.81
763.41	227.66
763.74	227.51
764.06	227.33
764.39	227.18
764.71	227.00
765.04	226.84
765.37	226.68
765.69	226.51
766.02	226.38
766.34	226.22
766.67	225.98
767.00	225.86
767.32	225.88
767.65	225.88
767.97	225.74
768.30	225.66
768.62	225.56
768.95	225.41
769.27	225.26
769.60	225.16
769.92	225.00
770.25	224.82
770.57	224.66
770.90	224.57
771.22	224.42
771.55	224.35
771.87	224.25
772.20	224.14
772.52	224.23
772.85	224.35
773.17	224.28
773.50	224.16
773.82	224.01
774.15	223.74
774.47	223.53
774.80	223.45
775.12	223.32
775.45	223.22
775.77	223.12
776.09	223.06
776.42	222.97
776.74	222.93
777.07	222.87
777.39	222.77
777.72	222.66
778.04	222.64
778.36	222.50
778.69	222.41
779.01	222.32
779.33	222.09
779.66	221.76
779.98	221.65
780.31	221.62
780.63	221.64
780.95	221.65
781.28	221.54
781.60	221.44
781.92	221.40
782.25	221.35
782.57	221.30
782.89	221.24
783.22	221.19
783.54	221.11
783.86	221.05
784.19	220.99
784.51	220.98
784.83	220.89
785.16	220.83
785.48	220.77
785.80	220.73
786.12	220.69
