SpectraSuite Data File
++++++++++++++++++++++++++++++++++++
Date: Tue Jan 29 16:01:40 EST 2013
User: group
Dark Spectrum Present: No
Reference Spectrum Present: No
Number of Sampled Component Spectra: 1
Spectrometers: USB2E7196
Integration Time (usec): 65000 (USB2E7196)
Spectra Averaged: 100 (USB2E7196)
Boxcar Smoothing: 10 (USB2E7196)
Correct for Electrical Dark: No (USB2E7196)
Strobe/Lamp Enabled: No (USB2E7196)
Correct for Detector Non-linearity: No (USB2E7196)
Correct for Stray Light: No (USB2E7196)
Number of Pixels in Processed Spectrum: 2048
>>>>>Begin Processed Spectral Data<<<<<
339.09	0.00
339.48	202.64
339.86	204.12
340.24	205.84
340.63	206.88
341.01	211.71
341.39	209.47
341.78	211.33
342.16	212.35
342.54	212.49
342.93	201.84
343.31	212.02
343.69	212.55
344.07	213.01
344.46	213.46
344.84	213.88
345.22	214.01
345.60	214.28
345.99	214.49
346.37	214.63
346.75	214.79
347.13	214.89
347.52	214.96
347.90	215.09
348.28	215.16
348.66	215.25
349.05	215.19
349.43	215.30
349.81	215.39
350.19	215.43
350.57	215.51
350.96	215.58
351.34	215.71
351.72	215.83
352.10	215.97
352.48	216.03
352.87	216.06
353.25	216.14
353.63	216.20
354.01	216.26
354.39	216.36
354.77	216.42
355.15	216.53
355.54	216.57
355.92	216.57
356.30	216.69
356.68	216.90
357.06	217.05
357.44	217.04
357.82	217.08
358.20	217.19
358.58	217.25
358.97	217.31
359.35	217.43
359.73	217.54
360.11	217.56
360.49	217.61
360.87	217.68
361.25	217.78
361.63	217.90
362.01	217.96
362.39	217.98
362.77	218.04
363.15	218.03
363.53	218.10
363.91	218.14
364.29	218.13
364.67	217.94
365.05	217.94
365.43	218.02
365.81	218.10
366.19	218.20
366.57	218.31
366.95	218.34
367.33	218.27
367.71	218.26
368.09	218.30
368.47	218.29
368.85	218.26
369.23	218.28
369.61	218.22
369.99	218.27
370.37	218.28
370.75	218.33
371.13	218.30
371.51	218.26
371.89	218.25
372.27	218.24
372.65	218.23
373.03	218.17
373.41	218.09
373.78	218.00
374.16	217.86
374.54	217.75
374.92	217.68
375.30	217.66
375.68	217.57
376.06	217.58
376.44	217.53
376.82	217.49
377.19	217.47
377.57	217.43
377.95	217.27
378.33	217.21
378.71	217.06
379.09	217.04
379.47	216.97
379.84	216.90
380.22	216.80
380.60	216.72
380.98	216.68
381.36	216.66
381.73	216.62
382.11	216.62
382.49	216.60
382.87	216.55
383.25	216.50
383.62	216.71
384.00	216.58
384.38	216.57
384.76	216.57
385.13	216.60
385.51	216.55
385.89	216.53
386.27	216.51
386.64	216.50
387.02	216.47
387.40	216.44
387.78	216.43
388.15	216.44
388.53	216.42
388.91	216.42
389.29	216.34
389.66	216.34
390.04	216.27
390.42	216.27
390.79	216.26
391.17	216.24
391.55	215.97
391.92	215.96
392.30	215.97
392.68	215.89
393.05	215.85
393.43	215.87
393.81	215.85
394.18	215.81
394.56	215.85
394.94	215.88
395.31	215.89
395.69	215.96
396.06	215.98
396.44	216.02
396.82	216.03
397.19	216.17
397.57	216.19
397.95	216.25
398.32	216.19
398.70	216.23
399.07	216.31
399.45	216.33
399.82	216.38
400.20	216.42
400.58	216.52
400.95	216.49
401.33	216.59
401.70	216.79
402.08	216.88
402.45	216.96
402.83	217.07
403.20	217.19
403.58	217.24
403.95	217.39
404.33	217.53
404.71	217.63
405.08	217.89
405.46	218.07
405.83	218.27
406.21	218.48
406.58	218.72
406.96	218.94
407.33	219.22
407.70	219.54
408.08	219.96
408.45	220.31
408.83	220.75
409.20	221.06
409.58	221.37
409.95	221.82
410.33	222.29
410.70	222.69
411.08	223.23
411.45	223.80
411.82	224.36
412.20	225.05
412.57	225.90
412.95	226.45
413.32	227.22
413.69	228.04
414.07	228.91
414.44	229.87
414.82	230.85
415.19	231.98
415.56	233.12
415.94	234.23
416.31	235.57
416.68	236.89
417.06	238.44
417.43	239.93
417.81	241.62
418.18	243.33
418.55	245.25
418.93	247.18
419.30	249.21
419.67	251.38
420.04	253.52
420.42	255.80
420.79	258.55
421.16	261.23
421.54	264.01
421.91	266.92
422.28	269.95
422.66	273.12
423.03	276.26
423.40	279.54
423.77	283.02
424.15	286.56
424.52	290.22
424.89	294.22
425.26	298.13
425.64	301.88
426.01	305.98
426.38	310.21
426.75	314.67
427.13	319.26
427.50	324.05
427.87	329.10
428.24	334.09
428.61	338.89
428.99	344.22
429.36	350.04
429.73	355.69
430.10	361.33
430.47	367.17
430.85	373.25
431.22	379.67
431.59	386.58
431.96	393.15
432.33	400.40
432.70	407.40
433.08	415.64
433.45	423.37
433.82	431.15
434.19	439.78
434.56	448.13
434.93	456.12
435.30	464.10
435.68	472.83
436.05	481.50
436.42	490.08
436.79	497.93
437.16	506.38
437.53	515.33
437.90	524.12
438.27	532.75
438.64	541.62
439.01	549.81
439.38	557.12
439.75	564.21
440.13	572.33
440.50	580.00
440.87	586.13
441.24	592.56
441.61	599.60
441.98	604.78
442.35	610.83
442.72	616.87
443.09	622.66
443.46	626.25
443.83	628.65
444.20	630.70
444.57	633.74
444.94	635.07
445.31	636.42
445.68	637.69
446.05	638.26
446.42	637.45
446.79	636.54
447.16	635.41
447.53	634.65
447.90	631.45
448.27	628.24
448.64	623.78
449.01	620.53
449.37	614.84
449.74	609.29
450.11	602.66
450.48	595.58
450.85	588.37
451.22	582.20
451.59	576.31
451.96	570.66
452.33	563.01
452.70	556.19
453.07	548.03
453.43	539.79
453.80	531.84
454.17	524.20
454.54	516.94
454.91	509.14
455.28	501.48
455.65	494.31
456.02	487.15
456.38	481.07
456.75	473.52
457.12	467.17
457.49	461.01
457.86	455.04
458.23	449.87
458.59	444.19
458.96	438.41
459.33	433.33
459.70	428.22
460.07	424.23
460.43	419.51
460.80	415.14
461.17	411.31
461.54	407.23
461.91	403.34
462.27	399.41
462.64	396.09
463.01	392.40
463.38	388.87
463.74	385.28
464.11	382.15
464.48	379.38
464.85	376.42
465.21	374.04
465.58	371.50
465.95	368.53
466.32	366.05
466.68	363.55
467.05	361.05
467.42	358.61
467.78	356.06
468.15	353.61
468.52	351.82
468.88	349.46
469.25	347.36
469.62	345.70
469.98	343.79
470.35	342.05
470.72	340.53
471.08	338.82
471.45	337.43
471.82	335.99
472.18	334.44
472.55	333.30
472.92	332.01
473.28	330.88
473.65	329.75
474.02	328.71
474.38	327.88
474.75	327.16
475.11	326.36
475.48	325.76
475.85	325.33
476.21	324.88
476.58	324.56
476.94	324.37
477.31	324.09
477.67	323.92
478.04	323.81
478.41	323.73
478.77	323.92
479.14	323.84
479.50	324.03
479.87	324.40
480.23	324.78
480.60	325.02
480.96	325.33
481.33	325.96
481.69	326.55
482.06	327.06
482.42	327.58
482.79	328.22
483.15	329.08
483.52	330.04
483.88	330.89
484.25	331.80
484.61	332.81
484.98	333.87
485.34	335.18
485.71	336.55
486.07	337.97
486.44	339.28
486.80	340.88
487.17	342.48
487.53	344.24
487.90	346.11
488.26	348.14
488.62	350.29
488.99	352.35
489.35	354.48
489.72	356.82
490.08	359.36
490.44	361.91
490.81	364.61
491.17	367.34
491.54	370.36
491.90	373.39
492.26	376.61
492.63	380.03
492.99	383.55
493.36	387.24
493.72	391.16
494.08	395.19
494.45	399.40
494.81	403.78
495.17	408.25
495.54	412.91
495.90	417.66
496.26	422.60
496.63	427.77
496.99	433.22
497.35	438.83
497.72	444.60
498.08	450.53
498.44	456.59
498.80	463.00
499.17	469.43
499.53	476.11
499.89	483.00
500.26	489.93
500.62	496.90
500.98	504.28
501.34	511.66
501.71	519.39
502.07	527.19
502.43	535.24
502.79	543.36
503.16	551.71
503.52	560.33
503.88	569.00
504.24	577.97
504.60	586.96
504.97	596.17
505.33	605.49
505.69	615.34
506.05	625.12
506.41	634.91
506.78	644.90
507.14	655.17
507.50	665.51
507.86	676.17
508.22	686.96
508.59	697.58
508.95	708.63
509.31	719.85
509.67	731.29
510.03	742.56
510.39	754.30
510.75	766.12
511.12	778.01
511.48	790.04
511.84	802.19
512.20	814.46
512.56	826.98
512.92	839.58
513.28	852.11
513.64	864.78
514.00	877.49
514.37	890.36
514.73	903.18
515.09	916.11
515.45	928.84
515.81	941.81
516.17	955.07
516.53	968.24
516.89	981.18
517.25	994.23
517.61	1007.68
517.97	1020.97
518.33	1033.94
518.69	1047.31
519.05	1060.91
519.41	1074.43
519.77	1088.15
520.13	1101.23
520.49	1114.29
520.85	1127.47
521.21	1140.69
521.57	1154.20
521.93	1167.10
522.29	1180.82
522.65	1194.29
523.01	1207.70
523.37	1220.57
523.73	1233.63
524.09	1246.46
524.45	1259.60
524.81	1272.86
525.17	1285.93
525.53	1298.72
525.89	1311.75
526.25	1324.61
526.61	1337.20
526.97	1350.03
527.33	1362.53
527.68	1375.79
528.04	1389.01
528.40	1401.86
528.76	1414.86
529.12	1427.49
529.48	1440.53
529.84	1452.46
530.20	1464.82
530.56	1477.26
530.91	1490.37
531.27	1502.94
531.63	1515.52
531.99	1528.06
532.35	1539.94
532.71	1552.09
533.07	1564.57
533.42	1576.39
533.78	1588.13
534.14	1599.85
534.50	1610.74
534.86	1622.05
535.21	1632.60
535.57	1643.63
535.93	1654.79
536.29	1665.63
536.65	1676.82
537.00	1687.58
537.36	1698.61
537.72	1709.34
538.08	1720.38
538.44	1730.88
538.79	1741.60
539.15	1752.09
539.51	1762.36
539.87	1773.44
540.22	1783.85
540.58	1794.58
540.94	1805.24
541.29	1815.23
541.65	1824.72
542.01	1834.94
542.37	1844.84
542.72	1854.77
543.08	1864.43
543.44	1874.42
543.79	1883.51
544.15	1892.49
544.51	1902.10
544.87	1911.67
545.22	1920.49
545.58	1928.95
545.94	1937.62
546.29	1945.92
546.65	1954.05
547.01	1962.22
547.36	1969.61
547.72	1977.05
548.07	1984.49
548.43	1992.08
548.79	1999.64
549.14	2007.56
549.50	2015.63
549.86	2023.19
550.21	2030.36
550.57	2037.62
550.92	2044.15
551.28	2051.26
551.64	2058.51
551.99	2065.87
552.35	2072.93
552.70	2079.55
553.06	2086.15
553.41	2092.27
553.77	2098.60
554.13	2104.88
554.48	2111.72
554.84	2118.50
555.19	2124.88
555.55	2131.22
555.90	2137.26
556.26	2144.01
556.61	2149.68
556.97	2154.51
557.32	2160.38
557.68	2166.60
558.03	2172.32
558.39	2177.42
558.74	2183.39
559.10	2188.89
559.45	2194.41
559.81	2199.80
560.16	2205.52
560.52	2211.31
560.87	2217.62
561.23	2223.53
561.58	2230.13
561.94	2235.23
562.29	2240.15
562.64	2246.34
563.00	2251.83
563.35	2257.47
563.71	2263.20
564.06	2269.02
564.42	2275.07
564.77	2280.10
565.12	2285.45
565.48	2290.82
565.83	2296.59
566.19	2302.25
566.54	2307.66
566.89	2312.35
567.25	2317.05
567.60	2322.89
567.96	2328.17
568.31	2332.72
568.66	2337.05
569.02	2340.91
569.37	2344.75
569.72	2349.26
570.08	2352.84
570.43	2355.92
570.78	2359.10
571.14	2361.92
571.49	2365.15
571.84	2368.70
572.20	2371.63
572.55	2374.83
572.90	2377.16
573.26	2380.15
573.61	2382.45
573.96	2384.77
574.31	2386.84
574.67	2388.95
575.02	2389.91
575.37	2391.42
575.72	2392.41
576.08	2394.06
576.43	2394.57
576.78	2395.54
577.13	2397.43
577.49	2398.74
577.84	2400.47
578.19	2402.14
578.54	2403.00
578.90	2404.28
579.25	2404.49
579.60	2404.71
579.95	2404.17
580.30	2404.56
580.66	2403.99
581.01	2402.59
581.36	2400.56
581.71	2399.39
582.06	2398.66
582.42	2398.01
582.77	2396.09
583.12	2394.79
583.47	2393.69
583.82	2393.21
584.17	2392.08
584.53	2390.04
584.88	2388.27
585.23	2386.23
585.58	2384.15
585.93	2381.99
586.28	2379.79
586.63	2377.69
586.98	2375.76
587.34	2374.12
587.69	2372.07
588.04	2370.26
588.39	2369.10
588.74	2366.75
589.09	2364.36
589.44	2361.29
589.79	2358.97
590.14	2357.29
590.49	2354.63
590.84	2351.11
591.19	2348.35
591.54	2345.07
591.89	2341.19
592.25	2338.14
592.60	2334.26
592.95	2330.24
593.30	2326.35
593.65	2321.99
594.00	2317.75
594.35	2314.74
594.70	2310.13
595.05	2305.42
595.40	2300.24
595.75	2294.77
596.10	2291.32
596.45	2286.45
596.80	2282.05
597.15	2276.86
597.50	2270.97
597.85	2266.17
598.19	2261.06
598.54	2255.34
598.89	2250.60
599.24	2246.18
599.59	2240.18
599.94	2234.71
600.29	2229.03
600.64	2223.33
600.99	2216.97
601.34	2211.53
601.69	2204.56
602.04	2198.28
602.39	2191.94
602.74	2186.03
603.08	2180.57
603.43	2174.14
603.78	2167.50
604.13	2160.40
604.48	2153.40
604.83	2147.54
605.18	2141.23
605.53	2134.29
605.87	2127.29
606.22	2120.47
606.57	2112.63
606.92	2104.87
607.27	2097.83
607.62	2091.27
607.96	2084.31
608.31	2077.74
608.66	2069.93
609.01	2062.49
609.36	2055.38
609.70	2047.69
610.05	2039.96
610.40	2031.74
610.75	2023.59
611.10	2016.07
611.44	2007.39
611.79	1998.69
612.14	1988.76
612.49	1978.26
612.83	1969.12
613.18	1960.00
613.53	1950.68
613.88	1941.22
614.22	1932.58
614.57	1922.61
614.92	1912.04
615.27	1902.02
615.61	1892.12
615.96	1882.51
616.31	1872.97
616.65	1863.68
617.00	1853.76
617.35	1843.98
617.70	1834.25
618.04	1824.06
618.39	1813.71
618.74	1804.18
619.08	1794.57
619.43	1785.85
619.78	1777.70
620.12	1768.96
620.47	1759.13
620.82	1748.91
621.16	1739.13
621.51	1729.10
621.85	1719.34
622.20	1708.81
622.55	1698.13
622.89	1688.16
623.24	1678.38
623.59	1668.64
623.93	1658.46
624.28	1648.91
624.62	1638.74
624.97	1628.36
625.32	1618.56
625.66	1609.80
626.01	1600.77
626.35	1591.28
626.70	1581.10
627.04	1570.84
627.39	1560.79
627.73	1551.56
628.08	1542.34
628.43	1532.71
628.77	1523.47
629.12	1514.57
629.46	1506.71
629.81	1498.11
630.15	1488.50
630.50	1478.69
630.84	1468.24
631.19	1458.31
631.53	1448.76
631.88	1438.65
632.22	1428.68
632.57	1419.47
632.91	1409.19
633.26	1399.36
633.60	1389.75
633.95	1380.37
634.29	1370.99
634.64	1361.46
634.98	1351.54
635.32	1342.29
635.67	1333.62
636.01	1324.45
636.36	1314.54
636.70	1305.04
637.05	1295.85
637.39	1286.87
637.73	1278.30
638.08	1270.73
638.42	1262.25
638.77	1253.53
639.11	1245.24
639.45	1237.36
639.80	1228.57
640.14	1219.97
640.49	1211.08
640.83	1202.36
641.17	1194.30
641.52	1186.01
641.86	1177.55
642.20	1169.71
642.55	1161.07
642.89	1152.25
643.23	1143.46
643.58	1135.42
643.92	1126.26
644.26	1117.57
644.61	1109.11
644.95	1100.34
645.29	1091.07
645.64	1082.12
645.98	1073.66
646.32	1065.73
646.66	1057.16
647.01	1048.79
647.35	1040.47
647.69	1032.00
648.04	1023.62
648.38	1014.64
648.72	1005.92
649.06	997.37
649.41	989.15
649.75	981.22
650.09	973.27
650.43	965.25
650.78	957.08
651.12	949.50
651.46	942.13
651.80	934.93
652.14	927.57
652.49	920.00
652.83	912.71
653.17	905.01
653.51	897.38
653.85	890.21
654.20	882.95
654.54	875.44
654.88	868.34
655.22	861.23
655.56	854.28
655.90	847.51
656.25	840.96
656.59	833.99
656.93	827.02
657.27	819.95
657.61	813.10
657.95	807.01
658.29	801.14
658.64	795.00
658.98	788.48
659.32	781.95
659.66	775.76
660.00	769.40
660.34	763.42
660.68	757.38
661.02	751.20
661.36	745.41
661.70	739.75
662.05	734.09
662.39	728.57
662.73	723.27
663.07	717.94
663.41	712.40
663.75	706.77
664.09	701.19
664.43	695.86
664.77	690.48
665.11	684.62
665.45	678.73
665.79	672.93
666.13	667.41
666.47	661.93
666.81	656.61
667.15	651.36
667.49	646.17
667.83	640.93
668.17	635.67
668.51	630.54
668.85	625.66
669.19	620.90
669.53	615.96
669.87	610.90
670.21	606.15
670.55	601.38
670.89	597.08
671.23	592.85
671.57	588.55
671.91	584.31
672.25	580.24
672.58	576.27
672.92	572.28
673.26	568.33
673.60	564.60
673.94	560.80
674.28	557.20
674.62	553.51
674.96	549.85
675.30	546.39
675.64	542.81
675.97	539.31
676.31	535.70
676.65	532.14
676.99	528.74
677.33	524.95
677.67	521.33
678.01	517.47
678.34	513.79
678.68	510.33
679.02	506.77
679.36	503.12
679.70	499.45
680.04	495.99
680.37	492.68
680.71	489.41
681.05	486.29
681.39	483.05
681.73	479.94
682.06	476.96
682.40	473.90
682.74	470.72
683.08	467.52
683.42	464.43
683.75	461.52
684.09	458.55
684.43	455.82
684.77	452.99
685.10	450.27
685.44	447.38
685.78	444.50
686.12	441.81
686.45	439.10
686.79	436.48
687.13	433.95
687.46	431.29
687.80	428.59
688.14	425.81
688.48	423.25
688.81	420.66
689.15	418.07
689.49	415.50
689.82	413.05
690.16	410.55
690.50	408.09
690.83	405.58
691.17	403.14
691.51	400.70
691.84	398.51
692.18	396.28
692.52	394.12
692.85	392.02
693.19	389.89
693.52	387.83
693.86	385.70
694.20	383.63
694.53	381.54
694.87	379.42
695.21	377.34
695.54	375.26
695.88	373.14
696.21	371.00
696.55	368.91
696.88	366.87
697.22	364.94
697.56	363.12
697.89	361.35
698.23	359.59
698.56	357.85
698.90	356.04
699.23	354.22
699.57	352.43
699.90	350.62
700.24	348.88
700.58	347.16
700.91	345.52
701.25	343.97
701.58	342.38
701.92	340.81
702.25	339.25
702.59	337.65
702.92	336.15
703.26	334.66
703.59	333.26
703.93	332.04
704.26	330.66
704.60	329.18
704.93	327.77
705.26	326.33
705.60	324.94
705.93	323.51
706.27	322.17
706.60	320.91
706.94	319.71
707.27	318.34
707.61	317.01
707.94	315.72
708.27	314.23
708.61	312.82
708.94	311.53
709.28	310.31
709.61	309.12
709.94	307.95
710.28	306.77
710.61	305.59
710.95	304.20
711.28	303.13
711.61	301.98
711.95	300.83
712.28	299.67
712.61	298.49
712.95	297.45
713.28	296.48
713.61	295.40
713.95	294.27
714.28	293.28
714.61	292.27
714.95	291.26
715.28	290.25
715.61	289.27
715.95	288.36
716.28	287.39
716.61	286.48
716.95	285.52
717.28	284.66
717.61	283.76
717.94	282.89
718.28	281.88
718.61	281.05
718.94	280.15
719.27	279.36
719.61	278.60
719.94	277.77
720.27	276.79
720.60	275.99
720.94	275.25
721.27	274.53
721.60	273.90
721.93	273.19
722.27	272.58
722.60	271.95
722.93	271.26
723.26	270.64
723.59	269.93
723.93	269.31
724.26	268.64
724.59	268.05
724.92	267.52
725.25	267.00
725.59	266.42
725.92	265.90
726.25	265.30
726.58	264.76
726.91	264.21
727.24	263.70
727.57	263.13
727.91	262.53
728.24	261.99
728.57	261.36
728.90	260.86
729.23	260.29
729.56	259.88
729.89	259.35
730.22	258.78
730.55	258.27
730.89	257.73
731.22	257.22
731.55	256.68
731.88	256.17
732.21	255.62
732.54	255.13
732.87	254.67
733.20	254.22
733.53	253.71
733.86	253.25
734.19	252.78
734.52	252.36
734.85	252.06
735.18	251.57
735.51	251.22
735.84	250.77
736.17	250.38
736.50	249.83
736.83	249.68
737.16	249.33
737.49	248.97
737.82	248.57
738.15	248.22
738.48	247.84
738.81	247.44
739.14	247.06
739.47	246.69
739.80	246.31
740.13	245.95
740.46	245.58
740.79	245.21
741.12	244.85
741.45	244.47
741.78	244.08
742.11	243.86
742.44	243.49
742.77	243.22
743.10	242.88
743.43	242.58
743.75	241.99
744.08	241.89
744.41	241.52
744.74	241.20
745.07	240.82
745.40	240.55
745.73	240.29
746.06	239.99
746.39	239.72
746.71	239.36
747.04	239.01
747.37	238.72
747.70	238.48
748.03	238.25
748.36	238.02
748.68	237.72
749.01	237.33
749.34	237.03
749.67	236.78
750.00	236.53
750.33	236.40
750.65	236.18
750.98	235.65
751.31	235.42
751.64	235.17
751.97	235.06
752.29	234.81
752.62	234.51
752.95	234.26
753.28	233.98
753.60	233.75
753.93	233.63
754.26	233.42
754.59	233.13
754.91	232.86
755.24	232.64
755.57	232.40
755.90	232.22
756.22	232.01
756.55	231.74
756.88	231.50
757.20	231.14
757.53	230.90
757.86	230.73
758.19	230.56
758.51	230.38
758.84	230.06
759.17	229.85
759.49	229.73
759.82	229.65
760.15	229.51
760.47	229.33
760.80	229.09
761.13	228.93
761.45	228.76
761.78	228.58
762.11	228.39
762.43	228.22
762.76	228.07
763.08	227.92
763.41	227.80
763.74	227.65
764.06	227.49
764.39	227.34
764.71	227.18
765.04	227.01
765.37	226.84
765.69	226.70
766.02	226.56
766.34	226.37
766.67	226.15
767.00	226.03
767.32	226.00
767.65	225.98
767.97	225.83
768.30	225.70
768.62	225.59
768.95	225.44
769.27	225.31
769.60	225.21
769.92	225.07
770.25	224.90
770.57	224.73
770.90	224.64
771.22	224.51
771.55	224.46
771.87	224.38
772.20	224.27
772.52	224.35
772.85	224.50
773.17	224.37
773.50	224.26
773.82	224.16
774.15	223.98
774.47	223.78
774.80	223.69
775.12	223.61
775.45	223.50
775.77	223.44
776.09	223.35
776.42	223.25
776.74	223.22
777.07	223.13
777.39	223.07
777.72	222.94
778.04	222.88
778.36	222.71
778.69	222.62
779.01	222.59
779.33	222.32
779.66	222.02
779.98	221.93
780.31	221.90
780.63	221.88
780.95	221.84
781.28	221.74
781.60	221.64
781.92	221.55
782.25	221.53
782.57	221.46
782.89	221.39
783.22	221.29
783.54	221.14
783.86	221.14
784.19	221.09
784.51	221.11
784.83	221.05
785.16	221.04
785.48	220.98
785.80	220.92
786.12	220.88
