SpectraSuite Data File
++++++++++++++++++++++++++++++++++++
Date: Tue Jan 29 16:46:05 EST 2013
User: group
Dark Spectrum Present: No
Reference Spectrum Present: No
Number of Sampled Component Spectra: 1
Spectrometers: USB2E7196
Integration Time (usec): 65000 (USB2E7196)
Spectra Averaged: 100 (USB2E7196)
Boxcar Smoothing: 10 (USB2E7196)
Correct for Electrical Dark: No (USB2E7196)
Strobe/Lamp Enabled: No (USB2E7196)
Correct for Detector Non-linearity: No (USB2E7196)
Correct for Stray Light: No (USB2E7196)
Number of Pixels in Processed Spectrum: 2048
>>>>>Begin Processed Spectral Data<<<<<
339.09	0.00
339.48	201.72
339.86	203.70
340.24	204.77
340.63	206.25
341.01	210.27
341.39	208.99
341.78	209.83
342.16	212.22
342.54	211.90
342.93	200.90
343.31	211.04
343.69	211.54
344.07	211.97
344.46	212.39
344.84	212.77
345.22	212.94
345.60	213.20
345.99	213.41
346.37	213.48
346.75	213.57
347.13	213.63
347.52	213.70
347.90	213.81
348.28	213.85
348.66	213.92
349.05	213.85
349.43	213.95
349.81	214.02
350.19	214.11
350.57	214.17
350.96	214.24
351.34	214.33
351.72	214.47
352.10	214.59
352.48	214.68
352.87	214.72
353.25	214.78
353.63	214.83
354.01	214.90
354.39	215.02
354.77	215.08
355.15	215.20
355.54	215.22
355.92	215.21
356.30	215.27
356.68	215.46
357.06	215.57
357.44	215.60
357.82	215.64
358.20	215.74
358.58	215.82
358.97	215.89
359.35	216.00
359.73	216.11
360.11	216.14
360.49	216.16
360.87	216.23
361.25	216.31
361.63	216.40
362.01	216.43
362.39	216.44
362.77	216.50
363.15	216.52
363.53	216.57
363.91	216.61
364.29	216.63
364.67	216.46
365.05	216.50
365.43	216.51
365.81	216.59
366.19	216.64
366.57	216.73
366.95	216.72
367.33	216.68
367.71	216.67
368.09	216.72
368.47	216.74
368.85	216.70
369.23	216.74
369.61	216.65
369.99	216.74
370.37	216.79
370.75	216.88
371.13	216.84
371.51	216.82
371.89	216.81
372.27	216.83
372.65	216.80
373.03	216.81
373.41	216.79
373.78	216.74
374.16	216.64
374.54	216.55
374.92	216.52
375.30	216.49
375.68	216.39
376.06	216.35
376.44	216.29
376.82	216.28
377.19	216.23
377.57	216.20
377.95	216.07
378.33	215.97
378.71	215.79
379.09	215.78
379.47	215.75
379.84	215.72
380.22	215.62
380.60	215.59
380.98	215.51
381.36	215.43
381.73	215.37
382.11	215.32
382.49	215.28
382.87	215.21
383.25	215.17
383.62	215.36
384.00	215.30
384.38	215.29
384.76	215.30
385.13	215.31
385.51	215.28
385.89	215.22
386.27	215.22
386.64	215.25
387.02	215.18
387.40	215.14
387.78	215.09
388.15	215.07
388.53	215.02
388.91	214.99
389.29	214.98
389.66	215.00
390.04	214.98
390.42	214.99
390.79	215.01
391.17	215.00
391.55	214.77
391.92	214.75
392.30	214.77
392.68	214.71
393.05	214.70
393.43	214.68
393.81	214.69
394.18	214.67
394.56	214.63
394.94	214.67
395.31	214.66
395.69	214.71
396.06	214.78
396.44	214.83
396.82	214.83
397.19	214.95
397.57	214.94
397.95	214.99
398.32	214.94
398.70	214.96
399.07	215.04
399.45	215.08
399.82	215.13
400.20	215.15
400.58	215.17
400.95	215.13
401.33	215.26
401.70	215.45
402.08	215.54
402.45	215.63
402.83	215.81
403.20	215.93
403.58	216.03
403.95	216.20
404.33	216.36
404.71	216.54
405.08	216.84
405.46	217.02
405.83	217.25
406.21	217.48
406.58	217.71
406.96	217.95
407.33	218.21
407.70	218.53
408.08	219.03
408.45	219.42
408.83	219.85
409.20	220.24
409.58	220.54
409.95	221.02
410.33	221.51
410.70	221.93
411.08	222.53
411.45	223.11
411.82	223.65
412.20	224.36
412.57	225.18
412.95	225.69
413.32	226.50
413.69	227.32
414.07	228.22
414.44	229.22
414.82	230.24
415.19	231.43
415.56	232.62
415.94	233.76
416.31	235.19
416.68	236.58
417.06	238.15
417.43	239.71
417.81	241.45
418.18	243.30
418.55	245.27
418.93	247.28
419.30	249.39
419.67	251.62
420.04	253.89
420.42	256.29
420.79	259.17
421.16	261.97
421.54	264.91
421.91	267.92
422.28	271.06
422.66	274.38
423.03	277.65
423.40	281.01
423.77	284.63
424.15	288.29
424.52	292.18
424.89	296.35
425.26	300.45
425.64	304.35
426.01	308.65
426.38	313.10
426.75	317.66
427.13	322.46
427.50	327.48
427.87	332.74
428.24	337.93
428.61	342.91
428.99	348.49
429.36	354.51
429.73	360.47
430.10	366.34
430.47	372.47
430.85	378.84
431.22	385.57
431.59	392.68
431.96	399.52
432.33	407.03
432.70	414.34
433.08	422.85
433.45	430.97
433.82	439.00
434.19	447.94
434.56	456.65
434.93	464.90
435.30	473.21
435.68	482.30
436.05	491.38
436.42	500.30
436.79	508.50
437.16	517.29
437.53	526.50
437.90	535.72
438.27	544.67
438.64	553.89
439.01	562.50
439.38	570.11
439.75	577.54
440.13	586.00
440.50	594.02
440.87	600.51
441.24	607.13
441.61	614.45
441.98	619.83
442.35	626.18
442.72	632.59
443.09	638.68
443.46	642.51
443.83	644.99
444.20	647.27
444.57	650.48
444.94	651.97
445.31	653.55
445.68	654.91
446.05	655.53
446.42	654.79
446.79	653.86
447.16	652.88
447.53	652.06
447.90	648.74
448.27	645.41
448.64	640.74
449.01	637.38
449.37	631.57
449.74	625.93
450.11	619.04
450.48	611.70
450.85	604.24
451.22	597.73
451.59	591.63
451.96	585.75
452.33	577.86
452.70	570.74
453.07	562.20
453.43	553.59
453.80	545.29
454.17	537.23
454.54	529.61
454.91	521.34
455.28	513.34
455.65	505.92
456.02	498.39
456.38	492.10
456.75	484.26
457.12	477.59
457.49	471.06
457.86	464.78
458.23	459.32
458.59	453.35
458.96	447.27
459.33	441.88
459.70	436.49
460.07	432.12
460.43	427.20
460.80	422.60
461.17	418.60
461.54	414.34
461.91	410.35
462.27	406.21
462.64	402.80
463.01	398.95
463.38	395.20
463.74	391.49
464.11	388.21
464.48	385.36
464.85	382.28
465.21	379.82
465.58	377.26
465.95	374.08
466.32	371.39
466.68	368.84
467.05	366.25
467.42	363.72
467.78	361.03
468.15	358.43
468.52	356.48
468.88	353.92
469.25	351.68
469.62	349.86
469.98	347.88
470.35	346.00
470.72	344.35
471.08	342.54
471.45	341.00
471.82	339.44
472.18	337.75
472.55	336.49
472.92	335.04
473.28	333.80
473.65	332.69
474.02	331.59
474.38	330.68
474.75	329.91
475.11	329.05
475.48	328.45
475.85	327.97
476.21	327.51
476.58	327.20
476.94	326.98
477.31	326.64
477.67	326.38
478.04	326.20
478.41	326.09
478.77	326.26
479.14	326.23
479.50	326.37
479.87	326.66
480.23	327.01
480.60	327.26
480.96	327.53
481.33	328.08
481.69	328.66
482.06	329.16
482.42	329.62
482.79	330.19
483.15	330.98
483.52	331.98
483.88	332.84
484.25	333.77
484.61	334.74
484.98	335.81
485.34	337.10
485.71	338.44
486.07	339.91
486.44	341.20
486.80	342.76
487.17	344.40
487.53	346.21
487.90	348.07
488.26	350.10
488.62	352.25
488.99	354.27
489.35	356.43
489.72	358.78
490.08	361.29
490.44	363.85
490.81	366.56
491.17	369.22
491.54	372.18
491.90	375.20
492.26	378.46
492.63	381.83
492.99	385.36
493.36	389.07
493.72	392.90
494.08	396.86
494.45	401.11
494.81	405.49
495.17	409.93
495.54	414.59
495.90	419.38
496.26	424.28
496.63	429.52
496.99	434.89
497.35	440.46
497.72	446.29
498.08	452.28
498.44	458.38
498.80	464.81
499.17	471.26
499.53	477.99
499.89	484.90
500.26	491.89
500.62	498.89
500.98	506.30
501.34	513.78
501.71	521.59
502.07	529.45
502.43	537.42
502.79	545.55
503.16	553.91
503.52	562.50
503.88	571.20
504.24	580.16
504.60	589.22
504.97	598.48
505.33	607.69
505.69	617.44
506.05	627.28
506.41	637.18
506.78	647.31
507.14	657.53
507.50	667.92
507.86	678.56
508.22	689.35
508.59	700.10
508.95	711.18
509.31	722.38
509.67	733.72
510.03	745.11
510.39	756.82
510.75	768.70
511.12	780.60
511.48	792.63
511.84	804.91
512.20	817.28
512.56	829.86
512.92	842.78
513.28	855.49
513.64	868.23
514.00	881.01
514.37	893.94
514.73	907.04
515.09	920.05
515.45	933.05
515.81	946.20
516.17	959.49
516.53	972.76
516.89	985.97
517.25	999.22
517.61	1012.78
517.97	1026.29
518.33	1039.48
518.69	1053.18
519.05	1067.04
519.41	1080.79
519.77	1094.75
520.13	1108.14
520.49	1121.20
520.85	1134.54
521.21	1147.89
521.57	1161.58
521.93	1174.77
522.29	1188.56
522.65	1202.23
523.01	1215.89
523.37	1229.10
523.73	1242.50
524.09	1255.79
524.45	1269.22
524.81	1282.84
525.17	1296.27
525.53	1309.49
525.89	1322.79
526.25	1335.84
526.61	1348.65
526.97	1361.77
527.33	1374.79
527.68	1388.36
528.04	1401.96
528.40	1415.26
528.76	1428.73
529.12	1441.75
529.48	1455.05
529.84	1467.40
530.20	1480.30
530.56	1492.83
530.91	1506.12
531.27	1519.07
531.63	1531.79
531.99	1544.52
532.35	1556.75
532.71	1569.27
533.07	1582.22
533.42	1594.57
533.78	1606.80
534.14	1619.09
534.50	1630.28
534.86	1641.84
535.21	1652.76
535.57	1664.46
535.93	1675.75
536.29	1686.94
536.65	1698.58
537.00	1709.80
537.36	1721.22
537.72	1732.24
538.08	1743.83
538.44	1754.91
538.79	1766.02
539.15	1777.13
539.51	1788.13
539.87	1799.49
540.22	1810.49
540.58	1821.56
540.94	1832.70
541.29	1843.12
541.65	1852.86
542.01	1863.50
542.37	1873.67
542.72	1883.80
543.08	1893.56
543.44	1904.12
543.79	1913.46
544.15	1922.92
544.51	1932.86
544.87	1942.81
545.22	1952.17
545.58	1961.09
545.94	1970.03
546.29	1978.62
546.65	1986.90
547.01	1995.19
547.36	2003.03
547.72	2010.83
548.07	2018.37
548.43	2026.19
548.79	2034.09
549.14	2042.46
549.50	2051.00
549.86	2059.07
550.21	2066.77
550.57	2074.58
550.92	2081.44
551.28	2089.03
551.64	2096.25
551.99	2103.72
552.35	2111.01
552.70	2117.85
553.06	2124.66
553.41	2130.96
553.77	2137.54
554.13	2144.16
554.48	2151.07
554.84	2158.22
555.19	2164.71
555.55	2171.23
555.90	2177.40
556.26	2184.25
556.61	2190.20
556.97	2195.07
557.32	2200.65
557.68	2206.94
558.03	2212.68
558.39	2218.07
558.74	2224.07
559.10	2229.64
559.45	2235.22
559.81	2240.67
560.16	2246.20
560.52	2252.06
560.87	2258.45
561.23	2264.29
561.58	2270.68
561.94	2276.09
562.29	2280.67
562.64	2286.67
563.00	2292.19
563.35	2297.73
563.71	2303.38
564.06	2309.14
564.42	2314.97
564.77	2320.09
565.12	2325.35
565.48	2330.33
565.83	2335.89
566.19	2341.24
566.54	2346.46
566.89	2351.00
567.25	2355.56
567.60	2361.17
567.96	2366.17
568.31	2370.70
568.66	2375.05
569.02	2378.93
569.37	2382.53
569.72	2386.85
570.08	2390.12
570.43	2393.19
570.78	2396.31
571.14	2398.64
571.49	2401.56
571.84	2405.03
572.20	2407.81
572.55	2410.62
572.90	2412.91
573.26	2415.46
573.61	2417.91
573.96	2420.10
574.31	2422.02
574.67	2423.78
575.02	2424.39
575.37	2425.77
575.72	2426.24
576.08	2427.46
576.43	2427.60
576.78	2427.96
577.13	2429.50
577.49	2430.66
577.84	2431.65
578.19	2432.74
578.54	2433.22
578.90	2433.62
579.25	2433.30
579.60	2432.97
579.95	2432.01
580.30	2432.00
580.66	2431.31
581.01	2429.39
581.36	2426.77
581.71	2425.25
582.06	2423.88
582.42	2422.85
582.77	2420.24
583.12	2418.46
583.47	2416.81
583.82	2416.03
584.17	2414.62
584.53	2412.31
584.88	2410.02
585.23	2408.00
585.58	2405.41
585.93	2403.30
586.28	2401.15
586.63	2398.58
586.98	2396.36
587.34	2394.42
587.69	2391.67
588.04	2389.26
588.39	2387.73
588.74	2385.06
589.09	2382.11
589.44	2378.94
589.79	2376.35
590.14	2374.42
590.49	2371.48
590.84	2367.61
591.19	2364.29
591.54	2360.84
591.89	2356.61
592.25	2353.39
592.60	2349.07
592.95	2345.01
593.30	2340.78
593.65	2336.33
594.00	2331.84
594.35	2328.68
594.70	2323.83
595.05	2319.34
595.40	2313.93
595.75	2308.04
596.10	2304.42
596.45	2299.50
596.80	2294.74
597.15	2289.47
597.50	2283.38
597.85	2278.39
598.19	2273.12
598.54	2267.21
598.89	2261.89
599.24	2257.37
599.59	2251.05
599.94	2245.06
600.29	2238.91
600.64	2232.87
600.99	2225.92
601.34	2220.38
601.69	2213.31
602.04	2206.85
602.39	2200.06
602.74	2193.71
603.08	2188.20
603.43	2181.63
603.78	2174.82
604.13	2167.67
604.48	2160.42
604.83	2154.30
605.18	2148.10
605.53	2141.21
605.87	2134.21
606.22	2127.40
606.57	2119.38
606.92	2111.39
607.27	2104.46
607.62	2097.83
607.96	2090.91
608.31	2084.50
608.66	2076.71
609.01	2069.19
609.36	2062.16
609.70	2054.52
610.05	2046.91
610.40	2038.49
610.75	2030.17
611.10	2022.43
611.44	2013.57
611.79	2004.87
612.14	1994.95
612.49	1984.22
612.83	1974.75
613.18	1965.46
613.53	1956.17
613.88	1946.62
614.22	1937.97
614.57	1928.04
614.92	1917.52
615.27	1907.30
615.61	1897.09
615.96	1887.49
616.31	1877.93
616.65	1868.46
617.00	1858.77
617.35	1849.13
617.70	1839.44
618.04	1829.48
618.39	1819.43
618.74	1809.88
619.08	1800.27
619.43	1791.65
619.78	1783.46
620.12	1775.00
620.47	1765.52
620.82	1755.27
621.16	1745.51
621.51	1735.75
621.85	1726.12
622.20	1715.82
622.55	1705.30
622.89	1695.39
623.24	1685.81
623.59	1676.00
623.93	1665.95
624.28	1656.22
624.62	1646.15
624.97	1635.93
625.32	1626.19
625.66	1617.15
626.01	1608.51
626.35	1599.24
626.70	1589.22
627.04	1579.21
627.39	1569.11
627.73	1559.89
628.08	1551.09
628.43	1541.63
628.77	1532.41
629.12	1523.52
629.46	1515.83
629.81	1507.61
630.15	1498.25
630.50	1488.36
630.84	1477.95
631.19	1468.01
631.53	1458.79
631.88	1448.78
632.22	1438.85
632.57	1429.54
632.91	1419.60
633.26	1409.78
633.60	1400.29
633.95	1391.15
634.29	1381.71
634.64	1372.48
634.98	1362.60
635.32	1353.30
635.67	1344.97
636.01	1335.83
636.36	1326.20
636.70	1316.66
637.05	1307.26
637.39	1298.57
637.73	1290.06
638.08	1282.60
638.42	1274.65
638.77	1265.97
639.11	1257.68
639.45	1249.97
639.80	1241.62
640.14	1233.00
640.49	1224.13
640.83	1215.43
641.17	1207.19
641.52	1199.14
641.86	1190.64
642.20	1182.79
642.55	1174.21
642.89	1165.28
643.23	1156.70
643.58	1148.61
643.92	1139.62
644.26	1131.01
644.61	1122.53
644.95	1113.79
645.29	1104.60
645.64	1095.46
645.98	1086.97
646.32	1079.11
646.66	1070.62
647.01	1062.23
647.35	1054.11
647.69	1045.88
648.04	1037.51
648.38	1028.74
648.72	1020.02
649.06	1011.65
649.41	1003.53
649.75	995.67
650.09	987.83
650.43	979.76
650.78	971.43
651.12	963.75
651.46	956.40
651.80	949.21
652.14	941.96
652.49	934.50
652.83	927.25
653.17	919.54
653.51	911.93
653.85	904.72
654.20	897.48
654.54	890.10
654.88	882.93
655.22	875.78
655.56	868.77
655.90	862.02
656.25	855.32
656.59	848.47
656.93	841.51
657.27	834.45
657.61	827.53
657.95	821.50
658.29	815.64
658.64	809.53
658.98	803.01
659.32	796.40
659.66	790.20
660.00	783.75
660.34	777.75
660.68	771.68
661.02	765.39
661.36	759.46
661.70	753.65
662.05	748.03
662.39	742.55
662.73	737.16
663.07	731.81
663.41	726.15
663.75	720.40
664.09	714.68
664.43	709.22
664.77	703.90
665.11	698.07
665.45	692.09
665.79	686.25
666.13	680.49
666.47	675.06
666.81	669.61
667.15	664.29
667.49	659.06
667.83	653.83
668.17	648.52
668.51	643.38
668.85	638.44
669.19	633.46
669.53	628.44
669.87	623.27
670.21	618.45
670.55	613.73
670.89	609.28
671.23	604.89
671.57	600.42
671.91	596.15
672.25	591.94
672.58	587.92
672.92	583.85
673.26	580.04
673.60	576.08
673.94	572.19
674.28	568.58
674.62	564.78
674.96	560.96
675.30	557.50
675.64	553.82
675.97	550.17
676.31	546.54
676.65	542.91
676.99	539.59
677.33	535.73
677.67	532.14
678.01	528.25
678.34	524.64
678.68	521.16
679.02	517.48
679.36	513.77
679.70	510.01
680.04	506.39
680.37	502.83
680.71	499.51
681.05	496.29
681.39	492.96
681.73	489.74
682.06	486.72
682.40	483.59
682.74	480.36
683.08	477.14
683.42	473.92
683.75	470.85
684.09	467.73
684.43	464.89
684.77	461.89
685.10	459.03
685.44	456.07
685.78	453.11
686.12	450.27
686.45	447.55
686.79	444.91
687.13	442.40
687.46	439.76
687.80	437.05
688.14	434.22
688.48	431.55
688.81	428.86
689.15	426.26
689.49	423.62
689.82	421.05
690.16	418.43
690.50	415.95
690.83	413.44
691.17	410.87
691.51	408.37
691.84	406.02
692.18	403.76
692.52	401.57
692.85	399.42
693.19	397.27
693.52	395.12
693.86	392.84
694.20	390.56
694.53	388.37
694.87	386.19
695.21	384.04
695.54	381.78
695.88	379.61
696.21	377.35
696.55	375.20
696.88	373.10
697.22	371.12
697.56	369.20
697.89	367.26
698.23	365.46
698.56	363.67
698.90	361.95
699.23	360.01
699.57	358.09
699.90	356.19
700.24	354.31
700.58	352.49
700.91	350.80
701.25	349.27
701.58	347.67
701.92	346.05
702.25	344.39
702.59	342.75
702.92	341.21
703.26	339.62
703.59	338.11
703.93	336.88
704.26	335.39
704.60	333.83
704.93	332.37
705.26	330.85
705.60	329.33
705.93	327.75
706.27	326.40
706.60	325.11
706.94	323.86
707.27	322.50
707.61	321.16
707.94	319.78
708.27	318.18
708.61	316.73
708.94	315.31
709.28	314.01
709.61	312.81
709.94	311.59
710.28	310.36
710.61	309.17
710.95	307.70
711.28	306.65
711.61	305.47
711.95	304.33
712.28	303.16
712.61	301.95
712.95	300.89
713.28	299.84
713.61	298.67
713.95	297.51
714.28	296.44
714.61	295.35
714.95	294.34
715.28	293.31
715.61	292.24
715.95	291.26
716.28	290.30
716.61	289.34
716.95	288.30
717.28	287.39
717.61	286.38
717.94	285.50
718.28	284.47
718.61	283.56
718.94	282.65
719.27	281.76
719.61	280.93
719.94	280.04
720.27	279.10
720.60	278.21
720.94	277.39
721.27	276.63
721.60	275.94
721.93	275.19
722.27	274.59
722.60	273.91
722.93	273.18
723.26	272.50
723.59	271.77
723.93	271.14
724.26	270.48
724.59	269.84
724.92	269.20
725.25	268.60
725.59	268.02
725.92	267.45
726.25	266.86
726.58	266.28
726.91	265.66
727.24	265.09
727.57	264.53
727.91	263.90
728.24	263.34
728.57	262.74
728.90	262.19
729.23	261.54
729.56	261.11
729.89	260.59
730.22	260.01
730.55	259.46
730.89	258.88
731.22	258.31
731.55	257.75
731.88	257.25
732.21	256.71
732.54	256.17
732.87	255.63
733.20	255.15
733.53	254.68
733.86	254.23
734.19	253.71
734.52	253.30
734.85	253.01
735.18	252.51
735.51	252.12
735.84	251.70
736.17	251.34
736.50	250.80
736.83	250.61
737.16	250.22
737.49	249.84
737.82	249.46
738.15	249.10
738.48	248.74
738.81	248.30
739.14	247.86
739.47	247.47
739.80	247.07
740.13	246.73
740.46	246.29
740.79	245.91
741.12	245.54
741.45	245.13
741.78	244.70
742.11	244.43
742.44	244.03
742.77	243.68
743.10	243.26
743.43	242.90
743.75	242.35
744.08	242.25
744.41	241.89
744.74	241.52
745.07	241.15
745.40	240.81
745.73	240.57
746.06	240.26
746.39	239.94
746.71	239.61
747.04	239.25
747.37	238.98
747.70	238.68
748.03	238.40
748.36	238.12
748.68	237.80
749.01	237.43
749.34	237.14
749.67	236.83
750.00	236.59
750.33	236.45
750.65	236.19
750.98	235.69
751.31	235.46
751.64	235.22
751.97	235.07
752.29	234.80
752.62	234.44
752.95	234.19
753.28	233.93
753.60	233.69
753.93	233.51
754.26	233.26
754.59	233.02
754.91	232.77
755.24	232.54
755.57	232.32
755.90	232.09
756.22	231.83
756.55	231.60
756.88	231.37
757.20	231.02
757.53	230.76
757.86	230.51
758.19	230.33
758.51	230.11
758.84	229.82
759.17	229.62
759.49	229.43
759.82	229.35
760.15	229.17
760.47	228.95
760.80	228.68
761.13	228.52
761.45	228.32
761.78	228.12
762.11	227.91
762.43	227.71
762.76	227.53
763.08	227.38
763.41	227.22
763.74	227.05
764.06	226.87
764.39	226.68
764.71	226.54
765.04	226.35
765.37	226.21
765.69	226.07
766.02	225.93
766.34	225.78
766.67	225.57
767.00	225.47
767.32	225.47
767.65	225.45
767.97	225.31
768.30	225.16
768.62	225.04
768.95	224.88
769.27	224.74
769.60	224.68
769.92	224.51
770.25	224.35
770.57	224.20
770.90	224.09
771.22	223.97
771.55	223.86
771.87	223.75
772.20	223.61
772.52	223.64
772.85	223.76
773.17	223.66
773.50	223.52
773.82	223.40
774.15	223.20
774.47	222.97
774.80	222.82
775.12	222.72
775.45	222.64
775.77	222.58
776.09	222.49
776.42	222.39
776.74	222.35
777.07	222.26
777.39	222.19
777.72	222.06
778.04	222.00
778.36	221.89
778.69	221.83
779.01	221.76
779.33	221.52
779.66	221.18
779.98	221.12
780.31	221.04
780.63	221.06
780.95	221.00
781.28	220.96
781.60	220.88
781.92	220.83
782.25	220.72
782.57	220.64
782.89	220.60
783.22	220.49
783.54	220.41
783.86	220.37
784.19	220.28
784.51	220.28
784.83	220.18
785.16	220.15
785.48	220.09
785.80	220.03
786.12	220.00
