SpectraSuite Data File
++++++++++++++++++++++++++++++++++++
Date: Tue Jan 29 15:56:17 EST 2013
User: group
Dark Spectrum Present: No
Reference Spectrum Present: No
Number of Sampled Component Spectra: 1
Spectrometers: USB2E7196
Integration Time (usec): 65000 (USB2E7196)
Spectra Averaged: 100 (USB2E7196)
Boxcar Smoothing: 10 (USB2E7196)
Correct for Electrical Dark: No (USB2E7196)
Strobe/Lamp Enabled: No (USB2E7196)
Correct for Detector Non-linearity: No (USB2E7196)
Correct for Stray Light: No (USB2E7196)
Number of Pixels in Processed Spectrum: 2048
>>>>>Begin Processed Spectral Data<<<<<
339.09	0.00
339.48	202.60
339.86	204.51
340.24	205.79
340.63	206.50
341.01	212.36
341.39	209.83
341.78	211.87
342.16	212.78
342.54	212.97
342.93	202.21
343.31	212.38
343.69	212.95
344.07	213.40
344.46	213.84
344.84	214.27
345.22	214.42
345.60	214.71
345.99	214.88
346.37	215.00
346.75	215.17
347.13	215.28
347.52	215.39
347.90	215.48
348.28	215.51
348.66	215.57
349.05	215.54
349.43	215.59
349.81	215.67
350.19	215.73
350.57	215.79
350.96	215.84
351.34	215.97
351.72	216.07
352.10	216.19
352.48	216.26
352.87	216.30
353.25	216.37
353.63	216.40
354.01	216.48
354.39	216.56
354.77	216.57
355.15	216.65
355.54	216.67
355.92	216.68
356.30	216.75
356.68	216.94
357.06	217.04
357.44	217.07
357.82	217.12
358.20	217.19
358.58	217.25
358.97	217.29
359.35	217.40
359.73	217.46
360.11	217.48
360.49	217.56
360.87	217.62
361.25	217.66
361.63	217.78
362.01	217.85
362.39	217.88
362.77	217.92
363.15	217.98
363.53	218.02
363.91	218.07
364.29	218.07
364.67	217.88
365.05	217.85
365.43	217.90
365.81	217.93
366.19	218.01
366.57	218.12
366.95	218.13
367.33	218.07
367.71	218.07
368.09	218.10
368.47	218.09
368.85	218.09
369.23	218.13
369.61	218.04
369.99	218.04
370.37	218.05
370.75	218.14
371.13	218.08
371.51	218.04
371.89	218.02
372.27	218.01
372.65	217.99
373.03	217.97
373.41	217.90
373.78	217.83
374.16	217.71
374.54	217.57
374.92	217.54
375.30	217.54
375.68	217.47
376.06	217.45
376.44	217.37
376.82	217.33
377.19	217.28
377.57	217.22
377.95	217.14
378.33	217.09
378.71	216.95
379.09	216.88
379.47	216.87
379.84	216.81
380.22	216.76
380.60	216.70
380.98	216.65
381.36	216.61
381.73	216.55
382.11	216.54
382.49	216.53
382.87	216.48
383.25	216.40
383.62	216.66
384.00	216.58
384.38	216.57
384.76	216.57
385.13	216.60
385.51	216.61
385.89	216.57
386.27	216.54
386.64	216.52
387.02	216.50
387.40	216.43
387.78	216.43
388.15	216.41
388.53	216.38
388.91	216.40
389.29	216.38
389.66	216.42
390.04	216.37
390.42	216.40
390.79	216.41
391.17	216.38
391.55	216.08
391.92	216.07
392.30	216.07
392.68	216.03
393.05	216.01
393.43	216.03
393.81	216.02
394.18	216.00
394.56	216.02
394.94	216.08
395.31	216.07
395.69	216.13
396.06	216.16
396.44	216.22
396.82	216.19
397.19	216.33
397.57	216.32
397.95	216.38
398.32	216.32
398.70	216.31
399.07	216.40
399.45	216.45
399.82	216.49
400.20	216.53
400.58	216.58
400.95	216.55
401.33	216.61
401.70	216.83
402.08	216.90
402.45	217.01
402.83	217.13
403.20	217.24
403.58	217.28
403.95	217.44
404.33	217.60
404.71	217.76
405.08	217.98
405.46	218.17
405.83	218.37
406.21	218.59
406.58	218.82
406.96	219.04
407.33	219.32
407.70	219.62
408.08	220.06
408.45	220.38
408.83	220.78
409.20	221.09
409.58	221.33
409.95	221.79
410.33	222.25
410.70	222.67
411.08	223.24
411.45	223.82
411.82	224.37
412.20	225.03
412.57	225.82
412.95	226.36
413.32	227.13
413.69	227.95
414.07	228.83
414.44	229.77
414.82	230.73
415.19	231.85
415.56	232.99
415.94	234.10
416.31	235.45
416.68	236.80
417.06	238.36
417.43	239.86
417.81	241.50
418.18	243.19
418.55	245.07
418.93	247.00
419.30	248.99
419.67	251.10
420.04	253.28
420.42	255.57
420.79	258.31
421.16	260.98
421.54	263.72
421.91	266.57
422.28	269.54
422.66	272.68
423.03	275.80
423.40	279.01
423.77	282.48
424.15	286.01
424.52	289.71
424.89	293.69
425.26	297.60
425.64	301.36
426.01	305.49
426.38	309.76
426.75	314.06
427.13	318.60
427.50	323.37
427.87	328.34
428.24	333.34
428.61	338.12
428.99	343.41
429.36	349.13
429.73	354.76
430.10	360.44
430.47	366.32
430.85	372.37
431.22	378.83
431.59	385.64
431.96	392.13
432.33	399.33
432.70	406.35
433.08	414.53
433.45	422.28
433.82	429.94
434.19	438.45
434.56	446.85
434.93	454.89
435.30	462.86
435.68	471.65
436.05	480.28
436.42	488.80
436.79	496.62
437.16	505.11
437.53	514.07
437.90	522.81
438.27	531.44
438.64	540.34
439.01	548.54
439.38	555.88
439.75	563.01
440.13	571.11
440.50	578.60
440.87	584.73
441.24	591.09
441.61	598.13
441.98	603.29
442.35	609.37
442.72	615.42
443.09	621.25
443.46	624.82
443.83	627.22
444.20	629.31
444.57	632.35
444.94	633.67
445.31	634.99
445.68	636.32
446.05	636.80
446.42	635.96
446.79	634.99
447.16	633.90
447.53	633.00
447.90	629.69
448.27	626.57
448.64	622.09
449.01	618.84
449.37	613.12
449.74	607.64
450.11	600.97
450.48	593.85
450.85	586.65
451.22	580.43
451.59	574.44
451.96	568.86
452.33	561.27
452.70	554.49
453.07	546.39
453.43	538.14
453.80	530.27
454.17	522.65
454.54	515.42
454.91	507.61
455.28	500.11
455.65	493.10
456.02	485.95
456.38	479.96
456.75	472.49
457.12	466.28
457.49	460.13
457.86	454.27
458.23	449.14
458.59	443.48
458.96	437.78
459.33	432.81
459.70	427.74
460.07	423.68
460.43	419.01
460.80	414.65
461.17	410.86
461.54	406.81
461.91	402.94
462.27	399.00
462.64	395.68
463.01	392.02
463.38	388.44
463.74	384.90
464.11	381.81
464.48	379.08
464.85	376.10
465.21	373.71
465.58	371.18
465.95	368.15
466.32	365.65
466.68	363.08
467.05	360.61
467.42	358.14
467.78	355.57
468.15	353.12
468.52	351.30
468.88	348.93
469.25	346.89
469.62	345.22
469.98	343.39
470.35	341.69
470.72	340.11
471.08	338.46
471.45	337.06
471.82	335.59
472.18	334.00
472.55	332.90
472.92	331.61
473.28	330.45
473.65	329.41
474.02	328.42
474.38	327.66
474.75	326.97
475.11	326.18
475.48	325.65
475.85	325.22
476.21	324.77
476.58	324.44
476.94	324.22
477.31	323.93
477.67	323.71
478.04	323.60
478.41	323.60
478.77	323.78
479.14	323.72
479.50	323.90
479.87	324.20
480.23	324.49
480.60	324.77
480.96	325.11
481.33	325.75
481.69	326.29
482.06	326.83
482.42	327.31
482.79	327.99
483.15	328.82
483.52	329.80
483.88	330.72
484.25	331.67
484.61	332.66
484.98	333.69
485.34	335.00
485.71	336.34
486.07	337.76
486.44	339.05
486.80	340.68
487.17	342.32
487.53	344.13
487.90	346.02
488.26	348.12
488.62	350.26
488.99	352.30
489.35	354.48
489.72	356.82
490.08	359.37
490.44	361.97
490.81	364.66
491.17	367.37
491.54	370.35
491.90	373.39
492.26	376.67
492.63	380.13
492.99	383.56
493.36	387.18
493.72	391.04
494.08	395.06
494.45	399.28
494.81	403.66
495.17	408.13
495.54	412.86
495.90	417.64
496.26	422.57
496.63	427.74
496.99	433.07
497.35	438.66
497.72	444.45
498.08	450.27
498.44	456.37
498.80	462.81
499.17	469.28
499.53	475.94
499.89	482.83
500.26	489.76
500.62	496.87
500.98	504.32
501.34	511.79
501.71	519.50
502.07	527.27
502.43	535.22
502.79	543.35
503.16	551.66
503.52	560.23
503.88	568.84
504.24	577.81
504.60	586.85
504.97	596.01
505.33	605.27
505.69	615.10
506.05	624.88
506.41	634.68
506.78	644.69
507.14	654.96
507.50	665.29
507.86	675.94
508.22	686.66
508.59	697.28
508.95	708.30
509.31	719.57
509.67	730.99
510.03	742.35
510.39	754.06
510.75	765.88
511.12	777.76
511.48	789.79
511.84	801.91
512.20	814.21
512.56	826.69
512.92	839.30
513.28	851.87
513.64	864.51
514.00	877.25
514.37	890.12
514.73	903.04
515.09	915.88
515.45	928.67
515.81	941.52
516.17	954.65
516.53	967.68
516.89	980.51
517.25	993.49
517.61	1006.75
517.97	1019.91
518.33	1032.80
518.69	1046.03
519.05	1059.58
519.41	1073.01
519.77	1086.65
520.13	1099.79
520.49	1112.83
520.85	1125.95
521.21	1139.11
521.57	1152.45
521.93	1165.33
522.29	1178.83
522.65	1192.33
523.01	1205.61
523.37	1218.55
523.73	1231.66
524.09	1244.58
524.45	1257.78
524.81	1271.03
525.17	1284.15
525.53	1296.95
525.89	1310.01
526.25	1322.81
526.61	1335.24
526.97	1348.08
527.33	1360.64
527.68	1373.80
528.04	1386.91
528.40	1399.62
528.76	1412.60
529.12	1425.17
529.48	1438.07
529.84	1450.08
530.20	1462.45
530.56	1474.80
530.91	1487.90
531.27	1500.31
531.63	1512.92
531.99	1525.20
532.35	1537.09
532.71	1549.04
533.07	1561.58
533.42	1573.51
533.78	1585.34
534.14	1597.18
534.50	1608.02
534.86	1619.19
535.21	1629.68
535.57	1640.77
535.93	1651.74
536.29	1662.49
536.65	1673.56
537.00	1684.10
537.36	1694.96
537.72	1705.51
538.08	1716.48
538.44	1726.90
538.79	1737.68
539.15	1748.00
539.51	1758.47
539.87	1769.41
540.22	1779.97
540.58	1790.47
540.94	1800.84
541.29	1810.62
541.65	1820.10
542.01	1830.28
542.37	1840.04
542.72	1849.91
543.08	1859.40
543.44	1869.52
543.79	1878.53
544.15	1887.76
544.51	1897.34
544.87	1906.82
545.22	1915.73
545.58	1924.12
545.94	1932.56
546.29	1940.72
546.65	1948.76
547.01	1956.61
547.36	1964.02
547.72	1971.42
548.07	1978.72
548.43	1986.17
548.79	1993.84
549.14	2001.60
549.50	2009.63
549.86	2017.13
550.21	2024.22
550.57	2031.57
550.92	2038.16
551.28	2045.22
551.64	2052.11
551.99	2059.41
552.35	2066.31
552.70	2072.91
553.06	2079.52
553.41	2085.62
553.77	2092.03
554.13	2098.19
554.48	2105.04
554.84	2111.79
555.19	2118.23
555.55	2124.57
555.90	2130.74
556.26	2137.25
556.61	2143.06
556.97	2147.86
557.32	2153.69
557.68	2159.98
558.03	2165.56
558.39	2170.52
558.74	2176.40
559.10	2181.93
559.45	2187.59
559.81	2193.23
560.16	2198.66
560.52	2204.48
560.87	2210.91
561.23	2216.77
561.58	2223.47
561.94	2228.62
562.29	2233.59
562.64	2239.72
563.00	2245.16
563.35	2250.73
563.71	2256.61
564.06	2262.33
564.42	2268.25
564.77	2273.37
565.12	2278.70
565.48	2283.92
565.83	2289.75
566.19	2295.34
566.54	2300.78
566.89	2305.28
567.25	2309.90
567.60	2315.81
567.96	2321.08
568.31	2325.64
568.66	2329.87
569.02	2333.77
569.37	2337.66
569.72	2341.94
570.08	2345.46
570.43	2348.72
570.78	2351.88
571.14	2354.45
571.49	2357.70
571.84	2361.58
572.20	2364.32
572.55	2367.63
572.90	2369.96
573.26	2372.99
573.61	2375.57
573.96	2377.80
574.31	2379.99
574.67	2382.02
575.02	2382.96
575.37	2384.51
575.72	2385.59
576.08	2387.25
576.43	2387.59
576.78	2388.44
577.13	2390.39
577.49	2391.72
577.84	2393.26
578.19	2394.98
578.54	2396.09
578.90	2397.35
579.25	2397.24
579.60	2397.83
579.95	2397.24
580.30	2397.89
580.66	2397.34
581.01	2395.98
581.36	2394.09
581.71	2392.98
582.06	2392.25
582.42	2391.65
582.77	2389.86
583.12	2388.52
583.47	2387.65
583.82	2387.48
584.17	2386.40
584.53	2384.48
584.88	2382.65
585.23	2380.87
585.58	2378.85
585.93	2376.88
586.28	2374.83
586.63	2372.77
586.98	2370.86
587.34	2369.11
587.69	2366.88
588.04	2365.22
588.39	2363.92
588.74	2361.75
589.09	2359.39
589.44	2356.54
589.79	2354.31
590.14	2352.63
590.49	2349.97
590.84	2346.24
591.19	2343.43
591.54	2340.48
591.89	2336.72
592.25	2333.79
592.60	2329.85
592.95	2325.99
593.30	2322.07
593.65	2317.81
594.00	2313.75
594.35	2310.65
594.70	2306.17
595.05	2301.85
595.40	2296.46
595.75	2291.37
596.10	2287.80
596.45	2283.16
596.80	2278.76
597.15	2273.72
597.50	2267.80
597.85	2262.96
598.19	2257.92
598.54	2252.16
598.89	2247.10
599.24	2242.69
599.59	2236.63
599.94	2231.13
600.29	2225.22
600.64	2219.36
600.99	2212.90
601.34	2207.52
601.69	2200.72
602.04	2194.55
602.39	2188.06
602.74	2182.21
603.08	2176.44
603.43	2170.03
603.78	2163.31
604.13	2156.14
604.48	2149.01
604.83	2143.15
605.18	2137.07
605.53	2130.17
605.87	2123.21
606.22	2116.57
606.57	2108.84
606.92	2101.13
607.27	2094.24
607.62	2087.81
607.96	2080.90
608.31	2074.31
608.66	2066.48
609.01	2058.99
609.36	2051.93
609.70	2044.24
610.05	2036.57
610.40	2028.50
610.75	2020.40
611.10	2012.82
611.44	2004.18
611.79	1995.45
612.14	1985.37
612.49	1974.93
612.83	1965.83
613.18	1956.73
613.53	1947.40
613.88	1937.78
614.22	1929.17
614.57	1919.22
614.92	1908.71
615.27	1898.70
615.61	1888.78
615.96	1879.19
616.31	1869.72
616.65	1860.33
617.00	1850.61
617.35	1840.89
617.70	1831.05
618.04	1820.96
618.39	1810.59
618.74	1800.99
619.08	1791.51
619.43	1782.88
619.78	1774.60
620.12	1766.04
620.47	1756.31
620.82	1746.06
621.16	1736.32
621.51	1726.39
621.85	1716.50
622.20	1705.94
622.55	1695.34
622.89	1685.58
623.24	1675.96
623.59	1666.18
623.93	1655.88
624.28	1646.12
624.62	1635.88
624.97	1625.56
625.32	1615.85
625.66	1607.18
626.01	1598.31
626.35	1588.79
626.70	1578.66
627.04	1568.48
627.39	1558.33
627.73	1549.04
628.08	1539.99
628.43	1530.35
628.77	1521.12
629.12	1512.30
629.46	1504.60
629.81	1496.03
630.15	1486.26
630.50	1476.33
630.84	1465.83
631.19	1456.15
631.53	1446.66
631.88	1436.54
632.22	1426.56
632.57	1417.13
632.91	1406.84
633.26	1396.94
633.60	1387.40
633.95	1378.12
634.29	1368.71
634.64	1359.19
634.98	1349.32
635.32	1340.06
635.67	1331.49
636.01	1322.14
636.36	1312.40
636.70	1302.76
637.05	1293.50
637.39	1284.54
637.73	1275.90
638.08	1268.23
638.42	1259.79
638.77	1250.98
639.11	1242.74
639.45	1234.87
639.80	1226.17
640.14	1217.41
640.49	1208.55
640.83	1199.73
641.17	1191.64
641.52	1183.39
641.86	1174.88
642.20	1166.91
642.55	1158.18
642.89	1149.39
643.23	1140.76
643.58	1132.66
643.92	1123.61
644.26	1115.01
644.61	1106.51
644.95	1097.76
645.29	1088.47
645.64	1079.41
645.98	1071.10
646.32	1063.12
646.66	1054.69
647.01	1046.28
647.35	1038.13
647.69	1029.73
648.04	1021.37
648.38	1012.40
648.72	1003.58
649.06	995.04
649.41	986.91
649.75	978.97
650.09	971.04
650.43	962.87
650.78	954.58
651.12	947.01
651.46	939.54
651.80	932.38
652.14	925.05
652.49	917.58
652.83	910.26
653.17	902.48
653.51	894.88
653.85	887.66
654.20	880.51
654.54	873.04
654.88	865.94
655.22	858.80
655.56	851.88
655.90	845.13
656.25	838.55
656.59	831.60
656.93	824.65
657.27	817.64
657.61	810.91
657.95	804.92
658.29	799.00
658.64	792.82
658.98	786.35
659.32	779.85
659.66	773.69
660.00	767.40
660.34	761.44
660.68	755.44
661.02	749.18
661.36	743.37
661.70	737.70
662.05	732.01
662.39	726.62
662.73	721.28
663.07	715.95
663.41	710.38
663.75	704.78
664.09	699.22
664.43	693.79
664.77	688.49
665.11	682.59
665.45	676.73
665.79	671.11
666.13	665.52
666.47	660.14
666.81	654.77
667.15	649.49
667.49	644.38
667.83	639.12
668.17	633.87
668.51	628.73
668.85	623.81
669.19	619.03
669.53	614.05
669.87	609.00
670.21	604.36
670.55	599.70
670.89	595.40
671.23	591.15
671.57	586.85
671.91	582.58
672.25	578.60
672.58	574.48
672.92	570.42
673.26	566.52
673.60	562.65
673.94	558.94
674.28	555.35
674.62	551.67
674.96	548.02
675.30	544.57
675.64	541.04
675.97	537.58
676.31	534.01
676.65	530.47
676.99	527.11
677.33	523.33
677.67	519.75
678.01	515.96
678.34	512.39
678.68	508.96
679.02	505.43
679.36	501.76
679.70	498.22
680.04	494.85
680.37	491.49
680.71	488.29
681.05	485.14
681.39	482.03
681.73	478.88
682.06	475.89
682.40	472.83
682.74	469.71
683.08	466.54
683.42	463.41
683.75	460.47
684.09	457.48
684.43	454.72
684.77	451.90
685.10	449.07
685.44	446.20
685.78	443.28
686.12	440.57
686.45	437.92
686.79	435.33
687.13	432.77
687.46	430.25
687.80	427.56
688.14	424.75
688.48	422.15
688.81	419.54
689.15	417.05
689.49	414.54
689.82	411.99
690.16	409.44
690.50	407.06
690.83	404.64
691.17	402.17
691.51	399.82
691.84	397.61
692.18	395.42
692.52	393.25
692.85	391.21
693.19	389.12
693.52	386.99
693.86	384.85
694.20	382.70
694.53	380.59
694.87	378.48
695.21	376.40
695.54	374.28
695.88	372.21
696.21	370.10
696.55	368.06
696.88	366.11
697.22	364.22
697.56	362.36
697.89	360.56
698.23	358.86
698.56	357.10
698.90	355.38
699.23	353.52
699.57	351.68
699.90	349.89
700.24	348.18
700.58	346.50
700.91	344.87
701.25	343.35
701.58	341.79
701.92	340.25
702.25	338.77
702.59	337.16
702.92	335.66
703.26	334.15
703.59	332.73
703.93	331.49
704.26	330.09
704.60	328.63
704.93	327.19
705.26	325.75
705.60	324.30
705.93	322.84
706.27	321.59
706.60	320.40
706.94	319.17
707.27	317.79
707.61	316.46
707.94	315.18
708.27	313.72
708.61	312.35
708.94	311.03
709.28	309.77
709.61	308.60
709.94	307.43
710.28	306.25
710.61	305.06
710.95	303.72
711.28	302.66
711.61	301.50
711.95	300.38
712.28	299.22
712.61	298.08
712.95	297.08
713.28	296.08
713.61	294.95
713.95	293.82
714.28	292.84
714.61	291.85
714.95	290.85
715.28	289.91
715.61	288.88
715.95	287.98
716.28	287.01
716.61	286.11
716.95	285.14
717.28	284.24
717.61	283.36
717.94	282.49
718.28	281.50
718.61	280.70
718.94	279.79
719.27	278.99
719.61	278.21
719.94	277.34
720.27	276.40
720.60	275.61
720.94	274.88
721.27	274.14
721.60	273.44
721.93	272.77
722.27	272.13
722.60	271.52
722.93	270.77
723.26	270.19
723.59	269.53
723.93	268.93
724.26	268.30
724.59	267.65
724.92	267.04
725.25	266.52
725.59	265.98
725.92	265.51
726.25	264.97
726.58	264.44
726.91	263.88
727.24	263.37
727.57	262.83
727.91	262.27
728.24	261.76
728.57	261.21
728.90	260.65
729.23	260.03
729.56	259.59
729.89	259.10
730.22	258.51
730.55	257.97
730.89	257.49
731.22	256.93
731.55	256.44
731.88	255.95
732.21	255.43
732.54	254.89
732.87	254.40
733.20	253.92
733.53	253.43
733.86	253.01
734.19	252.54
734.52	252.12
734.85	251.85
735.18	251.39
735.51	251.02
735.84	250.61
736.17	250.24
736.50	249.74
736.83	249.59
737.16	249.25
737.49	248.86
737.82	248.49
738.15	248.17
738.48	247.80
738.81	247.41
739.14	247.01
739.47	246.68
739.80	246.32
740.13	245.99
740.46	245.61
740.79	245.22
741.12	244.89
741.45	244.56
741.78	244.05
742.11	243.75
742.44	243.36
742.77	243.07
743.10	242.76
743.43	242.44
743.75	241.89
744.08	241.79
744.41	241.45
744.74	241.08
745.07	240.73
745.40	240.46
745.73	240.26
746.06	239.97
746.39	239.66
746.71	239.30
747.04	238.96
747.37	238.67
747.70	238.43
748.03	238.15
748.36	237.86
748.68	237.61
749.01	237.30
749.34	237.06
749.67	236.78
750.00	236.52
750.33	236.43
750.65	236.18
750.98	235.69
751.31	235.46
751.64	235.27
751.97	235.14
752.29	234.87
752.62	234.52
752.95	234.27
753.28	234.02
753.60	233.83
753.93	233.67
754.26	233.45
754.59	233.16
754.91	232.94
755.24	232.71
755.57	232.51
755.90	232.29
756.22	232.06
756.55	231.83
756.88	231.61
757.20	231.29
757.53	231.07
757.86	230.86
758.19	230.68
758.51	230.47
758.84	230.19
759.17	230.00
759.49	229.83
759.82	229.76
760.15	229.58
760.47	229.36
760.80	229.13
761.13	229.02
761.45	228.84
761.78	228.65
762.11	228.49
762.43	228.29
762.76	228.14
763.08	227.99
763.41	227.84
763.74	227.71
764.06	227.52
764.39	227.37
764.71	227.23
765.04	227.04
765.37	226.92
765.69	226.80
766.02	226.69
766.34	226.54
766.67	226.36
767.00	226.29
767.32	226.28
767.65	226.26
767.97	226.11
768.30	226.03
768.62	225.92
768.95	225.78
769.27	225.66
769.60	225.56
769.92	225.40
770.25	225.26
770.57	225.09
770.90	224.97
771.22	224.83
771.55	224.73
771.87	224.65
772.20	224.50
772.52	224.55
772.85	224.70
773.17	224.61
773.50	224.48
773.82	224.33
774.15	224.17
774.47	224.00
774.80	223.89
775.12	223.74
775.45	223.66
775.77	223.58
776.09	223.50
776.42	223.41
776.74	223.41
777.07	223.30
777.39	223.22
777.72	223.13
778.04	223.06
778.36	222.96
778.69	222.88
779.01	222.83
779.33	222.58
779.66	222.25
779.98	222.14
780.31	222.09
780.63	222.10
780.95	222.02
781.28	221.93
781.60	221.84
781.92	221.81
782.25	221.74
782.57	221.66
782.89	221.57
783.22	221.49
783.54	221.38
783.86	221.33
784.19	221.23
784.51	221.23
784.83	221.16
785.16	221.09
785.48	221.03
785.80	220.97
786.12	220.89
