SpectraSuite Data File
++++++++++++++++++++++++++++++++++++
Date: Tue Jan 29 16:13:44 EST 2013
User: group
Dark Spectrum Present: No
Reference Spectrum Present: No
Number of Sampled Component Spectra: 1
Spectrometers: USB2E7196
Integration Time (usec): 65000 (USB2E7196)
Spectra Averaged: 100 (USB2E7196)
Boxcar Smoothing: 10 (USB2E7196)
Correct for Electrical Dark: No (USB2E7196)
Strobe/Lamp Enabled: No (USB2E7196)
Correct for Detector Non-linearity: No (USB2E7196)
Correct for Stray Light: No (USB2E7196)
Number of Pixels in Processed Spectrum: 2048
>>>>>Begin Processed Spectral Data<<<<<
339.09	0.00
339.48	202.39
339.86	204.27
340.24	204.55
340.63	206.99
341.01	211.28
341.39	209.41
341.78	211.26
342.16	212.04
342.54	212.59
342.93	201.69
343.31	211.88
343.69	212.43
344.07	212.89
344.46	213.33
344.84	213.70
345.22	213.90
345.60	214.18
345.99	214.38
346.37	214.52
346.75	214.65
347.13	214.74
347.52	214.81
347.90	214.92
348.28	214.97
348.66	215.00
349.05	215.00
349.43	215.07
349.81	215.14
350.19	215.20
350.57	215.27
350.96	215.36
351.34	215.48
351.72	215.57
352.10	215.69
352.48	215.79
352.87	215.87
353.25	215.91
353.63	215.98
354.01	216.03
354.39	216.14
354.77	216.22
355.15	216.39
355.54	216.42
355.92	216.40
356.30	216.49
356.68	216.71
357.06	216.79
357.44	216.82
357.82	216.86
358.20	216.96
358.58	217.06
358.97	217.11
359.35	217.20
359.73	217.29
360.11	217.32
360.49	217.40
360.87	217.45
361.25	217.49
361.63	217.56
362.01	217.63
362.39	217.65
362.77	217.70
363.15	217.68
363.53	217.73
363.91	217.80
364.29	217.84
364.67	217.68
365.05	217.71
365.43	217.75
365.81	217.80
366.19	217.88
366.57	217.95
366.95	217.96
367.33	217.92
367.71	217.94
368.09	218.00
368.47	218.02
368.85	218.02
369.23	218.08
369.61	218.01
369.99	218.06
370.37	218.08
370.75	218.17
371.13	218.12
371.51	218.07
371.89	218.07
372.27	218.04
372.65	218.02
373.03	217.96
373.41	217.92
373.78	217.84
374.16	217.72
374.54	217.61
374.92	217.56
375.30	217.55
375.68	217.44
376.06	217.41
376.44	217.31
376.82	217.27
377.19	217.24
377.57	217.24
377.95	217.11
378.33	217.02
378.71	216.82
379.09	216.82
379.47	216.80
379.84	216.73
380.22	216.64
380.60	216.57
380.98	216.54
381.36	216.50
381.73	216.43
382.11	216.45
382.49	216.40
382.87	216.33
383.25	216.28
383.62	216.50
384.00	216.46
384.38	216.42
384.76	216.45
385.13	216.45
385.51	216.40
385.89	216.34
386.27	216.30
386.64	216.32
387.02	216.24
387.40	216.17
387.78	216.15
388.15	216.16
388.53	216.13
388.91	216.09
389.29	216.05
389.66	216.07
390.04	216.00
390.42	216.01
390.79	216.01
391.17	215.98
391.55	215.70
391.92	215.65
392.30	215.68
392.68	215.60
393.05	215.59
393.43	215.58
393.81	215.64
394.18	215.59
394.56	215.62
394.94	215.68
395.31	215.67
395.69	215.74
396.06	215.78
396.44	215.81
396.82	215.80
397.19	215.94
397.57	215.94
397.95	216.01
398.32	215.97
398.70	216.01
399.07	216.11
399.45	216.17
399.82	216.23
400.20	216.24
400.58	216.31
400.95	216.28
401.33	216.36
401.70	216.55
402.08	216.68
402.45	216.74
402.83	216.86
403.20	216.98
403.58	217.05
403.95	217.20
404.33	217.36
404.71	217.53
405.08	217.77
405.46	217.95
405.83	218.10
406.21	218.33
406.58	218.57
406.96	218.80
407.33	219.06
407.70	219.33
408.08	219.79
408.45	220.14
408.83	220.52
409.20	220.87
409.58	221.13
409.95	221.58
410.33	222.10
410.70	222.54
411.08	223.09
411.45	223.60
411.82	224.12
412.20	224.76
412.57	225.54
412.95	226.09
413.32	226.87
413.69	227.71
414.07	228.57
414.44	229.51
414.82	230.47
415.19	231.58
415.56	232.75
415.94	233.84
416.31	235.14
416.68	236.48
417.06	238.04
417.43	239.52
417.81	241.19
418.18	242.85
418.55	244.70
418.93	246.61
419.30	248.68
419.67	250.84
420.04	253.03
420.42	255.37
420.79	258.12
421.16	260.80
421.54	263.61
421.91	266.53
422.28	269.53
422.66	272.74
423.03	275.90
423.40	279.11
423.77	282.68
424.15	286.28
424.52	289.96
424.89	294.00
425.26	297.94
425.64	301.68
426.01	305.80
426.38	310.13
426.75	314.53
427.13	319.10
427.50	323.89
427.87	328.95
428.24	333.94
428.61	338.78
428.99	344.15
429.36	349.94
429.73	355.59
430.10	361.31
430.47	367.11
430.85	373.23
431.22	379.72
431.59	386.53
431.96	393.05
432.33	400.33
432.70	407.34
433.08	415.57
433.45	423.40
433.82	431.11
434.19	439.74
434.56	448.26
434.93	456.33
435.30	464.32
435.68	473.12
436.05	481.78
436.42	490.34
436.79	498.19
437.16	506.60
437.53	515.60
437.90	524.37
438.27	533.03
438.64	541.86
439.01	550.09
439.38	557.43
439.75	564.54
440.13	572.64
440.50	580.35
440.87	586.54
441.24	592.87
441.61	600.05
441.98	605.16
442.35	611.23
442.72	617.35
443.09	623.19
443.46	626.76
443.83	629.14
444.20	631.23
444.57	634.25
444.94	635.66
445.31	637.00
445.68	638.34
446.05	638.94
446.42	638.26
446.79	637.28
447.16	636.15
447.53	635.38
447.90	632.17
448.27	628.94
448.64	624.49
449.01	621.37
449.37	615.65
449.74	610.20
450.11	603.48
450.48	596.29
450.85	589.13
451.22	582.91
451.59	577.03
451.96	571.40
452.33	563.78
452.70	556.96
453.07	548.77
453.43	540.47
453.80	532.48
454.17	524.76
454.54	517.61
454.91	509.81
455.28	502.12
455.65	495.03
456.02	487.85
456.38	481.71
456.75	474.10
457.12	467.79
457.49	461.53
457.86	455.60
458.23	450.47
458.59	444.77
458.96	439.00
459.33	433.99
459.70	428.85
460.07	424.78
460.43	420.08
460.80	415.68
461.17	411.84
461.54	407.79
461.91	403.92
462.27	399.89
462.64	396.55
463.01	392.89
463.38	389.24
463.74	385.66
464.11	382.55
464.48	379.82
464.85	376.80
465.21	374.42
465.58	371.87
465.95	368.87
466.32	366.34
466.68	363.84
467.05	361.28
467.42	358.85
467.78	356.24
468.15	353.80
468.52	352.01
468.88	349.61
469.25	347.49
469.62	345.74
469.98	343.91
470.35	342.19
470.72	340.61
471.08	338.97
471.45	337.52
471.82	336.04
472.18	334.44
472.55	333.31
472.92	332.01
473.28	330.87
473.65	329.74
474.02	328.66
474.38	327.78
474.75	327.09
475.11	326.29
475.48	325.81
475.85	325.34
476.21	324.86
476.58	324.57
476.94	324.37
477.31	324.09
477.67	323.82
478.04	323.72
478.41	323.73
478.77	323.89
479.14	323.87
479.50	324.08
479.87	324.39
480.23	324.72
480.60	324.96
480.96	325.23
481.33	325.83
481.69	326.40
482.06	326.95
482.42	327.44
482.79	328.10
483.15	328.88
483.52	329.86
483.88	330.73
484.25	331.67
484.61	332.67
484.98	333.70
485.34	335.04
485.71	336.40
486.07	337.86
486.44	339.18
486.80	340.76
487.17	342.38
487.53	344.19
487.90	346.04
488.26	348.10
488.62	350.28
488.99	352.33
489.35	354.51
489.72	356.89
490.08	359.38
490.44	361.91
490.81	364.63
491.17	367.37
491.54	370.38
491.90	373.40
492.26	376.66
492.63	380.10
492.99	383.59
493.36	387.21
493.72	391.04
494.08	395.05
494.45	399.26
494.81	403.61
495.17	408.03
495.54	412.75
495.90	417.55
496.26	422.44
496.63	427.57
496.99	432.99
497.35	438.52
497.72	444.32
498.08	450.26
498.44	456.31
498.80	462.67
499.17	469.09
499.53	475.81
499.89	482.66
500.26	489.57
500.62	496.61
500.98	503.98
501.34	511.42
501.71	519.12
502.07	526.86
502.43	534.80
502.79	542.88
503.16	551.16
503.52	559.66
503.88	568.32
504.24	577.28
504.60	586.26
504.97	595.41
505.33	604.70
505.69	614.47
506.05	624.23
506.41	634.03
506.78	644.06
507.14	654.22
507.50	664.60
507.86	675.21
508.22	685.86
508.59	696.46
508.95	707.40
509.31	718.55
509.67	729.90
510.03	741.28
510.39	753.03
510.75	764.77
511.12	776.64
511.48	788.61
511.84	800.73
512.20	812.92
512.56	825.44
512.92	838.06
513.28	850.51
513.64	863.17
514.00	875.89
514.37	888.72
514.73	901.60
515.09	914.40
515.45	927.10
515.81	940.12
516.17	953.34
516.53	966.39
516.89	979.27
517.25	992.28
517.61	1005.63
517.97	1018.74
518.33	1031.75
518.69	1045.05
519.05	1058.62
519.41	1072.09
519.77	1085.71
520.13	1098.88
520.49	1111.81
520.85	1125.09
521.21	1138.16
521.57	1151.52
521.93	1164.35
522.29	1177.98
522.65	1191.37
523.01	1204.73
523.37	1217.59
523.73	1230.65
524.09	1243.58
524.45	1256.79
524.81	1270.05
525.17	1283.25
525.53	1296.12
525.89	1309.13
526.25	1321.88
526.61	1334.29
526.97	1347.02
527.33	1359.60
527.68	1372.79
528.04	1385.94
528.40	1398.70
528.76	1411.77
529.12	1424.38
529.48	1437.42
529.84	1449.20
530.20	1461.71
530.56	1474.09
530.91	1486.93
531.27	1499.43
531.63	1511.83
531.99	1524.28
532.35	1536.26
532.71	1548.11
533.07	1560.76
533.42	1572.64
533.78	1584.57
534.14	1596.42
534.50	1607.35
534.86	1618.63
535.21	1629.02
535.57	1640.10
535.93	1651.07
536.29	1661.86
536.65	1672.98
537.00	1683.63
537.36	1694.85
537.72	1705.52
538.08	1716.63
538.44	1727.23
538.79	1737.94
539.15	1748.42
539.51	1758.80
539.87	1769.73
540.22	1780.22
540.58	1790.73
540.94	1801.28
541.29	1811.26
541.65	1820.78
542.01	1831.13
542.37	1841.02
542.72	1850.96
543.08	1860.66
543.44	1870.79
543.79	1879.82
544.15	1888.87
544.51	1898.53
544.87	1908.03
545.22	1916.83
545.58	1925.41
545.94	1934.16
546.29	1942.52
546.65	1950.73
547.01	1958.78
547.36	1966.26
547.72	1973.74
548.07	1981.16
548.43	1988.55
548.79	1996.11
549.14	2004.02
549.50	2011.98
549.86	2019.48
550.21	2026.66
550.57	2034.03
550.92	2040.68
551.28	2047.87
551.64	2055.01
551.99	2062.29
552.35	2069.28
552.70	2075.96
553.06	2082.45
553.41	2088.47
553.77	2094.76
554.13	2100.92
554.48	2107.76
554.84	2114.58
555.19	2121.09
555.55	2127.41
555.90	2133.71
556.26	2140.37
556.61	2146.13
556.97	2151.03
557.32	2156.81
557.68	2163.12
558.03	2168.63
558.39	2173.74
558.74	2179.59
559.10	2185.20
559.45	2190.69
559.81	2196.15
560.16	2201.61
560.52	2207.43
560.87	2213.86
561.23	2219.83
561.58	2226.48
561.94	2231.65
562.29	2236.45
562.64	2242.52
563.00	2248.02
563.35	2253.54
563.71	2259.35
564.06	2265.01
564.42	2270.91
564.77	2276.15
565.12	2281.30
565.48	2286.52
565.83	2292.09
566.19	2297.58
566.54	2302.90
566.89	2307.63
567.25	2312.22
567.60	2317.99
567.96	2323.12
568.31	2327.63
568.66	2331.69
569.02	2335.69
569.37	2339.51
569.72	2343.97
570.08	2347.59
570.43	2350.81
570.78	2353.94
571.14	2356.48
571.49	2359.75
571.84	2363.31
572.20	2366.04
572.55	2369.29
572.90	2371.49
573.26	2374.57
573.61	2377.15
573.96	2379.29
574.31	2381.21
574.67	2383.26
575.02	2384.33
575.37	2385.84
575.72	2386.81
576.08	2388.55
576.43	2388.73
576.78	2389.40
577.13	2391.24
577.49	2392.38
577.84	2393.78
578.19	2395.36
578.54	2396.16
578.90	2397.19
579.25	2397.21
579.60	2397.41
579.95	2396.80
580.30	2397.29
580.66	2396.50
581.01	2394.89
581.36	2392.86
581.71	2391.68
582.06	2390.73
582.42	2390.01
582.77	2388.19
583.12	2386.78
583.47	2385.68
583.82	2385.37
584.17	2384.29
584.53	2382.04
584.88	2380.11
585.23	2378.34
585.58	2376.19
585.93	2374.29
586.28	2372.15
586.63	2369.94
586.98	2367.91
587.34	2366.13
587.69	2363.90
588.04	2362.07
588.39	2360.92
588.74	2358.55
589.09	2356.03
589.44	2353.15
589.79	2350.82
590.14	2348.93
590.49	2346.08
590.84	2342.39
591.19	2339.50
591.54	2336.36
591.89	2332.58
592.25	2329.55
592.60	2325.44
592.95	2321.49
593.30	2317.43
593.65	2313.23
594.00	2309.06
594.35	2306.18
594.70	2301.61
595.05	2297.34
595.40	2292.22
595.75	2286.73
596.10	2283.19
596.45	2278.50
596.80	2274.07
597.15	2268.96
597.50	2263.11
597.85	2258.31
598.19	2253.12
598.54	2247.37
598.89	2242.32
599.24	2237.91
599.59	2231.73
599.94	2226.09
600.29	2220.42
600.64	2214.69
600.99	2208.11
601.34	2202.78
601.69	2195.83
602.04	2189.54
602.39	2182.96
602.74	2176.96
603.08	2171.55
603.43	2165.08
603.78	2158.42
604.13	2151.32
604.48	2144.23
604.83	2138.19
605.18	2131.91
605.53	2125.10
605.87	2118.14
606.22	2111.47
606.57	2103.59
606.92	2095.88
607.27	2089.07
607.62	2082.32
607.96	2075.33
608.31	2068.97
608.66	2061.23
609.01	2053.80
609.36	2046.79
609.70	2039.15
610.05	2031.55
610.40	2023.29
610.75	2015.16
611.10	2007.54
611.44	1998.81
611.79	1990.12
612.14	1980.27
612.49	1969.92
612.83	1960.83
613.18	1951.80
613.53	1942.52
613.88	1933.10
614.22	1924.53
614.57	1914.69
614.92	1904.35
615.27	1894.48
615.61	1884.51
615.96	1874.86
616.31	1865.25
616.65	1856.00
617.00	1846.18
617.35	1836.47
617.70	1826.84
618.04	1816.87
618.39	1806.59
618.74	1796.93
619.08	1787.36
619.43	1778.69
619.78	1770.52
620.12	1761.78
620.47	1752.12
620.82	1741.83
621.16	1732.08
621.51	1722.17
621.85	1712.18
622.20	1701.65
622.55	1690.83
622.89	1680.93
623.24	1671.21
623.59	1661.60
623.93	1651.43
624.28	1641.70
624.62	1631.58
624.97	1621.34
625.32	1611.67
625.66	1602.94
626.01	1594.23
626.35	1584.88
626.70	1574.88
627.04	1564.74
627.39	1554.79
627.73	1545.52
628.08	1536.55
628.43	1526.91
628.77	1517.85
629.12	1509.16
629.46	1501.35
629.81	1493.05
630.15	1483.48
630.50	1473.75
630.84	1463.21
631.19	1453.35
631.53	1444.01
631.88	1433.82
632.22	1423.80
632.57	1414.41
632.91	1404.24
633.26	1394.36
633.60	1384.81
633.95	1375.48
634.29	1366.10
634.64	1356.74
634.98	1346.91
635.32	1337.54
635.67	1329.12
636.01	1319.85
636.36	1310.07
636.70	1300.63
637.05	1291.18
637.39	1282.27
637.73	1273.71
638.08	1266.19
638.42	1257.95
638.77	1249.17
639.11	1241.14
639.45	1233.35
639.80	1224.69
640.14	1216.08
640.49	1207.33
640.83	1198.48
641.17	1190.44
641.52	1182.23
641.86	1173.61
642.20	1165.77
642.55	1157.24
642.89	1148.45
643.23	1139.74
643.58	1131.73
643.92	1122.70
644.26	1114.26
644.61	1105.83
644.95	1097.14
645.29	1087.90
645.64	1078.83
645.98	1070.53
646.32	1062.47
646.66	1053.92
647.01	1045.73
647.35	1037.61
647.69	1029.25
648.04	1021.00
648.38	1012.01
648.72	1003.32
649.06	994.93
649.41	986.79
649.75	978.90
650.09	971.06
650.43	963.08
650.78	954.81
651.12	947.20
651.46	939.88
651.80	932.59
652.14	925.23
652.49	917.85
652.83	910.51
653.17	902.80
653.51	895.27
653.85	888.13
654.20	880.94
654.54	873.53
654.88	866.41
655.22	859.38
655.56	852.55
655.90	845.80
656.25	839.23
656.59	832.27
656.93	825.36
657.27	818.26
657.61	811.43
657.95	805.43
658.29	799.60
658.64	793.39
658.98	787.01
659.32	780.60
659.66	774.37
660.00	768.12
660.34	762.19
660.68	756.12
661.02	749.90
661.36	744.00
661.70	738.32
662.05	732.67
662.39	727.11
662.73	721.79
663.07	716.40
663.41	710.85
663.75	705.28
664.09	699.68
664.43	694.37
664.77	689.06
665.11	683.28
665.45	677.38
665.79	671.67
666.13	666.12
666.47	660.58
666.81	655.22
667.15	649.98
667.49	644.77
667.83	639.64
668.17	634.51
668.51	629.38
668.85	624.57
669.19	619.82
669.53	614.98
669.87	609.94
670.21	605.38
670.55	600.76
670.89	596.45
671.23	592.21
671.57	587.93
671.91	583.80
672.25	579.78
672.58	575.82
672.92	571.85
673.26	568.01
673.60	564.30
673.94	560.64
674.28	557.04
674.62	553.39
674.96	549.69
675.30	546.18
675.64	542.69
675.97	539.04
676.31	535.45
676.65	531.89
676.99	528.49
677.33	524.68
677.67	521.06
678.01	517.25
678.34	513.66
678.68	510.23
679.02	506.60
679.36	502.96
679.70	499.29
680.04	495.78
680.37	492.35
680.71	489.05
681.05	485.83
681.39	482.70
681.73	479.62
682.06	476.67
682.40	473.64
682.74	470.51
683.08	467.38
683.42	464.27
683.75	461.27
684.09	458.30
684.43	455.52
684.77	452.67
685.10	449.90
685.44	447.04
685.78	444.12
686.12	441.45
686.45	438.77
686.79	436.15
687.13	433.73
687.46	431.19
687.80	428.56
688.14	425.77
688.48	423.21
688.81	420.59
689.15	418.04
689.49	415.50
689.82	412.97
690.16	410.46
690.50	408.02
690.83	405.67
691.17	403.21
691.51	400.81
691.84	398.61
692.18	396.44
692.52	394.24
692.85	392.14
693.19	390.01
693.52	387.88
693.86	385.75
694.20	383.57
694.53	381.48
694.87	379.40
695.21	377.35
695.54	375.22
695.88	373.09
696.21	370.96
696.55	368.89
696.88	366.92
697.22	364.98
697.56	363.17
697.89	361.28
698.23	359.55
698.56	357.79
698.90	356.02
699.23	354.13
699.57	352.35
699.90	350.56
700.24	348.77
700.58	347.00
700.91	345.41
701.25	343.87
701.58	342.29
701.92	340.72
702.25	339.16
702.59	337.52
702.92	336.05
703.26	334.52
703.59	333.08
703.93	331.84
704.26	330.46
704.60	328.98
704.93	327.51
705.26	326.09
705.60	324.69
705.93	323.24
706.27	321.94
706.60	320.72
706.94	319.49
707.27	318.15
707.61	316.89
707.94	315.56
708.27	314.12
708.61	312.70
708.94	311.35
709.28	310.09
709.61	308.93
709.94	307.74
710.28	306.55
710.61	305.41
710.95	304.04
711.28	303.00
711.61	301.85
711.95	300.80
712.28	299.63
712.61	298.47
712.95	297.45
713.28	296.47
713.61	295.31
713.95	294.20
714.28	293.21
714.61	292.18
714.95	291.21
715.28	290.15
715.61	289.19
715.95	288.25
716.28	287.32
716.61	286.38
716.95	285.43
717.28	284.55
717.61	283.61
717.94	282.73
718.28	281.66
718.61	280.80
718.94	279.90
719.27	279.05
719.61	278.27
719.94	277.39
720.27	276.44
720.60	275.65
720.94	274.87
721.27	274.16
721.60	273.53
721.93	272.83
722.27	272.26
722.60	271.61
722.93	270.94
723.26	270.30
723.59	269.64
723.93	269.01
724.26	268.36
724.59	267.74
724.92	267.16
725.25	266.71
725.59	266.15
725.92	265.62
726.25	265.07
726.58	264.51
726.91	263.96
727.24	263.47
727.57	262.90
727.91	262.32
728.24	261.79
728.57	261.15
728.90	260.59
729.23	259.99
729.56	259.56
729.89	259.03
730.22	258.49
730.55	257.95
730.89	257.42
731.22	256.91
731.55	256.41
731.88	255.86
732.21	255.27
732.54	254.76
732.87	254.29
733.20	253.86
733.53	253.39
733.86	252.95
734.19	252.46
734.52	252.07
734.85	251.80
735.18	251.33
735.51	251.02
735.84	250.60
736.17	250.21
736.50	249.68
736.83	249.53
737.16	249.17
737.49	248.82
737.82	248.45
738.15	248.11
738.48	247.73
738.81	247.34
739.14	246.97
739.47	246.60
739.80	246.24
740.13	245.90
740.46	245.51
740.79	245.10
741.12	244.74
741.45	244.37
741.78	243.93
742.11	243.67
742.44	243.30
742.77	243.02
743.10	242.70
743.43	242.37
743.75	241.80
744.08	241.70
744.41	241.36
744.74	241.02
745.07	240.63
745.40	240.35
745.73	240.14
746.06	239.87
746.39	239.58
746.71	239.18
747.04	238.85
747.37	238.53
747.70	238.29
748.03	238.00
748.36	237.74
748.68	237.46
749.01	237.10
749.34	236.80
749.67	236.53
750.00	236.27
750.33	236.17
750.65	235.93
750.98	235.43
751.31	235.19
751.64	234.94
751.97	234.84
752.29	234.57
752.62	234.25
752.95	233.99
753.28	233.73
753.60	233.51
753.93	233.36
754.26	233.17
754.59	232.89
754.91	232.66
755.24	232.43
755.57	232.20
755.90	231.97
756.22	231.73
756.55	231.47
756.88	231.23
757.20	230.87
757.53	230.65
757.86	230.44
758.19	230.23
758.51	230.03
758.84	229.74
759.17	229.55
759.49	229.37
759.82	229.27
760.15	229.11
760.47	228.93
760.80	228.67
761.13	228.54
761.45	228.39
761.78	228.22
762.11	228.04
762.43	227.84
762.76	227.65
763.08	227.49
763.41	227.36
763.74	227.21
764.06	227.08
764.39	226.93
764.71	226.78
765.04	226.63
765.37	226.47
765.69	226.30
766.02	226.18
766.34	226.04
766.67	225.84
767.00	225.72
767.32	225.70
767.65	225.68
767.97	225.53
768.30	225.41
768.62	225.27
768.95	225.16
769.27	225.07
769.60	225.01
769.92	224.86
770.25	224.70
770.57	224.59
770.90	224.45
771.22	224.32
771.55	224.23
771.87	224.15
772.20	224.04
772.52	224.13
772.85	224.27
773.17	224.15
773.50	224.04
773.82	223.92
774.15	223.76
774.47	223.51
774.80	223.38
775.12	223.29
775.45	223.20
775.77	223.09
776.09	222.99
776.42	222.88
776.74	222.86
777.07	222.76
777.39	222.67
777.72	222.60
778.04	222.55
778.36	222.44
778.69	222.32
779.01	222.28
779.33	222.03
779.66	221.70
779.98	221.61
780.31	221.58
780.63	221.57
780.95	221.51
781.28	221.47
781.60	221.40
781.92	221.32
782.25	221.27
782.57	221.23
782.89	221.17
783.22	221.13
783.54	221.02
783.86	220.96
784.19	220.89
784.51	220.87
784.83	220.76
785.16	220.71
785.48	220.67
785.80	220.61
786.12	220.57
