SpectraSuite Data File
++++++++++++++++++++++++++++++++++++
Date: Tue Jan 29 16:04:08 EST 2013
User: group
Dark Spectrum Present: No
Reference Spectrum Present: No
Number of Sampled Component Spectra: 1
Spectrometers: USB2E7196
Integration Time (usec): 65000 (USB2E7196)
Spectra Averaged: 100 (USB2E7196)
Boxcar Smoothing: 10 (USB2E7196)
Correct for Electrical Dark: No (USB2E7196)
Strobe/Lamp Enabled: No (USB2E7196)
Correct for Detector Non-linearity: No (USB2E7196)
Correct for Stray Light: No (USB2E7196)
Number of Pixels in Processed Spectrum: 2048
>>>>>Begin Processed Spectral Data<<<<<
339.09	0.00
339.48	202.98
339.86	204.42
340.24	205.14
340.63	206.66
341.01	211.32
341.39	208.76
341.78	211.80
342.16	212.19
342.54	212.53
342.93	201.70
343.31	211.90
343.69	212.42
344.07	212.87
344.46	213.33
344.84	213.75
345.22	213.94
345.60	214.26
345.99	214.43
346.37	214.59
346.75	214.71
347.13	214.83
347.52	214.90
347.90	215.02
348.28	215.07
348.66	215.16
349.05	215.14
349.43	215.23
349.81	215.30
350.19	215.39
350.57	215.44
350.96	215.54
351.34	215.65
351.72	215.75
352.10	215.87
352.48	215.95
352.87	215.98
353.25	216.02
353.63	216.06
354.01	216.10
354.39	216.18
354.77	216.27
355.15	216.40
355.54	216.46
355.92	216.45
356.30	216.54
356.68	216.71
357.06	216.79
357.44	216.80
357.82	216.85
358.20	216.96
358.58	217.05
358.97	217.09
359.35	217.20
359.73	217.28
360.11	217.30
360.49	217.35
360.87	217.41
361.25	217.51
361.63	217.60
362.01	217.68
362.39	217.70
362.77	217.75
363.15	217.74
363.53	217.75
363.91	217.80
364.29	217.86
364.67	217.70
365.05	217.77
365.43	217.80
365.81	217.85
366.19	217.91
366.57	217.99
366.95	218.03
367.33	217.97
367.71	217.95
368.09	218.00
368.47	218.02
368.85	218.01
369.23	218.04
369.61	217.99
369.99	218.03
370.37	218.04
370.75	218.11
371.13	218.07
371.51	218.04
371.89	218.04
372.27	218.00
372.65	218.03
373.03	217.95
373.41	217.90
373.78	217.86
374.16	217.75
374.54	217.66
374.92	217.59
375.30	217.53
375.68	217.48
376.06	217.49
376.44	217.43
376.82	217.39
377.19	217.34
377.57	217.33
377.95	217.21
378.33	217.13
378.71	216.96
379.09	216.93
379.47	216.93
379.84	216.89
380.22	216.82
380.60	216.73
380.98	216.70
381.36	216.65
381.73	216.60
382.11	216.60
382.49	216.55
382.87	216.48
383.25	216.45
383.62	216.68
384.00	216.54
384.38	216.48
384.76	216.51
385.13	216.55
385.51	216.47
385.89	216.43
386.27	216.46
386.64	216.44
387.02	216.40
387.40	216.37
387.78	216.34
388.15	216.32
388.53	216.26
388.91	216.23
389.29	216.20
389.66	216.18
390.04	216.12
390.42	216.15
390.79	216.15
391.17	216.17
391.55	215.93
391.92	215.95
392.30	215.96
392.68	215.91
393.05	215.87
393.43	215.89
393.81	215.88
394.18	215.85
394.56	215.86
394.94	215.92
395.31	215.89
395.69	215.98
396.06	216.03
396.44	216.07
396.82	216.07
397.19	216.21
397.57	216.23
397.95	216.31
398.32	216.25
398.70	216.35
399.07	216.41
399.45	216.43
399.82	216.44
400.20	216.51
400.58	216.54
400.95	216.55
401.33	216.67
401.70	216.93
402.08	217.03
402.45	217.11
402.83	217.27
403.20	217.37
403.58	217.43
403.95	217.58
404.33	217.74
404.71	217.89
405.08	218.14
405.46	218.31
405.83	218.48
406.21	218.69
406.58	218.87
406.96	219.07
407.33	219.32
407.70	219.65
408.08	220.09
408.45	220.45
408.83	220.84
409.20	221.13
409.58	221.39
409.95	221.83
410.33	222.30
410.70	222.68
411.08	223.22
411.45	223.76
411.82	224.29
412.20	224.95
412.57	225.75
412.95	226.26
413.32	227.06
413.69	227.90
414.07	228.78
414.44	229.70
414.82	230.67
415.19	231.84
415.56	232.94
415.94	234.08
416.31	235.42
416.68	236.75
417.06	238.27
417.43	239.74
417.81	241.36
418.18	243.07
418.55	244.92
418.93	246.87
419.30	248.94
419.67	251.12
420.04	253.35
420.42	255.61
420.79	258.36
421.16	261.06
421.54	263.84
421.91	266.70
422.28	269.73
422.66	272.93
423.03	276.05
423.40	279.30
423.77	282.77
424.15	286.28
424.52	289.98
424.89	294.00
425.26	297.96
425.64	301.77
426.01	305.94
426.38	310.29
426.75	314.64
427.13	319.18
427.50	323.96
427.87	329.00
428.24	334.04
428.61	338.88
428.99	344.17
429.36	349.96
429.73	355.75
430.10	361.43
430.47	367.29
430.85	373.41
431.22	379.93
431.59	386.82
431.96	393.44
432.33	400.71
432.70	407.75
433.08	415.95
433.45	423.71
433.82	431.40
434.19	439.98
434.56	448.40
434.93	456.50
435.30	464.47
435.68	473.25
436.05	481.95
436.42	490.49
436.79	498.32
437.16	506.75
437.53	515.60
437.90	524.44
438.27	533.07
438.64	542.02
439.01	550.21
439.38	557.51
439.75	564.59
440.13	572.70
440.50	580.38
440.87	586.53
441.24	592.95
441.61	600.04
441.98	605.22
442.35	611.34
442.72	617.37
443.09	623.23
443.46	626.72
443.83	629.02
444.20	631.08
444.57	634.10
444.94	635.47
445.31	636.86
445.68	638.12
446.05	638.67
446.42	637.80
446.79	636.82
447.16	635.73
447.53	634.95
447.90	631.69
448.27	628.47
448.64	624.05
449.01	620.80
449.37	615.11
449.74	609.57
450.11	602.92
450.48	595.77
450.85	588.49
451.22	582.31
451.59	576.45
451.96	570.85
452.33	563.30
452.70	556.53
453.07	548.37
453.43	540.09
453.80	532.11
454.17	524.45
454.54	517.19
454.91	509.34
455.28	501.65
455.65	494.57
456.02	487.36
456.38	481.27
456.75	473.70
457.12	467.38
457.49	461.15
457.86	455.22
458.23	450.10
458.59	444.41
458.96	438.67
459.33	433.61
459.70	428.44
460.07	424.36
460.43	419.63
460.80	415.25
461.17	411.40
461.54	407.41
461.91	403.54
462.27	399.59
462.64	396.26
463.01	392.62
463.38	389.00
463.74	385.43
464.11	382.31
464.48	379.57
464.85	376.59
465.21	374.19
465.58	371.60
465.95	368.54
466.32	366.08
466.68	363.56
467.05	361.05
467.42	358.64
467.78	356.10
468.15	353.64
468.52	351.81
468.88	349.42
469.25	347.29
469.62	345.54
469.98	343.71
470.35	341.98
470.72	340.41
471.08	338.69
471.45	337.28
471.82	335.85
472.18	334.27
472.55	333.14
472.92	331.86
473.28	330.76
473.65	329.72
474.02	328.68
474.38	327.86
474.75	327.15
475.11	326.37
475.48	325.80
475.85	325.32
476.21	324.83
476.58	324.54
476.94	324.31
477.31	324.07
477.67	323.85
478.04	323.72
478.41	323.68
478.77	323.93
479.14	323.89
479.50	323.99
479.87	324.29
480.23	324.64
480.60	324.89
480.96	325.22
481.33	325.82
481.69	326.38
482.06	326.94
482.42	327.44
482.79	328.08
483.15	328.93
483.52	329.92
483.88	330.83
484.25	331.78
484.61	332.80
484.98	333.87
485.34	335.17
485.71	336.54
486.07	337.94
486.44	339.21
486.80	340.84
487.17	342.54
487.53	344.37
487.90	346.23
488.26	348.26
488.62	350.38
488.99	352.41
489.35	354.55
489.72	356.89
490.08	359.40
490.44	361.98
490.81	364.64
491.17	367.36
491.54	370.32
491.90	373.34
492.26	376.54
492.63	379.93
492.99	383.40
493.36	387.07
493.72	390.93
494.08	394.94
494.45	399.14
494.81	403.52
495.17	407.95
495.54	412.62
495.90	417.49
496.26	422.37
496.63	427.54
496.99	432.92
497.35	438.45
497.72	444.25
498.08	450.15
498.44	456.21
498.80	462.60
499.17	469.06
499.53	475.74
499.89	482.64
500.26	489.51
500.62	496.57
500.98	503.89
501.34	511.33
501.71	519.06
502.07	526.84
502.43	534.82
502.79	542.93
503.16	551.32
503.52	559.85
503.88	568.55
504.24	577.58
504.60	586.62
504.97	595.90
505.33	605.17
505.69	615.07
506.05	624.99
506.41	634.83
506.78	644.90
507.14	655.10
507.50	665.48
507.86	676.20
508.22	686.97
508.59	697.62
508.95	708.65
509.31	719.79
509.67	731.22
510.03	742.61
510.39	754.34
510.75	766.15
511.12	778.00
511.48	790.03
511.84	802.10
512.20	814.42
512.56	826.92
512.92	839.62
513.28	852.03
513.64	864.56
514.00	877.27
514.37	890.13
514.73	903.15
515.09	916.06
515.45	928.81
515.81	941.71
516.17	955.00
516.53	968.11
516.89	981.08
517.25	994.11
517.61	1007.46
517.97	1020.68
518.33	1033.64
518.69	1047.09
519.05	1060.69
519.41	1074.15
519.77	1087.86
520.13	1100.92
520.49	1113.98
520.85	1127.23
521.21	1140.46
521.57	1153.93
521.93	1166.82
522.29	1180.34
522.65	1193.86
523.01	1207.30
523.37	1220.30
523.73	1233.31
524.09	1246.24
524.45	1259.47
524.81	1272.72
525.17	1285.80
525.53	1298.72
525.89	1311.85
526.25	1324.73
526.61	1337.23
526.97	1350.01
527.33	1362.65
527.68	1375.87
528.04	1388.95
528.40	1401.75
528.76	1414.81
529.12	1427.34
529.48	1440.35
529.84	1452.43
530.20	1464.75
530.56	1477.11
530.91	1490.01
531.27	1502.64
531.63	1515.21
531.99	1527.68
532.35	1539.69
532.71	1551.68
533.07	1564.24
533.42	1576.04
533.78	1587.71
534.14	1599.45
534.50	1610.44
534.86	1621.74
535.21	1632.36
535.57	1643.58
535.93	1654.66
536.29	1665.44
536.65	1676.65
537.00	1687.42
537.36	1698.44
537.72	1709.14
538.08	1720.18
538.44	1730.93
538.79	1741.60
539.15	1751.99
539.51	1762.39
539.87	1773.25
540.22	1783.88
540.58	1794.36
540.94	1804.89
541.29	1814.88
541.65	1824.45
542.01	1834.91
542.37	1844.73
542.72	1854.62
543.08	1864.18
543.44	1874.29
543.79	1883.41
544.15	1892.57
544.51	1902.15
544.87	1911.68
545.22	1920.60
545.58	1929.26
545.94	1937.75
546.29	1946.09
546.65	1954.37
547.01	1962.42
547.36	1969.93
547.72	1977.33
548.07	1984.79
548.43	1992.35
548.79	1999.98
549.14	2007.85
549.50	2015.91
549.86	2023.40
550.21	2030.55
550.57	2037.89
550.92	2044.45
551.28	2051.67
551.64	2058.86
551.99	2066.16
552.35	2073.24
552.70	2079.88
553.06	2086.28
553.41	2092.38
553.77	2098.75
554.13	2104.85
554.48	2111.74
554.84	2118.71
555.19	2125.20
555.55	2131.60
555.90	2137.84
556.26	2144.53
556.61	2150.33
556.97	2155.07
557.32	2160.92
557.68	2167.29
558.03	2172.95
558.39	2178.20
558.74	2183.96
559.10	2189.53
559.45	2195.06
559.81	2200.40
560.16	2205.97
560.52	2211.75
560.87	2218.23
561.23	2224.26
561.58	2230.98
561.94	2236.21
562.29	2241.03
562.64	2247.25
563.00	2252.81
563.35	2258.34
563.71	2264.23
564.06	2269.93
564.42	2275.77
564.77	2280.82
565.12	2285.94
565.48	2291.21
565.83	2296.73
566.19	2302.50
566.54	2307.82
566.89	2312.51
567.25	2317.18
567.60	2322.92
567.96	2328.25
568.31	2332.79
568.66	2336.89
569.02	2340.70
569.37	2344.43
569.72	2348.77
570.08	2352.27
570.43	2355.56
570.78	2358.73
571.14	2361.32
571.49	2364.64
571.84	2368.32
572.20	2371.26
572.55	2374.58
572.90	2376.84
573.26	2379.91
573.61	2382.26
573.96	2384.46
574.31	2386.58
574.67	2388.58
575.02	2389.66
575.37	2391.24
575.72	2392.23
576.08	2393.94
576.43	2394.32
576.78	2395.18
577.13	2397.15
577.49	2398.37
577.84	2399.81
578.19	2401.50
578.54	2402.34
578.90	2403.47
579.25	2403.64
579.60	2404.04
579.95	2403.46
580.30	2404.03
580.66	2403.45
581.01	2402.08
581.36	2400.09
581.71	2398.88
582.06	2398.13
582.42	2397.45
582.77	2395.56
583.12	2394.12
583.47	2392.97
583.82	2392.65
584.17	2391.56
584.53	2389.38
584.88	2387.45
585.23	2385.63
585.58	2383.46
585.93	2381.45
586.28	2379.52
586.63	2377.39
586.98	2375.11
587.34	2373.50
587.69	2371.35
588.04	2369.66
588.39	2368.36
588.74	2366.15
589.09	2363.89
589.44	2360.95
589.79	2358.82
590.14	2357.13
590.49	2354.53
590.84	2351.03
591.19	2348.31
591.54	2345.10
591.89	2341.37
592.25	2338.40
592.60	2334.26
592.95	2330.24
593.30	2326.31
593.65	2321.90
594.00	2317.52
594.35	2314.73
594.70	2309.97
595.05	2305.35
595.40	2299.90
595.75	2294.57
596.10	2290.95
596.45	2286.10
596.80	2281.65
597.15	2276.34
597.50	2270.46
597.85	2265.49
598.19	2260.38
598.54	2254.61
598.89	2249.73
599.24	2245.22
599.59	2239.22
599.94	2233.61
600.29	2227.80
600.64	2221.88
600.99	2215.40
601.34	2210.12
601.69	2203.20
602.04	2197.02
602.39	2190.63
602.74	2184.74
603.08	2179.24
603.43	2172.92
603.78	2166.10
604.13	2159.04
604.48	2151.98
604.83	2146.05
605.18	2139.97
605.53	2132.96
605.87	2125.99
606.22	2119.26
606.57	2111.44
606.92	2103.62
607.27	2096.78
607.62	2090.24
607.96	2083.33
608.31	2076.74
608.66	2069.04
609.01	2061.51
609.36	2054.51
609.70	2046.74
610.05	2039.07
610.40	2030.83
610.75	2022.40
611.10	2014.88
611.44	2006.16
611.79	1997.48
612.14	1987.40
612.49	1977.03
612.83	1967.91
613.18	1958.82
613.53	1949.38
613.88	1939.88
614.22	1931.43
614.57	1921.52
614.92	1911.09
615.27	1901.13
615.61	1891.26
615.96	1881.74
616.31	1872.21
616.65	1862.85
617.00	1853.15
617.35	1843.37
617.70	1833.59
618.04	1823.58
618.39	1813.07
618.74	1803.42
619.08	1793.88
619.43	1785.15
619.78	1776.79
620.12	1768.08
620.47	1758.25
620.82	1748.04
621.16	1738.27
621.51	1728.09
621.85	1718.26
622.20	1707.69
622.55	1696.93
622.89	1686.97
623.24	1677.15
623.59	1667.45
623.93	1657.30
624.28	1647.57
624.62	1637.55
624.97	1627.32
625.32	1617.73
625.66	1609.10
626.01	1600.16
626.35	1590.70
626.70	1580.53
627.04	1570.43
627.39	1560.38
627.73	1551.10
628.08	1541.97
628.43	1532.38
628.77	1523.32
629.12	1514.54
629.46	1506.72
629.81	1498.39
630.15	1488.72
630.50	1478.84
630.84	1468.32
631.19	1458.33
631.53	1448.81
631.88	1438.49
632.22	1428.38
632.57	1418.96
632.91	1408.81
633.26	1399.03
633.60	1389.44
633.95	1380.25
634.29	1370.92
634.64	1361.47
634.98	1351.60
635.32	1342.39
635.67	1333.83
636.01	1324.54
636.36	1314.68
636.70	1305.10
637.05	1295.84
637.39	1286.91
637.73	1278.24
638.08	1270.71
638.42	1262.45
638.77	1253.69
639.11	1245.53
639.45	1237.69
639.80	1229.06
640.14	1220.26
640.49	1211.34
640.83	1202.49
641.17	1194.22
641.52	1185.83
641.86	1177.22
642.20	1169.36
642.55	1160.73
642.89	1151.91
643.23	1143.06
643.58	1134.92
643.92	1125.90
644.26	1117.13
644.61	1108.78
644.95	1100.06
645.29	1090.69
645.64	1081.64
645.98	1073.30
646.32	1065.37
646.66	1056.80
647.01	1048.45
647.35	1040.37
647.69	1032.00
648.04	1023.75
648.38	1014.90
648.72	1006.20
649.06	997.72
649.41	989.46
649.75	981.47
650.09	973.56
650.43	965.56
650.78	957.34
651.12	949.70
651.46	942.32
651.80	935.01
652.14	927.62
652.49	920.08
652.83	912.71
653.17	904.94
653.51	897.33
653.85	890.10
654.20	882.83
654.54	875.24
654.88	868.10
655.22	860.90
655.56	854.01
655.90	847.29
656.25	840.66
656.59	833.71
656.93	826.78
657.27	819.68
657.61	812.90
657.95	806.97
658.29	801.16
658.64	795.10
658.98	788.66
659.32	782.18
659.66	776.10
660.00	769.77
660.34	763.85
660.68	757.75
661.02	751.51
661.36	745.62
661.70	740.00
662.05	734.41
662.39	728.94
662.73	723.63
663.07	718.17
663.41	712.71
663.75	707.13
664.09	701.51
664.43	696.17
664.77	690.79
665.11	684.81
665.45	678.89
665.79	673.11
666.13	667.45
666.47	661.99
666.81	656.57
667.15	651.24
667.49	646.10
667.83	640.92
668.17	635.79
668.51	630.76
668.85	625.89
669.19	621.04
669.53	616.09
669.87	610.98
670.21	606.32
670.55	601.64
670.89	597.31
671.23	593.08
671.57	588.74
671.91	584.53
672.25	580.51
672.58	576.40
672.92	572.37
673.26	568.51
673.60	564.72
673.94	560.93
674.28	557.39
674.62	553.65
674.96	549.99
675.30	546.53
675.64	542.88
675.97	539.34
676.31	535.77
676.65	532.24
676.99	528.81
677.33	525.00
677.67	521.40
678.01	517.54
678.34	513.89
678.68	510.48
679.02	506.87
679.36	503.23
679.70	499.66
680.04	496.24
680.37	492.82
680.71	489.56
681.05	486.45
681.39	483.29
681.73	480.17
682.06	477.13
682.40	474.03
682.74	470.86
683.08	467.68
683.42	464.57
683.75	461.61
684.09	458.71
684.43	455.98
684.77	453.08
685.10	450.30
685.44	447.43
685.78	444.51
686.12	441.91
686.45	439.22
686.79	436.61
687.13	434.07
687.46	431.51
687.80	428.87
688.14	426.06
688.48	423.47
688.81	420.82
689.15	418.32
689.49	415.70
689.82	413.25
690.16	410.71
690.50	408.25
690.83	405.79
691.17	403.30
691.51	400.90
691.84	398.75
692.18	396.61
692.52	394.44
692.85	392.32
693.19	390.16
693.52	388.03
693.86	385.89
694.20	383.77
694.53	381.67
694.87	379.48
695.21	377.40
695.54	375.24
695.88	373.13
696.21	370.98
696.55	368.96
696.88	366.95
697.22	365.04
697.56	363.21
697.89	361.41
698.23	359.62
698.56	357.84
698.90	356.07
699.23	354.14
699.57	352.33
699.90	350.55
700.24	348.79
700.58	347.07
700.91	345.43
701.25	343.90
701.58	342.31
701.92	340.82
702.25	339.28
702.59	337.73
702.92	336.30
703.26	334.76
703.59	333.37
703.93	332.14
704.26	330.77
704.60	329.26
704.93	327.77
705.26	326.35
705.60	324.94
705.93	323.49
706.27	322.24
706.60	321.04
706.94	319.79
707.27	318.38
707.61	317.06
707.94	315.76
708.27	314.25
708.61	312.85
708.94	311.48
709.28	310.23
709.61	309.01
709.94	307.80
710.28	306.63
710.61	305.43
710.95	304.03
711.28	303.01
711.61	301.89
711.95	300.78
712.28	299.61
712.61	298.43
712.95	297.37
713.28	296.37
713.61	295.23
713.95	294.13
714.28	293.19
714.61	292.19
714.95	291.22
715.28	290.26
715.61	289.28
715.95	288.35
716.28	287.41
716.61	286.46
716.95	285.48
717.28	284.58
717.61	283.66
717.94	282.83
718.28	281.77
718.61	280.90
718.94	280.06
719.27	279.26
719.61	278.50
719.94	277.63
720.27	276.67
720.60	275.87
720.94	275.10
721.27	274.34
721.60	273.69
721.93	272.97
722.27	272.35
722.60	271.73
722.93	271.07
723.26	270.42
723.59	269.77
723.93	269.17
724.26	268.52
724.59	267.87
724.92	267.24
725.25	266.76
725.59	266.23
725.92	265.69
726.25	265.10
726.58	264.54
726.91	263.99
727.24	263.51
727.57	262.95
727.91	262.35
728.24	261.83
728.57	261.24
728.90	260.69
729.23	260.05
729.56	259.59
729.89	259.07
730.22	258.53
730.55	257.96
730.89	257.43
731.22	256.93
731.55	256.48
731.88	255.97
732.21	255.44
732.54	254.92
732.87	254.44
733.20	253.99
733.53	253.51
733.86	253.11
734.19	252.62
734.52	252.23
734.85	252.00
735.18	251.49
735.51	251.17
735.84	250.74
736.17	250.41
736.50	249.90
736.83	249.75
737.16	249.41
737.49	249.10
737.82	248.71
738.15	248.41
738.48	248.04
738.81	247.67
739.14	247.24
739.47	246.87
739.80	246.50
740.13	246.14
740.46	245.76
740.79	245.32
741.12	244.96
741.45	244.64
741.78	244.20
742.11	243.96
742.44	243.57
742.77	243.30
743.10	242.95
743.43	242.62
743.75	242.06
744.08	241.99
744.41	241.63
744.74	241.30
745.07	240.90
745.40	240.62
745.73	240.36
746.06	240.08
746.39	239.78
746.71	239.45
747.04	239.14
747.37	238.83
747.70	238.59
748.03	238.34
748.36	238.01
748.68	237.73
749.01	237.38
749.34	237.06
749.67	236.78
750.00	236.56
750.33	236.43
750.65	236.20
750.98	235.66
751.31	235.43
751.64	235.20
751.97	235.08
752.29	234.84
752.62	234.54
752.95	234.28
753.28	234.01
753.60	233.80
753.93	233.60
754.26	233.40
754.59	233.13
754.91	232.87
755.24	232.67
755.57	232.43
755.90	232.23
756.22	232.03
756.55	231.79
756.88	231.52
757.20	231.21
757.53	230.95
757.86	230.74
758.19	230.53
758.51	230.38
758.84	230.07
759.17	229.89
759.49	229.70
759.82	229.63
760.15	229.51
760.47	229.31
760.80	229.05
761.13	228.92
761.45	228.73
761.78	228.52
762.11	228.34
762.43	228.17
762.76	228.01
763.08	227.90
763.41	227.75
763.74	227.63
764.06	227.43
764.39	227.31
764.71	227.19
765.04	227.05
765.37	226.86
765.69	226.72
766.02	226.56
766.34	226.42
766.67	226.19
767.00	226.07
767.32	226.09
767.65	226.11
767.97	225.98
768.30	225.87
768.62	225.81
768.95	225.67
769.27	225.50
769.60	225.41
769.92	225.22
770.25	225.06
770.57	224.90
770.90	224.82
771.22	224.68
771.55	224.59
771.87	224.50
772.20	224.39
772.52	224.46
772.85	224.57
773.17	224.47
773.50	224.35
773.82	224.23
774.15	223.97
774.47	223.74
774.80	223.60
775.12	223.53
775.45	223.42
775.77	223.37
776.09	223.30
776.42	223.17
776.74	223.18
777.07	223.06
777.39	223.01
777.72	222.92
778.04	222.86
778.36	222.73
778.69	222.62
779.01	222.56
779.33	222.29
779.66	222.01
779.98	221.93
780.31	221.93
780.63	221.93
780.95	221.89
781.28	221.87
781.60	221.78
781.92	221.71
782.25	221.63
782.57	221.55
782.89	221.47
783.22	221.43
783.54	221.28
783.86	221.23
784.19	221.13
784.51	221.09
784.83	221.02
785.16	220.94
785.48	220.91
785.80	220.86
786.12	220.85
