SpectraSuite Data File
++++++++++++++++++++++++++++++++++++
Date: Tue Jan 29 16:36:50 EST 2013
User: group
Dark Spectrum Present: No
Reference Spectrum Present: No
Number of Sampled Component Spectra: 1
Spectrometers: USB2E7196
Integration Time (usec): 65000 (USB2E7196)
Spectra Averaged: 100 (USB2E7196)
Boxcar Smoothing: 10 (USB2E7196)
Correct for Electrical Dark: No (USB2E7196)
Strobe/Lamp Enabled: No (USB2E7196)
Correct for Detector Non-linearity: No (USB2E7196)
Correct for Stray Light: No (USB2E7196)
Number of Pixels in Processed Spectrum: 2048
>>>>>Begin Processed Spectral Data<<<<<
339.09	0.00
339.48	201.46
339.86	203.23
340.24	204.55
340.63	206.02
341.01	210.49
341.39	208.74
341.78	210.45
342.16	211.98
342.54	211.81
342.93	201.01
343.31	211.15
343.69	211.73
344.07	212.20
344.46	212.65
344.84	213.07
345.22	213.26
345.60	213.53
345.99	213.72
346.37	213.84
346.75	213.98
347.13	214.07
347.52	214.14
347.90	214.25
348.28	214.34
348.66	214.44
349.05	214.44
349.43	214.54
349.81	214.61
350.19	214.70
350.57	214.79
350.96	214.89
351.34	215.00
351.72	215.08
352.10	215.18
352.48	215.29
352.87	215.33
353.25	215.39
353.63	215.47
354.01	215.56
354.39	215.65
354.77	215.74
355.15	215.87
355.54	215.92
355.92	215.93
356.30	216.00
356.68	216.19
357.06	216.26
357.44	216.29
357.82	216.36
358.20	216.41
358.58	216.46
358.97	216.50
359.35	216.62
359.73	216.76
360.11	216.85
360.49	216.88
360.87	216.92
361.25	217.03
361.63	217.15
362.01	217.17
362.39	217.17
362.77	217.22
363.15	217.22
363.53	217.25
363.91	217.29
364.29	217.29
364.67	217.13
365.05	217.16
365.43	217.19
365.81	217.22
366.19	217.33
366.57	217.45
366.95	217.46
367.33	217.42
367.71	217.35
368.09	217.36
368.47	217.34
368.85	217.35
369.23	217.34
369.61	217.25
369.99	217.32
370.37	217.34
370.75	217.40
371.13	217.34
371.51	217.31
371.89	217.30
372.27	217.26
372.65	217.23
373.03	217.20
373.41	217.13
373.78	217.07
374.16	216.94
374.54	216.80
374.92	216.75
375.30	216.71
375.68	216.64
376.06	216.60
376.44	216.57
376.82	216.55
377.19	216.45
377.57	216.40
377.95	216.26
378.33	216.21
378.71	216.04
379.09	216.01
379.47	215.98
379.84	215.91
380.22	215.88
380.60	215.82
380.98	215.75
381.36	215.70
381.73	215.63
382.11	215.63
382.49	215.61
382.87	215.56
383.25	215.53
383.62	215.74
384.00	215.64
384.38	215.59
384.76	215.59
385.13	215.66
385.51	215.62
385.89	215.58
386.27	215.54
386.64	215.53
387.02	215.45
387.40	215.40
387.78	215.38
388.15	215.35
388.53	215.31
388.91	215.30
389.29	215.29
389.66	215.31
390.04	215.22
390.42	215.25
390.79	215.25
391.17	215.22
391.55	214.99
391.92	215.01
392.30	215.05
392.68	214.98
393.05	214.95
393.43	214.96
393.81	214.96
394.18	214.96
394.56	214.98
394.94	215.06
395.31	215.04
395.69	215.10
396.06	215.14
396.44	215.19
396.82	215.21
397.19	215.33
397.57	215.30
397.95	215.39
398.32	215.35
398.70	215.39
399.07	215.48
399.45	215.54
399.82	215.55
400.20	215.57
400.58	215.63
400.95	215.62
401.33	215.74
401.70	215.99
402.08	216.05
402.45	216.16
402.83	216.31
403.20	216.46
403.58	216.56
403.95	216.77
404.33	216.91
404.71	217.03
405.08	217.31
405.46	217.54
405.83	217.74
406.21	217.96
406.58	218.20
406.96	218.40
407.33	218.63
407.70	218.94
408.08	219.41
408.45	219.76
408.83	220.19
409.20	220.52
409.58	220.75
409.95	221.22
410.33	221.66
410.70	222.10
411.08	222.62
411.45	223.18
411.82	223.71
412.20	224.41
412.57	225.28
412.95	225.80
413.32	226.58
413.69	227.41
414.07	228.33
414.44	229.32
414.82	230.38
415.19	231.58
415.56	232.78
415.94	233.96
416.31	235.38
416.68	236.77
417.06	238.39
417.43	239.95
417.81	241.70
418.18	243.53
418.55	245.46
418.93	247.50
419.30	249.62
419.67	251.86
420.04	254.13
420.42	256.47
420.79	259.36
421.16	262.15
421.54	265.03
421.91	268.00
422.28	271.11
422.66	274.38
423.03	277.65
423.40	281.02
423.77	284.63
424.15	288.26
424.52	292.12
424.89	296.31
425.26	300.40
425.64	304.31
426.01	308.58
426.38	313.06
426.75	317.61
427.13	322.36
427.50	327.32
427.87	332.58
428.24	337.79
428.61	342.73
428.99	348.26
429.36	354.29
429.73	360.17
430.10	366.04
430.47	372.17
430.85	378.50
431.22	385.21
431.59	392.32
431.96	399.19
432.33	406.68
432.70	413.97
433.08	422.55
433.45	430.61
433.82	438.68
434.19	447.58
434.56	456.34
434.93	464.71
435.30	473.03
435.68	482.11
436.05	491.19
436.42	500.16
436.79	508.29
437.16	517.07
437.53	526.42
437.90	535.56
438.27	544.51
438.64	553.80
439.01	562.38
439.38	569.95
439.75	577.30
440.13	585.78
440.50	593.74
440.87	600.11
441.24	606.81
441.61	614.13
441.98	619.46
442.35	625.84
442.72	632.18
443.09	638.23
443.46	642.00
443.83	644.47
444.20	646.71
444.57	649.95
444.94	651.47
445.31	652.94
445.68	654.38
446.05	655.02
446.42	654.20
446.79	653.28
447.16	652.27
447.53	651.51
447.90	648.17
448.27	644.88
448.64	640.31
449.01	636.93
449.37	631.08
449.74	625.45
450.11	618.50
450.48	611.08
450.85	603.66
451.22	597.22
451.59	591.08
451.96	585.18
452.33	577.26
452.70	570.08
453.07	561.52
453.43	552.92
453.80	544.58
454.17	536.51
454.54	528.92
454.91	520.64
455.28	512.60
455.65	505.14
456.02	497.61
456.38	491.25
456.75	483.39
457.12	476.72
457.49	470.20
457.86	464.00
458.23	458.64
458.59	452.67
458.96	446.61
459.33	441.32
459.70	435.96
460.07	431.69
460.43	426.84
460.80	422.30
461.17	418.26
461.54	414.05
461.91	410.08
462.27	405.94
462.64	402.58
463.01	398.78
463.38	395.05
463.74	391.29
464.11	388.02
464.48	385.17
464.85	382.12
465.21	379.68
465.58	376.99
465.95	373.80
466.32	371.16
466.68	368.57
467.05	365.91
467.42	363.30
467.78	360.62
468.15	358.05
468.52	356.09
468.88	353.62
469.25	351.39
469.62	349.52
469.98	347.57
470.35	345.69
470.72	343.99
471.08	342.19
471.45	340.75
471.82	339.19
472.18	337.53
472.55	336.32
472.92	334.90
473.28	333.72
473.65	332.57
474.02	331.47
474.38	330.57
474.75	329.80
475.11	329.02
475.48	328.40
475.85	327.91
476.21	327.40
476.58	327.00
476.94	326.76
477.31	326.43
477.67	326.12
478.04	326.02
478.41	326.00
478.77	326.19
479.14	326.08
479.50	326.19
479.87	326.47
480.23	326.73
480.60	326.98
480.96	327.26
481.33	327.86
481.69	328.39
482.06	328.88
482.42	329.39
482.79	329.99
483.15	330.78
483.52	331.71
483.88	332.59
484.25	333.55
484.61	334.59
484.98	335.66
485.34	336.98
485.71	338.30
486.07	339.72
486.44	341.02
486.80	342.65
487.17	344.33
487.53	346.18
487.90	348.06
488.26	350.06
488.62	352.21
488.99	354.27
489.35	356.42
489.72	358.82
490.08	361.36
490.44	363.92
490.81	366.63
491.17	369.30
491.54	372.32
491.90	375.37
492.26	378.64
492.63	382.06
492.99	385.57
493.36	389.24
493.72	393.13
494.08	397.19
494.45	401.42
494.81	405.81
495.17	410.22
495.54	414.91
495.90	419.73
496.26	424.65
496.63	429.86
496.99	435.30
497.35	440.87
497.72	446.70
498.08	452.63
498.44	458.78
498.80	465.20
499.17	471.67
499.53	478.36
499.89	485.26
500.26	492.25
500.62	499.33
500.98	506.79
501.34	514.26
501.71	521.93
502.07	529.76
502.43	537.72
502.79	545.85
503.16	554.30
503.52	563.01
503.88	571.81
504.24	580.79
504.60	589.83
504.97	599.07
505.33	608.38
505.69	618.21
506.05	628.10
506.41	638.05
506.78	648.16
507.14	658.41
507.50	668.85
507.86	679.58
508.22	690.44
508.59	701.15
508.95	712.24
509.31	723.64
509.67	735.08
510.03	746.52
510.39	758.35
510.75	770.19
511.12	782.16
511.48	794.29
511.84	806.57
512.20	819.03
512.56	831.82
512.92	844.70
513.28	857.49
513.64	870.33
514.00	883.28
514.37	896.34
514.73	909.57
515.09	922.62
515.45	935.63
515.81	948.81
516.17	962.15
516.53	975.53
516.89	988.73
517.25	1002.14
517.61	1015.83
517.97	1029.35
518.33	1042.56
518.69	1056.15
519.05	1070.01
519.41	1083.76
519.77	1097.66
520.13	1110.99
520.49	1124.22
520.85	1137.71
521.21	1151.09
521.57	1164.79
521.93	1177.98
522.29	1191.83
522.65	1205.67
523.01	1219.31
523.37	1232.57
523.73	1246.11
524.09	1259.45
524.45	1272.93
524.81	1286.44
525.17	1299.95
525.53	1313.17
525.89	1326.68
526.25	1339.89
526.61	1352.81
526.97	1365.97
527.33	1379.04
527.68	1392.61
528.04	1406.08
528.40	1419.24
528.76	1432.79
529.12	1445.82
529.48	1459.19
529.84	1471.56
530.20	1484.40
530.56	1497.10
530.91	1510.38
531.27	1523.41
531.63	1536.24
531.99	1549.09
532.35	1561.39
532.71	1573.81
533.07	1586.83
533.42	1599.10
533.78	1611.39
534.14	1623.60
534.50	1635.04
534.86	1646.85
535.21	1657.87
535.57	1669.76
535.93	1681.17
536.29	1692.40
536.65	1704.01
537.00	1715.13
537.36	1726.55
537.72	1737.66
538.08	1749.26
538.44	1760.41
538.79	1771.39
539.15	1782.35
539.51	1793.25
539.87	1804.70
540.22	1815.54
540.58	1826.53
540.94	1837.53
541.29	1847.77
541.65	1857.61
542.01	1868.19
542.37	1878.21
542.72	1888.56
543.08	1898.34
543.44	1909.02
543.79	1918.30
544.15	1927.81
544.51	1937.88
544.87	1947.86
545.22	1957.12
545.58	1966.09
545.94	1974.93
546.29	1983.77
546.65	1992.30
547.01	2000.68
547.36	2008.44
547.72	2016.36
548.07	2024.03
548.43	2031.88
548.79	2040.00
549.14	2048.13
549.50	2056.67
549.86	2064.61
550.21	2071.98
550.57	2079.77
550.92	2086.54
551.28	2094.17
551.64	2101.43
551.99	2109.01
552.35	2116.40
552.70	2123.33
553.06	2130.05
553.41	2136.52
553.77	2142.97
554.13	2149.37
554.48	2156.45
554.84	2163.60
555.19	2170.22
555.55	2176.73
555.90	2183.06
556.26	2189.77
556.61	2196.01
556.97	2200.93
557.32	2206.86
557.68	2213.42
558.03	2219.11
558.39	2224.45
558.74	2230.35
559.10	2236.05
559.45	2241.63
559.81	2247.13
560.16	2252.63
560.52	2258.58
560.87	2264.97
561.23	2270.84
561.58	2277.47
561.94	2282.67
562.29	2287.35
562.64	2293.40
563.00	2299.02
563.35	2304.63
563.71	2310.41
564.06	2316.12
564.42	2322.05
564.77	2327.17
565.12	2332.32
565.48	2337.44
565.83	2342.99
566.19	2348.32
566.54	2353.60
566.89	2358.17
567.25	2362.74
567.60	2368.63
567.96	2373.65
568.31	2378.17
568.66	2382.51
569.02	2386.33
569.37	2389.90
569.72	2394.26
570.08	2397.62
570.43	2400.60
570.78	2403.75
571.14	2406.19
571.49	2409.19
571.84	2412.60
572.20	2415.38
572.55	2418.22
572.90	2420.50
573.26	2423.26
573.61	2425.90
573.96	2427.91
574.31	2429.79
574.67	2431.52
575.02	2432.17
575.37	2433.50
575.72	2434.05
576.08	2435.42
576.43	2435.64
576.78	2436.09
577.13	2437.67
577.49	2438.94
577.84	2440.12
578.19	2441.32
578.54	2441.83
578.90	2442.38
579.25	2442.20
579.60	2442.00
579.95	2441.31
580.30	2441.27
580.66	2440.48
581.01	2438.77
581.36	2436.33
581.71	2434.76
582.06	2433.56
582.42	2432.47
582.77	2430.14
583.12	2428.57
583.47	2427.06
583.82	2426.36
584.17	2424.99
584.53	2422.78
584.88	2420.57
585.23	2418.69
585.58	2416.22
585.93	2414.25
586.28	2412.05
586.63	2409.44
586.98	2407.19
587.34	2405.10
587.69	2402.52
588.04	2400.34
588.39	2398.86
588.74	2396.44
589.09	2393.74
589.44	2390.40
589.79	2387.79
590.14	2385.76
590.49	2382.68
590.84	2378.76
591.19	2375.38
591.54	2372.13
591.89	2368.07
592.25	2364.66
592.60	2360.14
592.95	2355.94
593.30	2351.55
593.65	2347.02
594.00	2342.48
594.35	2339.21
594.70	2334.45
595.05	2329.88
595.40	2324.40
595.75	2318.31
596.10	2314.55
596.45	2309.69
596.80	2305.17
597.15	2299.97
597.50	2294.01
597.85	2289.13
598.19	2283.74
598.54	2278.05
598.89	2272.52
599.24	2267.86
599.59	2261.67
599.94	2255.85
600.29	2249.72
600.64	2243.78
600.99	2237.00
601.34	2231.54
601.69	2224.86
602.04	2218.45
602.39	2211.74
602.74	2205.58
603.08	2200.17
603.43	2193.59
603.78	2186.64
604.13	2179.57
604.48	2172.34
604.83	2166.11
605.18	2159.85
605.53	2152.88
605.87	2145.85
606.22	2139.19
606.57	2131.29
606.92	2123.36
607.27	2116.37
607.62	2109.91
607.96	2102.90
608.31	2096.39
608.66	2088.72
609.01	2080.90
609.36	2073.69
609.70	2065.99
610.05	2058.17
610.40	2049.66
610.75	2041.25
611.10	2033.55
611.44	2024.57
611.79	2015.65
612.14	2005.69
612.49	1994.92
612.83	1985.66
613.18	1976.27
613.53	1967.08
613.88	1957.34
614.22	1948.61
614.57	1938.67
614.92	1927.98
615.27	1917.66
615.61	1907.51
615.96	1897.77
616.31	1888.10
616.65	1878.69
617.00	1868.82
617.35	1859.11
617.70	1849.43
618.04	1839.41
618.39	1829.16
618.74	1819.49
619.08	1809.94
619.43	1801.24
619.78	1793.04
620.12	1784.30
620.47	1774.70
620.82	1764.29
621.16	1754.57
621.51	1744.64
621.85	1734.95
622.20	1724.54
622.55	1714.08
622.89	1704.17
623.24	1694.49
623.59	1684.66
623.93	1674.48
624.28	1664.74
624.62	1654.63
624.97	1644.33
625.32	1634.46
625.66	1625.49
626.01	1616.73
626.35	1607.39
626.70	1597.32
627.04	1587.23
627.39	1577.27
627.73	1567.97
628.08	1558.97
628.43	1549.38
628.77	1540.24
629.12	1531.23
629.46	1523.38
629.81	1514.97
630.15	1505.47
630.50	1495.49
630.84	1485.07
631.19	1475.15
631.53	1465.94
631.88	1455.87
632.22	1445.83
632.57	1436.49
632.91	1426.49
633.26	1416.65
633.60	1407.07
633.95	1397.81
634.29	1388.20
634.64	1378.85
634.98	1368.86
635.32	1359.56
635.67	1351.06
636.01	1341.77
636.36	1331.97
636.70	1322.57
637.05	1313.23
637.39	1304.32
637.73	1295.82
638.08	1288.30
638.42	1280.15
638.77	1271.26
639.11	1262.97
639.45	1255.23
639.80	1246.73
640.14	1237.99
640.49	1229.06
640.83	1220.15
641.17	1212.02
641.52	1204.08
641.86	1195.44
642.20	1187.58
642.55	1178.90
642.89	1169.98
643.23	1161.29
643.58	1153.26
643.92	1144.13
644.26	1135.44
644.61	1126.99
644.95	1118.09
645.29	1108.85
645.64	1099.71
645.98	1091.23
646.32	1083.41
646.66	1074.93
647.01	1066.57
647.35	1058.43
647.69	1050.15
648.04	1041.95
648.38	1032.96
648.72	1024.11
649.06	1015.67
649.41	1007.44
649.75	999.54
650.09	991.72
650.43	983.67
650.78	975.37
651.12	967.60
651.46	960.12
651.80	952.88
652.14	945.59
652.49	937.93
652.83	930.59
653.17	922.87
653.51	915.06
653.85	907.78
654.20	900.49
654.54	892.96
654.88	885.61
655.22	878.36
655.56	871.32
655.90	864.51
656.25	857.89
656.59	850.95
656.93	843.94
657.27	836.75
657.61	829.80
657.95	823.61
658.29	817.75
658.64	811.59
658.98	804.99
659.32	798.49
659.66	792.27
660.00	785.90
660.34	779.76
660.68	773.67
661.02	767.28
661.36	761.31
661.70	755.51
662.05	749.84
662.39	744.30
662.73	738.93
663.07	733.52
663.41	727.78
663.75	722.09
664.09	716.31
664.43	710.82
664.77	705.37
665.11	699.53
665.45	693.54
665.79	687.68
666.13	681.96
666.47	676.40
666.81	670.99
667.15	665.50
667.49	660.32
667.83	655.03
668.17	649.71
668.51	644.54
668.85	639.62
669.19	634.69
669.53	629.63
669.87	624.56
670.21	619.69
670.55	614.97
670.89	610.52
671.23	606.23
671.57	601.73
671.91	597.39
672.25	593.21
672.58	589.03
672.92	584.96
673.26	581.02
673.60	577.15
673.94	573.21
674.28	569.68
674.62	565.95
674.96	562.13
675.30	558.60
675.64	554.94
675.97	551.34
676.31	547.71
676.65	544.09
676.99	540.51
677.33	536.62
677.67	532.87
678.01	528.98
678.34	525.27
678.68	521.79
679.02	518.19
679.36	514.43
679.70	510.80
680.04	507.14
680.37	503.64
680.71	500.21
681.05	496.99
681.39	493.63
681.73	490.37
682.06	487.31
682.40	484.23
682.74	481.00
683.08	477.71
683.42	474.46
683.75	471.35
684.09	468.30
684.43	465.45
684.77	462.55
685.10	459.66
685.44	456.68
685.78	453.73
686.12	450.91
686.45	448.14
686.79	445.44
687.13	442.89
687.46	440.25
687.80	437.55
688.14	434.64
688.48	431.97
688.81	429.26
689.15	426.60
689.49	423.90
689.82	421.28
690.16	418.65
690.50	416.18
690.83	413.70
691.17	411.15
691.51	408.66
691.84	406.36
692.18	404.07
692.52	401.86
692.85	399.68
693.19	397.50
693.52	395.33
693.86	393.03
694.20	390.85
694.53	388.67
694.87	386.49
695.21	384.39
695.54	382.15
695.88	379.99
696.21	377.81
696.55	375.69
696.88	373.62
697.22	371.61
697.56	369.69
697.89	367.75
698.23	366.01
698.56	364.18
698.90	362.36
699.23	360.44
699.57	358.51
699.90	356.57
700.24	354.76
700.58	352.98
700.91	351.31
701.25	349.72
701.58	348.09
701.92	346.43
702.25	344.74
702.59	343.14
702.92	341.56
703.26	339.95
703.59	338.42
703.93	337.10
704.26	335.65
704.60	334.12
704.93	332.63
705.26	331.06
705.60	329.54
705.93	328.02
706.27	326.68
706.60	325.43
706.94	324.18
707.27	322.75
707.61	321.37
707.94	320.00
708.27	318.46
708.61	316.99
708.94	315.60
709.28	314.30
709.61	313.02
709.94	311.75
710.28	310.53
710.61	309.32
710.95	307.89
711.28	306.76
711.61	305.54
711.95	304.38
712.28	303.16
712.61	301.97
712.95	300.90
713.28	299.86
713.61	298.67
713.95	297.49
714.28	296.46
714.61	295.40
714.95	294.31
715.28	293.26
715.61	292.20
715.95	291.22
716.28	290.25
716.61	289.27
716.95	288.25
717.28	287.32
717.61	286.35
717.94	285.46
718.28	284.45
718.61	283.57
718.94	282.63
719.27	281.75
719.61	280.95
719.94	280.04
720.27	279.02
720.60	278.16
720.94	277.34
721.27	276.53
721.60	275.85
721.93	275.16
722.27	274.54
722.60	273.85
722.93	273.14
723.26	272.44
723.59	271.73
723.93	271.08
724.26	270.41
724.59	269.75
724.92	269.11
725.25	268.56
725.59	267.95
725.92	267.48
726.25	266.89
726.58	266.29
726.91	265.70
727.24	265.13
727.57	264.57
727.91	263.98
728.24	263.44
728.57	262.79
728.90	262.22
729.23	261.55
729.56	261.09
729.89	260.50
730.22	259.93
730.55	259.40
730.89	258.83
731.22	258.28
731.55	257.77
731.88	257.22
732.21	256.67
732.54	256.12
732.87	255.57
733.20	255.12
733.53	254.63
733.86	254.16
734.19	253.70
734.52	253.26
734.85	252.95
735.18	252.47
735.51	252.15
735.84	251.73
736.17	251.36
736.50	250.83
736.83	250.70
737.16	250.34
737.49	249.96
737.82	249.58
738.15	249.21
738.48	248.79
738.81	248.40
739.14	247.93
739.47	247.51
739.80	247.11
740.13	246.74
740.46	246.32
740.79	245.94
741.12	245.53
741.45	245.16
741.78	244.71
742.11	244.40
742.44	243.98
742.77	243.65
743.10	243.26
743.43	242.91
743.75	242.33
744.08	242.26
744.41	241.91
744.74	241.55
745.07	241.15
745.40	240.85
745.73	240.61
746.06	240.34
746.39	240.06
746.71	239.71
747.04	239.35
747.37	239.04
747.70	238.73
748.03	238.47
748.36	238.19
748.68	237.89
749.01	237.55
749.34	237.23
749.67	236.97
750.00	236.71
750.33	236.58
750.65	236.32
750.98	235.74
751.31	235.48
751.64	235.23
751.97	235.14
752.29	234.89
752.62	234.55
752.95	234.26
753.28	234.05
753.60	233.82
753.93	233.67
754.26	233.47
754.59	233.20
754.91	232.93
755.24	232.68
755.57	232.48
755.90	232.23
756.22	232.01
756.55	231.73
756.88	231.48
757.20	231.16
757.53	230.88
757.86	230.70
758.19	230.52
758.51	230.31
758.84	229.96
759.17	229.76
759.49	229.59
759.82	229.51
760.15	229.32
760.47	229.15
760.80	228.87
761.13	228.71
761.45	228.50
761.78	228.33
762.11	228.15
762.43	227.92
762.76	227.78
763.08	227.64
763.41	227.49
763.74	227.35
764.06	227.18
764.39	227.02
764.71	226.82
765.04	226.64
765.37	226.48
765.69	226.36
766.02	226.24
766.34	226.09
766.67	225.86
767.00	225.78
767.32	225.71
767.65	225.69
767.97	225.58
768.30	225.50
768.62	225.39
768.95	225.20
769.27	225.13
769.60	225.02
769.92	224.87
770.25	224.68
770.57	224.53
770.90	224.41
771.22	224.27
771.55	224.22
771.87	224.11
772.20	224.01
772.52	224.06
772.85	224.19
773.17	224.08
773.50	223.94
773.82	223.79
774.15	223.59
774.47	223.35
774.80	223.20
775.12	223.10
775.45	222.98
775.77	222.94
776.09	222.84
776.42	222.73
776.74	222.67
777.07	222.61
777.39	222.53
777.72	222.41
778.04	222.35
778.36	222.23
778.69	222.17
779.01	222.10
779.33	221.81
779.66	221.51
779.98	221.40
780.31	221.35
780.63	221.37
780.95	221.34
781.28	221.28
781.60	221.19
781.92	221.08
782.25	221.03
782.57	220.96
782.89	220.88
783.22	220.79
783.54	220.66
783.86	220.64
784.19	220.54
784.51	220.58
784.83	220.51
785.16	220.46
785.48	220.37
785.80	220.31
786.12	220.28
