SpectraSuite Data File
++++++++++++++++++++++++++++++++++++
Date: Tue Jan 29 16:30:14 EST 2013
User: group
Dark Spectrum Present: No
Reference Spectrum Present: No
Number of Sampled Component Spectra: 1
Spectrometers: USB2E7196
Integration Time (usec): 65000 (USB2E7196)
Spectra Averaged: 100 (USB2E7196)
Boxcar Smoothing: 10 (USB2E7196)
Correct for Electrical Dark: No (USB2E7196)
Strobe/Lamp Enabled: No (USB2E7196)
Correct for Detector Non-linearity: No (USB2E7196)
Correct for Stray Light: No (USB2E7196)
Number of Pixels in Processed Spectrum: 2048
>>>>>Begin Processed Spectral Data<<<<<
339.09	0.00
339.48	202.01
339.86	203.17
340.24	204.99
340.63	206.86
341.01	210.27
341.39	209.49
341.78	209.92
342.16	211.82
342.54	212.02
342.93	201.21
343.31	211.38
343.69	211.91
344.07	212.43
344.46	212.88
344.84	213.22
345.22	213.40
345.60	213.62
345.99	213.87
346.37	214.01
346.75	214.10
347.13	214.17
347.52	214.23
347.90	214.35
348.28	214.40
348.66	214.44
349.05	214.44
349.43	214.49
349.81	214.56
350.19	214.60
350.57	214.67
350.96	214.77
351.34	214.90
351.72	215.00
352.10	215.06
352.48	215.14
352.87	215.24
353.25	215.30
353.63	215.37
354.01	215.42
354.39	215.50
354.77	215.58
355.15	215.75
355.54	215.78
355.92	215.79
356.30	215.86
356.68	216.07
357.06	216.14
357.44	216.20
357.82	216.24
358.20	216.36
358.58	216.43
358.97	216.48
359.35	216.54
359.73	216.63
360.11	216.69
360.49	216.75
360.87	216.80
361.25	216.90
361.63	217.04
362.01	217.08
362.39	217.12
362.77	217.22
363.15	217.21
363.53	217.25
363.91	217.31
364.29	217.36
364.67	217.21
365.05	217.21
365.43	217.27
365.81	217.34
366.19	217.41
366.57	217.48
366.95	217.49
367.33	217.44
367.71	217.44
368.09	217.49
368.47	217.47
368.85	217.45
369.23	217.48
369.61	217.39
369.99	217.47
370.37	217.47
370.75	217.52
371.13	217.46
371.51	217.45
371.89	217.44
372.27	217.41
372.65	217.42
373.03	217.41
373.41	217.35
373.78	217.28
374.16	217.17
374.54	217.10
374.92	217.06
375.30	217.05
375.68	217.00
376.06	216.97
376.44	216.93
376.82	216.89
377.19	216.84
377.57	216.78
377.95	216.66
378.33	216.61
378.71	216.43
379.09	216.45
379.47	216.38
379.84	216.33
380.22	216.28
380.60	216.15
380.98	216.12
381.36	216.09
381.73	216.05
382.11	216.04
382.49	215.99
382.87	215.92
383.25	215.87
383.62	216.07
384.00	215.98
384.38	215.94
384.76	215.99
385.13	216.03
385.51	215.98
385.89	215.95
386.27	215.91
386.64	215.93
387.02	215.86
387.40	215.86
387.78	215.83
388.15	215.82
388.53	215.82
388.91	215.81
389.29	215.77
389.66	215.79
390.04	215.71
390.42	215.72
390.79	215.72
391.17	215.73
391.55	215.47
391.92	215.49
392.30	215.53
392.68	215.42
393.05	215.37
393.43	215.39
393.81	215.40
394.18	215.38
394.56	215.38
394.94	215.43
395.31	215.41
395.69	215.47
396.06	215.51
396.44	215.55
396.82	215.53
397.19	215.64
397.57	215.63
397.95	215.72
398.32	215.66
398.70	215.68
399.07	215.73
399.45	215.77
399.82	215.78
400.20	215.78
400.58	215.87
400.95	215.87
401.33	215.96
401.70	216.13
402.08	216.19
402.45	216.29
402.83	216.40
403.20	216.53
403.58	216.59
403.95	216.74
404.33	216.89
404.71	217.03
405.08	217.27
405.46	217.45
405.83	217.63
406.21	217.84
406.58	218.10
406.96	218.34
407.33	218.63
407.70	218.92
408.08	219.38
408.45	219.75
408.83	220.13
409.20	220.49
409.58	220.83
409.95	221.29
410.33	221.75
410.70	222.18
411.08	222.75
411.45	223.32
411.82	223.90
412.20	224.57
412.57	225.43
412.95	226.03
413.32	226.86
413.69	227.72
414.07	228.65
414.44	229.63
414.82	230.60
415.19	231.73
415.56	232.94
415.94	234.13
416.31	235.55
416.68	236.97
417.06	238.55
417.43	240.08
417.81	241.83
418.18	243.59
418.55	245.54
418.93	247.54
419.30	249.66
419.67	251.89
420.04	254.17
420.42	256.55
420.79	259.32
421.16	262.10
421.54	264.99
421.91	267.95
422.28	271.08
422.66	274.41
423.03	277.69
423.40	281.05
423.77	284.65
424.15	288.26
424.52	292.10
424.89	296.31
425.26	300.33
425.64	304.24
426.01	308.58
426.38	313.04
426.75	317.59
427.13	322.30
427.50	327.23
427.87	332.45
428.24	337.63
428.61	342.67
428.99	348.14
429.36	354.11
429.73	360.05
430.10	365.89
430.47	371.96
430.85	378.27
431.22	384.96
431.59	392.04
431.96	398.89
432.33	406.36
432.70	413.62
433.08	422.17
433.45	430.16
433.82	438.15
434.19	447.03
434.56	455.68
434.93	463.99
435.30	472.30
435.68	481.38
436.05	490.33
436.42	499.25
436.79	507.42
437.16	516.14
437.53	525.42
437.90	534.56
438.27	543.49
438.64	552.67
439.01	561.18
439.38	568.78
439.75	576.04
440.13	584.48
440.50	592.40
440.87	598.80
441.24	605.44
441.61	612.86
441.98	618.23
442.35	624.65
442.72	631.04
443.09	637.08
443.46	640.80
443.83	643.35
444.20	645.52
444.57	648.70
444.94	650.22
445.31	651.59
445.68	652.90
446.05	653.56
446.42	652.86
446.79	651.91
447.16	650.79
447.53	650.08
447.90	646.71
448.27	643.47
448.64	638.84
449.01	635.54
449.37	629.57
449.74	623.93
450.11	616.97
450.48	609.55
450.85	602.05
451.22	595.61
451.59	589.50
451.96	583.66
452.33	575.80
452.70	568.67
453.07	560.21
453.43	551.69
453.80	543.37
454.17	535.29
454.54	527.80
454.91	519.60
455.28	511.62
455.65	504.26
456.02	496.69
456.38	490.37
456.75	482.53
457.12	475.96
457.49	469.43
457.86	463.23
458.23	457.76
458.59	451.89
458.96	445.87
459.33	440.57
459.70	435.20
460.07	430.90
460.43	426.04
460.80	421.47
461.17	417.52
461.54	413.29
461.91	409.32
462.27	405.20
462.64	401.78
463.01	398.00
463.38	394.32
463.74	390.66
464.11	387.41
464.48	384.54
464.85	381.44
465.21	379.03
465.58	376.42
465.95	373.39
466.32	370.77
466.68	368.18
467.05	365.54
467.42	363.02
467.78	360.35
468.15	357.79
468.52	355.89
468.88	353.36
469.25	351.16
469.62	349.34
469.98	347.35
470.35	345.55
470.72	343.83
471.08	342.00
471.45	340.43
471.82	338.89
472.18	337.27
472.55	336.02
472.92	334.61
473.28	333.41
473.65	332.22
474.02	331.13
474.38	330.25
474.75	329.50
475.11	328.65
475.48	328.12
475.85	327.66
476.21	327.16
476.58	326.84
476.94	326.62
477.31	326.33
477.67	326.14
478.04	326.01
478.41	325.97
478.77	326.16
479.14	326.16
479.50	326.31
479.87	326.57
480.23	326.97
480.60	327.21
480.96	327.51
481.33	328.11
481.69	328.66
482.06	329.11
482.42	329.63
482.79	330.26
483.15	331.02
483.52	331.94
483.88	332.79
484.25	333.69
484.61	334.64
484.98	335.71
485.34	337.01
485.71	338.38
486.07	339.82
486.44	341.09
486.80	342.71
487.17	344.40
487.53	346.25
487.90	348.09
488.26	350.11
488.62	352.23
488.99	354.26
489.35	356.43
489.72	358.87
490.08	361.35
490.44	363.90
490.81	366.60
491.17	369.35
491.54	372.37
491.90	375.41
492.26	378.72
492.63	382.13
492.99	385.62
493.36	389.27
493.72	393.19
494.08	397.25
494.45	401.49
494.81	405.85
495.17	410.28
495.54	414.99
495.90	419.85
496.26	424.74
496.63	430.02
496.99	435.38
497.35	440.95
497.72	446.82
498.08	452.75
498.44	458.89
498.80	465.37
499.17	471.88
499.53	478.59
499.89	485.50
500.26	492.48
500.62	499.57
500.98	507.04
501.34	514.51
501.71	522.36
502.07	530.19
502.43	538.23
502.79	546.42
503.16	554.83
503.52	563.41
503.88	572.24
504.24	581.24
504.60	590.40
504.97	599.70
505.33	609.02
505.69	618.92
506.05	628.82
506.41	638.71
506.78	648.85
507.14	659.22
507.50	669.78
507.86	680.61
508.22	691.47
508.59	702.17
508.95	713.32
509.31	724.59
509.67	736.19
510.03	747.64
510.39	759.46
510.75	771.44
511.12	783.55
511.48	795.73
511.84	808.05
512.20	820.45
512.56	833.17
512.92	846.03
513.28	858.86
513.64	871.67
514.00	884.67
514.37	897.73
514.73	910.82
515.09	923.85
515.45	936.74
515.81	949.90
516.17	963.35
516.53	976.74
516.89	989.90
517.25	1003.16
517.61	1016.88
517.97	1030.34
518.33	1043.57
518.69	1057.14
519.05	1070.93
519.41	1084.75
519.77	1098.73
520.13	1112.12
520.49	1125.44
520.85	1138.81
521.21	1152.30
521.57	1166.07
521.93	1179.29
522.29	1193.33
522.65	1207.15
523.01	1220.96
523.37	1234.30
523.73	1247.77
524.09	1261.04
524.45	1274.56
524.81	1288.10
525.17	1301.56
525.53	1314.87
525.89	1328.32
526.25	1341.60
526.61	1354.61
526.97	1367.87
527.33	1380.96
527.68	1394.55
528.04	1408.21
528.40	1421.54
528.76	1435.01
529.12	1447.90
529.48	1461.39
529.84	1473.67
530.20	1486.57
530.56	1499.26
530.91	1512.57
531.27	1525.60
531.63	1538.44
531.99	1551.33
532.35	1563.68
532.71	1576.14
533.07	1589.19
533.42	1601.42
533.78	1613.60
534.14	1625.77
534.50	1636.97
534.86	1648.70
535.21	1659.67
535.57	1671.30
535.93	1682.70
536.29	1693.89
536.65	1705.56
537.00	1716.52
537.36	1728.10
537.72	1739.17
538.08	1750.74
538.44	1761.78
538.79	1772.95
539.15	1783.87
539.51	1794.81
539.87	1806.21
540.22	1817.21
540.58	1828.27
540.94	1839.40
541.29	1849.86
541.65	1859.85
542.01	1870.55
542.37	1880.74
542.72	1891.00
543.08	1900.77
543.44	1911.30
543.79	1920.74
544.15	1930.27
544.51	1940.29
544.87	1950.25
545.22	1959.55
545.58	1968.50
545.94	1977.51
546.29	1985.97
546.65	1994.53
547.01	2002.80
547.36	2010.64
547.72	2018.44
548.07	2026.04
548.43	2034.03
548.79	2041.94
549.14	2050.10
549.50	2058.59
549.86	2066.64
550.21	2074.21
550.57	2082.09
550.92	2088.98
551.28	2096.69
551.64	2104.00
551.99	2111.71
552.35	2118.92
552.70	2125.79
553.06	2132.54
553.41	2138.90
553.77	2145.57
554.13	2151.94
554.48	2159.12
554.84	2166.30
555.19	2172.86
555.55	2179.40
555.90	2185.61
556.26	2192.44
556.61	2198.48
556.97	2203.45
557.32	2209.21
557.68	2215.70
558.03	2221.45
558.39	2226.78
558.74	2232.62
559.10	2238.10
559.45	2243.60
559.81	2249.20
560.16	2254.82
560.52	2260.65
560.87	2267.05
561.23	2273.09
561.58	2279.92
561.94	2285.15
562.29	2289.97
562.64	2296.13
563.00	2301.84
563.35	2307.45
563.71	2313.21
564.06	2319.07
564.42	2324.91
564.77	2329.95
565.12	2335.10
565.48	2340.26
565.83	2345.77
566.19	2351.15
566.54	2356.58
566.89	2361.15
567.25	2365.73
567.60	2371.42
567.96	2376.69
568.31	2381.20
568.66	2385.55
569.02	2389.53
569.37	2393.18
569.72	2397.56
570.08	2400.95
570.43	2404.10
570.78	2407.18
571.14	2409.67
571.49	2412.74
571.84	2416.22
572.20	2419.21
572.55	2422.17
572.90	2424.51
573.26	2427.36
573.61	2430.08
573.96	2432.38
574.31	2434.48
574.67	2436.29
575.02	2437.17
575.37	2438.53
575.72	2439.34
576.08	2440.74
576.43	2440.75
576.78	2441.34
577.13	2442.81
577.49	2444.04
577.84	2445.05
578.19	2446.33
578.54	2447.00
578.90	2447.66
579.25	2447.69
579.60	2447.49
579.95	2446.75
580.30	2446.74
580.66	2446.15
581.01	2444.36
581.36	2441.97
581.71	2440.42
582.06	2439.36
582.42	2438.29
582.77	2435.92
583.12	2434.21
583.47	2432.74
583.82	2432.14
584.17	2430.73
584.53	2428.59
584.88	2426.48
585.23	2424.52
585.58	2422.21
585.93	2420.08
586.28	2417.84
586.63	2415.28
586.98	2412.98
587.34	2410.94
587.69	2408.41
588.04	2406.21
588.39	2404.66
588.74	2402.01
589.09	2399.30
589.44	2396.08
589.79	2393.61
590.14	2391.65
590.49	2388.85
590.84	2384.86
591.19	2381.64
591.54	2378.38
591.89	2374.24
592.25	2370.93
592.60	2366.67
592.95	2362.48
593.30	2358.32
593.65	2353.79
594.00	2349.25
594.35	2346.37
594.70	2341.63
595.05	2337.04
595.40	2331.61
595.75	2325.89
596.10	2322.25
596.45	2317.49
596.80	2312.85
597.15	2307.68
597.50	2301.73
597.85	2296.76
598.19	2291.58
598.54	2285.82
598.89	2280.58
599.24	2276.03
599.59	2269.77
599.94	2263.87
600.29	2257.83
600.64	2251.78
600.99	2245.15
601.34	2239.66
601.69	2232.57
602.04	2226.22
602.39	2219.48
602.74	2213.19
603.08	2207.57
603.43	2201.03
603.78	2194.16
604.13	2187.00
604.48	2179.56
604.83	2173.37
605.18	2166.96
605.53	2160.09
605.87	2152.94
606.22	2146.02
606.57	2138.06
606.92	2130.07
607.27	2123.11
607.62	2116.47
607.96	2109.50
608.31	2103.00
608.66	2095.27
609.01	2087.52
609.36	2080.38
609.70	2072.64
610.05	2064.89
610.40	2056.55
610.75	2048.12
611.10	2040.23
611.44	2031.23
611.79	2022.51
612.14	2012.60
612.49	2001.91
612.83	1992.46
613.18	1983.12
613.53	1973.84
613.88	1964.22
614.22	1955.66
614.57	1945.71
614.92	1935.06
615.27	1924.75
615.61	1914.43
615.96	1904.65
616.31	1895.00
616.65	1885.53
617.00	1875.84
617.35	1866.08
617.70	1856.18
618.04	1846.25
618.39	1836.03
618.74	1826.45
619.08	1816.71
619.43	1807.87
619.78	1799.64
620.12	1791.00
620.47	1781.31
620.82	1770.98
621.16	1761.07
621.51	1750.98
621.85	1741.05
622.20	1730.67
622.55	1720.13
622.89	1710.24
623.24	1700.44
623.59	1690.55
623.93	1680.35
624.28	1670.57
624.62	1660.46
624.97	1650.25
625.32	1640.19
625.66	1631.17
626.01	1622.33
626.35	1612.96
626.70	1602.92
627.04	1592.83
627.39	1582.57
627.73	1573.34
628.08	1564.24
628.43	1554.63
628.77	1545.39
629.12	1536.45
629.46	1528.53
629.81	1520.02
630.15	1510.38
630.50	1500.55
630.84	1490.10
631.19	1480.09
631.53	1470.64
631.88	1460.41
632.22	1450.25
632.57	1440.90
632.91	1430.87
633.26	1420.91
633.60	1411.36
633.95	1401.96
634.29	1392.45
634.64	1383.11
634.98	1373.04
635.32	1363.64
635.67	1355.17
636.01	1345.89
636.36	1336.19
636.70	1326.68
637.05	1317.25
637.39	1308.43
637.73	1299.83
638.08	1292.19
638.42	1284.02
638.77	1275.23
639.11	1266.98
639.45	1259.18
639.80	1250.64
640.14	1241.83
640.49	1233.09
640.83	1224.10
641.17	1215.88
641.52	1207.57
641.86	1198.91
642.20	1191.01
642.55	1182.39
642.89	1173.35
643.23	1164.64
643.58	1156.45
643.92	1147.26
644.26	1138.59
644.61	1129.93
644.95	1121.02
645.29	1111.69
645.64	1102.49
645.98	1093.86
646.32	1085.90
646.66	1077.32
647.01	1069.04
647.35	1060.86
647.69	1052.33
648.04	1044.03
648.38	1035.05
648.72	1026.22
649.06	1017.73
649.41	1009.48
649.75	1001.51
650.09	993.68
650.43	985.53
650.78	977.16
651.12	969.48
651.46	962.00
651.80	954.74
652.14	947.42
652.49	939.93
652.83	932.47
653.17	924.73
653.51	916.99
653.85	909.69
654.20	902.19
654.54	894.57
654.88	887.23
655.22	879.85
655.56	872.82
655.90	866.00
656.25	859.30
656.59	852.36
656.93	845.24
657.27	837.98
657.61	830.99
657.95	824.78
658.29	818.72
658.64	812.52
658.98	805.91
659.32	799.23
659.66	792.92
660.00	786.57
660.34	780.46
660.68	774.24
661.02	767.74
661.36	761.78
661.70	755.94
662.05	750.25
662.39	744.76
662.73	739.27
663.07	733.80
663.41	728.04
663.75	722.17
664.09	716.46
664.43	710.98
664.77	705.64
665.11	699.73
665.45	693.84
665.79	687.90
666.13	682.22
666.47	676.67
666.81	671.12
667.15	665.72
667.49	660.45
667.83	655.18
668.17	649.98
668.51	644.80
668.85	639.89
669.19	634.93
669.53	629.89
669.87	624.75
670.21	619.95
670.55	615.24
670.89	610.82
671.23	606.45
671.57	602.04
671.91	597.61
672.25	593.47
672.58	589.22
672.92	585.18
673.26	581.22
673.60	577.32
673.94	573.47
674.28	569.72
674.62	565.98
674.96	562.18
675.30	558.60
675.64	554.90
675.97	551.23
676.31	547.62
676.65	543.94
676.99	540.47
677.33	536.56
677.67	532.81
678.01	528.95
678.34	525.23
678.68	521.67
679.02	518.01
679.36	514.22
679.70	510.50
680.04	506.85
680.37	503.37
680.71	500.01
681.05	496.82
681.39	493.55
681.73	490.33
682.06	487.24
682.40	484.13
682.74	480.89
683.08	477.64
683.42	474.39
683.75	471.38
684.09	468.37
684.43	465.56
684.77	462.64
685.10	459.72
685.44	456.76
685.78	453.79
686.12	450.98
686.45	448.28
686.79	445.60
687.13	443.05
687.46	440.39
687.80	437.65
688.14	434.74
688.48	432.02
688.81	429.30
689.15	426.65
689.49	424.03
689.82	421.42
690.16	418.75
690.50	416.27
690.83	413.72
691.17	411.11
691.51	408.55
691.84	406.23
692.18	404.01
692.52	401.77
692.85	399.61
693.19	397.42
693.52	395.17
693.86	392.93
694.20	390.70
694.53	388.47
694.87	386.25
695.21	384.09
695.54	381.93
695.88	379.71
696.21	377.48
696.55	375.29
696.88	373.25
697.22	371.27
697.56	369.33
697.89	367.41
698.23	365.63
698.56	363.84
698.90	362.07
699.23	360.11
699.57	358.25
699.90	356.38
700.24	354.56
700.58	352.83
700.91	351.16
701.25	349.57
701.58	347.97
701.92	346.36
702.25	344.74
702.59	343.09
702.92	341.55
703.26	339.98
703.59	338.48
703.93	337.20
704.26	335.76
704.60	334.21
704.93	332.69
705.26	331.16
705.60	329.66
705.93	328.07
706.27	326.70
706.60	325.35
706.94	324.03
707.27	322.61
707.61	321.26
707.94	319.86
708.27	318.38
708.61	316.86
708.94	315.46
709.28	314.14
709.61	312.90
709.94	311.67
710.28	310.46
710.61	309.25
710.95	307.84
711.28	306.75
711.61	305.55
711.95	304.43
712.28	303.24
712.61	302.05
712.95	301.04
713.28	299.98
713.61	298.85
713.95	297.69
714.28	296.67
714.61	295.56
714.95	294.56
715.28	293.50
715.61	292.50
715.95	291.51
716.28	290.55
716.61	289.58
716.95	288.56
717.28	287.58
717.61	286.63
717.94	285.69
718.28	284.60
718.61	283.74
718.94	282.82
719.27	281.92
719.61	281.11
719.94	280.22
720.27	279.25
720.60	278.36
720.94	277.53
721.27	276.71
721.60	276.00
721.93	275.25
722.27	274.55
722.60	273.90
722.93	273.20
723.26	272.54
723.59	271.79
723.93	271.18
724.26	270.53
724.59	269.87
724.92	269.27
725.25	268.71
725.59	268.10
725.92	267.55
726.25	267.01
726.58	266.41
726.91	265.77
727.24	265.20
727.57	264.66
727.91	264.09
728.24	263.57
728.57	262.97
728.90	262.40
729.23	261.79
729.56	261.31
729.89	260.77
730.22	260.15
730.55	259.61
730.89	258.99
731.22	258.44
731.55	257.87
731.88	257.35
732.21	256.82
732.54	256.27
732.87	255.74
733.20	255.23
733.53	254.72
733.86	254.28
734.19	253.81
734.52	253.36
734.85	253.09
735.18	252.61
735.51	252.21
735.84	251.78
736.17	251.40
736.50	250.83
736.83	250.69
737.16	250.33
737.49	249.92
737.82	249.57
738.15	249.20
738.48	248.86
738.81	248.44
739.14	248.04
739.47	247.64
739.80	247.27
740.13	246.88
740.46	246.51
740.79	246.10
741.12	245.72
741.45	245.35
741.78	244.87
742.11	244.56
742.44	244.19
742.77	243.90
743.10	243.53
743.43	243.23
743.75	242.62
744.08	242.54
744.41	242.24
744.74	241.89
745.07	241.52
745.40	241.17
745.73	240.93
746.06	240.58
746.39	240.27
746.71	239.92
747.04	239.59
747.37	239.30
747.70	239.02
748.03	238.72
748.36	238.45
748.68	238.16
749.01	237.81
749.34	237.52
749.67	237.20
750.00	236.92
750.33	236.76
750.65	236.51
750.98	235.99
751.31	235.72
751.64	235.52
751.97	235.38
752.29	235.15
752.62	234.83
752.95	234.58
753.28	234.36
753.60	234.13
753.93	233.97
754.26	233.74
754.59	233.48
754.91	233.22
755.24	232.96
755.57	232.71
755.90	232.47
756.22	232.25
756.55	232.03
756.88	231.81
757.20	231.46
757.53	231.19
757.86	230.98
758.19	230.75
758.51	230.52
758.84	230.19
759.17	229.96
759.49	229.74
759.82	229.67
760.15	229.48
760.47	229.27
760.80	228.98
761.13	228.79
761.45	228.58
761.78	228.38
762.11	228.23
762.43	228.04
762.76	227.87
763.08	227.70
763.41	227.52
763.74	227.36
764.06	227.22
764.39	227.06
764.71	226.90
765.04	226.75
765.37	226.58
765.69	226.43
766.02	226.28
766.34	226.13
766.67	225.89
767.00	225.80
767.32	225.78
767.65	225.80
767.97	225.66
768.30	225.54
768.62	225.45
768.95	225.29
769.27	225.16
769.60	225.07
769.92	224.91
770.25	224.74
770.57	224.57
770.90	224.42
771.22	224.29
771.55	224.17
771.87	224.05
772.20	223.93
772.52	224.00
772.85	224.10
773.17	224.01
773.50	223.87
773.82	223.74
774.15	223.51
774.47	223.27
774.80	223.17
775.12	223.08
775.45	222.98
775.77	222.93
776.09	222.87
776.42	222.78
776.74	222.77
777.07	222.67
777.39	222.60
777.72	222.46
778.04	222.44
778.36	222.32
778.69	222.26
779.01	222.18
779.33	221.93
779.66	221.65
779.98	221.54
780.31	221.51
780.63	221.50
780.95	221.50
781.28	221.42
781.60	221.37
781.92	221.29
782.25	221.20
782.57	221.07
782.89	220.97
783.22	220.87
783.54	220.77
783.86	220.72
784.19	220.67
784.51	220.73
784.83	220.64
785.16	220.56
785.48	220.51
785.80	220.43
786.12	220.40
