SpectraSuite Data File
++++++++++++++++++++++++++++++++++++
Date: Tue Jan 29 16:36:56 EST 2013
User: group
Dark Spectrum Present: No
Reference Spectrum Present: No
Number of Sampled Component Spectra: 1
Spectrometers: USB2E7196
Integration Time (usec): 65000 (USB2E7196)
Spectra Averaged: 100 (USB2E7196)
Boxcar Smoothing: 10 (USB2E7196)
Correct for Electrical Dark: No (USB2E7196)
Strobe/Lamp Enabled: No (USB2E7196)
Correct for Detector Non-linearity: No (USB2E7196)
Correct for Stray Light: No (USB2E7196)
Number of Pixels in Processed Spectrum: 2048
>>>>>Begin Processed Spectral Data<<<<<
339.09	0.00
339.48	201.66
339.86	202.92
340.24	204.12
340.63	206.40
341.01	210.08
341.39	208.84
341.78	210.31
342.16	211.71
342.54	211.48
342.93	200.94
343.31	211.06
343.69	211.61
344.07	212.08
344.46	212.55
344.84	212.92
345.22	213.09
345.60	213.38
345.99	213.60
346.37	213.75
346.75	213.87
347.13	213.99
347.52	214.09
347.90	214.19
348.28	214.23
348.66	214.33
349.05	214.30
349.43	214.35
349.81	214.42
350.19	214.48
350.57	214.56
350.96	214.66
351.34	214.80
351.72	214.92
352.10	215.03
352.48	215.09
352.87	215.17
353.25	215.24
353.63	215.28
354.01	215.31
354.39	215.39
354.77	215.48
355.15	215.59
355.54	215.65
355.92	215.63
356.30	215.71
356.68	215.95
357.06	216.06
357.44	216.09
357.82	216.17
358.20	216.27
358.58	216.34
358.97	216.41
359.35	216.51
359.73	216.61
360.11	216.67
360.49	216.73
360.87	216.80
361.25	216.91
361.63	217.04
362.01	217.14
362.39	217.17
362.77	217.22
363.15	217.22
363.53	217.24
363.91	217.31
364.29	217.31
364.67	217.08
365.05	217.10
365.43	217.16
365.81	217.16
366.19	217.24
366.57	217.30
366.95	217.28
367.33	217.26
367.71	217.24
368.09	217.29
368.47	217.27
368.85	217.25
369.23	217.27
369.61	217.20
369.99	217.18
370.37	217.20
370.75	217.26
371.13	217.18
371.51	217.14
371.89	217.14
372.27	217.12
372.65	217.15
373.03	217.12
373.41	217.05
373.78	217.03
374.16	216.92
374.54	216.86
374.92	216.79
375.30	216.74
375.68	216.65
376.06	216.61
376.44	216.59
376.82	216.57
377.19	216.48
377.57	216.39
377.95	216.31
378.33	216.23
378.71	216.05
379.09	216.09
379.47	216.06
379.84	216.01
380.22	215.95
380.60	215.88
380.98	215.84
381.36	215.81
381.73	215.72
382.11	215.69
382.49	215.64
382.87	215.59
383.25	215.54
383.62	215.75
384.00	215.71
384.38	215.66
384.76	215.68
385.13	215.76
385.51	215.74
385.89	215.68
386.27	215.65
386.64	215.69
387.02	215.63
387.40	215.63
387.78	215.61
388.15	215.62
388.53	215.57
388.91	215.56
389.29	215.53
389.66	215.59
390.04	215.53
390.42	215.55
390.79	215.58
391.17	215.58
391.55	215.32
391.92	215.30
392.30	215.34
392.68	215.26
393.05	215.23
393.43	215.23
393.81	215.26
394.18	215.24
394.56	215.24
394.94	215.27
395.31	215.26
395.69	215.31
396.06	215.33
396.44	215.39
396.82	215.39
397.19	215.51
397.57	215.47
397.95	215.56
398.32	215.49
398.70	215.53
399.07	215.61
399.45	215.65
399.82	215.68
400.20	215.67
400.58	215.74
400.95	215.71
401.33	215.81
401.70	216.02
402.08	216.11
402.45	216.20
402.83	216.33
403.20	216.44
403.58	216.53
403.95	216.69
404.33	216.83
404.71	216.99
405.08	217.23
405.46	217.42
405.83	217.60
406.21	217.82
406.58	218.07
406.96	218.29
407.33	218.53
407.70	218.85
408.08	219.34
408.45	219.70
408.83	220.13
409.20	220.45
409.58	220.73
409.95	221.18
410.33	221.65
410.70	222.12
411.08	222.68
411.45	223.26
411.82	223.78
412.20	224.51
412.57	225.31
412.95	225.87
413.32	226.68
413.69	227.52
414.07	228.45
414.44	229.41
414.82	230.41
415.19	231.67
415.56	232.83
415.94	234.05
416.31	235.45
416.68	236.82
417.06	238.43
417.43	239.99
417.81	241.74
418.18	243.52
418.55	245.48
418.93	247.47
419.30	249.61
419.67	251.86
420.04	254.11
420.42	256.54
420.79	259.37
421.16	262.16
421.54	265.04
421.91	268.03
422.28	271.16
422.66	274.48
423.03	277.68
423.40	281.04
423.77	284.58
424.15	288.23
424.52	292.07
424.89	296.26
425.26	300.36
425.64	304.24
426.01	308.56
426.38	313.04
426.75	317.60
427.13	322.32
427.50	327.32
427.87	332.58
428.24	337.77
428.61	342.78
428.99	348.33
429.36	354.32
429.73	360.18
430.10	366.07
430.47	372.14
430.85	378.48
431.22	385.26
431.59	392.38
431.96	399.22
432.33	406.75
432.70	414.00
433.08	422.51
433.45	430.65
433.82	438.73
434.19	447.59
434.56	456.30
434.93	464.68
435.30	472.99
435.68	482.08
436.05	491.12
436.42	500.04
436.79	508.19
437.16	517.03
437.53	526.37
437.90	535.49
438.27	544.51
438.64	553.76
439.01	562.26
439.38	569.88
439.75	577.24
440.13	585.70
440.50	593.72
440.87	600.15
441.24	606.77
441.61	614.07
441.98	619.54
442.35	625.94
442.72	632.24
443.09	638.31
443.46	642.07
443.83	644.61
444.20	646.84
444.57	650.03
444.94	651.50
445.31	652.97
445.68	654.38
446.05	654.93
446.42	654.18
446.79	653.28
447.16	652.27
447.53	651.49
447.90	648.13
448.27	644.76
448.64	640.17
449.01	636.84
449.37	630.94
449.74	625.18
450.11	618.23
450.48	610.84
450.85	603.34
451.22	596.89
451.59	590.72
451.96	584.85
452.33	576.94
452.70	569.82
453.07	561.27
453.43	552.67
453.80	544.38
454.17	536.34
454.54	528.73
454.91	520.49
455.28	512.54
455.65	505.10
456.02	497.63
456.38	491.28
456.75	483.36
457.12	476.79
457.49	470.26
457.86	464.04
458.23	458.64
458.59	452.70
458.96	446.63
459.33	441.29
459.70	435.86
460.07	431.62
460.43	426.73
460.80	422.17
461.17	418.16
461.54	413.97
461.91	409.91
462.27	405.74
462.64	402.31
463.01	398.43
463.38	394.73
463.74	391.00
464.11	387.71
464.48	384.89
464.85	381.77
465.21	379.30
465.58	376.67
465.95	373.51
466.32	370.89
466.68	368.35
467.05	365.71
467.42	363.21
467.78	360.50
468.15	357.93
468.52	356.02
468.88	353.48
469.25	351.24
469.62	349.44
469.98	347.52
470.35	345.71
470.72	344.06
471.08	342.24
471.45	340.76
471.82	339.21
472.18	337.55
472.55	336.37
472.92	334.98
473.28	333.76
473.65	332.62
474.02	331.46
474.38	330.49
474.75	329.76
475.11	328.94
475.48	328.40
475.85	327.89
476.21	327.39
476.58	327.05
476.94	326.88
477.31	326.56
477.67	326.30
478.04	326.11
478.41	326.02
478.77	326.22
479.14	326.16
479.50	326.30
479.87	326.58
480.23	326.82
480.60	327.09
480.96	327.40
481.33	327.99
481.69	328.60
482.06	329.16
482.42	329.64
482.79	330.22
483.15	330.90
483.52	331.87
483.88	332.76
484.25	333.73
484.61	334.70
484.98	335.74
485.34	337.07
485.71	338.42
486.07	339.87
486.44	341.22
486.80	342.81
487.17	344.49
487.53	346.31
487.90	348.22
488.26	350.24
488.62	352.39
488.99	354.44
489.35	356.60
489.72	358.93
490.08	361.40
490.44	363.99
490.81	366.79
491.17	369.47
491.54	372.48
491.90	375.48
492.26	378.72
492.63	382.12
492.99	385.65
493.36	389.34
493.72	393.23
494.08	397.20
494.45	401.43
494.81	405.74
495.17	410.18
495.54	414.90
495.90	419.76
496.26	424.71
496.63	429.87
496.99	435.28
497.35	440.91
497.72	446.77
498.08	452.71
498.44	458.82
498.80	465.25
499.17	471.76
499.53	478.47
499.89	485.44
500.26	492.43
500.62	499.53
500.98	506.95
501.34	514.42
501.71	522.25
502.07	530.10
502.43	538.15
502.79	546.35
503.16	554.71
503.52	563.27
503.88	571.96
504.24	580.91
504.60	589.99
504.97	599.17
505.33	608.44
505.69	618.29
506.05	628.20
506.41	638.16
506.78	648.20
507.14	658.47
507.50	668.92
507.86	679.67
508.22	690.46
508.59	701.04
508.95	712.10
509.31	723.37
509.67	734.86
510.03	746.36
510.39	758.11
510.75	770.05
511.12	782.11
511.48	794.29
511.84	806.68
512.20	819.08
512.56	831.81
512.92	844.71
513.28	857.47
513.64	870.22
514.00	883.04
514.37	896.04
514.73	909.32
515.09	922.46
515.45	935.44
515.81	948.61
516.17	962.17
516.53	975.60
516.89	988.77
517.25	1001.95
517.61	1015.56
517.97	1028.95
518.33	1042.10
518.69	1055.63
519.05	1069.46
519.41	1083.17
519.77	1097.14
520.13	1110.52
520.49	1123.79
520.85	1137.14
521.21	1150.58
521.57	1164.44
521.93	1177.63
522.29	1191.37
522.65	1205.05
523.01	1218.68
523.37	1231.88
523.73	1245.29
524.09	1258.63
524.45	1272.08
524.81	1285.84
525.17	1299.26
525.53	1312.80
525.89	1326.31
526.25	1339.59
526.61	1352.41
526.97	1365.68
527.33	1378.71
527.68	1392.32
528.04	1405.93
528.40	1419.28
528.76	1432.78
529.12	1445.73
529.48	1459.20
529.84	1471.60
530.20	1484.31
530.56	1497.09
530.91	1510.51
531.27	1523.47
531.63	1536.25
531.99	1549.12
532.35	1561.41
532.71	1573.91
533.07	1586.77
533.42	1599.11
533.78	1611.42
534.14	1623.70
534.50	1634.90
534.86	1646.69
535.21	1657.73
535.57	1669.35
535.93	1680.74
536.29	1691.89
536.65	1703.48
537.00	1714.64
537.36	1726.19
537.72	1737.42
538.08	1749.02
538.44	1760.19
538.79	1771.40
539.15	1782.36
539.51	1793.39
539.87	1804.80
540.22	1815.74
540.58	1826.65
540.94	1837.74
541.29	1848.08
541.65	1857.96
542.01	1868.60
542.37	1878.75
542.72	1888.94
543.08	1898.71
543.44	1909.26
543.79	1918.66
544.15	1928.18
544.51	1938.15
544.87	1948.05
545.22	1957.43
545.58	1966.29
545.94	1975.21
546.29	1983.82
546.65	1992.26
547.01	2000.45
547.36	2008.26
547.72	2016.10
548.07	2023.80
548.43	2031.44
548.79	2039.43
549.14	2047.56
549.50	2056.23
549.86	2064.11
550.21	2071.61
550.57	2079.40
550.92	2086.22
551.28	2093.92
551.64	2101.23
551.99	2108.80
552.35	2116.15
552.70	2123.06
553.06	2129.74
553.41	2136.05
553.77	2142.69
554.13	2149.15
554.48	2156.27
554.84	2163.37
555.19	2170.06
555.55	2176.57
555.90	2182.96
556.26	2189.87
556.61	2196.05
556.97	2200.90
557.32	2206.67
557.68	2213.23
558.03	2218.93
558.39	2224.24
558.74	2230.06
559.10	2235.55
559.45	2241.05
559.81	2246.48
560.16	2251.92
560.52	2257.89
560.87	2264.23
561.23	2270.03
561.58	2276.67
561.94	2281.83
562.29	2286.51
562.64	2292.51
563.00	2298.31
563.35	2303.82
563.71	2309.48
564.06	2315.24
564.42	2321.15
564.77	2326.33
565.12	2331.57
565.48	2336.80
565.83	2342.48
566.19	2347.96
566.54	2353.35
566.89	2358.06
567.25	2362.58
567.60	2368.44
567.96	2373.49
568.31	2378.05
568.66	2382.47
569.02	2386.36
569.37	2390.12
569.72	2394.40
570.08	2397.81
570.43	2400.84
570.78	2404.02
571.14	2406.37
571.49	2409.46
571.84	2412.98
572.20	2415.85
572.55	2418.70
572.90	2420.95
573.26	2423.60
573.61	2426.07
573.96	2428.17
574.31	2430.14
574.67	2432.02
575.02	2432.57
575.37	2434.06
575.72	2434.58
576.08	2435.80
576.43	2435.82
576.78	2436.24
577.13	2437.84
577.49	2438.97
577.84	2439.89
578.19	2441.07
578.54	2441.56
578.90	2442.16
579.25	2441.97
579.60	2441.78
579.95	2440.96
580.30	2441.02
580.66	2440.21
581.01	2438.41
581.36	2435.96
581.71	2434.41
582.06	2433.20
582.42	2432.18
582.77	2429.94
583.12	2428.38
583.47	2427.07
583.82	2426.49
584.17	2425.17
584.53	2423.02
584.88	2420.77
585.23	2418.76
585.58	2416.41
585.93	2414.25
586.28	2411.82
586.63	2409.16
586.98	2406.84
587.34	2404.72
587.69	2402.17
588.04	2400.01
588.39	2398.55
588.74	2396.14
589.09	2393.34
589.44	2390.01
589.79	2387.46
590.14	2385.35
590.49	2382.47
590.84	2378.29
591.19	2374.97
591.54	2371.66
591.89	2367.56
592.25	2364.32
592.60	2360.13
592.95	2355.88
593.30	2351.68
593.65	2347.33
594.00	2342.91
594.35	2339.75
594.70	2335.09
595.05	2330.46
595.40	2324.83
595.75	2318.87
596.10	2315.01
596.45	2310.12
596.80	2305.57
597.15	2300.35
597.50	2294.17
597.85	2289.12
598.19	2283.91
598.54	2278.07
598.89	2272.80
599.24	2268.09
599.59	2261.98
599.94	2256.03
600.29	2249.99
600.64	2244.02
600.99	2237.18
601.34	2231.61
601.69	2224.55
602.04	2218.10
602.39	2211.37
602.74	2205.24
603.08	2199.79
603.43	2193.19
603.78	2186.26
604.13	2179.02
604.48	2171.66
604.83	2165.70
605.18	2159.30
605.53	2152.30
605.87	2145.36
606.22	2138.50
606.57	2130.53
606.92	2122.36
607.27	2115.35
607.62	2108.68
607.96	2101.67
608.31	2095.13
608.66	2087.42
609.01	2079.70
609.36	2072.58
609.70	2064.86
610.05	2057.17
610.40	2048.81
610.75	2040.45
611.10	2032.66
611.44	2023.76
611.79	2015.10
612.14	2004.95
612.49	1994.30
612.83	1985.03
613.18	1975.70
613.53	1966.26
613.88	1956.66
614.22	1947.91
614.57	1938.04
614.92	1927.43
615.27	1917.25
615.61	1907.07
615.96	1897.29
616.31	1887.80
616.65	1878.28
617.00	1868.47
617.35	1858.76
617.70	1849.02
618.04	1839.07
618.39	1828.97
618.74	1819.37
619.08	1809.64
619.43	1801.03
619.78	1792.87
620.12	1784.29
620.47	1774.57
620.82	1764.24
621.16	1754.55
621.51	1744.74
621.85	1734.89
622.20	1724.52
622.55	1713.95
622.89	1704.05
623.24	1694.26
623.59	1684.48
623.93	1674.32
624.28	1664.54
624.62	1654.47
624.97	1644.16
625.32	1634.24
625.66	1625.35
626.01	1616.56
626.35	1607.22
626.70	1597.11
627.04	1587.02
627.39	1576.84
627.73	1567.69
628.08	1558.89
628.43	1549.30
628.77	1540.11
629.12	1531.27
629.46	1523.46
629.81	1515.06
630.15	1505.62
630.50	1495.87
630.84	1485.37
631.19	1475.62
631.53	1466.34
631.88	1456.17
632.22	1446.23
632.57	1437.04
632.91	1426.87
633.26	1417.03
633.60	1407.55
633.95	1398.32
634.29	1388.80
634.64	1379.54
634.98	1369.56
635.32	1360.10
635.67	1351.56
636.01	1342.32
636.36	1332.56
636.70	1323.02
637.05	1313.63
637.39	1304.64
637.73	1296.08
638.08	1288.61
638.42	1280.42
638.77	1271.63
639.11	1263.47
639.45	1255.57
639.80	1246.96
640.14	1238.28
640.49	1229.39
640.83	1220.52
641.17	1212.31
641.52	1204.25
641.86	1195.67
642.20	1187.71
642.55	1179.18
642.89	1170.34
643.23	1161.64
643.58	1153.53
643.92	1144.50
644.26	1135.84
644.61	1127.41
644.95	1118.49
645.29	1109.17
645.64	1099.90
645.98	1091.40
646.32	1083.38
646.66	1074.78
647.01	1066.48
647.35	1058.25
647.69	1049.86
648.04	1041.53
648.38	1032.56
648.72	1023.69
649.06	1015.12
649.41	1006.87
649.75	998.91
650.09	990.96
650.43	982.92
650.78	974.55
651.12	966.87
651.46	959.37
651.80	952.09
652.14	944.90
652.49	937.34
652.83	930.00
653.17	922.27
653.51	914.58
653.85	907.37
654.20	900.06
654.54	892.65
654.88	885.44
655.22	878.23
655.56	871.29
655.90	864.50
656.25	857.83
656.59	850.98
656.93	843.82
657.27	836.67
657.61	829.66
657.95	823.42
658.29	817.39
658.64	811.29
658.98	804.74
659.32	798.13
659.66	791.85
660.00	785.51
660.34	779.39
660.68	773.26
661.02	766.93
661.36	760.95
661.70	755.05
662.05	749.36
662.39	743.81
662.73	738.32
663.07	732.88
663.41	727.24
663.75	721.47
664.09	715.88
664.43	710.39
664.77	704.96
665.11	699.15
665.45	693.24
665.79	687.42
666.13	681.77
666.47	676.20
666.81	670.72
667.15	665.28
667.49	660.08
667.83	654.87
668.17	649.51
668.51	644.37
668.85	639.48
669.19	634.54
669.53	629.51
669.87	624.35
670.21	619.55
670.55	614.76
670.89	610.27
671.23	605.85
671.57	601.46
671.91	597.16
672.25	593.06
672.58	588.90
672.92	584.79
673.26	580.81
673.60	576.95
673.94	573.11
674.28	569.48
674.62	565.66
674.96	561.83
675.30	558.29
675.64	554.58
675.97	550.91
676.31	547.25
676.65	543.65
676.99	540.23
677.33	536.30
677.67	532.66
678.01	528.79
678.34	525.13
678.68	521.56
679.02	517.93
679.36	514.19
679.70	510.52
680.04	506.91
680.37	503.42
680.71	500.02
681.05	496.80
681.39	493.48
681.73	490.26
682.06	487.15
682.40	484.09
682.74	480.77
683.08	477.54
683.42	474.35
683.75	471.31
684.09	468.25
684.43	465.48
684.77	462.55
685.10	459.70
685.44	456.76
685.78	453.80
686.12	450.98
686.45	448.21
686.79	445.49
687.13	443.04
687.46	440.33
687.80	437.65
688.14	434.78
688.48	432.13
688.81	429.46
689.15	426.85
689.49	424.19
689.82	421.70
690.16	419.07
690.50	416.55
690.83	413.96
691.17	411.40
691.51	408.85
691.84	406.53
692.18	404.25
692.52	402.00
692.85	399.85
693.19	397.65
693.52	395.45
693.86	393.19
694.20	390.85
694.53	388.71
694.87	386.44
695.21	384.26
695.54	382.06
695.88	379.86
696.21	377.66
696.55	375.50
696.88	373.38
697.22	371.40
697.56	369.48
697.89	367.53
698.23	365.72
698.56	363.92
698.90	362.11
699.23	360.22
699.57	358.32
699.90	356.38
700.24	354.54
700.58	352.78
700.91	351.09
701.25	349.53
701.58	347.91
701.92	346.30
702.25	344.70
702.59	343.02
702.92	341.46
703.26	339.87
703.59	338.36
703.93	337.08
704.26	335.61
704.60	334.08
704.93	332.56
705.26	331.03
705.60	329.56
705.93	328.05
706.27	326.64
706.60	325.37
706.94	324.16
707.27	322.81
707.61	321.41
707.94	320.00
708.27	318.42
708.61	316.94
708.94	315.54
709.28	314.20
709.61	312.94
709.94	311.72
710.28	310.49
710.61	309.30
710.95	307.86
711.28	306.74
711.61	305.54
711.95	304.46
712.28	303.28
712.61	302.05
712.95	300.97
713.28	299.96
713.61	298.78
713.95	297.62
714.28	296.54
714.61	295.51
714.95	294.51
715.28	293.47
715.61	292.41
715.95	291.47
716.28	290.52
716.61	289.57
716.95	288.56
717.28	287.62
717.61	286.64
717.94	285.69
718.28	284.68
718.61	283.78
718.94	282.79
719.27	281.90
719.61	281.07
719.94	280.16
720.27	279.15
720.60	278.23
720.94	277.43
721.27	276.66
721.60	275.95
721.93	275.24
722.27	274.59
722.60	273.95
722.93	273.21
723.26	272.53
723.59	271.82
723.93	271.18
724.26	270.50
724.59	269.82
724.92	269.26
725.25	268.68
725.59	268.08
725.92	267.55
726.25	267.02
726.58	266.44
726.91	265.83
727.24	265.27
727.57	264.74
727.91	264.11
728.24	263.56
728.57	262.96
728.90	262.37
729.23	261.76
729.56	261.32
729.89	260.75
730.22	260.19
730.55	259.64
730.89	259.07
731.22	258.58
731.55	258.07
731.88	257.52
732.21	256.91
732.54	256.36
732.87	255.85
733.20	255.31
733.53	254.80
733.86	254.36
734.19	253.84
734.52	253.42
734.85	253.12
735.18	252.62
735.51	252.24
735.84	251.81
736.17	251.42
736.50	250.85
736.83	250.72
737.16	250.29
737.49	249.90
737.82	249.51
738.15	249.10
738.48	248.70
738.81	248.30
739.14	247.92
739.47	247.56
739.80	247.18
740.13	246.82
740.46	246.43
740.79	246.02
741.12	245.66
741.45	245.32
741.78	244.85
742.11	244.57
742.44	244.13
742.77	243.80
743.10	243.42
743.43	243.10
743.75	242.49
744.08	242.44
744.41	242.05
744.74	241.67
745.07	241.25
745.40	240.95
745.73	240.71
746.06	240.40
746.39	240.07
746.71	239.72
747.04	239.34
747.37	239.00
747.70	238.71
748.03	238.41
748.36	238.11
748.68	237.80
749.01	237.43
749.34	237.14
749.67	236.86
750.00	236.60
750.33	236.47
750.65	236.18
750.98	235.63
751.31	235.40
751.64	235.17
751.97	235.07
752.29	234.78
752.62	234.41
752.95	234.17
753.28	233.93
753.60	233.71
753.93	233.56
754.26	233.36
754.59	233.11
754.91	232.88
755.24	232.61
755.57	232.36
755.90	232.15
756.22	231.91
756.55	231.65
756.88	231.37
757.20	231.00
757.53	230.77
757.86	230.58
758.19	230.41
758.51	230.16
758.84	229.88
759.17	229.69
759.49	229.53
759.82	229.41
760.15	229.23
760.47	229.02
760.80	228.73
761.13	228.56
761.45	228.37
761.78	228.20
762.11	228.03
762.43	227.85
762.76	227.68
763.08	227.54
763.41	227.36
763.74	227.24
764.06	227.07
764.39	226.92
764.71	226.75
765.04	226.56
765.37	226.46
765.69	226.30
766.02	226.15
766.34	226.02
766.67	225.80
767.00	225.69
767.32	225.67
767.65	225.68
767.97	225.53
768.30	225.42
768.62	225.27
768.95	225.09
769.27	224.99
769.60	224.89
769.92	224.77
770.25	224.66
770.57	224.45
770.90	224.35
771.22	224.22
771.55	224.11
771.87	224.00
772.20	223.86
772.52	223.88
772.85	224.00
773.17	223.88
773.50	223.77
773.82	223.63
774.15	223.43
774.47	223.22
774.80	223.11
775.12	223.01
775.45	222.93
775.77	222.89
776.09	222.76
776.42	222.67
776.74	222.59
777.07	222.47
777.39	222.45
777.72	222.34
778.04	222.28
778.36	222.18
778.69	222.11
779.01	222.05
779.33	221.78
779.66	221.48
779.98	221.39
780.31	221.36
780.63	221.37
780.95	221.31
781.28	221.23
781.60	221.14
781.92	221.09
782.25	221.01
782.57	220.91
782.89	220.87
783.22	220.79
783.54	220.72
783.86	220.69
784.19	220.59
784.51	220.55
784.83	220.47
785.16	220.39
785.48	220.31
785.80	220.21
786.12	220.16
