SpectraSuite Data File
++++++++++++++++++++++++++++++++++++
Date: Tue Jan 29 16:24:13 EST 2013
User: group
Dark Spectrum Present: No
Reference Spectrum Present: No
Number of Sampled Component Spectra: 1
Spectrometers: USB2E7196
Integration Time (usec): 65000 (USB2E7196)
Spectra Averaged: 100 (USB2E7196)
Boxcar Smoothing: 10 (USB2E7196)
Correct for Electrical Dark: No (USB2E7196)
Strobe/Lamp Enabled: No (USB2E7196)
Correct for Detector Non-linearity: No (USB2E7196)
Correct for Stray Light: No (USB2E7196)
Number of Pixels in Processed Spectrum: 2048
>>>>>Begin Processed Spectral Data<<<<<
339.09	0.00
339.48	202.42
339.86	203.75
340.24	204.90
340.63	206.18
341.01	210.32
341.39	209.12
341.78	210.91
342.16	212.50
342.54	212.13
342.93	201.44
343.31	211.60
343.69	212.13
344.07	212.59
344.46	213.04
344.84	213.48
345.22	213.69
345.60	213.96
345.99	214.14
346.37	214.25
346.75	214.37
347.13	214.47
347.52	214.52
347.90	214.66
348.28	214.67
348.66	214.77
349.05	214.73
349.43	214.75
349.81	214.80
350.19	214.84
350.57	214.90
350.96	215.00
351.34	215.13
351.72	215.21
352.10	215.31
352.48	215.36
352.87	215.39
353.25	215.42
353.63	215.48
354.01	215.55
354.39	215.62
354.77	215.69
355.15	215.77
355.54	215.84
355.92	215.80
356.30	215.86
356.68	216.03
357.06	216.12
357.44	216.19
357.82	216.22
358.20	216.31
358.58	216.38
358.97	216.42
359.35	216.51
359.73	216.63
360.11	216.69
360.49	216.74
360.87	216.81
361.25	216.90
361.63	217.01
362.01	217.06
362.39	217.11
362.77	217.17
363.15	217.21
363.53	217.20
363.91	217.24
364.29	217.33
364.67	217.20
365.05	217.22
365.43	217.24
365.81	217.31
366.19	217.40
366.57	217.48
366.95	217.51
367.33	217.45
367.71	217.43
368.09	217.44
368.47	217.47
368.85	217.42
369.23	217.46
369.61	217.39
369.99	217.46
370.37	217.44
370.75	217.51
371.13	217.48
371.51	217.44
371.89	217.45
372.27	217.37
372.65	217.33
373.03	217.33
373.41	217.28
373.78	217.24
374.16	217.11
374.54	217.01
374.92	216.93
375.30	216.94
375.68	216.87
376.06	216.86
376.44	216.82
376.82	216.82
377.19	216.73
377.57	216.69
377.95	216.56
378.33	216.53
378.71	216.36
379.09	216.34
379.47	216.31
379.84	216.25
380.22	216.21
380.60	216.13
380.98	216.04
381.36	216.01
381.73	215.94
382.11	215.96
382.49	215.93
382.87	215.86
383.25	215.80
383.62	215.99
384.00	215.91
384.38	215.89
384.76	215.90
385.13	215.93
385.51	215.87
385.89	215.80
386.27	215.76
386.64	215.77
387.02	215.70
387.40	215.66
387.78	215.65
388.15	215.64
388.53	215.60
388.91	215.60
389.29	215.56
389.66	215.55
390.04	215.49
390.42	215.51
390.79	215.51
391.17	215.48
391.55	215.25
391.92	215.28
392.30	215.26
392.68	215.19
393.05	215.15
393.43	215.17
393.81	215.20
394.18	215.16
394.56	215.18
394.94	215.27
395.31	215.27
395.69	215.33
396.06	215.36
396.44	215.40
396.82	215.39
397.19	215.51
397.57	215.50
397.95	215.59
398.32	215.58
398.70	215.62
399.07	215.71
399.45	215.74
399.82	215.78
400.20	215.81
400.58	215.90
400.95	215.93
401.33	216.03
401.70	216.22
402.08	216.33
402.45	216.42
402.83	216.54
403.20	216.65
403.58	216.75
403.95	216.92
404.33	217.05
404.71	217.23
405.08	217.49
405.46	217.69
405.83	217.86
406.21	218.06
406.58	218.30
406.96	218.50
407.33	218.74
407.70	219.05
408.08	219.51
408.45	219.86
408.83	220.23
409.20	220.56
409.58	220.86
409.95	221.32
410.33	221.81
410.70	222.22
411.08	222.79
411.45	223.33
411.82	223.92
412.20	224.60
412.57	225.43
412.95	226.02
413.32	226.88
413.69	227.72
414.07	228.61
414.44	229.63
414.82	230.65
415.19	231.84
415.56	232.98
415.94	234.13
416.31	235.49
416.68	236.88
417.06	238.48
417.43	240.04
417.81	241.76
418.18	243.50
418.55	245.44
418.93	247.48
419.30	249.58
419.67	251.77
420.04	254.08
420.42	256.43
420.79	259.24
421.16	261.99
421.54	264.87
421.91	267.85
422.28	270.89
422.66	274.15
423.03	277.40
423.40	280.76
423.77	284.38
424.15	288.02
424.52	291.86
424.89	296.03
425.26	300.07
425.64	303.93
426.01	308.21
426.38	312.65
426.75	317.17
427.13	321.90
427.50	326.88
427.87	332.01
428.24	337.21
428.61	342.17
428.99	347.64
429.36	353.65
429.73	359.56
430.10	365.39
430.47	371.43
430.85	377.73
431.22	384.37
431.59	391.46
431.96	398.28
432.33	405.75
432.70	412.94
433.08	421.47
433.45	429.48
433.82	437.46
434.19	446.31
434.56	454.99
434.93	463.31
435.30	471.53
435.68	480.64
436.05	489.58
436.42	498.45
436.79	506.59
437.16	515.31
437.53	524.46
437.90	533.62
438.27	542.56
438.64	551.70
439.01	560.21
439.38	567.65
439.75	574.93
440.13	583.33
440.50	591.27
440.87	597.67
441.24	604.29
441.61	611.57
441.98	616.91
442.35	623.18
442.72	629.38
443.09	635.47
443.46	639.23
443.83	641.69
444.20	643.86
444.57	647.03
444.94	648.45
445.31	649.88
445.68	651.19
446.05	651.78
446.42	650.96
446.79	650.02
447.16	648.99
447.53	648.17
447.90	644.78
448.27	641.39
448.64	636.77
449.01	633.37
449.37	627.53
449.74	621.87
450.11	614.97
450.48	607.63
450.85	600.09
451.22	593.59
451.59	587.44
451.96	581.61
452.33	573.73
452.70	566.67
453.07	558.22
453.43	549.64
453.80	541.38
454.17	533.44
454.54	525.94
454.91	517.82
455.28	509.90
455.65	502.54
456.02	495.18
456.38	488.83
456.75	481.09
457.12	474.56
457.49	468.06
457.86	461.91
458.23	456.54
458.59	450.68
458.96	444.69
459.33	439.49
459.70	434.19
460.07	429.97
460.43	425.10
460.80	420.58
461.17	416.60
461.54	412.43
461.91	408.38
462.27	404.23
462.64	400.87
463.01	397.10
463.38	393.39
463.74	389.65
464.11	386.42
464.48	383.62
464.85	380.47
465.21	378.07
465.58	375.48
465.95	372.41
466.32	369.79
466.68	367.25
467.05	364.64
467.42	362.01
467.78	359.33
468.15	356.79
468.52	354.91
468.88	352.47
469.25	350.30
469.62	348.60
469.98	346.69
470.35	344.88
470.72	343.25
471.08	341.51
471.45	340.03
471.82	338.51
472.18	336.81
472.55	335.62
472.92	334.29
473.28	333.05
473.65	331.93
474.02	330.86
474.38	329.99
474.75	329.22
475.11	328.45
475.48	327.89
475.85	327.41
476.21	326.98
476.58	326.64
476.94	326.35
477.31	325.98
477.67	325.72
478.04	325.60
478.41	325.53
478.77	325.70
479.14	325.71
479.50	325.91
479.87	326.24
480.23	326.59
480.60	326.85
480.96	327.14
481.33	327.74
481.69	328.30
482.06	328.80
482.42	329.30
482.79	329.88
483.15	330.65
483.52	331.60
483.88	332.43
484.25	333.40
484.61	334.45
484.98	335.55
485.34	336.89
485.71	338.19
486.07	339.63
486.44	340.94
486.80	342.54
487.17	344.17
487.53	346.00
487.90	347.91
488.26	349.94
488.62	352.12
488.99	354.15
489.35	356.32
489.72	358.67
490.08	361.23
490.44	363.83
490.81	366.58
491.17	369.30
491.54	372.32
491.90	375.35
492.26	378.62
492.63	382.05
492.99	385.56
493.36	389.25
493.72	393.14
494.08	397.16
494.45	401.40
494.81	405.78
495.17	410.24
495.54	414.97
495.90	419.82
496.26	424.78
496.63	430.02
496.99	435.42
497.35	441.06
497.72	446.91
498.08	452.86
498.44	458.97
498.80	465.45
499.17	471.94
499.53	478.68
499.89	485.64
500.26	492.71
500.62	499.86
500.98	507.32
501.34	514.82
501.71	522.71
502.07	530.52
502.43	538.63
502.79	546.82
503.16	555.24
503.52	563.85
503.88	572.58
504.24	581.59
504.60	590.69
504.97	599.99
505.33	609.31
505.69	619.27
506.05	629.24
506.41	639.15
506.78	649.36
507.14	659.70
507.50	670.23
507.86	681.00
508.22	691.85
508.59	702.64
508.95	713.81
509.31	725.15
509.67	736.74
510.03	748.22
510.39	760.10
510.75	772.08
511.12	784.01
511.48	796.29
511.84	808.62
512.20	821.15
512.56	833.90
512.92	846.80
513.28	859.51
513.64	872.38
514.00	885.30
514.37	898.33
514.73	911.57
515.09	924.60
515.45	937.58
515.81	950.72
516.17	964.21
516.53	977.53
516.89	990.60
517.25	1003.93
517.61	1017.61
517.97	1031.06
518.33	1044.26
518.69	1057.97
519.05	1071.74
519.41	1085.59
519.77	1099.57
520.13	1113.06
520.49	1126.32
520.85	1139.85
521.21	1153.26
521.57	1167.10
521.93	1180.26
522.29	1194.13
522.65	1207.94
523.01	1221.73
523.37	1235.19
523.73	1248.66
524.09	1262.13
524.45	1275.81
524.81	1289.39
525.17	1302.82
525.53	1316.20
525.89	1329.65
526.25	1342.84
526.61	1355.83
526.97	1369.07
527.33	1382.02
527.68	1395.54
528.04	1409.16
528.40	1422.29
528.76	1435.75
529.12	1448.74
529.48	1462.20
529.84	1474.53
530.20	1487.56
530.56	1500.26
530.91	1513.42
531.27	1526.41
531.63	1539.14
531.99	1552.03
532.35	1564.38
532.71	1576.97
533.07	1589.85
533.42	1602.17
533.78	1614.47
534.14	1626.64
534.50	1637.96
534.86	1649.73
535.21	1660.61
535.57	1672.30
535.93	1683.85
536.29	1695.03
536.65	1706.61
537.00	1717.71
537.36	1729.21
537.72	1740.08
538.08	1751.52
538.44	1762.69
538.79	1773.68
539.15	1784.73
539.51	1795.54
539.87	1806.99
540.22	1817.73
540.58	1828.84
540.94	1839.89
541.29	1850.25
541.65	1860.14
542.01	1870.63
542.37	1880.76
542.72	1891.01
543.08	1900.77
543.44	1911.28
543.79	1920.68
544.15	1930.21
544.51	1940.23
544.87	1950.22
545.22	1959.57
545.58	1968.58
545.94	1977.48
546.29	1986.14
546.65	1994.40
547.01	2002.64
547.36	2010.32
547.72	2018.16
548.07	2025.62
548.43	2033.40
548.79	2041.21
549.14	2049.40
549.50	2058.01
549.86	2065.93
550.21	2073.45
550.57	2081.41
550.92	2088.30
551.28	2095.85
551.64	2103.06
551.99	2110.72
552.35	2117.95
552.70	2124.88
553.06	2131.49
553.41	2137.84
553.77	2144.45
554.13	2151.02
554.48	2158.12
554.84	2165.28
555.19	2171.93
555.55	2178.52
555.90	2184.93
556.26	2191.98
556.61	2198.07
556.97	2202.91
557.32	2208.74
557.68	2215.29
558.03	2220.91
558.39	2226.25
558.74	2232.27
559.10	2237.89
559.45	2243.37
559.81	2248.98
560.16	2254.50
560.52	2260.45
560.87	2266.88
561.23	2272.75
561.58	2279.45
561.94	2284.78
562.29	2289.55
562.64	2295.70
563.00	2301.46
563.35	2307.01
563.71	2312.71
564.06	2318.44
564.42	2324.42
564.77	2329.61
565.12	2334.94
565.48	2340.02
565.83	2345.62
566.19	2351.06
566.54	2356.54
566.89	2361.17
567.25	2365.70
567.60	2371.51
567.96	2376.80
568.31	2381.43
568.66	2385.76
569.02	2389.76
569.37	2393.59
569.72	2398.02
570.08	2401.59
570.43	2404.87
570.78	2408.03
571.14	2410.60
571.49	2413.71
571.84	2417.31
572.20	2420.33
572.55	2423.24
572.90	2425.77
573.26	2428.52
573.61	2431.08
573.96	2433.35
574.31	2435.47
574.67	2437.35
575.02	2438.28
575.37	2439.76
575.72	2440.45
576.08	2442.09
576.43	2442.20
576.78	2442.68
577.13	2444.32
577.49	2445.39
577.84	2446.38
578.19	2447.76
578.54	2448.46
578.90	2449.37
579.25	2449.36
579.60	2449.33
579.95	2448.60
580.30	2448.69
580.66	2448.10
581.01	2446.65
581.36	2444.36
581.71	2442.93
582.06	2441.99
582.42	2441.02
582.77	2438.84
583.12	2437.37
583.47	2436.11
583.82	2435.64
584.17	2434.55
584.53	2432.58
584.88	2430.68
585.23	2428.88
585.58	2426.73
585.93	2424.91
586.28	2422.73
586.63	2420.32
586.98	2418.07
587.34	2416.29
587.69	2413.88
588.04	2411.98
588.39	2410.39
588.74	2407.96
589.09	2405.43
589.44	2402.32
589.79	2400.00
590.14	2398.11
590.49	2395.29
590.84	2391.36
591.19	2388.25
591.54	2384.85
591.89	2380.72
592.25	2377.48
592.60	2373.22
592.95	2368.92
593.30	2364.57
593.65	2360.15
594.00	2355.72
594.35	2352.79
594.70	2348.19
595.05	2343.71
595.40	2338.12
595.75	2332.42
596.10	2328.76
596.45	2323.81
596.80	2319.17
597.15	2313.90
597.50	2307.78
597.85	2302.81
598.19	2297.65
598.54	2291.93
598.89	2286.82
599.24	2282.27
599.59	2276.03
599.94	2270.20
600.29	2264.26
600.64	2258.27
600.99	2251.49
601.34	2245.95
601.69	2238.87
602.04	2232.37
602.39	2225.51
602.74	2219.42
603.08	2213.91
603.43	2207.25
603.78	2200.58
604.13	2193.43
604.48	2186.15
604.83	2180.06
605.18	2173.81
605.53	2166.86
605.87	2159.74
606.22	2152.91
606.57	2145.00
606.92	2137.11
607.27	2130.17
607.62	2123.45
607.96	2116.50
608.31	2110.02
608.66	2102.17
609.01	2094.47
609.36	2087.27
609.70	2079.69
610.05	2071.95
610.40	2063.61
610.75	2055.31
611.10	2047.19
611.44	2038.34
611.79	2029.51
612.14	2019.54
612.49	2008.81
612.83	1999.22
613.18	1989.90
613.53	1980.48
613.88	1970.76
614.22	1961.98
614.57	1952.03
614.92	1941.45
615.27	1931.03
615.61	1920.75
615.96	1910.99
616.31	1901.34
616.65	1891.82
617.00	1881.94
617.35	1872.12
617.70	1862.14
618.04	1851.97
618.39	1841.94
618.74	1832.21
619.08	1822.52
619.43	1813.63
619.78	1805.26
620.12	1796.65
620.47	1786.88
620.82	1776.40
621.16	1766.49
621.51	1756.50
621.85	1746.58
622.20	1736.10
622.55	1725.49
622.89	1715.56
623.24	1705.81
623.59	1695.93
623.93	1685.76
624.28	1675.83
624.62	1665.58
624.97	1655.26
625.32	1645.42
625.66	1636.27
626.01	1627.38
626.35	1617.87
626.70	1607.80
627.04	1597.68
627.39	1587.38
627.73	1578.02
628.08	1569.03
628.43	1559.37
628.77	1550.05
629.12	1540.99
629.46	1533.01
629.81	1524.69
630.15	1515.04
630.50	1505.09
630.84	1494.39
631.19	1484.36
631.53	1475.02
631.88	1464.77
632.22	1454.72
632.57	1445.15
632.91	1434.98
633.26	1424.95
633.60	1415.24
633.95	1405.84
634.29	1396.22
634.64	1386.85
634.98	1376.71
635.32	1367.27
635.67	1358.70
636.01	1349.22
636.36	1339.42
636.70	1329.84
637.05	1320.21
637.39	1311.24
637.73	1302.50
638.08	1294.90
638.42	1286.67
638.77	1277.77
639.11	1269.51
639.45	1261.44
639.80	1252.82
640.14	1244.00
640.49	1235.06
640.83	1226.11
641.17	1217.71
641.52	1209.42
641.86	1200.67
642.20	1192.66
642.55	1183.88
642.89	1174.92
643.23	1166.23
643.58	1157.95
643.92	1148.77
644.26	1140.03
644.61	1131.43
644.95	1122.50
645.29	1113.16
645.64	1103.72
645.98	1095.01
646.32	1086.81
646.66	1078.28
647.01	1069.86
647.35	1061.56
647.69	1053.11
648.04	1044.71
648.38	1035.74
648.72	1026.93
649.06	1018.37
649.41	1010.09
649.75	1002.07
650.09	994.06
650.43	985.88
650.78	977.48
651.12	969.66
651.46	962.15
651.80	954.78
652.14	947.40
652.49	939.85
652.83	932.51
653.17	924.76
653.51	917.09
653.85	909.75
654.20	902.40
654.54	894.91
654.88	887.56
655.22	880.28
655.56	873.22
655.90	866.23
656.25	859.49
656.59	852.54
656.93	845.47
657.27	838.24
657.61	831.15
657.95	824.99
658.29	818.98
658.64	812.75
658.98	806.12
659.32	799.48
659.66	793.13
660.00	786.65
660.34	780.46
660.68	774.32
661.02	767.91
661.36	761.81
661.70	755.88
662.05	750.16
662.39	744.58
662.73	739.15
663.07	733.77
663.41	728.08
663.75	722.29
664.09	716.48
664.43	710.97
664.77	705.61
665.11	699.64
665.45	693.71
665.79	687.87
666.13	682.21
666.47	676.70
666.81	671.17
667.15	665.73
667.49	660.45
667.83	655.05
668.17	649.70
668.51	644.51
668.85	639.53
669.19	634.60
669.53	629.54
669.87	624.36
670.21	619.53
670.55	614.74
670.89	610.22
671.23	605.85
671.57	601.36
671.91	597.01
672.25	592.81
672.58	588.60
672.92	584.42
673.26	580.41
673.60	576.44
673.94	572.54
674.28	568.94
674.62	565.24
674.96	561.50
675.30	557.94
675.64	554.35
675.97	550.73
676.31	547.06
676.65	543.39
676.99	539.97
677.33	536.06
677.67	532.41
678.01	528.47
678.34	524.77
678.68	521.24
679.02	517.61
679.36	513.89
679.70	510.16
680.04	506.58
680.37	503.04
680.71	499.69
681.05	496.43
681.39	493.12
681.73	489.84
682.06	486.80
682.40	483.67
682.74	480.40
683.08	477.11
683.42	473.91
683.75	470.88
684.09	467.69
684.43	464.90
684.77	461.86
685.10	459.05
685.44	456.12
685.78	453.15
686.12	450.32
686.45	447.58
686.79	444.92
687.13	442.32
687.46	439.66
687.80	436.94
688.14	434.04
688.48	431.31
688.81	428.61
689.15	425.95
689.49	423.34
689.82	420.81
690.16	418.19
690.50	415.69
690.83	413.14
691.17	410.59
691.51	408.01
691.84	405.73
692.18	403.44
692.52	401.21
692.85	399.07
693.19	396.90
693.52	394.69
693.86	392.44
694.20	390.26
694.53	388.12
694.87	385.94
695.21	383.84
695.54	381.67
695.88	379.49
696.21	377.27
696.55	375.10
696.88	372.95
697.22	370.95
697.56	369.01
697.89	367.08
698.23	365.34
698.56	363.57
698.90	361.85
699.23	359.93
699.57	358.03
699.90	356.11
700.24	354.20
700.58	352.44
700.91	350.73
701.25	349.08
701.58	347.49
701.92	345.87
702.25	344.29
702.59	342.67
702.92	341.09
703.26	339.52
703.59	338.02
703.93	336.80
704.26	335.34
704.60	333.81
704.93	332.33
705.26	330.77
705.60	329.23
705.93	327.68
706.27	326.31
706.60	325.03
706.94	323.79
707.27	322.45
707.61	321.07
707.94	319.69
708.27	318.16
708.61	316.64
708.94	315.20
709.28	313.83
709.61	312.56
709.94	311.36
710.28	310.11
710.61	308.89
710.95	307.38
711.28	306.29
711.61	305.10
711.95	303.96
712.28	302.74
712.61	301.54
712.95	300.46
713.28	299.40
713.61	298.26
713.95	297.06
714.28	296.05
714.61	295.01
714.95	294.02
715.28	293.04
715.61	292.08
715.95	291.12
716.28	290.13
716.61	289.16
716.95	288.12
717.28	287.17
717.61	286.24
717.94	285.38
718.28	284.31
718.61	283.43
718.94	282.50
719.27	281.65
719.61	280.81
719.94	279.90
720.27	278.93
720.60	278.06
720.94	277.25
721.27	276.47
721.60	275.78
721.93	275.06
722.27	274.36
722.60	273.64
722.93	272.92
723.26	272.27
723.59	271.54
723.93	270.90
724.26	270.23
724.59	269.54
724.92	268.90
725.25	268.39
725.59	267.78
725.92	267.24
726.25	266.69
726.58	266.16
726.91	265.59
727.24	265.04
727.57	264.45
727.91	263.88
728.24	263.30
728.57	262.70
728.90	262.11
729.23	261.54
729.56	261.12
729.89	260.55
730.22	259.93
730.55	259.37
730.89	258.85
731.22	258.32
731.55	257.84
731.88	257.31
732.21	256.75
732.54	256.21
732.87	255.70
733.20	255.19
733.53	254.66
733.86	254.18
734.19	253.70
734.52	253.31
734.85	253.03
735.18	252.55
735.51	252.14
735.84	251.72
736.17	251.32
736.50	250.76
736.83	250.64
737.16	250.28
737.49	249.94
737.82	249.52
738.15	249.12
738.48	248.70
738.81	248.30
739.14	247.84
739.47	247.50
739.80	247.08
740.13	246.70
740.46	246.33
740.79	245.95
741.12	245.59
741.45	245.19
741.78	244.69
742.11	244.44
742.44	244.05
742.77	243.78
743.10	243.41
743.43	243.07
743.75	242.47
744.08	242.38
744.41	242.03
744.74	241.69
745.07	241.36
745.40	241.08
745.73	240.84
746.06	240.55
746.39	240.20
746.71	239.88
747.04	239.56
747.37	239.25
747.70	238.95
748.03	238.65
748.36	238.38
748.68	238.10
749.01	237.72
749.34	237.44
749.67	237.12
750.00	236.86
750.33	236.71
750.65	236.46
750.98	235.95
751.31	235.67
751.64	235.42
751.97	235.29
752.29	234.99
752.62	234.66
752.95	234.44
753.28	234.18
753.60	233.95
753.93	233.77
754.26	233.52
754.59	233.25
754.91	232.98
755.24	232.74
755.57	232.52
755.90	232.28
756.22	232.04
756.55	231.76
756.88	231.50
757.20	231.18
757.53	230.93
757.86	230.72
758.19	230.55
758.51	230.32
758.84	229.99
759.17	229.81
759.49	229.62
759.82	229.53
760.15	229.38
760.47	229.18
760.80	228.94
761.13	228.82
761.45	228.64
761.78	228.49
762.11	228.27
762.43	228.08
762.76	227.93
763.08	227.79
763.41	227.64
763.74	227.47
764.06	227.29
764.39	227.13
764.71	226.95
765.04	226.78
765.37	226.62
765.69	226.49
766.02	226.35
766.34	226.19
766.67	225.97
767.00	225.82
767.32	225.78
767.65	225.73
767.97	225.56
768.30	225.46
768.62	225.33
768.95	225.21
769.27	225.13
769.60	225.03
769.92	224.84
770.25	224.68
770.57	224.54
770.90	224.41
771.22	224.29
771.55	224.18
771.87	224.05
772.20	223.96
772.52	224.02
772.85	224.15
773.17	224.05
773.50	223.94
773.82	223.84
774.15	223.64
774.47	223.46
774.80	223.34
775.12	223.23
775.45	223.11
775.77	223.04
776.09	222.91
776.42	222.80
776.74	222.80
777.07	222.71
777.39	222.64
777.72	222.54
778.04	222.50
778.36	222.39
778.69	222.34
779.01	222.29
779.33	222.03
779.66	221.70
779.98	221.63
780.31	221.54
780.63	221.54
780.95	221.46
781.28	221.37
781.60	221.26
781.92	221.21
782.25	221.15
782.57	221.05
782.89	220.99
783.22	220.91
783.54	220.77
783.86	220.74
784.19	220.65
784.51	220.65
784.83	220.55
785.16	220.50
785.48	220.44
785.80	220.36
786.12	220.32
