SpectraSuite Data File
++++++++++++++++++++++++++++++++++++
Date: Tue Jan 29 16:48:26 EST 2013
User: group
Dark Spectrum Present: No
Reference Spectrum Present: No
Number of Sampled Component Spectra: 1
Spectrometers: USB2E7196
Integration Time (usec): 65000 (USB2E7196)
Spectra Averaged: 100 (USB2E7196)
Boxcar Smoothing: 10 (USB2E7196)
Correct for Electrical Dark: No (USB2E7196)
Strobe/Lamp Enabled: No (USB2E7196)
Correct for Detector Non-linearity: No (USB2E7196)
Correct for Stray Light: No (USB2E7196)
Number of Pixels in Processed Spectrum: 2048
>>>>>Begin Processed Spectral Data<<<<<
339.09	0.00
339.48	201.69
339.86	202.34
340.24	203.99
340.63	205.90
341.01	209.98
341.39	208.22
341.78	209.85
342.16	211.34
342.54	210.74
342.93	200.60
343.31	210.74
343.69	211.28
344.07	211.81
344.46	212.28
344.84	212.67
345.22	212.84
345.60	213.13
345.99	213.34
346.37	213.48
346.75	213.64
347.13	213.71
347.52	213.81
347.90	213.95
348.28	214.00
348.66	214.08
349.05	214.03
349.43	214.11
349.81	214.17
350.19	214.26
350.57	214.35
350.96	214.45
351.34	214.55
351.72	214.63
352.10	214.74
352.48	214.77
352.87	214.85
353.25	214.94
353.63	214.98
354.01	215.05
354.39	215.14
354.77	215.21
355.15	215.35
355.54	215.37
355.92	215.38
356.30	215.49
356.68	215.68
357.06	215.75
357.44	215.76
357.82	215.83
358.20	215.94
358.58	216.04
358.97	216.10
359.35	216.21
359.73	216.32
360.11	216.34
360.49	216.44
360.87	216.46
361.25	216.55
361.63	216.68
362.01	216.75
362.39	216.77
362.77	216.82
363.15	216.83
363.53	216.86
363.91	216.88
364.29	216.88
364.67	216.70
365.05	216.76
365.43	216.84
365.81	216.86
366.19	216.94
366.57	217.02
366.95	217.02
367.33	216.99
367.71	217.01
368.09	217.06
368.47	217.05
368.85	217.06
369.23	217.08
369.61	217.00
369.99	217.04
370.37	217.05
370.75	217.15
371.13	217.10
371.51	217.09
371.89	217.12
372.27	217.11
372.65	217.11
373.03	217.07
373.41	217.04
373.78	217.00
374.16	216.87
374.54	216.74
374.92	216.68
375.30	216.67
375.68	216.55
376.06	216.52
376.44	216.46
376.82	216.42
377.19	216.37
377.57	216.30
377.95	216.18
378.33	216.12
378.71	215.95
379.09	215.93
379.47	215.94
379.84	215.85
380.22	215.75
380.60	215.69
380.98	215.65
381.36	215.61
381.73	215.52
382.11	215.52
382.49	215.49
382.87	215.41
383.25	215.34
383.62	215.56
384.00	215.48
384.38	215.45
384.76	215.47
385.13	215.51
385.51	215.48
385.89	215.47
386.27	215.45
386.64	215.46
387.02	215.42
387.40	215.34
387.78	215.32
388.15	215.31
388.53	215.29
388.91	215.25
389.29	215.19
389.66	215.19
390.04	215.14
390.42	215.15
390.79	215.16
391.17	215.14
391.55	214.93
391.92	214.93
392.30	214.94
392.68	214.88
393.05	214.83
393.43	214.82
393.81	214.84
394.18	214.79
394.56	214.77
394.94	214.84
395.31	214.84
395.69	214.94
396.06	214.99
396.44	215.02
396.82	215.03
397.19	215.15
397.57	215.15
397.95	215.22
398.32	215.18
398.70	215.22
399.07	215.33
399.45	215.31
399.82	215.35
400.20	215.36
400.58	215.42
400.95	215.39
401.33	215.52
401.70	215.69
402.08	215.76
402.45	215.86
402.83	215.97
403.20	216.09
403.58	216.16
403.95	216.30
404.33	216.43
404.71	216.60
405.08	216.85
405.46	217.02
405.83	217.19
406.21	217.40
406.58	217.65
406.96	217.81
407.33	218.10
407.70	218.41
408.08	218.89
408.45	219.23
408.83	219.65
409.20	219.98
409.58	220.27
409.95	220.79
410.33	221.25
410.70	221.70
411.08	222.22
411.45	222.80
411.82	223.40
412.20	224.07
412.57	224.87
412.95	225.47
413.32	226.30
413.69	227.15
414.07	228.09
414.44	229.06
414.82	230.09
415.19	231.29
415.56	232.49
415.94	233.70
416.31	235.17
416.68	236.59
417.06	238.22
417.43	239.77
417.81	241.48
418.18	243.30
418.55	245.19
418.93	247.27
419.30	249.41
419.67	251.65
420.04	253.98
420.42	256.41
420.79	259.23
421.16	262.07
421.54	264.99
421.91	267.99
422.28	271.12
422.66	274.51
423.03	277.77
423.40	281.08
423.77	284.72
424.15	288.37
424.52	292.18
424.89	296.43
425.26	300.53
425.64	304.43
426.01	308.76
426.38	313.32
426.75	317.84
427.13	322.60
427.50	327.58
427.87	332.80
428.24	338.00
428.61	343.00
428.99	348.53
429.36	354.55
429.73	360.47
430.10	366.40
430.47	372.40
430.85	378.75
431.22	385.52
431.59	392.60
431.96	399.46
432.33	407.01
432.70	414.16
433.08	422.76
433.45	430.83
433.82	438.82
434.19	447.74
434.56	456.48
434.93	464.86
435.30	473.10
435.68	482.24
436.05	491.28
436.42	500.23
436.79	508.45
437.16	517.28
437.53	526.58
437.90	535.74
438.27	544.74
438.64	553.93
439.01	562.54
439.38	570.17
439.75	577.52
440.13	585.90
440.50	593.97
440.87	600.44
441.24	607.11
441.61	614.48
441.98	619.89
442.35	626.23
442.72	632.52
443.09	638.65
443.46	642.39
443.83	644.98
444.20	647.20
444.57	650.33
444.94	651.86
445.31	653.36
445.68	654.79
446.05	655.40
446.42	654.73
446.79	653.82
447.16	652.78
447.53	652.01
447.90	648.73
448.27	645.45
448.64	640.76
449.01	637.46
449.37	631.57
449.74	625.93
450.11	619.07
450.48	611.72
450.85	604.28
451.22	597.90
451.59	591.76
451.96	585.88
452.33	578.04
452.70	570.87
453.07	562.33
453.43	553.62
453.80	545.35
454.17	537.24
454.54	529.62
454.91	521.35
455.28	513.34
455.65	505.91
456.02	498.37
456.38	492.02
456.75	484.10
457.12	477.48
457.49	470.91
457.86	464.64
458.23	459.16
458.59	453.14
458.96	447.00
459.33	441.62
459.70	436.25
460.07	431.92
460.43	426.96
460.80	422.37
461.17	418.38
461.54	414.17
461.91	410.12
462.27	405.98
462.64	402.59
463.01	398.79
463.38	395.08
463.74	391.36
464.11	388.12
464.48	385.31
464.85	382.23
465.21	379.76
465.58	377.14
465.95	373.97
466.32	371.43
466.68	368.86
467.05	366.21
467.42	363.62
467.78	360.92
468.15	358.36
468.52	356.45
468.88	353.91
469.25	351.70
469.62	349.91
469.98	347.92
470.35	346.08
470.72	344.38
471.08	342.54
471.45	341.02
471.82	339.42
472.18	337.71
472.55	336.47
472.92	335.06
473.28	333.85
473.65	332.73
474.02	331.56
474.38	330.63
474.75	329.89
475.11	329.06
475.48	328.43
475.85	327.92
476.21	327.41
476.58	327.03
476.94	326.75
477.31	326.41
477.67	326.11
478.04	325.93
478.41	325.85
478.77	326.04
479.14	325.95
479.50	326.10
479.87	326.40
480.23	326.70
480.60	326.91
480.96	327.13
481.33	327.70
481.69	328.25
482.06	328.77
482.42	329.19
482.79	329.79
483.15	330.62
483.52	331.56
483.88	332.43
484.25	333.37
484.61	334.37
484.98	335.45
485.34	336.80
485.71	338.14
486.07	339.57
486.44	340.85
486.80	342.48
487.17	344.12
487.53	345.92
487.90	347.78
488.26	349.80
488.62	351.99
488.99	354.00
489.35	356.18
489.72	358.54
490.08	361.10
490.44	363.67
490.81	366.36
491.17	369.11
491.54	372.03
491.90	375.08
492.26	378.31
492.63	381.69
492.99	385.17
493.36	388.82
493.72	392.71
494.08	396.72
494.45	400.91
494.81	405.27
495.17	409.78
495.54	414.55
495.90	419.41
496.26	424.31
496.63	429.52
496.99	434.89
497.35	440.49
497.72	446.29
498.08	452.20
498.44	458.31
498.80	464.72
499.17	471.21
499.53	477.97
499.89	484.88
500.26	491.86
500.62	498.92
500.98	506.29
501.34	513.76
501.71	521.54
502.07	529.31
502.43	537.29
502.79	545.41
503.16	553.69
503.52	562.26
503.88	570.92
504.24	579.82
504.60	588.90
504.97	598.11
505.33	607.30
505.69	617.18
506.05	627.04
506.41	636.85
506.78	646.99
507.14	657.14
507.50	667.55
507.86	678.24
508.22	688.99
508.59	699.66
508.95	710.67
509.31	721.86
509.67	733.39
510.03	744.72
510.39	756.40
510.75	768.23
511.12	780.08
511.48	792.17
511.84	804.45
512.20	816.74
512.56	829.34
512.92	842.21
513.28	854.80
513.64	867.55
514.00	880.41
514.37	893.36
514.73	906.45
515.09	919.46
515.45	932.40
515.81	945.56
516.17	958.93
516.53	972.20
516.89	985.33
517.25	998.53
517.61	1012.08
517.97	1025.53
518.33	1038.71
518.69	1052.31
519.05	1066.07
519.41	1079.85
519.77	1093.85
520.13	1107.19
520.49	1120.30
520.85	1133.69
521.21	1146.98
521.57	1160.72
521.93	1173.79
522.29	1187.51
522.65	1201.22
523.01	1214.80
523.37	1227.87
523.73	1241.24
524.09	1254.48
524.45	1267.82
524.81	1281.29
525.17	1294.71
525.53	1307.98
525.89	1321.45
526.25	1334.55
526.61	1347.48
526.97	1360.47
527.33	1373.44
527.68	1387.02
528.04	1400.63
528.40	1413.79
528.76	1427.34
529.12	1440.30
529.48	1453.64
529.84	1465.93
530.20	1478.68
530.56	1491.28
530.91	1504.68
531.27	1517.63
531.63	1530.45
531.99	1543.47
532.35	1555.72
532.71	1568.11
533.07	1580.97
533.42	1593.24
533.78	1605.50
534.14	1617.54
534.50	1628.94
534.86	1640.46
535.21	1651.38
535.57	1663.00
535.93	1674.40
536.29	1685.46
536.65	1696.89
537.00	1707.84
537.36	1719.46
537.72	1730.59
538.08	1742.11
538.44	1753.22
538.79	1764.27
539.15	1775.19
539.51	1785.97
539.87	1797.40
540.22	1808.39
540.58	1819.34
540.94	1830.34
541.29	1840.73
541.65	1850.76
542.01	1861.31
542.37	1871.52
542.72	1881.61
543.08	1891.37
543.44	1901.86
543.79	1911.25
544.15	1920.78
544.51	1930.93
544.87	1940.89
545.22	1950.17
545.58	1959.11
545.94	1968.02
546.29	1976.65
546.65	1985.08
547.01	1993.49
547.36	2001.20
547.72	2009.00
548.07	2016.72
548.43	2024.50
548.79	2032.35
549.14	2040.44
549.50	2048.99
549.86	2056.96
550.21	2064.57
550.57	2072.43
550.92	2079.35
551.28	2086.82
551.64	2094.17
551.99	2101.75
552.35	2108.88
552.70	2115.79
553.06	2122.62
553.41	2128.86
553.77	2135.43
554.13	2141.93
554.48	2148.75
554.84	2156.02
555.19	2162.59
555.55	2169.06
555.90	2175.40
556.26	2182.23
556.61	2188.37
556.97	2193.13
557.32	2198.83
557.68	2205.19
558.03	2210.87
558.39	2216.20
558.74	2222.24
559.10	2227.78
559.45	2233.33
559.81	2238.88
560.16	2244.51
560.52	2250.30
560.87	2256.74
561.23	2262.61
561.58	2269.16
561.94	2274.43
562.29	2279.11
562.64	2285.05
563.00	2290.58
563.35	2295.97
563.71	2301.74
564.06	2307.33
564.42	2313.26
564.77	2318.25
565.12	2323.49
565.48	2328.47
565.83	2333.94
566.19	2339.14
566.54	2344.29
566.89	2348.77
567.25	2353.30
567.60	2358.81
567.96	2363.78
568.31	2368.16
568.66	2372.32
569.02	2376.20
569.37	2379.85
569.72	2384.02
570.08	2387.48
570.43	2390.68
570.78	2393.68
571.14	2396.08
571.49	2399.15
571.84	2402.58
572.20	2405.49
572.55	2408.47
572.90	2410.75
573.26	2413.36
573.61	2415.82
573.96	2418.11
574.31	2420.11
574.67	2421.91
575.02	2422.53
575.37	2423.91
575.72	2424.39
576.08	2425.89
576.43	2425.92
576.78	2426.25
577.13	2427.49
577.49	2428.61
577.84	2429.44
578.19	2430.64
578.54	2431.01
578.90	2431.38
579.25	2431.05
579.60	2430.77
579.95	2429.60
580.30	2429.36
580.66	2428.51
581.01	2426.84
581.36	2424.09
581.71	2422.36
582.06	2420.87
582.42	2419.78
582.77	2417.43
583.12	2415.79
583.47	2414.18
583.82	2413.44
584.17	2412.02
584.53	2410.00
584.88	2407.67
585.23	2405.58
585.58	2403.11
585.93	2401.08
586.28	2398.81
586.63	2396.26
586.98	2393.84
587.34	2391.82
587.69	2389.21
588.04	2386.93
588.39	2385.23
588.74	2382.74
589.09	2379.90
589.44	2376.52
589.79	2373.99
590.14	2371.71
590.49	2368.77
590.84	2364.69
591.19	2361.26
591.54	2357.88
591.89	2353.52
592.25	2350.24
592.60	2345.84
592.95	2341.56
593.30	2337.06
593.65	2332.54
594.00	2327.94
594.35	2324.86
594.70	2320.05
595.05	2315.59
595.40	2310.05
595.75	2304.17
596.10	2300.37
596.45	2295.52
596.80	2290.94
597.15	2285.48
597.50	2279.46
597.85	2274.27
598.19	2269.00
598.54	2263.19
598.89	2257.88
599.24	2253.28
599.59	2246.97
599.94	2241.15
600.29	2235.23
600.64	2229.33
600.99	2222.37
601.34	2216.92
601.69	2209.93
602.04	2203.53
602.39	2196.59
602.74	2190.54
603.08	2184.98
603.43	2178.41
603.78	2171.45
604.13	2164.51
604.48	2157.29
604.83	2151.33
605.18	2145.12
605.53	2138.21
605.87	2131.13
606.22	2124.28
606.57	2116.38
606.92	2108.37
607.27	2101.35
607.62	2094.66
607.96	2087.65
608.31	2081.29
608.66	2073.50
609.01	2065.97
609.36	2058.92
609.70	2051.51
610.05	2043.68
610.40	2035.43
610.75	2027.03
611.10	2019.27
611.44	2010.20
611.79	2001.50
612.14	1991.43
612.49	1980.84
612.83	1971.48
613.18	1962.22
613.53	1952.90
613.88	1943.36
614.22	1934.73
614.57	1924.94
614.92	1914.30
615.27	1904.02
615.61	1893.95
615.96	1884.22
616.31	1874.46
616.65	1864.95
617.00	1855.28
617.35	1845.75
617.70	1835.99
618.04	1826.12
618.39	1816.06
618.74	1806.51
619.08	1796.97
619.43	1788.35
619.78	1780.23
620.12	1771.63
620.47	1762.16
620.82	1751.93
621.16	1742.21
621.51	1732.50
621.85	1722.66
622.20	1712.56
622.55	1702.14
622.89	1692.33
623.24	1682.93
623.59	1673.28
623.93	1663.26
624.28	1653.46
624.62	1643.39
624.97	1633.28
625.32	1623.58
625.66	1614.83
626.01	1606.25
626.35	1596.94
626.70	1587.03
627.04	1577.02
627.39	1567.02
627.73	1557.89
628.08	1549.12
628.43	1539.71
628.77	1530.54
629.12	1521.79
629.46	1514.07
629.81	1505.84
630.15	1496.51
630.50	1486.71
630.84	1476.25
631.19	1466.43
631.53	1457.30
631.88	1447.26
632.22	1437.29
632.57	1427.97
632.91	1418.02
633.26	1408.21
633.60	1398.68
633.95	1389.48
634.29	1379.98
634.64	1370.76
634.98	1360.84
635.32	1351.66
635.67	1343.23
636.01	1333.91
636.36	1324.32
636.70	1314.66
637.05	1305.38
637.39	1296.38
637.73	1287.74
638.08	1280.35
638.42	1272.34
638.77	1263.54
639.11	1255.27
639.45	1247.63
639.80	1239.21
640.14	1230.37
640.49	1221.63
640.83	1212.93
641.17	1204.79
641.52	1196.73
641.86	1188.24
642.20	1180.40
642.55	1171.73
642.89	1162.92
643.23	1154.48
643.58	1146.47
643.92	1137.65
644.26	1128.94
644.61	1120.73
644.95	1111.99
645.29	1102.81
645.64	1093.71
645.98	1085.25
646.32	1077.51
646.66	1069.01
647.01	1060.70
647.35	1052.78
647.69	1044.45
648.04	1036.28
648.38	1027.56
648.72	1018.93
649.06	1010.62
649.41	1002.55
649.75	994.74
650.09	986.95
650.43	978.92
650.78	970.54
651.12	962.84
651.46	955.56
651.80	948.30
652.14	941.09
652.49	933.69
652.83	926.37
653.17	918.80
653.51	911.20
653.85	903.99
654.20	896.78
654.54	889.42
654.88	882.26
655.22	875.07
655.56	868.02
655.90	861.30
656.25	854.63
656.59	847.81
656.93	840.84
657.27	833.72
657.61	826.84
657.95	820.77
658.29	814.87
658.64	808.70
658.98	802.28
659.32	795.80
659.66	789.51
660.00	783.25
660.34	777.22
660.68	771.10
661.02	764.71
661.36	758.82
661.70	752.96
662.05	747.34
662.39	741.89
662.73	736.49
663.07	731.07
663.41	725.43
663.75	719.63
664.09	713.87
664.43	708.46
664.77	703.10
665.11	697.29
665.45	691.39
665.79	685.60
666.13	679.94
666.47	674.42
666.81	668.96
667.15	663.56
667.49	658.36
667.83	653.12
668.17	647.90
668.51	642.78
668.85	637.88
669.19	632.96
669.53	627.86
669.87	622.70
670.21	617.91
670.55	613.15
670.89	608.78
671.23	604.45
671.57	600.05
671.91	595.73
672.25	591.55
672.58	587.45
672.92	583.35
673.26	579.36
673.60	575.43
673.94	571.62
674.28	567.96
674.62	564.18
674.96	560.42
675.30	556.90
675.64	553.20
675.97	549.55
676.31	545.97
676.65	542.37
676.99	538.99
677.33	535.15
677.67	531.50
678.01	527.62
678.34	524.02
678.68	520.54
679.02	516.93
679.36	513.25
679.70	509.57
680.04	506.00
680.37	502.56
680.71	499.21
681.05	496.01
681.39	492.80
681.73	489.62
682.06	486.60
682.40	483.54
682.74	480.31
683.08	477.06
683.42	473.78
683.75	470.74
684.09	467.65
684.43	464.79
684.77	461.91
685.10	459.03
685.44	456.10
685.78	453.14
686.12	450.30
686.45	447.56
686.79	444.90
687.13	442.38
687.46	439.73
687.80	437.12
688.14	434.23
688.48	431.49
688.81	428.76
689.15	426.06
689.49	423.41
689.82	420.83
690.16	418.20
690.50	415.77
690.83	413.27
691.17	410.76
691.51	408.27
691.84	405.92
692.18	403.65
692.52	401.40
692.85	399.24
693.19	397.11
693.52	394.92
693.86	392.63
694.20	390.38
694.53	388.21
694.87	385.92
695.21	383.80
695.54	381.66
695.88	379.46
696.21	377.26
696.55	375.09
696.88	373.06
697.22	371.08
697.56	369.09
697.89	367.11
698.23	365.32
698.56	363.54
698.90	361.76
699.23	359.84
699.57	357.97
699.90	356.03
700.24	354.21
700.58	352.44
700.91	350.75
701.25	349.18
701.58	347.51
701.92	345.91
702.25	344.25
702.59	342.59
702.92	341.07
703.26	339.55
703.59	338.08
703.93	336.76
704.26	335.29
704.60	333.77
704.93	332.30
705.26	330.76
705.60	329.26
705.93	327.70
706.27	326.40
706.60	325.09
706.94	323.83
707.27	322.42
707.61	321.06
707.94	319.70
708.27	318.16
708.61	316.68
708.94	315.32
709.28	314.06
709.61	312.75
709.94	311.50
710.28	310.23
710.61	309.03
710.95	307.56
711.28	306.47
711.61	305.26
711.95	304.09
712.28	302.86
712.61	301.65
712.95	300.61
713.28	299.52
713.61	298.36
713.95	297.19
714.28	296.15
714.61	295.08
714.95	294.06
715.28	293.04
715.61	292.02
715.95	291.02
716.28	290.03
716.61	289.08
716.95	288.09
717.28	287.12
717.61	286.15
717.94	285.27
718.28	284.20
718.61	283.34
718.94	282.45
719.27	281.61
719.61	280.76
719.94	279.90
720.27	278.94
720.60	278.09
720.94	277.28
721.27	276.48
721.60	275.80
721.93	275.04
722.27	274.42
722.60	273.75
722.93	273.02
723.26	272.32
723.59	271.62
723.93	270.94
724.26	270.29
724.59	269.61
724.92	269.00
725.25	268.47
725.59	267.92
725.92	267.35
726.25	266.79
726.58	266.17
726.91	265.53
727.24	264.97
727.57	264.36
727.91	263.72
728.24	263.18
728.57	262.51
728.90	261.95
729.23	261.29
729.56	260.85
729.89	260.33
730.22	259.75
730.55	259.23
730.89	258.70
731.22	258.13
731.55	257.60
731.88	257.08
732.21	256.49
732.54	255.91
732.87	255.37
733.20	254.86
733.53	254.41
733.86	253.99
734.19	253.48
734.52	253.06
734.85	252.82
735.18	252.32
735.51	251.98
735.84	251.56
736.17	251.18
736.50	250.62
736.83	250.45
737.16	250.04
737.49	249.61
737.82	249.20
738.15	248.85
738.48	248.47
738.81	248.05
739.14	247.66
739.47	247.26
739.80	246.90
740.13	246.55
740.46	246.15
740.79	245.71
741.12	245.35
741.45	244.96
741.78	244.48
742.11	244.22
742.44	243.79
742.77	243.48
743.10	243.12
743.43	242.77
743.75	242.17
744.08	242.12
744.41	241.76
744.74	241.42
745.07	241.04
745.40	240.77
745.73	240.53
746.06	240.20
746.39	239.89
746.71	239.55
747.04	239.18
747.37	238.85
747.70	238.61
748.03	238.31
748.36	238.02
748.68	237.67
749.01	237.30
749.34	237.06
749.67	236.72
750.00	236.44
750.33	236.34
750.65	236.13
750.98	235.57
751.31	235.33
751.64	235.12
751.97	234.99
752.29	234.70
752.62	234.36
752.95	234.12
753.28	233.87
753.60	233.61
753.93	233.43
754.26	233.24
754.59	232.96
754.91	232.73
755.24	232.50
755.57	232.29
755.90	232.06
756.22	231.76
756.55	231.53
756.88	231.29
757.20	230.93
757.53	230.66
757.86	230.44
758.19	230.22
758.51	230.00
758.84	229.67
759.17	229.49
759.49	229.32
759.82	229.22
760.15	229.02
760.47	228.84
760.80	228.57
761.13	228.38
761.45	228.12
761.78	227.97
762.11	227.79
762.43	227.62
762.76	227.45
763.08	227.32
763.41	227.12
763.74	226.96
764.06	226.81
764.39	226.65
764.71	226.51
765.04	226.37
765.37	226.18
765.69	226.05
766.02	225.89
766.34	225.74
766.67	225.52
767.00	225.41
767.32	225.41
767.65	225.45
767.97	225.31
768.30	225.25
768.62	225.10
768.95	224.94
769.27	224.82
769.60	224.73
769.92	224.60
770.25	224.47
770.57	224.30
770.90	224.16
771.22	223.99
771.55	223.90
771.87	223.79
772.20	223.69
772.52	223.72
772.85	223.86
773.17	223.74
773.50	223.60
773.82	223.50
774.15	223.26
774.47	222.97
774.80	222.84
775.12	222.71
775.45	222.61
775.77	222.52
776.09	222.45
776.42	222.36
776.74	222.32
777.07	222.21
777.39	222.16
777.72	222.09
778.04	222.07
778.36	221.95
778.69	221.86
779.01	221.79
779.33	221.54
779.66	221.23
779.98	221.14
780.31	221.14
780.63	221.12
780.95	221.10
781.28	221.09
781.60	221.01
781.92	220.97
782.25	220.92
782.57	220.85
782.89	220.73
783.22	220.64
783.54	220.53
783.86	220.51
784.19	220.39
784.51	220.38
784.83	220.29
785.16	220.22
785.48	220.15
785.80	220.05
786.12	220.05
