SpectraSuite Data File
++++++++++++++++++++++++++++++++++++
Date: Tue Jan 29 16:12:23 EST 2013
User: group
Dark Spectrum Present: No
Reference Spectrum Present: No
Number of Sampled Component Spectra: 1
Spectrometers: USB2E7196
Integration Time (usec): 65000 (USB2E7196)
Spectra Averaged: 100 (USB2E7196)
Boxcar Smoothing: 10 (USB2E7196)
Correct for Electrical Dark: No (USB2E7196)
Strobe/Lamp Enabled: No (USB2E7196)
Correct for Detector Non-linearity: No (USB2E7196)
Correct for Stray Light: No (USB2E7196)
Number of Pixels in Processed Spectrum: 2048
>>>>>Begin Processed Spectral Data<<<<<
339.09	0.00
339.48	202.43
339.86	203.67
340.24	205.01
340.63	206.46
341.01	211.32
341.39	209.06
341.78	210.70
342.16	212.53
342.54	212.40
342.93	201.68
343.31	211.88
343.69	212.43
344.07	212.88
344.46	213.34
344.84	213.76
345.22	213.95
345.60	214.24
345.99	214.43
346.37	214.58
346.75	214.68
347.13	214.78
347.52	214.86
347.90	214.96
348.28	214.99
348.66	215.10
349.05	215.06
349.43	215.12
349.81	215.19
350.19	215.24
350.57	215.30
350.96	215.37
351.34	215.46
351.72	215.57
352.10	215.71
352.48	215.80
352.87	215.85
353.25	215.94
353.63	216.00
354.01	216.10
354.39	216.17
354.77	216.30
355.15	216.44
355.54	216.48
355.92	216.52
356.30	216.58
356.68	216.76
357.06	216.84
357.44	216.82
357.82	216.86
358.20	216.95
358.58	217.02
358.97	217.10
359.35	217.20
359.73	217.30
360.11	217.36
360.49	217.42
360.87	217.47
361.25	217.53
361.63	217.63
362.01	217.66
362.39	217.69
362.77	217.71
363.15	217.72
363.53	217.75
363.91	217.77
364.29	217.84
364.67	217.70
365.05	217.73
365.43	217.81
365.81	217.84
366.19	217.94
366.57	218.02
366.95	218.06
367.33	218.02
367.71	218.01
368.09	218.06
368.47	218.05
368.85	218.05
369.23	218.07
369.61	218.00
369.99	218.08
370.37	218.08
370.75	218.17
371.13	218.11
371.51	218.10
371.89	218.10
372.27	218.07
372.65	218.06
373.03	218.03
373.41	218.00
373.78	217.98
374.16	217.80
374.54	217.72
374.92	217.65
375.30	217.58
375.68	217.49
376.06	217.45
376.44	217.40
376.82	217.35
377.19	217.30
377.57	217.25
377.95	217.10
378.33	217.05
378.71	216.88
379.09	216.86
379.47	216.81
379.84	216.72
380.22	216.67
380.60	216.56
380.98	216.50
381.36	216.44
381.73	216.35
382.11	216.35
382.49	216.29
382.87	216.21
383.25	216.20
383.62	216.40
384.00	216.31
384.38	216.26
384.76	216.26
385.13	216.28
385.51	216.25
385.89	216.20
386.27	216.15
386.64	216.14
387.02	216.10
387.40	216.05
387.78	216.03
388.15	216.00
388.53	215.97
388.91	215.97
389.29	215.93
389.66	215.94
390.04	215.91
390.42	215.94
390.79	215.95
391.17	215.96
391.55	215.75
391.92	215.72
392.30	215.73
392.68	215.67
393.05	215.66
393.43	215.67
393.81	215.69
394.18	215.68
394.56	215.70
394.94	215.73
395.31	215.72
395.69	215.80
396.06	215.85
396.44	215.88
396.82	215.87
397.19	216.02
397.57	216.01
397.95	216.07
398.32	216.03
398.70	216.09
399.07	216.14
399.45	216.14
399.82	216.20
400.20	216.25
400.58	216.30
400.95	216.29
401.33	216.37
401.70	216.59
402.08	216.66
402.45	216.70
402.83	216.87
403.20	216.95
403.58	217.04
403.95	217.17
404.33	217.32
404.71	217.46
405.08	217.71
405.46	217.86
405.83	218.06
406.21	218.28
406.58	218.49
406.96	218.70
407.33	218.99
407.70	219.29
408.08	219.72
408.45	220.07
408.83	220.43
409.20	220.74
409.58	221.00
409.95	221.47
410.33	221.99
410.70	222.37
411.08	222.96
411.45	223.51
411.82	224.05
412.20	224.73
412.57	225.52
412.95	226.04
413.32	226.87
413.69	227.64
414.07	228.52
414.44	229.48
414.82	230.46
415.19	231.58
415.56	232.75
415.94	233.89
416.31	235.27
416.68	236.60
417.06	238.16
417.43	239.67
417.81	241.33
418.18	243.02
418.55	244.93
418.93	246.89
419.30	248.91
419.67	251.06
420.04	253.27
420.42	255.55
420.79	258.33
421.16	261.03
421.54	263.85
421.91	266.69
422.28	269.67
422.66	272.86
423.03	276.01
423.40	279.23
423.77	282.67
424.15	286.18
424.52	289.91
424.89	293.92
425.26	297.84
425.64	301.58
426.01	305.75
426.38	310.06
426.75	314.48
427.13	319.03
427.50	323.87
427.87	328.94
428.24	333.98
428.61	338.77
428.99	344.12
429.36	349.93
429.73	355.62
430.10	361.30
430.47	367.18
430.85	373.28
431.22	379.69
431.59	386.62
431.96	393.24
432.33	400.48
432.70	407.51
433.08	415.76
433.45	423.52
433.82	431.25
434.19	439.86
434.56	448.25
434.93	456.33
435.30	464.28
435.68	473.02
436.05	481.70
436.42	490.27
436.79	498.11
437.16	506.57
437.53	515.55
437.90	524.41
438.27	532.99
438.64	541.90
439.01	550.19
439.38	557.45
439.75	564.54
440.13	572.66
440.50	580.39
440.87	586.61
441.24	593.06
441.61	600.15
441.98	605.31
442.35	611.37
442.72	617.41
443.09	623.24
443.46	626.88
443.83	629.25
444.20	631.37
444.57	634.38
444.94	635.79
445.31	637.22
445.68	638.58
446.05	639.23
446.42	638.48
446.79	637.52
447.16	636.45
447.53	635.59
447.90	632.37
448.27	629.10
448.64	624.59
449.01	621.37
449.37	615.69
449.74	610.17
450.11	603.56
450.48	596.45
450.85	589.24
451.22	582.99
451.59	577.11
451.96	571.50
452.33	563.89
452.70	557.01
453.07	548.78
453.43	540.40
453.80	532.41
454.17	524.66
454.54	517.42
454.91	509.59
455.28	501.98
455.65	494.89
456.02	487.71
456.38	481.63
456.75	474.07
457.12	467.73
457.49	461.48
457.86	455.50
458.23	450.36
458.59	444.66
458.96	438.90
459.33	433.83
459.70	428.66
460.07	424.62
460.43	419.94
460.80	415.55
461.17	411.78
461.54	407.68
461.91	403.85
462.27	399.87
462.64	396.58
463.01	392.93
463.38	389.35
463.74	385.75
464.11	382.57
464.48	379.85
464.85	376.86
465.21	374.51
465.58	371.97
465.95	368.92
466.32	366.43
466.68	363.92
467.05	361.37
467.42	358.93
467.78	356.35
468.15	353.90
468.52	352.05
468.88	349.62
469.25	347.50
469.62	345.73
469.98	343.88
470.35	342.16
470.72	340.58
471.08	338.85
471.45	337.44
471.82	336.00
472.18	334.39
472.55	333.24
472.92	331.89
473.28	330.76
473.65	329.69
474.02	328.66
474.38	327.78
474.75	327.09
475.11	326.32
475.48	325.75
475.85	325.28
476.21	324.83
476.58	324.50
476.94	324.33
477.31	324.10
477.67	323.92
478.04	323.78
478.41	323.73
478.77	323.95
479.14	323.92
479.50	324.07
479.87	324.41
480.23	324.72
480.60	325.01
480.96	325.28
481.33	325.86
481.69	326.43
482.06	326.98
482.42	327.52
482.79	328.09
483.15	328.91
483.52	329.95
483.88	330.85
484.25	331.80
484.61	332.83
484.98	333.87
485.34	335.12
485.71	336.50
486.07	337.93
486.44	339.24
486.80	340.86
487.17	342.57
487.53	344.35
487.90	346.27
488.26	348.33
488.62	350.48
488.99	352.54
489.35	354.69
489.72	357.07
490.08	359.53
490.44	362.11
490.81	364.80
491.17	367.45
491.54	370.42
491.90	373.40
492.26	376.60
492.63	380.00
492.99	383.49
493.36	387.14
493.72	390.98
494.08	394.98
494.45	399.20
494.81	403.52
495.17	407.94
495.54	412.60
495.90	417.40
496.26	422.28
496.63	427.43
496.99	432.80
497.35	438.34
497.72	444.13
498.08	450.00
498.44	456.09
498.80	462.44
499.17	468.89
499.53	475.56
499.89	482.48
500.26	489.40
500.62	496.39
500.98	503.71
501.34	511.15
501.71	518.84
502.07	526.62
502.43	534.54
502.79	542.66
503.16	550.98
503.52	559.51
503.88	568.16
504.24	577.12
504.60	586.11
504.97	595.27
505.33	604.53
505.69	614.36
506.05	624.15
506.41	633.94
506.78	643.92
507.14	654.16
507.50	664.48
507.86	675.07
508.22	685.82
508.59	696.47
508.95	707.52
509.31	718.76
509.67	730.13
510.03	741.56
510.39	753.24
510.75	765.00
511.12	776.82
511.48	788.77
511.84	800.88
512.20	813.14
512.56	825.62
512.92	838.26
513.28	850.73
513.64	863.32
514.00	876.12
514.37	889.06
514.73	902.02
515.09	914.78
515.45	927.62
515.81	940.39
516.17	953.62
516.53	966.54
516.89	979.39
517.25	992.35
517.61	1005.68
517.97	1018.76
518.33	1031.73
518.69	1045.15
519.05	1058.84
519.41	1072.30
519.77	1085.97
520.13	1099.15
520.49	1112.11
520.85	1125.30
521.21	1138.48
521.57	1151.87
521.93	1164.71
522.29	1178.22
522.65	1191.73
523.01	1205.10
523.37	1218.21
523.73	1231.21
524.09	1244.22
524.45	1257.53
524.81	1270.81
525.17	1283.87
525.53	1296.87
525.89	1309.92
526.25	1322.65
526.61	1335.04
526.97	1347.83
527.33	1360.35
527.68	1373.51
528.04	1386.77
528.40	1399.58
528.76	1412.60
529.12	1425.17
529.48	1438.05
529.84	1449.93
530.20	1462.27
530.56	1474.59
530.91	1487.55
531.27	1500.22
531.63	1512.64
531.99	1525.07
532.35	1536.88
532.71	1548.92
533.07	1561.38
533.42	1573.28
533.78	1585.03
534.14	1596.87
534.50	1607.79
534.86	1619.19
535.21	1629.82
535.57	1640.85
535.93	1651.92
536.29	1662.76
536.65	1673.85
537.00	1684.59
537.36	1695.68
537.72	1706.40
538.08	1717.36
538.44	1727.87
538.79	1738.45
539.15	1748.93
539.51	1759.18
539.87	1770.22
540.22	1780.84
540.58	1791.52
540.94	1802.11
541.29	1812.20
541.65	1821.61
542.01	1831.98
542.37	1841.76
542.72	1851.59
543.08	1861.08
543.44	1871.04
543.79	1880.10
544.15	1889.37
544.51	1899.08
544.87	1908.67
545.22	1917.52
545.58	1926.11
545.94	1934.69
546.29	1943.06
546.65	1951.21
547.01	1959.19
547.36	1966.68
547.72	1974.05
548.07	1981.32
548.43	1988.86
548.79	1996.45
549.14	2004.49
549.50	2012.58
549.86	2019.99
550.21	2027.17
550.57	2034.75
550.92	2041.50
551.28	2048.74
551.64	2055.73
551.99	2063.07
552.35	2070.10
552.70	2076.81
553.06	2083.40
553.41	2089.68
553.77	2095.97
554.13	2102.23
554.48	2109.20
554.84	2115.97
555.19	2122.26
555.55	2128.70
555.90	2134.72
556.26	2141.33
556.61	2147.10
556.97	2151.77
557.32	2157.59
557.68	2163.73
558.03	2169.39
558.39	2174.52
558.74	2180.32
559.10	2185.76
559.45	2191.04
559.81	2196.61
560.16	2202.25
560.52	2208.02
560.87	2214.23
561.23	2220.20
561.58	2226.95
561.94	2232.01
562.29	2236.80
562.64	2242.97
563.00	2248.56
563.35	2254.09
563.71	2259.87
564.06	2265.55
564.42	2271.67
564.77	2276.82
565.12	2282.21
565.48	2287.27
565.83	2292.81
566.19	2298.26
566.54	2303.65
566.89	2308.41
567.25	2312.95
567.60	2318.63
567.96	2323.92
568.31	2328.51
568.66	2332.81
569.02	2336.51
569.37	2340.36
569.72	2344.80
570.08	2348.47
570.43	2351.58
570.78	2354.73
571.14	2357.45
571.49	2360.63
571.84	2364.06
572.20	2367.07
572.55	2370.14
572.90	2372.38
573.26	2375.47
573.61	2377.95
573.96	2380.31
574.31	2382.33
574.67	2384.25
575.02	2385.13
575.37	2386.48
575.72	2387.45
576.08	2388.97
576.43	2389.41
576.78	2390.24
577.13	2392.15
577.49	2393.17
577.84	2394.57
578.19	2396.26
578.54	2396.98
578.90	2398.07
579.25	2398.11
579.60	2398.20
579.95	2397.67
580.30	2398.27
580.66	2397.61
581.01	2396.27
581.36	2394.12
581.71	2392.98
582.06	2392.05
582.42	2391.49
582.77	2389.64
583.12	2388.12
583.47	2387.00
583.82	2386.53
584.17	2385.47
584.53	2383.37
584.88	2381.59
585.23	2379.81
585.58	2377.53
585.93	2375.46
586.28	2373.33
586.63	2371.09
586.98	2369.06
587.34	2367.32
587.69	2364.98
588.04	2363.14
588.39	2361.84
588.74	2359.59
589.09	2357.15
589.44	2354.31
589.79	2351.90
590.14	2350.18
590.49	2347.44
590.84	2343.88
591.19	2341.09
591.54	2337.91
591.89	2334.03
592.25	2330.94
592.60	2326.88
592.95	2323.05
593.30	2319.05
593.65	2314.85
594.00	2310.56
594.35	2307.64
594.70	2303.15
595.05	2298.72
595.40	2293.36
595.75	2287.90
596.10	2284.28
596.45	2279.55
596.80	2275.01
597.15	2269.87
597.50	2263.97
597.85	2259.19
598.19	2253.96
598.54	2248.30
598.89	2243.29
599.24	2238.89
599.59	2232.90
599.94	2227.44
600.29	2221.60
600.64	2215.87
600.99	2209.21
601.34	2203.97
601.69	2197.06
602.04	2190.78
602.39	2184.23
602.74	2178.36
603.08	2172.91
603.43	2166.53
603.78	2159.69
604.13	2152.65
604.48	2145.62
604.83	2139.61
605.18	2133.42
605.53	2126.48
605.87	2119.35
606.22	2112.54
606.57	2104.76
606.92	2096.94
607.27	2089.93
607.62	2083.38
607.96	2076.45
608.31	2070.06
608.66	2062.34
609.01	2054.95
609.36	2047.88
609.70	2040.20
610.05	2032.51
610.40	2024.23
610.75	2016.06
611.10	2008.56
611.44	1999.92
611.79	1991.26
612.14	1981.33
612.49	1971.01
612.83	1961.95
613.18	1953.00
613.53	1943.76
613.88	1934.32
614.22	1925.81
614.57	1915.90
614.92	1905.32
615.27	1895.33
615.61	1885.34
615.96	1875.67
616.31	1866.09
616.65	1856.64
617.00	1846.90
617.35	1837.25
617.70	1827.56
618.04	1817.64
618.39	1807.36
618.74	1797.81
619.08	1788.18
619.43	1779.60
619.78	1771.36
620.12	1762.62
620.47	1752.83
620.82	1742.54
621.16	1732.66
621.51	1722.70
621.85	1712.92
622.20	1702.60
622.55	1692.05
622.89	1682.23
623.24	1672.57
623.59	1662.75
623.93	1652.66
624.28	1643.03
624.62	1632.84
624.97	1622.61
625.32	1612.82
625.66	1604.10
626.01	1595.26
626.35	1585.93
626.70	1575.81
627.04	1565.56
627.39	1555.59
627.73	1546.36
628.08	1537.38
628.43	1527.77
628.77	1518.70
629.12	1509.73
629.46	1501.88
629.81	1493.46
630.15	1483.90
630.50	1474.08
630.84	1463.72
631.19	1453.89
631.53	1444.53
631.88	1434.48
632.22	1424.37
632.57	1414.98
632.91	1404.68
633.26	1394.84
633.60	1385.29
633.95	1375.94
634.29	1366.61
634.64	1357.25
634.98	1347.37
635.32	1338.11
635.67	1329.66
636.01	1320.34
636.36	1310.61
636.70	1301.02
637.05	1291.77
637.39	1282.86
637.73	1274.32
638.08	1266.76
638.42	1258.56
638.77	1249.80
639.11	1241.60
639.45	1233.77
639.80	1225.20
640.14	1216.68
640.49	1207.80
640.83	1199.01
641.17	1190.94
641.52	1182.75
641.86	1174.13
642.20	1166.24
642.55	1157.70
642.89	1148.91
643.23	1140.19
643.58	1132.19
643.92	1123.20
644.26	1114.46
644.61	1106.00
644.95	1097.21
645.29	1087.95
645.64	1078.76
645.98	1070.48
646.32	1062.60
646.66	1054.14
647.01	1045.79
647.35	1037.58
647.69	1029.25
648.04	1020.92
648.38	1012.02
648.72	1003.24
649.06	994.84
649.41	986.77
649.75	978.77
650.09	970.94
650.43	963.00
650.78	954.79
651.12	947.25
651.46	939.88
651.80	932.68
652.14	925.41
652.49	917.96
652.83	910.72
653.17	902.94
653.51	895.34
653.85	888.19
654.20	880.99
654.54	873.57
654.88	866.47
655.22	859.43
655.56	852.56
655.90	845.87
656.25	839.36
656.59	832.31
656.93	825.34
657.27	818.30
657.61	811.52
657.95	805.47
658.29	799.67
658.64	793.63
658.98	787.23
659.32	780.79
659.66	774.61
660.00	768.43
660.34	762.52
660.68	756.47
661.02	750.29
661.36	744.50
661.70	738.86
662.05	733.22
662.39	727.71
662.73	722.46
663.07	717.17
663.41	711.57
663.75	706.06
664.09	700.52
664.43	695.18
664.77	689.86
665.11	684.07
665.45	678.17
665.79	672.41
666.13	666.77
666.47	661.33
666.81	655.98
667.15	650.64
667.49	645.48
667.83	640.27
668.17	635.06
668.51	630.01
668.85	625.14
669.19	620.31
669.53	615.41
669.87	610.34
670.21	605.62
670.55	601.03
670.89	596.67
671.23	592.47
671.57	588.11
671.91	583.81
672.25	579.77
672.58	575.71
672.92	571.74
673.26	567.91
673.60	564.13
673.94	560.31
674.28	556.73
674.62	553.06
674.96	549.46
675.30	546.06
675.64	542.44
675.97	538.87
676.31	535.33
676.65	531.79
676.99	528.41
677.33	524.64
677.67	521.00
678.01	517.19
678.34	513.59
678.68	510.13
679.02	506.62
679.36	502.94
679.70	499.35
680.04	495.89
680.37	492.54
680.71	489.32
681.05	486.18
681.39	483.00
681.73	479.82
682.06	476.79
682.40	473.69
682.74	470.54
683.08	467.41
683.42	464.28
683.75	461.37
684.09	458.34
684.43	455.62
684.77	452.69
685.10	449.92
685.44	447.06
685.78	444.20
686.12	441.53
686.45	438.90
686.79	436.30
687.13	433.78
687.46	431.20
687.80	428.49
688.14	425.75
688.48	423.21
688.81	420.65
689.15	418.13
689.49	415.60
689.82	413.17
690.16	410.61
690.50	408.19
690.83	405.73
691.17	403.34
691.51	400.93
691.84	398.83
692.18	396.67
692.52	394.50
692.85	392.42
693.19	390.28
693.52	388.16
693.86	386.03
694.20	383.83
694.53	381.72
694.87	379.57
695.21	377.49
695.54	375.31
695.88	373.25
696.21	371.06
696.55	368.96
696.88	366.93
697.22	365.06
697.56	363.23
697.89	361.39
698.23	359.65
698.56	357.91
698.90	356.17
699.23	354.32
699.57	352.52
699.90	350.68
700.24	348.95
700.58	347.22
700.91	345.60
701.25	344.14
701.58	342.59
701.92	341.06
702.25	339.49
702.59	337.94
702.92	336.42
703.26	334.90
703.59	333.51
703.93	332.28
704.26	330.83
704.60	329.32
704.93	327.89
705.26	326.42
705.60	324.98
705.93	323.50
706.27	322.16
706.60	320.91
706.94	319.71
707.27	318.30
707.61	316.98
707.94	315.64
708.27	314.15
708.61	312.73
708.94	311.40
709.28	310.20
709.61	309.00
709.94	307.78
710.28	306.65
710.61	305.47
710.95	304.05
711.28	303.03
711.61	301.92
711.95	300.79
712.28	299.60
712.61	298.45
712.95	297.41
713.28	296.45
713.61	295.34
713.95	294.23
714.28	293.28
714.61	292.28
714.95	291.27
715.28	290.29
715.61	289.29
715.95	288.35
716.28	287.41
716.61	286.48
716.95	285.51
717.28	284.58
717.61	283.66
717.94	282.79
718.28	281.77
718.61	280.92
718.94	280.05
719.27	279.23
719.61	278.40
719.94	277.54
720.27	276.59
720.60	275.77
720.94	275.04
721.27	274.30
721.60	273.63
721.93	272.94
722.27	272.32
722.60	271.69
722.93	271.03
723.26	270.35
723.59	269.66
723.93	269.06
724.26	268.39
724.59	267.76
724.92	267.21
725.25	266.70
725.59	266.12
725.92	265.60
726.25	265.02
726.58	264.50
726.91	263.93
727.24	263.42
727.57	262.87
727.91	262.23
728.24	261.67
728.57	261.08
728.90	260.57
729.23	259.92
729.56	259.48
729.89	258.97
730.22	258.43
730.55	257.89
730.89	257.39
731.22	256.88
731.55	256.37
731.88	255.87
732.21	255.30
732.54	254.76
732.87	254.24
733.20	253.81
733.53	253.33
733.86	252.90
734.19	252.41
734.52	252.00
734.85	251.73
735.18	251.25
735.51	250.91
735.84	250.46
736.17	250.12
736.50	249.62
736.83	249.45
737.16	249.11
737.49	248.74
737.82	248.37
738.15	248.03
738.48	247.69
738.81	247.30
739.14	246.93
739.47	246.58
739.80	246.26
740.13	245.91
740.46	245.52
740.79	245.14
741.12	244.81
741.45	244.47
741.78	244.04
742.11	243.80
742.44	243.42
742.77	243.16
743.10	242.83
743.43	242.48
743.75	241.93
744.08	241.84
744.41	241.48
744.74	241.11
745.07	240.77
745.40	240.47
745.73	240.22
746.06	239.93
746.39	239.66
746.71	239.29
747.04	238.95
747.37	238.66
747.70	238.38
748.03	238.07
748.36	237.81
748.68	237.50
749.01	237.17
749.34	236.90
749.67	236.62
750.00	236.38
750.33	236.28
750.65	236.06
750.98	235.56
751.31	235.33
751.64	235.14
751.97	234.99
752.29	234.74
752.62	234.43
752.95	234.18
753.28	233.92
753.60	233.72
753.93	233.57
754.26	233.40
754.59	233.16
754.91	232.94
755.24	232.68
755.57	232.46
755.90	232.22
756.22	231.97
756.55	231.70
756.88	231.44
757.20	231.07
757.53	230.81
757.86	230.61
758.19	230.44
758.51	230.22
758.84	229.94
759.17	229.73
759.49	229.56
759.82	229.52
760.15	229.38
760.47	229.17
760.80	228.93
761.13	228.75
761.45	228.53
761.78	228.35
762.11	228.19
762.43	227.99
762.76	227.85
763.08	227.68
763.41	227.54
763.74	227.40
764.06	227.27
764.39	227.12
764.71	226.96
765.04	226.80
765.37	226.65
765.69	226.52
766.02	226.37
766.34	226.21
766.67	225.95
767.00	225.85
767.32	225.86
767.65	225.86
767.97	225.71
768.30	225.60
768.62	225.49
768.95	225.34
769.27	225.25
769.60	225.14
769.92	224.99
770.25	224.86
770.57	224.68
770.90	224.52
771.22	224.40
771.55	224.30
771.87	224.18
772.20	224.04
772.52	224.10
772.85	224.27
773.17	224.16
773.50	224.04
773.82	223.91
774.15	223.68
774.47	223.47
774.80	223.36
775.12	223.26
775.45	223.15
775.77	223.09
776.09	223.03
776.42	222.94
776.74	222.95
777.07	222.86
777.39	222.83
777.72	222.76
778.04	222.69
778.36	222.59
778.69	222.55
779.01	222.54
779.33	222.26
779.66	221.92
779.98	221.87
780.31	221.79
780.63	221.77
780.95	221.75
781.28	221.66
781.60	221.55
781.92	221.48
782.25	221.41
782.57	221.30
782.89	221.20
783.22	221.12
783.54	221.02
783.86	220.97
784.19	220.87
784.51	220.89
784.83	220.80
785.16	220.73
785.48	220.64
785.80	220.55
786.12	220.52
