SpectraSuite Data File
++++++++++++++++++++++++++++++++++++
Date: Tue Jan 29 16:33:55 EST 2013
User: group
Dark Spectrum Present: No
Reference Spectrum Present: No
Number of Sampled Component Spectra: 1
Spectrometers: USB2E7196
Integration Time (usec): 65000 (USB2E7196)
Spectra Averaged: 100 (USB2E7196)
Boxcar Smoothing: 10 (USB2E7196)
Correct for Electrical Dark: No (USB2E7196)
Strobe/Lamp Enabled: No (USB2E7196)
Correct for Detector Non-linearity: No (USB2E7196)
Correct for Stray Light: No (USB2E7196)
Number of Pixels in Processed Spectrum: 2048
>>>>>Begin Processed Spectral Data<<<<<
339.09	0.00
339.48	201.70
339.86	203.58
340.24	204.80
340.63	206.44
341.01	211.26
341.39	208.46
341.78	210.30
342.16	211.60
342.54	211.60
342.93	201.11
343.31	211.26
343.69	211.83
344.07	212.29
344.46	212.74
344.84	213.14
345.22	213.29
345.60	213.57
345.99	213.76
346.37	213.91
346.75	214.03
347.13	214.08
347.52	214.15
347.90	214.27
348.28	214.26
348.66	214.34
349.05	214.32
349.43	214.40
349.81	214.48
350.19	214.51
350.57	214.58
350.96	214.63
351.34	214.74
351.72	214.79
352.10	214.91
352.48	214.95
352.87	215.00
353.25	215.04
353.63	215.09
354.01	215.16
354.39	215.24
354.77	215.30
355.15	215.44
355.54	215.50
355.92	215.48
356.30	215.58
356.68	215.76
357.06	215.82
357.44	215.84
357.82	215.89
358.20	215.98
358.58	216.07
358.97	216.17
359.35	216.26
359.73	216.38
360.11	216.41
360.49	216.49
360.87	216.52
361.25	216.60
361.63	216.73
362.01	216.81
362.39	216.80
362.77	216.87
363.15	216.84
363.53	216.88
363.91	216.93
364.29	216.96
364.67	216.82
365.05	216.85
365.43	216.89
365.81	216.93
366.19	217.02
366.57	217.09
366.95	217.06
367.33	217.04
367.71	217.03
368.09	217.08
368.47	217.08
368.85	217.08
369.23	217.12
369.61	217.03
369.99	217.04
370.37	217.07
370.75	217.15
371.13	217.13
371.51	217.12
371.89	217.11
372.27	217.06
372.65	217.04
373.03	217.02
373.41	216.98
373.78	216.95
374.16	216.81
374.54	216.71
374.92	216.66
375.30	216.60
375.68	216.50
376.06	216.46
376.44	216.41
376.82	216.37
377.19	216.33
377.57	216.27
377.95	216.14
378.33	216.10
378.71	215.95
379.09	215.95
379.47	215.94
379.84	215.90
380.22	215.86
380.60	215.77
380.98	215.72
381.36	215.70
381.73	215.63
382.11	215.67
382.49	215.64
382.87	215.59
383.25	215.57
383.62	215.81
384.00	215.72
384.38	215.69
384.76	215.70
385.13	215.73
385.51	215.68
385.89	215.61
386.27	215.59
386.64	215.57
387.02	215.50
387.40	215.45
387.78	215.42
388.15	215.38
388.53	215.35
388.91	215.34
389.29	215.28
389.66	215.28
390.04	215.24
390.42	215.23
390.79	215.22
391.17	215.20
391.55	214.92
391.92	214.91
392.30	214.91
392.68	214.86
393.05	214.82
393.43	214.86
393.81	214.89
394.18	214.85
394.56	214.83
394.94	214.91
395.31	214.88
395.69	214.94
396.06	215.01
396.44	215.08
396.82	215.09
397.19	215.22
397.57	215.21
397.95	215.27
398.32	215.25
398.70	215.32
399.07	215.41
399.45	215.48
399.82	215.52
400.20	215.60
400.58	215.64
400.95	215.65
401.33	215.77
401.70	216.02
402.08	216.14
402.45	216.28
402.83	216.38
403.20	216.54
403.58	216.61
403.95	216.76
404.33	216.91
404.71	217.07
405.08	217.30
405.46	217.47
405.83	217.64
406.21	217.88
406.58	218.13
406.96	218.34
407.33	218.61
407.70	218.93
408.08	219.41
408.45	219.76
408.83	220.14
409.20	220.46
409.58	220.72
409.95	221.21
410.33	221.70
410.70	222.13
411.08	222.66
411.45	223.27
411.82	223.83
412.20	224.49
412.57	225.32
412.95	225.90
413.32	226.78
413.69	227.62
414.07	228.52
414.44	229.50
414.82	230.55
415.19	231.73
415.56	232.92
415.94	234.02
416.31	235.45
416.68	236.87
417.06	238.49
417.43	240.05
417.81	241.78
418.18	243.56
418.55	245.49
418.93	247.55
419.30	249.68
419.67	251.90
420.04	254.19
420.42	256.60
420.79	259.43
421.16	262.22
421.54	265.09
421.91	268.06
422.28	271.15
422.66	274.44
423.03	277.71
423.40	281.04
423.77	284.66
424.15	288.33
424.52	292.17
424.89	296.35
425.26	300.42
425.64	304.29
426.01	308.61
426.38	313.12
426.75	317.67
427.13	322.36
427.50	327.38
427.87	332.62
428.24	337.80
428.61	342.81
428.99	348.34
429.36	354.37
429.73	360.30
430.10	366.20
430.47	372.28
430.85	378.61
431.22	385.39
431.59	392.57
431.96	399.41
432.33	406.96
432.70	414.19
433.08	422.75
433.45	430.83
433.82	438.86
434.19	447.74
434.56	456.47
434.93	464.87
435.30	473.14
435.68	482.23
436.05	491.29
436.42	500.23
436.79	508.35
437.16	517.19
437.53	526.48
437.90	535.68
438.27	544.68
438.64	553.91
439.01	562.43
439.38	570.03
439.75	577.36
440.13	585.78
440.50	593.76
440.87	600.19
441.24	606.86
441.61	614.17
441.98	619.59
442.35	625.91
442.72	632.23
443.09	638.25
443.46	642.00
443.83	644.52
444.20	646.68
444.57	649.90
444.94	651.30
445.31	652.77
445.68	654.17
446.05	654.80
446.42	653.98
446.79	653.00
447.16	651.90
447.53	651.12
447.90	647.80
448.27	644.53
448.64	639.86
449.01	636.53
449.37	630.64
449.74	624.98
450.11	618.02
450.48	610.61
450.85	603.20
451.22	596.67
451.59	590.49
451.96	584.62
452.33	576.67
452.70	569.62
453.07	561.09
453.43	552.38
453.80	544.02
454.17	536.06
454.54	528.45
454.91	520.22
455.28	512.22
455.65	504.78
456.02	497.26
456.38	490.92
456.75	483.05
457.12	476.45
457.49	469.91
457.86	463.79
458.23	458.44
458.59	452.49
458.96	446.51
459.33	441.22
459.70	435.85
460.07	431.61
460.43	426.67
460.80	422.12
461.17	418.15
461.54	413.94
461.91	409.88
462.27	405.80
462.64	402.41
463.01	398.60
463.38	394.83
463.74	391.11
464.11	387.82
464.48	384.96
464.85	381.88
465.21	379.45
465.58	376.77
465.95	373.63
466.32	371.03
466.68	368.43
467.05	365.80
467.42	363.24
467.78	360.56
468.15	358.02
468.52	356.11
468.88	353.62
469.25	351.40
469.62	349.62
469.98	347.66
470.35	345.80
470.72	344.14
471.08	342.37
471.45	340.88
471.82	339.38
472.18	337.66
472.55	336.43
472.92	334.99
473.28	333.75
473.65	332.52
474.02	331.39
474.38	330.48
474.75	329.74
475.11	328.89
475.48	328.26
475.85	327.77
476.21	327.24
476.58	326.87
476.94	326.65
477.31	326.33
477.67	326.09
478.04	325.97
478.41	325.92
478.77	326.09
479.14	326.05
479.50	326.15
479.87	326.45
480.23	326.75
480.60	327.00
480.96	327.27
481.33	327.91
481.69	328.48
482.06	328.99
482.42	329.44
482.79	330.09
483.15	330.90
483.52	331.88
483.88	332.79
484.25	333.70
484.61	334.68
484.98	335.70
485.34	337.06
485.71	338.41
486.07	339.87
486.44	341.16
486.80	342.78
487.17	344.40
487.53	346.30
487.90	348.20
488.26	350.27
488.62	352.45
488.99	354.47
489.35	356.65
489.72	359.03
490.08	361.60
490.44	364.18
490.81	366.93
491.17	369.61
491.54	372.59
491.90	375.66
492.26	378.98
492.63	382.42
492.99	385.89
493.36	389.54
493.72	393.41
494.08	397.49
494.45	401.72
494.81	406.19
495.17	410.53
495.54	415.23
495.90	420.04
496.26	424.97
496.63	430.21
496.99	435.55
497.35	441.24
497.72	447.07
498.08	453.01
498.44	459.11
498.80	465.59
499.17	472.04
499.53	478.76
499.89	485.66
500.26	492.65
500.62	499.73
500.98	507.22
501.34	514.72
501.71	522.46
502.07	530.31
502.43	538.27
502.79	546.51
503.16	554.95
503.52	563.58
503.88	572.39
504.24	581.46
504.60	590.60
504.97	599.77
505.33	609.04
505.69	618.96
506.05	628.89
506.41	638.73
506.78	648.85
507.14	659.13
507.50	669.63
507.86	680.38
508.22	691.21
508.59	701.86
508.95	712.93
509.31	724.25
509.67	735.79
510.03	747.26
510.39	759.13
510.75	771.02
511.12	782.96
511.48	795.00
511.84	807.25
512.20	819.73
512.56	832.48
512.92	845.41
513.28	858.15
513.64	870.97
514.00	883.96
514.37	897.07
514.73	910.33
515.09	923.44
515.45	936.51
515.81	949.71
516.17	963.14
516.53	976.47
516.89	989.62
517.25	1002.88
517.61	1016.50
517.97	1029.94
518.33	1043.27
518.69	1056.92
519.05	1070.83
519.41	1084.65
519.77	1098.61
520.13	1112.08
520.49	1125.34
520.85	1138.85
521.21	1152.26
521.57	1166.00
521.93	1179.21
522.29	1193.10
522.65	1206.89
523.01	1220.57
523.37	1233.84
523.73	1247.29
524.09	1260.61
524.45	1274.28
524.81	1287.95
525.17	1301.52
525.53	1314.82
525.89	1328.10
526.25	1341.36
526.61	1354.26
526.97	1367.39
527.33	1380.44
527.68	1393.91
528.04	1407.53
528.40	1420.69
528.76	1434.28
529.12	1447.32
529.48	1460.69
529.84	1473.00
530.20	1485.85
530.56	1498.56
530.91	1511.91
531.27	1525.02
531.63	1537.94
531.99	1550.72
532.35	1563.08
532.71	1575.64
533.07	1588.61
533.42	1601.11
533.78	1613.35
534.14	1625.71
534.50	1637.15
534.86	1648.98
535.21	1660.06
535.57	1671.73
535.93	1683.08
536.29	1694.21
536.65	1705.85
537.00	1716.89
537.36	1728.39
537.72	1739.55
538.08	1751.10
538.44	1762.25
538.79	1773.47
539.15	1784.54
539.51	1795.53
539.87	1806.99
540.22	1817.81
540.58	1828.96
540.94	1840.00
541.29	1850.46
541.65	1860.27
542.01	1870.78
542.37	1880.78
542.72	1890.95
543.08	1900.74
543.44	1911.37
543.79	1920.72
544.15	1930.17
544.51	1940.34
544.87	1950.33
545.22	1959.65
545.58	1968.62
545.94	1977.62
546.29	1986.15
546.65	1994.53
547.01	2002.69
547.36	2010.45
547.72	2018.26
548.07	2025.88
548.43	2033.69
548.79	2041.61
549.14	2049.88
549.50	2058.53
549.86	2066.60
550.21	2074.16
550.57	2082.04
550.92	2088.95
551.28	2096.58
551.64	2103.95
551.99	2111.46
552.35	2118.54
552.70	2125.33
553.06	2132.08
553.41	2138.38
553.77	2145.08
554.13	2151.60
554.48	2158.77
554.84	2165.89
555.19	2172.54
555.55	2179.02
555.90	2185.34
556.26	2192.29
556.61	2198.46
556.97	2203.26
557.32	2209.10
557.68	2215.43
558.03	2221.18
558.39	2226.57
558.74	2232.59
559.10	2238.09
559.45	2243.63
559.81	2249.59
560.16	2255.22
560.52	2261.05
560.87	2267.48
561.23	2273.27
561.58	2279.82
561.94	2285.04
562.29	2289.76
562.64	2295.86
563.00	2301.51
563.35	2307.03
563.71	2312.63
564.06	2318.18
564.42	2324.17
564.77	2329.21
565.12	2334.64
565.48	2339.74
565.83	2345.20
566.19	2350.46
566.54	2355.88
566.89	2360.53
567.25	2364.98
567.60	2370.77
567.96	2375.89
568.31	2380.33
568.66	2384.64
569.02	2388.56
569.37	2392.36
569.72	2396.68
570.08	2400.09
570.43	2403.17
570.78	2406.30
571.14	2408.68
571.49	2411.80
571.84	2415.31
572.20	2418.28
572.55	2421.24
572.90	2423.48
573.26	2426.35
573.61	2429.02
573.96	2431.17
574.31	2433.14
574.67	2434.83
575.02	2435.40
575.37	2436.88
575.72	2437.60
576.08	2439.12
576.43	2439.18
576.78	2439.48
577.13	2441.03
577.49	2442.24
577.84	2443.25
578.19	2444.46
578.54	2445.10
578.90	2445.57
579.25	2445.44
579.60	2445.10
579.95	2444.21
580.30	2444.19
580.66	2443.40
581.01	2441.67
581.36	2439.13
581.71	2437.70
582.06	2436.44
582.42	2435.63
582.77	2433.23
583.12	2431.42
583.47	2429.94
583.82	2429.43
584.17	2428.16
584.53	2426.06
584.88	2423.87
585.23	2421.88
585.58	2419.69
585.93	2417.63
586.28	2415.73
586.63	2413.11
586.98	2410.90
587.34	2408.94
587.69	2406.44
588.04	2404.28
588.39	2402.80
588.74	2400.22
589.09	2397.52
589.44	2394.35
589.79	2391.62
590.14	2389.67
590.49	2387.02
590.84	2382.98
591.19	2379.59
591.54	2376.47
591.89	2372.26
592.25	2368.95
592.60	2364.79
592.95	2360.58
593.30	2356.44
593.65	2351.89
594.00	2347.45
594.35	2344.47
594.70	2339.78
595.05	2335.24
595.40	2329.76
595.75	2323.84
596.10	2320.23
596.45	2315.35
596.80	2310.73
597.15	2305.71
597.50	2299.59
597.85	2294.47
598.19	2289.15
598.54	2283.43
598.89	2277.96
599.24	2273.40
599.59	2267.19
599.94	2261.19
600.29	2255.06
600.64	2248.98
600.99	2242.08
601.34	2236.40
601.69	2229.29
602.04	2222.82
602.39	2216.01
602.74	2209.77
603.08	2204.24
603.43	2197.76
603.78	2190.81
604.13	2183.75
604.48	2176.31
604.83	2170.30
605.18	2164.04
605.53	2157.21
605.87	2150.10
606.22	2143.26
606.57	2135.20
606.92	2127.18
607.27	2120.21
607.62	2113.66
607.96	2106.69
608.31	2100.32
608.66	2092.55
609.01	2084.87
609.36	2077.61
609.70	2069.98
610.05	2062.23
610.40	2053.80
610.75	2045.29
611.10	2037.41
611.44	2028.39
611.79	2019.65
612.14	2009.71
612.49	1999.00
612.83	1989.33
613.18	1980.05
613.53	1970.63
613.88	1961.04
614.22	1952.34
614.57	1942.39
614.92	1931.63
615.27	1921.13
615.61	1910.76
615.96	1901.12
616.31	1891.55
616.65	1882.12
617.00	1872.34
617.35	1862.61
617.70	1852.89
618.04	1843.08
618.39	1833.04
618.74	1823.37
619.08	1813.66
619.43	1804.84
619.78	1796.57
620.12	1788.08
620.47	1778.48
620.82	1768.18
621.16	1758.38
621.51	1748.50
621.85	1738.69
622.20	1728.42
622.55	1718.01
622.89	1708.10
623.24	1698.41
623.59	1688.65
623.93	1678.52
624.28	1668.65
624.62	1658.51
624.97	1648.16
625.32	1638.14
625.66	1629.10
626.01	1620.41
626.35	1611.05
626.70	1600.87
627.04	1590.75
627.39	1580.60
627.73	1571.26
628.08	1562.35
628.43	1552.79
628.77	1543.49
629.12	1534.60
629.46	1526.70
629.81	1518.28
630.15	1508.79
630.50	1499.01
630.84	1488.32
631.19	1478.30
631.53	1469.03
631.88	1458.90
632.22	1448.92
632.57	1439.50
632.91	1429.37
633.26	1419.43
633.60	1409.84
633.95	1400.61
634.29	1391.17
634.64	1381.93
634.98	1371.95
635.32	1362.59
635.67	1354.14
636.01	1344.92
636.36	1335.07
636.70	1325.46
637.05	1316.02
637.39	1307.02
637.73	1298.29
638.08	1290.78
638.42	1282.67
638.77	1273.88
639.11	1265.53
639.45	1257.69
639.80	1249.21
640.14	1240.50
640.49	1231.50
640.83	1222.54
641.17	1214.34
641.52	1206.06
641.86	1197.38
642.20	1189.41
642.55	1180.64
642.89	1171.59
643.23	1162.83
643.58	1154.80
643.92	1145.72
644.26	1137.08
644.61	1128.58
644.95	1119.70
645.29	1110.48
645.64	1101.24
645.98	1092.65
646.32	1084.71
646.66	1076.15
647.01	1067.76
647.35	1059.57
647.69	1051.26
648.04	1042.96
648.38	1033.97
648.72	1025.14
649.06	1016.69
649.41	1008.39
649.75	1000.53
650.09	992.68
650.43	984.56
650.78	976.12
651.12	968.39
651.46	960.87
651.80	953.63
652.14	946.24
652.49	938.64
652.83	931.24
653.17	923.52
653.51	915.81
653.85	908.48
654.20	901.25
654.54	893.78
654.88	886.52
655.22	879.29
655.56	872.21
655.90	865.33
656.25	858.55
656.59	851.73
656.93	844.63
657.27	837.43
657.61	830.42
657.95	824.33
658.29	818.29
658.64	812.17
658.98	805.59
659.32	799.05
659.66	792.69
660.00	786.41
660.34	780.24
660.68	774.14
661.02	767.78
661.36	761.68
661.70	755.74
662.05	750.08
662.39	744.50
662.73	739.11
663.07	733.75
663.41	728.11
663.75	722.32
664.09	716.59
664.43	711.11
664.77	705.82
665.11	699.93
665.45	694.05
665.79	688.16
666.13	682.51
666.47	676.96
666.81	671.56
667.15	666.10
667.49	660.82
667.83	655.51
668.17	650.24
668.51	645.13
668.85	640.13
669.19	635.13
669.53	630.13
669.87	625.00
670.21	620.18
670.55	615.44
670.89	610.97
671.23	606.54
671.57	602.12
671.91	597.72
672.25	593.46
672.58	589.27
672.92	585.19
673.26	581.18
673.60	577.25
673.94	573.29
674.28	569.60
674.62	565.88
674.96	562.06
675.30	558.51
675.64	554.73
675.97	551.09
676.31	547.38
676.65	543.66
676.99	540.24
677.33	536.41
677.67	532.77
678.01	528.91
678.34	525.26
678.68	521.70
679.02	518.13
679.36	514.41
679.70	510.70
680.04	507.01
680.37	503.51
680.71	500.16
681.05	496.96
681.39	493.66
681.73	490.44
682.06	487.35
682.40	484.19
682.74	481.00
683.08	477.81
683.42	474.63
683.75	471.59
684.09	468.44
684.43	465.51
684.77	462.45
685.10	459.53
685.44	456.62
685.78	453.63
686.12	450.71
686.45	448.00
686.79	445.24
687.13	442.74
687.46	440.10
687.80	437.35
688.14	434.50
688.48	431.81
688.81	429.11
689.15	426.51
689.49	423.83
689.82	421.23
690.16	418.55
690.50	416.07
690.83	413.55
691.17	410.99
691.51	408.52
691.84	406.25
692.18	404.02
692.52	401.76
692.85	399.57
693.19	397.43
693.52	395.20
693.86	392.97
694.20	390.72
694.53	388.50
694.87	386.27
695.21	384.10
695.54	381.92
695.88	379.74
696.21	377.51
696.55	375.39
696.88	373.36
697.22	371.36
697.56	369.44
697.89	367.60
698.23	365.83
698.56	363.96
698.90	362.17
699.23	360.18
699.57	358.31
699.90	356.47
700.24	354.61
700.58	352.84
700.91	351.14
701.25	349.58
701.58	347.98
701.92	346.36
702.25	344.73
702.59	343.07
702.92	341.47
703.26	339.90
703.59	338.41
703.93	337.11
704.26	335.69
704.60	334.16
704.93	332.64
705.26	331.04
705.60	329.59
705.93	328.01
706.27	326.64
706.60	325.37
706.94	324.07
707.27	322.68
707.61	321.33
707.94	320.03
708.27	318.47
708.61	316.99
708.94	315.60
709.28	314.31
709.61	313.06
709.94	311.81
710.28	310.57
710.61	309.38
710.95	307.95
711.28	306.84
711.61	305.64
711.95	304.45
712.28	303.30
712.61	302.08
712.95	301.04
713.28	299.98
713.61	298.79
713.95	297.62
714.28	296.57
714.61	295.49
714.95	294.41
715.28	293.38
715.61	292.36
715.95	291.36
716.28	290.33
716.61	289.35
716.95	288.37
717.28	287.41
717.61	286.38
717.94	285.44
718.28	284.36
718.61	283.47
718.94	282.56
719.27	281.72
719.61	280.88
719.94	280.05
720.27	279.06
720.60	278.18
720.94	277.37
721.27	276.57
721.60	275.88
721.93	275.18
722.27	274.54
722.60	273.88
722.93	273.20
723.26	272.55
723.59	271.83
723.93	271.18
724.26	270.53
724.59	269.88
724.92	269.29
725.25	268.78
725.59	268.14
725.92	267.62
726.25	267.02
726.58	266.45
726.91	265.78
727.24	265.22
727.57	264.66
727.91	264.05
728.24	263.50
728.57	262.89
728.90	262.32
729.23	261.68
729.56	261.22
729.89	260.66
730.22	260.07
730.55	259.53
730.89	258.99
731.22	258.44
731.55	257.94
731.88	257.39
732.21	256.82
732.54	256.31
732.87	255.77
733.20	255.22
733.53	254.72
733.86	254.27
734.19	253.77
734.52	253.33
734.85	253.06
735.18	252.59
735.51	252.23
735.84	251.80
736.17	251.41
736.50	250.88
736.83	250.71
737.16	250.37
737.49	249.98
737.82	249.53
738.15	249.17
738.48	248.75
738.81	248.35
739.14	247.96
739.47	247.54
739.80	247.13
740.13	246.80
740.46	246.41
740.79	246.04
741.12	245.66
741.45	245.30
741.78	244.82
742.11	244.54
742.44	244.15
742.77	243.82
743.10	243.44
743.43	243.08
743.75	242.51
744.08	242.40
744.41	242.03
744.74	241.72
745.07	241.33
745.40	241.06
745.73	240.83
746.06	240.47
746.39	240.19
746.71	239.85
747.04	239.48
747.37	239.17
747.70	238.90
748.03	238.59
748.36	238.34
748.68	238.01
749.01	237.64
749.34	237.33
749.67	237.06
750.00	236.80
750.33	236.63
750.65	236.38
750.98	235.87
751.31	235.64
751.64	235.40
751.97	235.29
752.29	235.03
752.62	234.67
752.95	234.41
753.28	234.16
753.60	233.94
753.93	233.79
754.26	233.53
754.59	233.25
754.91	233.02
755.24	232.75
755.57	232.50
755.90	232.30
756.22	232.06
756.55	231.79
756.88	231.53
757.20	231.23
757.53	230.96
757.86	230.73
758.19	230.53
758.51	230.31
758.84	229.96
759.17	229.72
759.49	229.52
759.82	229.48
760.15	229.29
760.47	229.10
760.80	228.81
761.13	228.66
761.45	228.46
761.78	228.27
762.11	228.09
762.43	227.90
762.76	227.67
763.08	227.50
763.41	227.34
763.74	227.19
764.06	227.03
764.39	226.89
764.71	226.71
765.04	226.52
765.37	226.37
765.69	226.22
766.02	226.08
766.34	225.95
766.67	225.68
767.00	225.57
767.32	225.54
767.65	225.56
767.97	225.42
768.30	225.29
768.62	225.17
768.95	224.98
769.27	224.89
769.60	224.83
769.92	224.65
770.25	224.50
770.57	224.34
770.90	224.17
771.22	224.04
771.55	223.95
771.87	223.85
772.20	223.72
772.52	223.77
772.85	223.89
773.17	223.78
773.50	223.69
773.82	223.55
774.15	223.35
774.47	223.11
774.80	223.01
775.12	222.88
775.45	222.82
775.77	222.75
776.09	222.64
776.42	222.54
776.74	222.54
777.07	222.44
777.39	222.39
777.72	222.30
778.04	222.25
778.36	222.16
778.69	222.10
779.01	222.07
779.33	221.80
779.66	221.49
779.98	221.39
780.31	221.30
780.63	221.28
780.95	221.21
781.28	221.14
781.60	221.02
781.92	220.97
782.25	220.88
782.57	220.82
782.89	220.74
783.22	220.65
783.54	220.57
783.86	220.52
784.19	220.40
784.51	220.40
784.83	220.27
785.16	220.20
785.48	220.14
785.80	220.05
786.12	220.00
