SpectraSuite Data File
++++++++++++++++++++++++++++++++++++
Date: Tue Jan 29 16:34:15 EST 2013
User: group
Dark Spectrum Present: No
Reference Spectrum Present: No
Number of Sampled Component Spectra: 1
Spectrometers: USB2E7196
Integration Time (usec): 65000 (USB2E7196)
Spectra Averaged: 100 (USB2E7196)
Boxcar Smoothing: 10 (USB2E7196)
Correct for Electrical Dark: No (USB2E7196)
Strobe/Lamp Enabled: No (USB2E7196)
Correct for Detector Non-linearity: No (USB2E7196)
Correct for Stray Light: No (USB2E7196)
Number of Pixels in Processed Spectrum: 2048
>>>>>Begin Processed Spectral Data<<<<<
339.09	0.00
339.48	201.96
339.86	203.27
340.24	204.73
340.63	205.81
341.01	210.77
341.39	209.03
341.78	210.88
342.16	211.61
342.54	212.09
342.93	201.24
343.31	211.42
343.69	211.96
344.07	212.45
344.46	212.89
344.84	213.30
345.22	213.46
345.60	213.73
345.99	213.90
346.37	214.04
346.75	214.14
347.13	214.21
347.52	214.30
347.90	214.42
348.28	214.43
348.66	214.52
349.05	214.43
349.43	214.52
349.81	214.55
350.19	214.63
350.57	214.68
350.96	214.74
351.34	214.83
351.72	214.91
352.10	214.97
352.48	215.06
352.87	215.07
353.25	215.16
353.63	215.16
354.01	215.20
354.39	215.29
354.77	215.40
355.15	215.48
355.54	215.53
355.92	215.54
356.30	215.62
356.68	215.80
357.06	215.92
357.44	215.92
357.82	215.96
358.20	216.03
358.58	216.08
358.97	216.16
359.35	216.24
359.73	216.37
360.11	216.44
360.49	216.46
360.87	216.54
361.25	216.59
361.63	216.73
362.01	216.81
362.39	216.81
362.77	216.84
363.15	216.85
363.53	216.87
363.91	216.91
364.29	216.94
364.67	216.77
365.05	216.77
365.43	216.82
365.81	216.88
366.19	216.95
366.57	217.03
366.95	217.01
367.33	216.97
367.71	216.95
368.09	217.00
368.47	216.99
368.85	216.97
369.23	217.00
369.61	216.90
369.99	216.95
370.37	216.99
370.75	217.06
371.13	217.01
371.51	216.95
371.89	216.93
372.27	216.92
372.65	216.92
373.03	216.91
373.41	216.86
373.78	216.80
374.16	216.66
374.54	216.60
374.92	216.55
375.30	216.53
375.68	216.47
376.06	216.43
376.44	216.39
376.82	216.38
377.19	216.31
377.57	216.30
377.95	216.19
378.33	216.11
378.71	215.95
379.09	215.96
379.47	215.94
379.84	215.88
380.22	215.82
380.60	215.77
380.98	215.70
381.36	215.64
381.73	215.57
382.11	215.57
382.49	215.51
382.87	215.45
383.25	215.40
383.62	215.58
384.00	215.48
384.38	215.47
384.76	215.49
385.13	215.52
385.51	215.46
385.89	215.42
386.27	215.42
386.64	215.43
387.02	215.37
387.40	215.35
387.78	215.32
388.15	215.27
388.53	215.20
388.91	215.15
389.29	215.13
389.66	215.14
390.04	215.14
390.42	215.17
390.79	215.18
391.17	215.18
391.55	214.96
391.92	214.97
392.30	214.94
392.68	214.89
393.05	214.87
393.43	214.88
393.81	214.88
394.18	214.80
394.56	214.79
394.94	214.83
395.31	214.83
395.69	214.93
396.06	215.00
396.44	215.05
396.82	215.10
397.19	215.24
397.57	215.29
397.95	215.34
398.32	215.32
398.70	215.34
399.07	215.40
399.45	215.45
399.82	215.51
400.20	215.60
400.58	215.65
400.95	215.64
401.33	215.78
401.70	215.98
402.08	216.13
402.45	216.21
402.83	216.34
403.20	216.44
403.58	216.50
403.95	216.66
404.33	216.84
404.71	216.96
405.08	217.22
405.46	217.34
405.83	217.54
406.21	217.73
406.58	217.99
406.96	218.23
407.33	218.45
407.70	218.76
408.08	219.23
408.45	219.62
408.83	220.06
409.20	220.38
409.58	220.66
409.95	221.11
410.33	221.64
410.70	222.10
411.08	222.67
411.45	223.26
411.82	223.84
412.20	224.54
412.57	225.41
412.95	225.96
413.32	226.81
413.69	227.64
414.07	228.55
414.44	229.52
414.82	230.53
415.19	231.75
415.56	232.91
415.94	234.05
416.31	235.43
416.68	236.78
417.06	238.39
417.43	239.96
417.81	241.73
418.18	243.46
418.55	245.38
418.93	247.41
419.30	249.49
419.67	251.71
420.04	253.96
420.42	256.34
420.79	259.20
421.16	261.99
421.54	264.92
421.91	267.91
422.28	271.03
422.66	274.31
423.03	277.60
423.40	280.96
423.77	284.56
424.15	288.26
424.52	292.09
424.89	296.28
425.26	300.36
425.64	304.21
426.01	308.54
426.38	313.01
426.75	317.60
427.13	322.32
427.50	327.29
427.87	332.51
428.24	337.68
428.61	342.67
428.99	348.16
429.36	354.13
429.73	360.05
430.10	365.94
430.47	372.02
430.85	378.31
431.22	385.01
431.59	392.18
431.96	399.06
432.33	406.64
432.70	413.94
433.08	422.44
433.45	430.51
433.82	438.56
434.19	447.41
434.56	456.10
434.93	464.52
435.30	472.86
435.68	481.99
436.05	491.04
436.42	499.96
436.79	508.12
437.16	516.96
437.53	526.26
437.90	535.46
438.27	544.44
438.64	553.63
439.01	562.24
439.38	569.79
439.75	577.05
440.13	585.43
440.50	593.34
440.87	599.84
441.24	606.62
441.61	613.94
441.98	619.35
442.35	625.69
442.72	632.02
443.09	638.04
443.46	641.73
443.83	644.21
444.20	646.41
444.57	649.63
444.94	651.07
445.31	652.48
445.68	653.82
446.05	654.46
446.42	653.73
446.79	652.74
447.16	651.70
447.53	650.96
447.90	647.65
448.27	644.33
448.64	639.64
449.01	636.21
449.37	630.35
449.74	624.66
450.11	617.76
450.48	610.30
450.85	602.87
451.22	596.44
451.59	590.29
451.96	584.45
452.33	576.54
452.70	569.40
453.07	560.99
453.43	552.34
453.80	544.03
454.17	536.04
454.54	528.44
454.91	520.20
455.28	512.19
455.65	504.78
456.02	497.28
456.38	490.97
456.75	483.04
457.12	476.39
457.49	469.91
457.86	463.69
458.23	458.32
458.59	452.33
458.96	446.35
459.33	441.04
459.70	435.64
460.07	431.38
460.43	426.46
460.80	421.77
461.17	417.81
461.54	413.60
461.91	409.51
462.27	405.42
462.64	402.02
463.01	398.19
463.38	394.40
463.74	390.71
464.11	387.44
464.48	384.66
464.85	381.56
465.21	379.13
465.58	376.49
465.95	373.38
466.32	370.79
466.68	368.13
467.05	365.54
467.42	362.98
467.78	360.28
468.15	357.72
468.52	355.80
468.88	353.26
469.25	351.09
469.62	349.32
469.98	347.33
470.35	345.47
470.72	343.82
471.08	342.09
471.45	340.57
471.82	339.03
472.18	337.31
472.55	336.14
472.92	334.70
473.28	333.50
473.65	332.32
474.02	331.20
474.38	330.30
474.75	329.58
475.11	328.76
475.48	328.18
475.85	327.74
476.21	327.24
476.58	326.88
476.94	326.60
477.31	326.27
477.67	326.03
478.04	325.86
478.41	325.84
478.77	325.96
479.14	325.85
479.50	325.99
479.87	326.33
480.23	326.64
480.60	326.88
480.96	327.10
481.33	327.68
481.69	328.24
482.06	328.79
482.42	329.17
482.79	329.74
483.15	330.58
483.52	331.53
483.88	332.42
484.25	333.36
484.61	334.37
484.98	335.41
485.34	336.75
485.71	338.11
486.07	339.54
486.44	340.95
486.80	342.64
487.17	344.34
487.53	346.11
487.90	347.98
488.26	350.04
488.62	352.21
488.99	354.28
489.35	356.48
489.72	358.89
490.08	361.52
490.44	364.12
490.81	366.77
491.17	369.48
491.54	372.47
491.90	375.54
492.26	378.79
492.63	382.20
492.99	385.67
493.36	389.41
493.72	393.28
494.08	397.22
494.45	401.47
494.81	405.82
495.17	410.32
495.54	415.00
495.90	419.86
496.26	424.85
496.63	430.02
496.99	435.43
497.35	441.03
497.72	446.80
498.08	452.69
498.44	458.82
498.80	465.35
499.17	471.84
499.53	478.57
499.89	485.54
500.26	492.58
500.62	499.68
500.98	507.07
501.34	514.54
501.71	522.31
502.07	530.12
502.43	538.12
502.79	546.25
503.16	554.71
503.52	563.31
503.88	572.00
504.24	581.01
504.60	590.05
504.97	599.31
505.33	608.62
505.69	618.56
506.05	628.46
506.41	638.31
506.78	648.47
507.14	658.75
507.50	669.21
507.86	679.94
508.22	690.78
508.59	701.50
508.95	712.61
509.31	723.94
509.67	735.47
510.03	746.98
510.39	758.76
510.75	770.67
511.12	782.60
511.48	794.73
511.84	807.00
512.20	819.47
512.56	832.15
512.92	845.03
513.28	857.75
513.64	870.61
514.00	883.42
514.37	896.59
514.73	909.74
515.09	922.77
515.45	935.74
515.81	948.82
516.17	962.32
516.53	975.63
516.89	988.87
517.25	1002.10
517.61	1015.71
517.97	1029.23
518.33	1042.41
518.69	1056.14
519.05	1069.99
519.41	1083.81
519.77	1097.80
520.13	1111.21
520.49	1124.53
520.85	1138.09
521.21	1151.52
521.57	1165.33
521.93	1178.37
522.29	1192.33
522.65	1206.16
523.01	1219.95
523.37	1233.35
523.73	1246.74
524.09	1260.09
524.45	1273.58
524.81	1287.29
525.17	1300.80
525.53	1314.09
525.89	1327.60
526.25	1340.89
526.61	1353.90
526.97	1367.05
527.33	1380.10
527.68	1393.62
528.04	1407.25
528.40	1420.41
528.76	1433.92
529.12	1446.92
529.48	1460.38
529.84	1472.68
530.20	1485.52
530.56	1498.18
530.91	1511.48
531.27	1524.52
531.63	1537.28
531.99	1550.14
532.35	1562.40
532.71	1574.96
533.07	1588.05
533.42	1600.33
533.78	1612.62
534.14	1624.75
534.50	1636.27
534.86	1647.97
535.21	1659.01
535.57	1670.66
535.93	1682.02
536.29	1693.10
536.65	1704.80
537.00	1715.83
537.36	1727.40
537.72	1738.54
538.08	1750.05
538.44	1761.21
538.79	1772.41
539.15	1783.63
539.51	1794.57
539.87	1805.97
540.22	1816.90
540.58	1827.92
540.94	1839.03
541.29	1849.20
541.65	1859.16
542.01	1869.76
542.37	1879.83
542.72	1890.16
543.08	1899.90
543.44	1910.55
543.79	1920.02
544.15	1929.58
544.51	1939.64
544.87	1949.60
545.22	1958.84
545.58	1967.88
545.94	1976.84
546.29	1985.37
546.65	1993.62
547.01	2001.92
547.36	2009.60
547.72	2017.35
548.07	2024.92
548.43	2032.63
548.79	2040.63
549.14	2048.70
549.50	2057.22
549.86	2065.31
550.21	2072.80
550.57	2080.66
550.92	2087.45
551.28	2095.11
551.64	2102.43
551.99	2109.98
552.35	2117.26
552.70	2124.21
553.06	2130.89
553.41	2137.21
553.77	2143.88
554.13	2150.53
554.48	2157.58
554.84	2164.80
555.19	2171.51
555.55	2178.02
555.90	2184.46
556.26	2191.24
556.61	2197.47
556.97	2202.25
557.32	2208.01
557.68	2214.41
558.03	2220.25
558.39	2225.69
558.74	2231.54
559.10	2236.95
559.45	2242.68
559.81	2248.16
560.16	2253.71
560.52	2259.59
560.87	2266.06
561.23	2271.87
561.58	2278.28
561.94	2283.54
562.29	2288.29
562.64	2294.25
563.00	2299.95
563.35	2305.46
563.71	2311.30
564.06	2316.96
564.42	2322.90
564.77	2327.89
565.12	2333.25
565.48	2338.22
565.83	2343.74
566.19	2349.21
566.54	2354.56
566.89	2359.16
567.25	2363.81
567.60	2369.50
567.96	2374.63
568.31	2379.09
568.66	2383.51
569.02	2387.62
569.37	2391.34
569.72	2395.86
570.08	2399.28
570.43	2402.47
570.78	2405.56
571.14	2407.96
571.49	2411.24
571.84	2414.75
572.20	2417.66
572.55	2420.54
572.90	2422.89
573.26	2425.74
573.61	2428.30
573.96	2430.48
574.31	2432.46
574.67	2434.21
575.02	2434.88
575.37	2436.36
575.72	2437.01
576.08	2438.35
576.43	2438.31
576.78	2438.70
577.13	2440.17
577.49	2441.28
577.84	2442.11
578.19	2443.39
578.54	2444.05
578.90	2444.47
579.25	2444.49
579.60	2444.46
579.95	2443.49
580.30	2443.43
580.66	2442.66
581.01	2440.79
581.36	2438.20
581.71	2436.72
582.06	2435.54
582.42	2434.62
582.77	2432.23
583.12	2430.54
583.47	2429.14
583.82	2428.57
584.17	2427.28
584.53	2425.11
584.88	2422.96
585.23	2421.09
585.58	2418.71
585.93	2416.74
586.28	2414.70
586.63	2411.92
586.98	2409.58
587.34	2407.58
587.69	2405.06
588.04	2402.87
588.39	2401.46
588.74	2399.13
589.09	2396.27
589.44	2392.97
589.79	2390.37
590.14	2388.33
590.49	2385.45
590.84	2381.38
591.19	2378.22
591.54	2374.86
591.89	2370.67
592.25	2367.40
592.60	2363.10
592.95	2358.92
593.30	2354.60
593.65	2349.94
594.00	2345.55
594.35	2342.51
594.70	2337.86
595.05	2333.44
595.40	2327.94
595.75	2321.95
596.10	2318.21
596.45	2313.33
596.80	2308.68
597.15	2303.60
597.50	2297.63
597.85	2292.73
598.19	2287.61
598.54	2281.72
598.89	2276.55
599.24	2271.96
599.59	2265.73
599.94	2259.75
600.29	2253.61
600.64	2247.61
600.99	2240.84
601.34	2235.35
601.69	2228.35
602.04	2222.11
602.39	2215.32
602.74	2209.02
603.08	2203.50
603.43	2196.91
603.78	2190.11
604.13	2183.06
604.48	2175.64
604.83	2169.43
605.18	2163.03
605.53	2156.11
605.87	2149.03
606.22	2142.10
606.57	2134.07
606.92	2126.10
607.27	2119.24
607.62	2112.75
607.96	2105.63
608.31	2099.13
608.66	2091.24
609.01	2083.44
609.36	2076.10
609.70	2068.17
610.05	2060.50
610.40	2052.15
610.75	2043.83
611.10	2035.87
611.44	2026.81
611.79	2018.10
612.14	2008.03
612.49	1997.43
612.83	1987.97
613.18	1978.64
613.53	1969.23
613.88	1959.65
614.22	1951.01
614.57	1941.11
614.92	1930.34
615.27	1920.09
615.61	1910.00
615.96	1900.35
616.31	1890.87
616.65	1881.41
617.00	1871.80
617.35	1862.04
617.70	1852.25
618.04	1842.13
618.39	1832.01
618.74	1822.52
619.08	1812.75
619.43	1804.16
619.78	1795.89
620.12	1787.27
620.47	1777.64
620.82	1767.31
621.16	1757.60
621.51	1747.62
621.85	1737.77
622.20	1727.38
622.55	1716.85
622.89	1706.79
623.24	1697.11
623.59	1687.17
623.93	1677.00
624.28	1667.18
624.62	1657.07
624.97	1646.85
625.32	1637.01
625.66	1628.07
626.01	1619.21
626.35	1609.95
626.70	1599.78
627.04	1589.63
627.39	1579.42
627.73	1570.13
628.08	1561.20
628.43	1551.57
628.77	1542.25
629.12	1533.31
629.46	1525.56
629.81	1517.24
630.15	1507.72
630.50	1497.84
630.84	1487.41
631.19	1477.42
631.53	1468.06
631.88	1457.86
632.22	1447.94
632.57	1438.58
632.91	1428.55
633.26	1418.70
633.60	1408.99
633.95	1399.82
634.29	1390.21
634.64	1380.93
634.98	1370.78
635.32	1361.53
635.67	1353.04
636.01	1343.87
636.36	1334.15
636.70	1324.58
637.05	1315.13
637.39	1306.26
637.73	1297.63
638.08	1290.05
638.42	1281.86
638.77	1273.15
639.11	1264.93
639.45	1256.97
639.80	1248.59
640.14	1239.87
640.49	1230.96
640.83	1222.22
641.17	1213.93
641.52	1205.88
641.86	1197.24
642.20	1189.49
642.55	1180.68
642.89	1171.72
643.23	1162.99
643.58	1154.77
643.92	1145.68
644.26	1136.98
644.61	1128.49
644.95	1119.54
645.29	1110.26
645.64	1101.06
645.98	1092.37
646.32	1084.45
646.66	1075.92
647.01	1067.42
647.35	1059.06
647.69	1050.69
648.04	1042.35
648.38	1033.43
648.72	1024.61
649.06	1016.06
649.41	1007.73
649.75	999.88
650.09	991.92
650.43	983.87
650.78	975.53
651.12	967.80
651.46	960.29
651.80	952.95
652.14	945.70
652.49	938.17
652.83	930.93
653.17	923.32
653.51	915.61
653.85	908.38
654.20	901.17
654.54	893.82
654.88	886.54
655.22	879.30
655.56	872.24
655.90	865.37
656.25	858.74
656.59	851.93
656.93	844.88
657.27	837.71
657.61	830.59
657.95	824.36
658.29	818.37
658.64	812.18
658.98	805.68
659.32	799.06
659.66	792.80
660.00	786.32
660.34	780.14
660.68	773.99
661.02	767.52
661.36	761.36
661.70	755.47
662.05	749.76
662.39	744.16
662.73	738.75
663.07	733.35
663.41	727.66
663.75	721.89
664.09	716.13
664.43	710.70
664.77	705.45
665.11	699.70
665.45	693.78
665.79	687.99
666.13	682.20
666.47	676.70
666.81	671.16
667.15	665.73
667.49	660.52
667.83	655.20
668.17	650.00
668.51	644.88
668.85	639.86
669.19	634.91
669.53	629.85
669.87	624.67
670.21	619.82
670.55	615.07
670.89	610.52
671.23	606.18
671.57	601.77
671.91	597.37
672.25	593.07
672.58	588.87
672.92	584.71
673.26	580.79
673.60	576.83
673.94	572.96
674.28	569.36
674.62	565.66
674.96	561.83
675.30	558.24
675.64	554.56
675.97	550.95
676.31	547.35
676.65	543.73
676.99	540.26
677.33	536.37
677.67	532.70
678.01	528.88
678.34	525.12
678.68	521.53
679.02	517.91
679.36	514.28
679.70	510.58
680.04	507.00
680.37	503.52
680.71	500.12
681.05	496.90
681.39	493.50
681.73	490.21
682.06	487.21
682.40	484.02
682.74	480.81
683.08	477.55
683.42	474.25
683.75	471.20
684.09	468.14
684.43	465.29
684.77	462.32
685.10	459.42
685.44	456.51
685.78	453.52
686.12	450.77
686.45	447.98
686.79	445.29
687.13	442.73
687.46	440.07
687.80	437.37
688.14	434.49
688.48	431.84
688.81	429.09
689.15	426.46
689.49	423.83
689.82	421.21
690.16	418.61
690.50	416.16
690.83	413.65
691.17	411.12
691.51	408.60
691.84	406.27
692.18	404.01
692.52	401.73
692.85	399.58
693.19	397.36
693.52	395.20
693.86	392.95
694.20	390.74
694.53	388.58
694.87	386.37
695.21	384.20
695.54	382.01
695.88	379.85
696.21	377.59
696.55	375.44
696.88	373.40
697.22	371.39
697.56	369.43
697.89	367.47
698.23	365.66
698.56	363.85
698.90	362.11
699.23	360.20
699.57	358.36
699.90	356.47
700.24	354.60
700.58	352.73
700.91	351.03
701.25	349.42
701.58	347.81
701.92	346.20
702.25	344.55
702.59	342.88
702.92	341.31
703.26	339.75
703.59	338.26
703.93	337.00
704.26	335.55
704.60	334.06
704.93	332.60
705.26	331.04
705.60	329.52
705.93	327.96
706.27	326.57
706.60	325.27
706.94	324.04
707.27	322.65
707.61	321.33
707.94	319.98
708.27	318.44
708.61	316.96
708.94	315.59
709.28	314.31
709.61	313.11
709.94	311.90
710.28	310.67
710.61	309.46
710.95	307.97
711.28	306.84
711.61	305.60
711.95	304.45
712.28	303.25
712.61	302.08
712.95	301.01
713.28	299.95
713.61	298.76
713.95	297.56
714.28	296.50
714.61	295.43
714.95	294.38
715.28	293.35
715.61	292.27
715.95	291.27
716.28	290.28
716.61	289.30
716.95	288.29
717.28	287.36
717.61	286.40
717.94	285.53
718.28	284.51
718.61	283.67
718.94	282.78
719.27	281.89
719.61	281.07
719.94	280.17
720.27	279.20
720.60	278.37
720.94	277.56
721.27	276.78
721.60	276.08
721.93	275.39
722.27	274.72
722.60	274.10
722.93	273.38
723.26	272.72
723.59	272.03
723.93	271.37
724.26	270.68
724.59	270.03
724.92	269.39
725.25	268.83
725.59	268.20
725.92	267.60
726.25	267.07
726.58	266.46
726.91	265.86
727.24	265.36
727.57	264.75
727.91	264.10
728.24	263.58
728.57	262.96
728.90	262.41
729.23	261.79
729.56	261.31
729.89	260.76
730.22	260.15
730.55	259.57
730.89	259.02
731.22	258.48
731.55	257.96
731.88	257.45
732.21	256.87
732.54	256.31
732.87	255.80
733.20	255.30
733.53	254.79
733.86	254.32
734.19	253.77
734.52	253.36
734.85	253.07
735.18	252.57
735.51	252.20
735.84	251.70
736.17	251.33
736.50	250.79
736.83	250.61
737.16	250.24
737.49	249.86
737.82	249.42
738.15	249.07
738.48	248.70
738.81	248.26
739.14	247.86
739.47	247.47
739.80	247.07
740.13	246.71
740.46	246.31
740.79	245.91
741.12	245.55
741.45	245.14
741.78	244.72
742.11	244.46
742.44	244.05
742.77	243.78
743.10	243.37
743.43	243.02
743.75	242.45
744.08	242.34
744.41	241.99
744.74	241.65
745.07	241.26
745.40	240.89
745.73	240.67
746.06	240.34
746.39	240.08
746.71	239.73
747.04	239.37
747.37	239.08
747.70	238.79
748.03	238.45
748.36	238.17
748.68	237.82
749.01	237.42
749.34	237.13
749.67	236.81
750.00	236.57
750.33	236.45
750.65	236.18
750.98	235.66
751.31	235.40
751.64	235.20
751.97	235.06
752.29	234.81
752.62	234.47
752.95	234.20
753.28	233.89
753.60	233.63
753.93	233.43
754.26	233.21
754.59	232.97
754.91	232.75
755.24	232.51
755.57	232.27
755.90	232.09
756.22	231.84
756.55	231.61
756.88	231.36
757.20	231.00
757.53	230.73
757.86	230.54
758.19	230.33
758.51	230.13
758.84	229.83
759.17	229.61
759.49	229.43
759.82	229.37
760.15	229.20
760.47	229.04
760.80	228.82
761.13	228.63
761.45	228.41
761.78	228.23
762.11	228.06
762.43	227.86
762.76	227.65
763.08	227.51
763.41	227.36
763.74	227.21
764.06	227.06
764.39	226.92
764.71	226.76
765.04	226.58
765.37	226.39
765.69	226.25
766.02	226.11
766.34	225.94
766.67	225.73
767.00	225.63
767.32	225.60
767.65	225.59
767.97	225.47
768.30	225.37
768.62	225.23
768.95	225.11
769.27	225.02
769.60	224.93
769.92	224.76
770.25	224.61
770.57	224.47
770.90	224.30
771.22	224.17
771.55	224.08
771.87	223.98
772.20	223.85
772.52	223.93
772.85	224.06
773.17	223.99
773.50	223.85
773.82	223.70
774.15	223.54
774.47	223.29
774.80	223.13
775.12	223.00
775.45	222.90
775.77	222.79
776.09	222.71
776.42	222.64
776.74	222.66
777.07	222.56
777.39	222.44
777.72	222.34
778.04	222.29
778.36	222.20
778.69	222.15
779.01	222.10
779.33	221.83
779.66	221.53
779.98	221.40
780.31	221.33
780.63	221.34
780.95	221.27
781.28	221.21
781.60	221.17
781.92	221.13
782.25	221.09
782.57	221.00
782.89	220.90
783.22	220.80
783.54	220.66
783.86	220.60
784.19	220.55
784.51	220.59
784.83	220.50
785.16	220.38
785.48	220.28
785.80	220.20
786.12	220.15
