SpectraSuite Data File
++++++++++++++++++++++++++++++++++++
Date: Tue Jan 29 16:42:30 EST 2013
User: group
Dark Spectrum Present: No
Reference Spectrum Present: No
Number of Sampled Component Spectra: 1
Spectrometers: USB2E7196
Integration Time (usec): 65000 (USB2E7196)
Spectra Averaged: 100 (USB2E7196)
Boxcar Smoothing: 10 (USB2E7196)
Correct for Electrical Dark: No (USB2E7196)
Strobe/Lamp Enabled: No (USB2E7196)
Correct for Detector Non-linearity: No (USB2E7196)
Correct for Stray Light: No (USB2E7196)
Number of Pixels in Processed Spectrum: 2048
>>>>>Begin Processed Spectral Data<<<<<
339.09	0.00
339.48	201.48
339.86	202.87
340.24	204.36
340.63	205.74
341.01	210.19
341.39	208.52
341.78	210.53
342.16	211.75
342.54	211.75
342.93	200.97
343.31	211.14
343.69	211.71
344.07	212.18
344.46	212.65
344.84	213.07
345.22	213.28
345.60	213.58
345.99	213.75
346.37	213.91
346.75	214.06
347.13	214.14
347.52	214.24
347.90	214.39
348.28	214.44
348.66	214.51
349.05	214.45
349.43	214.52
349.81	214.63
350.19	214.71
350.57	214.79
350.96	214.90
351.34	215.00
351.72	215.08
352.10	215.22
352.48	215.28
352.87	215.31
353.25	215.38
353.63	215.42
354.01	215.52
354.39	215.59
354.77	215.64
355.15	215.79
355.54	215.84
355.92	215.83
356.30	215.92
356.68	216.16
357.06	216.28
357.44	216.32
357.82	216.37
358.20	216.45
358.58	216.51
358.97	216.59
359.35	216.69
359.73	216.79
360.11	216.83
360.49	216.89
360.87	216.95
361.25	217.03
361.63	217.15
362.01	217.18
362.39	217.20
362.77	217.25
363.15	217.24
363.53	217.26
363.91	217.32
364.29	217.30
364.67	217.09
365.05	217.08
365.43	217.11
365.81	217.13
366.19	217.22
366.57	217.33
366.95	217.29
367.33	217.26
367.71	217.28
368.09	217.31
368.47	217.33
368.85	217.30
369.23	217.30
369.61	217.24
369.99	217.28
370.37	217.32
370.75	217.39
371.13	217.34
371.51	217.28
371.89	217.25
372.27	217.26
372.65	217.24
373.03	217.23
373.41	217.15
373.78	217.09
374.16	216.94
374.54	216.82
374.92	216.75
375.30	216.69
375.68	216.62
376.06	216.61
376.44	216.53
376.82	216.51
377.19	216.45
377.57	216.36
377.95	216.24
378.33	216.15
378.71	216.01
379.09	215.98
379.47	215.97
379.84	215.89
380.22	215.81
380.60	215.75
380.98	215.69
381.36	215.68
381.73	215.62
382.11	215.61
382.49	215.59
382.87	215.54
383.25	215.53
383.62	215.69
384.00	215.59
384.38	215.57
384.76	215.59
385.13	215.65
385.51	215.63
385.89	215.58
386.27	215.57
386.64	215.56
387.02	215.49
387.40	215.47
387.78	215.48
388.15	215.47
388.53	215.44
388.91	215.42
389.29	215.38
389.66	215.37
390.04	215.33
390.42	215.31
390.79	215.30
391.17	215.25
391.55	215.03
391.92	215.03
392.30	215.05
392.68	214.98
393.05	214.96
393.43	215.01
393.81	215.02
394.18	214.97
394.56	214.97
394.94	215.03
395.31	215.00
395.69	215.04
396.06	215.05
396.44	215.07
396.82	215.09
397.19	215.26
397.57	215.28
397.95	215.38
398.32	215.35
398.70	215.37
399.07	215.45
399.45	215.46
399.82	215.53
400.20	215.55
400.58	215.63
400.95	215.60
401.33	215.65
401.70	215.88
402.08	215.96
402.45	216.07
402.83	216.19
403.20	216.30
403.58	216.37
403.95	216.53
404.33	216.70
404.71	216.84
405.08	217.07
405.46	217.24
405.83	217.40
406.21	217.63
406.58	217.90
406.96	218.12
407.33	218.37
407.70	218.67
408.08	219.14
408.45	219.50
408.83	219.90
409.20	220.25
409.58	220.50
409.95	221.00
410.33	221.44
410.70	221.88
411.08	222.49
411.45	223.10
411.82	223.71
412.20	224.42
412.57	225.25
412.95	225.79
413.32	226.62
413.69	227.45
414.07	228.38
414.44	229.39
414.82	230.43
415.19	231.63
415.56	232.83
415.94	233.99
416.31	235.41
416.68	236.80
417.06	238.44
417.43	240.00
417.81	241.73
418.18	243.58
418.55	245.51
418.93	247.52
419.30	249.62
419.67	251.82
420.04	254.09
420.42	256.52
420.79	259.41
421.16	262.26
421.54	265.18
421.91	268.18
422.28	271.29
422.66	274.59
423.03	277.89
423.40	281.27
423.77	284.88
424.15	288.54
424.52	292.41
424.89	296.64
425.26	300.70
425.64	304.60
426.01	308.87
426.38	313.37
426.75	317.94
427.13	322.65
427.50	327.66
427.87	332.90
428.24	338.07
428.61	343.06
428.99	348.54
429.36	354.59
429.73	360.52
430.10	366.42
430.47	372.52
430.85	378.80
431.22	385.46
431.59	392.62
431.96	399.45
432.33	406.97
432.70	414.17
433.08	422.78
433.45	430.86
433.82	438.96
434.19	447.86
434.56	456.58
434.93	464.98
435.30	473.27
435.68	482.41
436.05	491.44
436.42	500.35
436.79	508.53
437.16	517.37
437.53	526.65
437.90	535.75
438.27	544.75
438.64	553.96
439.01	562.55
439.38	570.13
439.75	577.47
440.13	585.87
440.50	593.93
440.87	600.36
441.24	606.98
441.61	614.27
441.98	619.70
442.35	626.00
442.72	632.36
443.09	638.42
443.46	642.16
443.83	644.70
444.20	646.90
444.57	650.10
444.94	651.51
445.31	653.00
445.68	654.48
446.05	655.06
446.42	654.35
446.79	653.47
447.16	652.43
447.53	651.71
447.90	648.43
448.27	645.11
448.64	640.52
449.01	637.24
449.37	631.36
449.74	625.67
450.11	618.82
450.48	611.40
450.85	603.98
451.22	597.47
451.59	591.33
451.96	585.52
452.33	577.62
452.70	570.49
453.07	561.95
453.43	553.26
453.80	544.98
454.17	536.96
454.54	529.32
454.91	521.06
455.28	513.01
455.65	505.52
456.02	497.98
456.38	491.51
456.75	483.59
457.12	476.98
457.49	470.45
457.86	464.23
458.23	458.84
458.59	452.85
458.96	446.84
459.33	441.48
459.70	436.08
460.07	431.78
460.43	426.89
460.80	422.28
461.17	418.29
461.54	414.05
461.91	410.00
462.27	405.86
462.64	402.48
463.01	398.69
463.38	395.00
463.74	391.30
464.11	388.08
464.48	385.25
464.85	382.14
465.21	379.67
465.58	376.99
465.95	373.80
466.32	371.12
466.68	368.51
467.05	365.91
467.42	363.32
467.78	360.59
468.15	358.02
468.52	356.05
468.88	353.57
469.25	351.34
469.62	349.56
469.98	347.66
470.35	345.80
470.72	344.10
471.08	342.29
471.45	340.76
471.82	339.24
472.18	337.54
472.55	336.32
472.92	334.90
473.28	333.71
473.65	332.62
474.02	331.55
474.38	330.65
474.75	329.87
475.11	329.05
475.48	328.50
475.85	328.04
476.21	327.60
476.58	327.22
476.94	326.98
477.31	326.62
477.67	326.35
478.04	326.19
478.41	326.14
478.77	326.30
479.14	326.24
479.50	326.32
479.87	326.61
480.23	326.92
480.60	327.18
480.96	327.42
481.33	327.98
481.69	328.56
482.06	329.10
482.42	329.59
482.79	330.19
483.15	330.96
483.52	331.85
483.88	332.73
484.25	333.71
484.61	334.72
484.98	335.75
485.34	337.08
485.71	338.45
486.07	339.86
486.44	341.19
486.80	342.84
487.17	344.51
487.53	346.33
487.90	348.23
488.26	350.29
488.62	352.46
488.99	354.50
489.35	356.65
489.72	358.99
490.08	361.51
490.44	364.08
490.81	366.85
491.17	369.61
491.54	372.59
491.90	375.63
492.26	378.89
492.63	382.28
492.99	385.71
493.36	389.35
493.72	393.24
494.08	397.30
494.45	401.52
494.81	405.92
495.17	410.33
495.54	415.02
495.90	419.80
496.26	424.73
496.63	429.95
496.99	435.39
497.35	440.96
497.72	446.79
498.08	452.76
498.44	458.80
498.80	465.18
499.17	471.71
499.53	478.37
499.89	485.31
500.26	492.31
500.62	499.37
500.98	506.83
501.34	514.32
501.71	522.07
502.07	529.86
502.43	537.85
502.79	546.10
503.16	554.44
503.52	563.03
503.88	571.75
504.24	580.69
504.60	589.75
504.97	598.98
505.33	608.33
505.69	618.17
506.05	628.12
506.41	637.95
506.78	647.94
507.14	658.19
507.50	668.59
507.86	679.30
508.22	690.18
508.59	700.87
508.95	711.90
509.31	723.18
509.67	734.70
510.03	746.13
510.39	757.77
510.75	769.69
511.12	781.63
511.48	793.74
511.84	806.07
512.20	818.43
512.56	831.14
512.92	843.91
513.28	856.58
513.64	869.35
514.00	882.35
514.37	895.42
514.73	908.61
515.09	921.68
515.45	934.79
515.81	947.78
516.17	961.17
516.53	974.52
516.89	987.61
517.25	1000.83
517.61	1014.39
517.97	1027.81
518.33	1040.96
518.69	1054.65
519.05	1068.45
519.41	1082.20
519.77	1096.15
520.13	1109.47
520.49	1122.66
520.85	1136.16
521.21	1149.51
521.57	1163.22
521.93	1176.31
522.29	1190.11
522.65	1203.77
523.01	1217.40
523.37	1230.75
523.73	1244.22
524.09	1257.48
524.45	1271.00
524.81	1284.60
525.17	1298.02
525.53	1311.40
525.89	1324.93
526.25	1337.97
526.61	1350.86
526.97	1364.01
527.33	1377.03
527.68	1390.69
528.04	1404.29
528.40	1417.47
528.76	1430.92
529.12	1443.90
529.48	1457.32
529.84	1469.59
530.20	1482.49
530.56	1495.16
530.91	1508.50
531.27	1521.45
531.63	1534.30
531.99	1547.17
532.35	1559.35
532.71	1571.90
533.07	1584.86
533.42	1597.12
533.78	1609.52
534.14	1621.76
534.50	1633.12
534.86	1644.80
535.21	1655.67
535.57	1667.34
535.93	1678.69
536.29	1689.88
536.65	1701.46
537.00	1712.47
537.36	1724.00
537.72	1735.09
538.08	1746.55
538.44	1757.63
538.79	1768.78
539.15	1779.70
539.51	1790.61
539.87	1802.12
540.22	1813.04
540.58	1824.06
540.94	1835.07
541.29	1845.34
541.65	1855.04
542.01	1865.50
542.37	1875.71
542.72	1885.95
543.08	1895.78
543.44	1906.37
543.79	1915.72
544.15	1925.27
544.51	1935.39
544.87	1945.36
545.22	1954.58
545.58	1963.59
545.94	1972.43
546.29	1980.95
546.65	1989.50
547.01	1997.80
547.36	2005.50
547.72	2013.30
548.07	2020.82
548.43	2028.66
548.79	2036.59
549.14	2044.96
549.50	2053.54
549.86	2061.49
550.21	2069.06
550.57	2076.80
550.92	2083.59
551.28	2091.18
551.64	2098.39
551.99	2105.95
552.35	2113.20
552.70	2120.27
553.06	2126.86
553.41	2133.33
553.77	2140.05
554.13	2146.43
554.48	2153.58
554.84	2160.91
555.19	2167.58
555.55	2174.24
555.90	2180.44
556.26	2187.30
556.61	2193.40
556.97	2198.25
557.32	2203.99
557.68	2210.36
558.03	2216.06
558.39	2221.48
558.74	2227.41
559.10	2232.95
559.45	2238.40
559.81	2243.98
560.16	2249.36
560.52	2255.35
560.87	2261.64
561.23	2267.46
561.58	2274.13
561.94	2279.32
562.29	2283.85
562.64	2289.81
563.00	2295.43
563.35	2300.97
563.71	2306.59
564.06	2312.24
564.42	2318.14
564.77	2323.21
565.12	2328.43
565.48	2333.48
565.83	2338.82
566.19	2344.16
566.54	2349.55
566.89	2354.30
567.25	2358.76
567.60	2364.48
567.96	2369.47
568.31	2374.06
568.66	2378.19
569.02	2381.97
569.37	2385.55
569.72	2389.71
570.08	2392.99
570.43	2395.99
570.78	2399.04
571.14	2401.59
571.49	2404.54
571.84	2408.04
572.20	2410.77
572.55	2413.63
572.90	2415.86
573.26	2418.55
573.61	2421.11
573.96	2423.21
574.31	2425.03
574.67	2426.91
575.02	2427.56
575.37	2428.93
575.72	2429.52
576.08	2430.90
576.43	2430.94
576.78	2431.26
577.13	2432.91
577.49	2434.06
577.84	2434.89
578.19	2436.10
578.54	2436.64
578.90	2437.22
579.25	2436.99
579.60	2436.85
579.95	2435.99
580.30	2436.02
580.66	2435.29
581.01	2433.41
581.36	2430.84
581.71	2429.31
582.06	2427.95
582.42	2427.02
582.77	2424.56
583.12	2422.65
583.47	2421.08
583.82	2420.32
584.17	2418.95
584.53	2416.69
584.88	2414.53
585.23	2412.63
585.58	2410.24
585.93	2408.04
586.28	2405.82
586.63	2403.15
586.98	2400.87
587.34	2398.54
587.69	2395.88
588.04	2393.69
588.39	2392.06
588.74	2389.44
589.09	2386.63
589.44	2383.23
589.79	2380.58
590.14	2378.50
590.49	2375.62
590.84	2371.73
591.19	2368.50
591.54	2365.13
591.89	2360.96
592.25	2357.63
592.60	2353.25
592.95	2349.10
593.30	2344.82
593.65	2340.37
594.00	2335.78
594.35	2332.64
594.70	2328.16
595.05	2323.65
595.40	2318.09
595.75	2312.21
596.10	2308.55
596.45	2303.66
596.80	2299.01
597.15	2293.87
597.50	2287.94
597.85	2282.89
598.19	2277.61
598.54	2271.77
598.89	2266.47
599.24	2261.77
599.59	2255.48
599.94	2249.62
600.29	2243.54
600.64	2237.54
600.99	2230.69
601.34	2225.22
601.69	2218.24
602.04	2211.84
602.39	2205.17
602.74	2199.03
603.08	2193.55
603.43	2186.92
603.78	2179.92
604.13	2172.90
604.48	2165.36
604.83	2159.25
605.18	2153.06
605.53	2146.13
605.87	2139.06
606.22	2132.31
606.57	2124.36
606.92	2116.31
607.27	2109.29
607.62	2102.62
607.96	2095.58
608.31	2089.06
608.66	2081.27
609.01	2073.62
609.36	2066.41
609.70	2058.71
610.05	2050.99
610.40	2042.68
610.75	2034.36
611.10	2026.62
611.44	2017.72
611.79	2009.10
612.14	1999.03
612.49	1988.39
612.83	1979.11
613.18	1969.78
613.53	1960.38
613.88	1950.84
614.22	1942.32
614.57	1932.54
614.92	1921.99
615.27	1911.73
615.61	1901.51
615.96	1891.91
616.31	1882.21
616.65	1872.82
617.00	1863.00
617.35	1853.29
617.70	1843.51
618.04	1833.60
618.39	1823.43
618.74	1813.84
619.08	1804.15
619.43	1795.53
619.78	1787.27
620.12	1778.64
620.47	1769.08
620.82	1758.86
621.16	1749.04
621.51	1739.15
621.85	1729.43
622.20	1719.18
622.55	1708.66
622.89	1698.77
623.24	1689.08
623.59	1679.40
623.93	1669.27
624.28	1659.50
624.62	1649.38
624.97	1639.18
625.32	1629.26
625.66	1620.47
626.01	1611.78
626.35	1602.60
626.70	1592.54
627.04	1582.62
627.39	1572.45
627.73	1563.19
628.08	1554.27
628.43	1544.93
628.77	1535.66
629.12	1526.81
629.46	1518.97
629.81	1510.69
630.15	1501.26
630.50	1491.47
630.84	1480.94
631.19	1471.09
631.53	1461.89
631.88	1451.87
632.22	1441.95
632.57	1432.71
632.91	1422.69
633.26	1412.78
633.60	1403.12
633.95	1393.85
634.29	1384.36
634.64	1375.10
634.98	1365.25
635.32	1355.98
635.67	1347.50
636.01	1338.23
636.36	1328.58
636.70	1319.05
637.05	1309.78
637.39	1300.94
637.73	1292.32
638.08	1284.79
638.42	1276.70
638.77	1267.98
639.11	1259.83
639.45	1252.06
639.80	1243.63
640.14	1234.93
640.49	1226.18
640.83	1217.50
641.17	1209.47
641.52	1201.34
641.86	1192.81
642.20	1185.00
642.55	1176.46
642.89	1167.59
643.23	1159.05
643.58	1150.97
643.92	1141.90
644.26	1133.26
644.61	1124.84
644.95	1116.14
645.29	1107.03
645.64	1097.88
645.98	1089.30
646.32	1081.30
646.66	1072.74
647.01	1064.41
647.35	1056.36
647.69	1048.02
648.04	1039.72
648.38	1030.83
648.72	1022.08
649.06	1013.63
649.41	1005.44
649.75	997.51
650.09	989.54
650.43	981.59
650.78	973.16
651.12	965.48
651.46	958.05
651.80	950.80
652.14	943.56
652.49	936.02
652.83	928.73
653.17	921.10
653.51	913.52
653.85	906.32
654.20	899.11
654.54	891.61
654.88	884.41
655.22	877.14
655.56	870.15
655.90	863.29
656.25	856.53
656.59	849.60
656.93	842.56
657.27	835.51
657.61	828.46
657.95	822.32
658.29	816.42
658.64	810.30
658.98	803.84
659.32	797.24
659.66	790.95
660.00	784.62
660.34	778.50
660.68	772.38
661.02	765.98
661.36	760.04
661.70	754.17
662.05	748.48
662.39	743.03
662.73	737.62
663.07	732.26
663.41	726.76
663.75	721.07
664.09	715.32
664.43	709.90
664.77	704.61
665.11	698.82
665.45	692.87
665.79	686.96
666.13	681.25
666.47	675.71
666.81	670.32
667.15	664.81
667.49	659.67
667.83	654.40
668.17	649.15
668.51	643.92
668.85	638.99
669.19	634.07
669.53	628.97
669.87	623.80
670.21	618.93
670.55	614.12
670.89	609.67
671.23	605.36
671.57	600.88
671.91	596.55
672.25	592.33
672.58	588.20
672.92	584.17
673.26	580.24
673.60	576.35
673.94	572.47
674.28	568.92
674.62	565.12
674.96	561.33
675.30	557.89
675.64	554.19
675.97	550.54
676.31	546.93
676.65	543.36
676.99	539.97
677.33	536.15
677.67	532.46
678.01	528.53
678.34	524.87
678.68	521.41
679.02	517.81
679.36	514.12
679.70	510.44
680.04	506.83
680.37	503.33
680.71	499.97
681.05	496.77
681.39	493.42
681.73	490.23
682.06	487.17
682.40	484.02
682.74	480.83
683.08	477.60
683.42	474.35
683.75	471.28
684.09	468.18
684.43	465.38
684.77	462.47
685.10	459.63
685.44	456.67
685.78	453.67
686.12	450.84
686.45	448.07
686.79	445.42
687.13	442.78
687.46	440.14
687.80	437.46
688.14	434.58
688.48	431.90
688.81	429.21
689.15	426.61
689.49	423.93
689.82	421.35
690.16	418.75
690.50	416.27
690.83	413.77
691.17	411.18
691.51	408.62
691.84	406.34
692.18	404.03
692.52	401.77
692.85	399.58
693.19	397.40
693.52	395.22
693.86	392.96
694.20	390.82
694.53	388.64
694.87	386.39
695.21	384.24
695.54	382.08
695.88	379.85
696.21	377.61
696.55	375.43
696.88	373.35
697.22	371.39
697.56	369.43
697.89	367.48
698.23	365.74
698.56	363.92
698.90	362.04
699.23	360.17
699.57	358.28
699.90	356.37
700.24	354.49
700.58	352.72
700.91	351.00
701.25	349.43
701.58	347.78
701.92	346.12
702.25	344.50
702.59	342.86
702.92	341.34
703.26	339.71
703.59	338.23
703.93	336.94
704.26	335.45
704.60	333.93
704.93	332.40
705.26	330.85
705.60	329.36
705.93	327.82
706.27	326.48
706.60	325.23
706.94	324.04
707.27	322.66
707.61	321.29
707.94	319.92
708.27	318.35
708.61	316.90
708.94	315.54
709.28	314.24
709.61	312.97
709.94	311.70
710.28	310.51
710.61	309.31
710.95	307.84
711.28	306.71
711.61	305.53
711.95	304.38
712.28	303.18
712.61	302.00
712.95	300.97
713.28	299.91
713.61	298.71
713.95	297.50
714.28	296.48
714.61	295.41
714.95	294.38
715.28	293.34
715.61	292.28
715.95	291.28
716.28	290.30
716.61	289.32
716.95	288.29
717.28	287.33
717.61	286.34
717.94	285.43
718.28	284.39
718.61	283.47
718.94	282.59
719.27	281.74
719.61	280.93
719.94	280.05
720.27	279.06
720.60	278.19
720.94	277.41
721.27	276.59
721.60	275.88
721.93	275.17
722.27	274.52
722.60	273.87
722.93	273.16
723.26	272.45
723.59	271.72
723.93	271.12
724.26	270.48
724.59	269.87
724.92	269.27
725.25	268.70
725.59	268.17
725.92	267.60
726.25	267.04
726.58	266.41
726.91	265.78
727.24	265.25
727.57	264.67
727.91	264.02
728.24	263.48
728.57	262.83
728.90	262.29
729.23	261.63
729.56	261.17
729.89	260.63
730.22	260.04
730.55	259.50
730.89	258.94
731.22	258.38
731.55	257.85
731.88	257.32
732.21	256.80
732.54	256.22
732.87	255.73
733.20	255.22
733.53	254.74
733.86	254.28
734.19	253.78
734.52	253.34
734.85	253.06
735.18	252.58
735.51	252.23
735.84	251.74
736.17	251.39
736.50	250.85
736.83	250.69
737.16	250.35
737.49	249.98
737.82	249.58
738.15	249.17
738.48	248.81
738.81	248.41
739.14	247.97
739.47	247.61
739.80	247.19
740.13	246.83
740.46	246.45
740.79	246.07
741.12	245.70
741.45	245.31
741.78	244.88
742.11	244.59
742.44	244.18
742.77	243.89
743.10	243.52
743.43	243.16
743.75	242.55
744.08	242.45
744.41	242.06
744.74	241.74
745.07	241.37
745.40	241.03
745.73	240.78
746.06	240.48
746.39	240.16
746.71	239.81
747.04	239.43
747.37	239.07
747.70	238.78
748.03	238.50
748.36	238.22
748.68	237.88
749.01	237.56
749.34	237.31
749.67	237.00
750.00	236.74
750.33	236.62
750.65	236.38
750.98	235.83
751.31	235.61
751.64	235.36
751.97	235.23
752.29	234.95
752.62	234.62
752.95	234.35
753.28	234.08
753.60	233.85
753.93	233.70
754.26	233.49
754.59	233.22
754.91	232.94
755.24	232.71
755.57	232.49
755.90	232.22
756.22	231.94
756.55	231.70
756.88	231.42
757.20	231.07
757.53	230.83
757.86	230.60
758.19	230.38
758.51	230.12
758.84	229.84
759.17	229.63
759.49	229.46
759.82	229.36
760.15	229.19
760.47	229.03
760.80	228.77
761.13	228.63
761.45	228.42
761.78	228.25
762.11	228.09
762.43	227.88
762.76	227.71
763.08	227.56
763.41	227.45
763.74	227.31
764.06	227.15
764.39	227.00
764.71	226.84
765.04	226.70
765.37	226.55
765.69	226.39
766.02	226.23
766.34	226.05
766.67	225.83
767.00	225.70
767.32	225.65
767.65	225.67
767.97	225.49
768.30	225.40
768.62	225.28
768.95	225.13
769.27	225.00
769.60	224.91
769.92	224.73
770.25	224.54
770.57	224.38
770.90	224.26
771.22	224.12
771.55	224.03
771.87	223.90
772.20	223.81
772.52	223.85
772.85	224.03
773.17	223.94
773.50	223.83
773.82	223.72
774.15	223.55
774.47	223.28
774.80	223.18
775.12	223.05
775.45	222.98
775.77	222.88
776.09	222.82
776.42	222.72
776.74	222.70
777.07	222.61
777.39	222.54
777.72	222.45
778.04	222.39
778.36	222.29
778.69	222.22
779.01	222.14
779.33	221.88
779.66	221.52
779.98	221.44
780.31	221.40
780.63	221.40
780.95	221.32
781.28	221.27
781.60	221.18
781.92	221.13
782.25	221.05
782.57	220.97
782.89	220.90
783.22	220.84
783.54	220.73
783.86	220.68
784.19	220.62
784.51	220.61
784.83	220.52
785.16	220.44
785.48	220.35
785.80	220.32
786.12	220.30
