SpectraSuite Data File
++++++++++++++++++++++++++++++++++++
Date: Tue Jan 29 16:30:21 EST 2013
User: group
Dark Spectrum Present: No
Reference Spectrum Present: No
Number of Sampled Component Spectra: 1
Spectrometers: USB2E7196
Integration Time (usec): 65000 (USB2E7196)
Spectra Averaged: 100 (USB2E7196)
Boxcar Smoothing: 10 (USB2E7196)
Correct for Electrical Dark: No (USB2E7196)
Strobe/Lamp Enabled: No (USB2E7196)
Correct for Detector Non-linearity: No (USB2E7196)
Correct for Stray Light: No (USB2E7196)
Number of Pixels in Processed Spectrum: 2048
>>>>>Begin Processed Spectral Data<<<<<
339.09	0.00
339.48	202.07
339.86	203.22
340.24	204.73
340.63	206.63
341.01	210.65
341.39	208.84
341.78	210.33
342.16	211.17
342.54	212.73
342.93	201.28
343.31	211.43
343.69	211.96
344.07	212.43
344.46	212.89
344.84	213.30
345.22	213.48
345.60	213.75
345.99	213.96
346.37	214.17
346.75	214.27
347.13	214.33
347.52	214.44
347.90	214.59
348.28	214.61
348.66	214.68
349.05	214.64
349.43	214.73
349.81	214.79
350.19	214.82
350.57	214.91
350.96	214.98
351.34	215.12
351.72	215.26
352.10	215.39
352.48	215.47
352.87	215.49
353.25	215.56
353.63	215.61
354.01	215.68
354.39	215.70
354.77	215.75
355.15	215.92
355.54	215.93
355.92	215.90
356.30	215.97
356.68	216.16
357.06	216.23
357.44	216.25
357.82	216.30
358.20	216.40
358.58	216.46
358.97	216.50
359.35	216.59
359.73	216.65
360.11	216.67
360.49	216.75
360.87	216.78
361.25	216.85
361.63	216.94
362.01	216.95
362.39	216.98
362.77	217.04
363.15	217.03
363.53	217.07
363.91	217.13
364.29	217.15
364.67	216.98
365.05	217.03
365.43	217.04
365.81	217.11
366.19	217.18
366.57	217.26
366.95	217.28
367.33	217.19
367.71	217.21
368.09	217.26
368.47	217.23
368.85	217.23
369.23	217.23
369.61	217.18
369.99	217.26
370.37	217.28
370.75	217.36
371.13	217.31
371.51	217.27
371.89	217.25
372.27	217.25
372.65	217.23
373.03	217.18
373.41	217.12
373.78	217.05
374.16	216.94
374.54	216.82
374.92	216.76
375.30	216.76
375.68	216.66
376.06	216.62
376.44	216.53
376.82	216.50
377.19	216.45
377.57	216.39
377.95	216.25
378.33	216.20
378.71	216.05
379.09	216.05
379.47	216.06
379.84	215.98
380.22	215.88
380.60	215.81
380.98	215.76
381.36	215.74
381.73	215.68
382.11	215.67
382.49	215.63
382.87	215.55
383.25	215.50
383.62	215.72
384.00	215.66
384.38	215.65
384.76	215.65
385.13	215.70
385.51	215.69
385.89	215.68
386.27	215.66
386.64	215.66
387.02	215.58
387.40	215.49
387.78	215.49
388.15	215.53
388.53	215.49
388.91	215.46
389.29	215.44
389.66	215.45
390.04	215.40
390.42	215.44
390.79	215.44
391.17	215.45
391.55	215.22
391.92	215.20
392.30	215.26
392.68	215.23
393.05	215.22
393.43	215.21
393.81	215.24
394.18	215.16
394.56	215.16
394.94	215.24
395.31	215.28
395.69	215.38
396.06	215.39
396.44	215.45
396.82	215.47
397.19	215.59
397.57	215.60
397.95	215.68
398.32	215.63
398.70	215.73
399.07	215.81
399.45	215.83
399.82	215.87
400.20	215.87
400.58	215.91
400.95	215.89
401.33	216.03
401.70	216.21
402.08	216.35
402.45	216.45
402.83	216.59
403.20	216.70
403.58	216.77
403.95	216.93
404.33	217.07
404.71	217.23
405.08	217.52
405.46	217.71
405.83	217.88
406.21	218.07
406.58	218.28
406.96	218.52
407.33	218.79
407.70	219.12
408.08	219.57
408.45	219.93
408.83	220.30
409.20	220.62
409.58	220.86
409.95	221.35
410.33	221.83
410.70	222.22
411.08	222.76
411.45	223.33
411.82	223.91
412.20	224.58
412.57	225.42
412.95	225.96
413.32	226.78
413.69	227.63
414.07	228.58
414.44	229.55
414.82	230.54
415.19	231.70
415.56	232.88
415.94	234.07
416.31	235.49
416.68	236.89
417.06	238.53
417.43	240.12
417.81	241.85
418.18	243.65
418.55	245.58
418.93	247.62
419.30	249.72
419.67	251.92
420.04	254.22
420.42	256.62
420.79	259.46
421.16	262.27
421.54	265.16
421.91	268.14
422.28	271.29
422.66	274.61
423.03	277.85
423.40	281.22
423.77	284.84
424.15	288.56
424.52	292.41
424.89	296.52
425.26	300.53
425.64	304.38
426.01	308.63
426.38	313.15
426.75	317.68
427.13	322.43
427.50	327.44
427.87	332.63
428.24	337.79
428.61	342.71
428.99	348.22
429.36	354.23
429.73	360.08
430.10	365.92
430.47	371.92
430.85	378.25
431.22	384.95
431.59	392.00
431.96	398.74
432.33	406.28
432.70	413.56
433.08	422.10
433.45	430.18
433.82	438.21
434.19	446.98
434.56	455.70
434.93	463.97
435.30	472.22
435.68	481.31
436.05	490.26
436.42	499.22
436.79	507.35
437.16	516.11
437.53	525.43
437.90	534.60
438.27	543.61
438.64	552.78
439.01	561.29
439.38	568.85
439.75	576.17
440.13	584.55
440.50	592.46
440.87	598.89
441.24	605.44
441.61	612.84
441.98	618.28
442.35	624.59
442.72	630.96
443.09	637.05
443.46	640.81
443.83	643.32
444.20	645.50
444.57	648.63
444.94	650.08
445.31	651.47
445.68	652.77
446.05	653.37
446.42	652.62
446.79	651.68
447.16	650.66
447.53	649.90
447.90	646.56
448.27	643.37
448.64	638.73
449.01	635.48
449.37	629.53
449.74	623.83
450.11	616.91
450.48	609.48
450.85	602.00
451.22	595.53
451.59	589.46
451.96	583.64
452.33	575.85
452.70	568.76
453.07	560.30
453.43	551.73
453.80	543.39
454.17	535.42
454.54	527.82
454.91	519.59
455.28	511.63
455.65	504.22
456.02	496.70
456.38	490.39
456.75	482.51
457.12	475.93
457.49	469.49
457.86	463.35
458.23	458.00
458.59	452.07
458.96	446.05
459.33	440.72
459.70	435.36
460.07	431.07
460.43	426.15
460.80	421.56
461.17	417.58
461.54	413.43
461.91	409.38
462.27	405.32
462.64	401.95
463.01	398.15
463.38	394.45
463.74	390.75
464.11	387.49
464.48	384.69
464.85	381.60
465.21	379.14
465.58	376.49
465.95	373.32
466.32	370.73
466.68	368.17
467.05	365.57
467.42	362.96
467.78	360.26
468.15	357.76
468.52	355.87
468.88	353.36
469.25	351.16
469.62	349.36
469.98	347.38
470.35	345.60
470.72	343.91
471.08	342.14
471.45	340.57
471.82	339.05
472.18	337.38
472.55	336.17
472.92	334.80
473.28	333.56
473.65	332.47
474.02	331.34
474.38	330.40
474.75	329.65
475.11	328.88
475.48	328.31
475.85	327.80
476.21	327.31
476.58	327.02
476.94	326.75
477.31	326.45
477.67	326.23
478.04	326.03
478.41	325.95
478.77	326.11
479.14	326.08
479.50	326.17
479.87	326.48
480.23	326.80
480.60	327.03
480.96	327.28
481.33	327.85
481.69	328.43
482.06	329.00
482.42	329.48
482.79	330.08
483.15	330.87
483.52	331.87
483.88	332.76
484.25	333.65
484.61	334.69
484.98	335.79
485.34	337.11
485.71	338.50
486.07	339.95
486.44	341.30
486.80	342.94
487.17	344.63
487.53	346.41
487.90	348.26
488.26	350.32
488.62	352.53
488.99	354.59
489.35	356.73
489.72	359.12
490.08	361.64
490.44	364.24
490.81	366.99
491.17	369.68
491.54	372.65
491.90	375.76
492.26	379.01
492.63	382.41
492.99	385.92
493.36	389.60
493.72	393.51
494.08	397.50
494.45	401.74
494.81	406.16
495.17	410.59
495.54	415.33
495.90	420.14
496.26	425.11
496.63	430.32
496.99	435.74
497.35	441.33
497.72	447.21
498.08	453.14
498.44	459.22
498.80	465.65
499.17	472.17
499.53	478.91
499.89	485.83
500.26	492.86
500.62	499.94
500.98	507.37
501.34	514.86
501.71	522.64
502.07	530.52
502.43	538.48
502.79	546.70
503.16	555.13
503.52	563.84
503.88	572.55
504.24	581.62
504.60	590.77
504.97	599.94
505.33	609.23
505.69	619.09
506.05	629.01
506.41	638.92
506.78	649.01
507.14	659.28
507.50	669.81
507.86	680.51
508.22	691.39
508.59	702.10
508.95	713.18
509.31	724.49
509.67	736.01
510.03	747.51
510.39	759.33
510.75	771.29
511.12	783.23
511.48	795.46
511.84	807.72
512.20	820.08
512.56	832.86
512.92	845.77
513.28	858.58
513.64	871.43
514.00	884.40
514.37	897.48
514.73	910.63
515.09	923.65
515.45	936.65
515.81	949.76
516.17	963.25
516.53	976.70
516.89	989.94
517.25	1003.15
517.61	1016.74
517.97	1030.23
518.33	1043.41
518.69	1057.13
519.05	1070.93
519.41	1084.75
519.77	1098.72
520.13	1112.13
520.49	1125.35
520.85	1138.83
521.21	1152.37
521.57	1166.20
521.93	1179.40
522.29	1193.23
522.65	1206.98
523.01	1220.83
523.37	1234.23
523.73	1247.63
524.09	1260.94
524.45	1274.51
524.81	1288.11
525.17	1301.67
525.53	1314.93
525.89	1328.44
526.25	1341.53
526.61	1354.41
526.97	1367.69
527.33	1380.74
527.68	1394.44
528.04	1408.10
528.40	1421.22
528.76	1434.65
529.12	1447.69
529.48	1461.26
529.84	1473.74
530.20	1486.69
530.56	1499.36
530.91	1512.73
531.27	1525.75
531.63	1538.49
531.99	1551.35
532.35	1563.79
532.71	1576.31
533.07	1589.40
533.42	1601.67
533.78	1614.01
534.14	1626.26
534.50	1637.50
534.86	1649.26
535.21	1660.32
535.57	1672.00
535.93	1683.43
536.29	1694.59
536.65	1706.02
537.00	1716.92
537.36	1728.44
537.72	1739.44
538.08	1750.94
538.44	1761.89
538.79	1773.13
539.15	1784.17
539.51	1795.05
539.87	1806.40
540.22	1817.25
540.58	1828.33
540.94	1839.35
541.29	1849.67
541.65	1859.52
542.01	1870.21
542.37	1880.39
542.72	1890.51
543.08	1900.35
543.44	1911.04
543.79	1920.44
544.15	1930.07
544.51	1940.17
544.87	1950.12
545.22	1959.50
545.58	1968.45
545.94	1977.40
546.29	1985.94
546.65	1994.45
547.01	2002.74
547.36	2010.41
547.72	2018.32
548.07	2025.93
548.43	2033.74
548.79	2041.73
549.14	2049.86
549.50	2058.32
549.86	2066.20
550.21	2073.65
550.57	2081.55
550.92	2088.39
551.28	2095.97
551.64	2103.33
551.99	2110.89
552.35	2118.09
552.70	2124.95
553.06	2131.66
553.41	2138.04
553.77	2144.60
554.13	2151.02
554.48	2158.01
554.84	2165.27
555.19	2171.90
555.55	2178.41
555.90	2184.80
556.26	2191.74
556.61	2197.92
556.97	2202.72
557.32	2208.56
557.68	2215.22
558.03	2220.86
558.39	2226.23
558.74	2232.26
559.10	2237.73
559.45	2243.37
559.81	2248.97
560.16	2254.63
560.52	2260.51
560.87	2267.02
561.23	2272.98
561.58	2279.55
561.94	2284.85
562.29	2289.77
562.64	2295.92
563.00	2301.50
563.35	2307.15
563.71	2312.91
564.06	2318.68
564.42	2324.88
564.77	2330.01
565.12	2335.14
565.48	2340.33
565.83	2345.87
566.19	2351.30
566.54	2356.73
566.89	2361.37
567.25	2365.97
567.60	2371.63
567.96	2376.82
568.31	2381.32
568.66	2385.61
569.02	2389.62
569.37	2393.56
569.72	2397.78
570.08	2401.20
570.43	2404.32
570.78	2407.44
571.14	2409.87
571.49	2412.98
571.84	2416.53
572.20	2419.56
572.55	2422.57
572.90	2424.96
573.26	2427.67
573.61	2430.22
573.96	2432.30
574.31	2434.20
574.67	2436.04
575.02	2436.75
575.37	2438.13
575.72	2438.81
576.08	2440.20
576.43	2440.32
576.78	2440.61
577.13	2442.26
577.49	2443.27
577.84	2444.53
578.19	2445.74
578.54	2446.48
578.90	2447.27
579.25	2446.99
579.60	2446.90
579.95	2446.08
580.30	2446.04
580.66	2445.46
581.01	2443.71
581.36	2441.44
581.71	2440.02
582.06	2438.80
582.42	2438.00
582.77	2435.74
583.12	2434.10
583.47	2432.92
583.82	2432.38
584.17	2431.24
584.53	2428.96
584.88	2426.80
585.23	2424.66
585.58	2422.34
585.93	2420.05
586.28	2417.73
586.63	2415.17
586.98	2412.98
587.34	2411.05
587.69	2408.52
588.04	2406.39
588.39	2404.89
588.74	2402.30
589.09	2399.56
589.44	2396.46
589.79	2394.03
590.14	2392.07
590.49	2389.16
590.84	2385.09
591.19	2381.87
591.54	2378.57
591.89	2374.62
592.25	2371.45
592.60	2367.27
592.95	2363.02
593.30	2358.84
593.65	2354.45
594.00	2350.01
594.35	2346.85
594.70	2342.08
595.05	2337.55
595.40	2331.98
595.75	2326.17
596.10	2322.63
596.45	2317.88
596.80	2313.19
597.15	2307.90
597.50	2301.93
597.85	2297.14
598.19	2291.97
598.54	2286.13
598.89	2280.75
599.24	2276.16
599.59	2269.97
599.94	2264.07
600.29	2258.20
600.64	2252.21
600.99	2245.42
601.34	2239.92
601.69	2232.95
602.04	2226.45
602.39	2219.63
602.74	2213.59
603.08	2207.95
603.43	2201.36
603.78	2194.54
604.13	2187.40
604.48	2180.00
604.83	2173.81
605.18	2167.45
605.53	2160.48
605.87	2153.38
606.22	2146.62
606.57	2138.66
606.92	2130.67
607.27	2123.71
607.62	2117.04
607.96	2110.07
608.31	2103.51
608.66	2095.68
609.01	2087.96
609.36	2080.90
609.70	2073.28
610.05	2065.34
610.40	2056.95
610.75	2048.43
611.10	2040.47
611.44	2031.61
611.79	2022.78
612.14	2012.85
612.49	2002.09
612.83	1992.70
613.18	1983.38
613.53	1973.99
613.88	1964.30
614.22	1955.59
614.57	1945.68
614.92	1934.98
615.27	1924.64
615.61	1914.43
615.96	1904.62
616.31	1894.91
616.65	1885.40
617.00	1875.46
617.35	1865.80
617.70	1856.13
618.04	1846.24
618.39	1836.01
618.74	1826.32
619.08	1816.71
619.43	1807.92
619.78	1799.57
620.12	1790.78
620.47	1781.00
620.82	1770.59
621.16	1760.74
621.51	1750.84
621.85	1741.00
622.20	1730.53
622.55	1719.88
622.89	1709.93
623.24	1700.32
623.59	1690.48
623.93	1680.25
624.28	1670.42
624.62	1660.27
624.97	1649.85
625.32	1639.90
625.66	1631.04
626.01	1622.09
626.35	1612.74
626.70	1602.58
627.04	1592.51
627.39	1582.34
627.73	1573.06
628.08	1564.10
628.43	1554.47
628.77	1545.19
629.12	1536.24
629.46	1528.50
629.81	1520.23
630.15	1510.71
630.50	1500.76
630.84	1490.21
631.19	1480.29
631.53	1470.99
631.88	1460.81
632.22	1450.84
632.57	1441.48
632.91	1431.26
633.26	1421.39
633.60	1411.73
633.95	1402.40
634.29	1392.85
634.64	1383.49
634.98	1373.55
635.32	1364.23
635.67	1355.68
636.01	1346.33
636.36	1336.49
636.70	1326.83
637.05	1317.42
637.39	1308.33
637.73	1299.69
638.08	1292.13
638.42	1283.85
638.77	1274.96
639.11	1266.67
639.45	1258.74
639.80	1250.09
640.14	1241.28
640.49	1232.38
640.83	1223.55
641.17	1215.36
641.52	1207.17
641.86	1198.55
642.20	1190.58
642.55	1181.83
642.89	1172.91
643.23	1164.22
643.58	1156.02
643.92	1146.89
644.26	1138.06
644.61	1129.66
644.95	1120.84
645.29	1111.57
645.64	1102.38
645.98	1093.88
646.32	1085.81
646.66	1077.29
647.01	1068.87
647.35	1060.64
647.69	1052.23
648.04	1043.78
648.38	1034.87
648.72	1026.04
649.06	1017.53
649.41	1009.37
649.75	1001.40
650.09	993.50
650.43	985.40
650.78	977.07
651.12	969.34
651.46	961.90
651.80	954.51
652.14	947.15
652.49	939.54
652.83	932.19
653.17	924.39
653.51	916.74
653.85	909.42
654.20	902.13
654.54	894.62
654.88	887.31
655.22	880.08
655.56	872.99
655.90	866.10
656.25	859.32
656.59	852.29
656.93	845.13
657.27	837.86
657.61	830.76
657.95	824.55
658.29	818.56
658.64	812.36
658.98	805.90
659.32	799.30
659.66	792.96
660.00	786.53
660.34	780.42
660.68	774.28
661.02	767.86
661.36	761.79
661.70	756.00
662.05	750.35
662.39	744.80
662.73	739.37
663.07	733.93
663.41	728.32
663.75	722.55
664.09	716.86
664.43	711.36
664.77	706.04
665.11	700.24
665.45	694.25
665.79	688.37
666.13	682.62
666.47	677.12
666.81	671.60
667.15	666.14
667.49	660.87
667.83	655.52
668.17	650.20
668.51	645.04
668.85	640.08
669.19	635.16
669.53	630.07
669.87	624.85
670.21	620.04
670.55	615.26
670.89	610.78
671.23	606.44
671.57	602.01
671.91	597.64
672.25	593.39
672.58	589.23
672.92	585.13
673.26	581.13
673.60	577.07
673.94	573.21
674.28	569.56
674.62	565.81
674.96	561.97
675.30	558.45
675.64	554.76
675.97	551.08
676.31	547.42
676.65	543.78
676.99	540.36
677.33	536.48
677.67	532.75
678.01	528.80
678.34	525.10
678.68	521.50
679.02	517.86
679.36	514.10
679.70	510.38
680.04	506.80
680.37	503.30
680.71	499.93
681.05	496.76
681.39	493.46
681.73	490.25
682.06	487.25
682.40	484.13
682.74	480.91
683.08	477.66
683.42	474.37
683.75	471.29
684.09	468.14
684.43	465.25
684.77	462.36
685.10	459.53
685.44	456.57
685.78	453.65
686.12	450.83
686.45	448.08
686.79	445.42
687.13	442.83
687.46	440.14
687.80	437.48
688.14	434.60
688.48	431.89
688.81	429.17
689.15	426.53
689.49	423.84
689.82	421.27
690.16	418.62
690.50	416.18
690.83	413.65
691.17	411.11
691.51	408.62
691.84	406.29
692.18	404.06
692.52	401.83
692.85	399.65
693.19	397.48
693.52	395.30
693.86	393.01
694.20	390.83
694.53	388.67
694.87	386.41
695.21	384.21
695.54	382.04
695.88	379.84
696.21	377.55
696.55	375.42
696.88	373.32
697.22	371.33
697.56	369.36
697.89	367.48
698.23	365.69
698.56	363.87
698.90	362.07
699.23	360.10
699.57	358.22
699.90	356.29
700.24	354.47
700.58	352.67
700.91	350.99
701.25	349.35
701.58	347.73
701.92	346.07
702.25	344.44
702.59	342.79
702.92	341.24
703.26	339.70
703.59	338.19
703.93	336.94
704.26	335.46
704.60	333.93
704.93	332.38
705.26	330.88
705.60	329.41
705.93	327.85
706.27	326.52
706.60	325.19
706.94	323.94
707.27	322.48
707.61	321.10
707.94	319.73
708.27	318.19
708.61	316.71
708.94	315.35
709.28	314.05
709.61	312.81
709.94	311.57
710.28	310.32
710.61	309.10
710.95	307.66
711.28	306.59
711.61	305.38
711.95	304.24
712.28	303.00
712.61	301.76
712.95	300.70
713.28	299.66
713.61	298.51
713.95	297.37
714.28	296.39
714.61	295.38
714.95	294.36
715.28	293.35
715.61	292.34
715.95	291.38
716.28	290.42
716.61	289.40
716.95	288.38
717.28	287.43
717.61	286.42
717.94	285.46
718.28	284.42
718.61	283.56
718.94	282.62
719.27	281.78
719.61	280.95
719.94	280.07
720.27	279.08
720.60	278.20
720.94	277.36
721.27	276.57
721.60	275.84
721.93	275.11
722.27	274.42
722.60	273.74
722.93	273.01
723.26	272.32
723.59	271.64
723.93	271.01
724.26	270.41
724.59	269.81
724.92	269.25
725.25	268.66
725.59	268.09
725.92	267.57
726.25	266.97
726.58	266.42
726.91	265.80
727.24	265.22
727.57	264.66
727.91	264.07
728.24	263.51
728.57	262.88
728.90	262.33
729.23	261.72
729.56	261.25
729.89	260.74
730.22	260.14
730.55	259.58
730.89	259.02
731.22	258.41
731.55	257.89
731.88	257.34
732.21	256.80
732.54	256.23
732.87	255.70
733.20	255.20
733.53	254.73
733.86	254.29
734.19	253.82
734.52	253.39
734.85	253.11
735.18	252.63
735.51	252.28
735.84	251.83
736.17	251.42
736.50	250.87
736.83	250.68
737.16	250.33
737.49	249.96
737.82	249.56
738.15	249.19
738.48	248.77
738.81	248.37
739.14	247.93
739.47	247.56
739.80	247.17
740.13	246.83
740.46	246.44
740.79	246.04
741.12	245.66
741.45	245.30
741.78	244.84
742.11	244.53
742.44	244.12
742.77	243.78
743.10	243.45
743.43	243.13
743.75	242.53
744.08	242.45
744.41	242.14
744.74	241.79
745.07	241.42
745.40	241.15
745.73	240.90
746.06	240.61
746.39	240.30
746.71	239.90
747.04	239.55
747.37	239.18
747.70	238.91
748.03	238.64
748.36	238.31
748.68	238.01
749.01	237.68
749.34	237.38
749.67	237.12
750.00	236.87
750.33	236.72
750.65	236.45
750.98	235.90
751.31	235.60
751.64	235.38
751.97	235.27
752.29	234.98
752.62	234.65
752.95	234.38
753.28	234.10
753.60	233.92
753.93	233.73
754.26	233.53
754.59	233.25
754.91	233.00
755.24	232.82
755.57	232.55
755.90	232.30
756.22	232.06
756.55	231.81
756.88	231.56
757.20	231.21
757.53	231.00
757.86	230.81
758.19	230.67
758.51	230.46
758.84	230.14
759.17	229.93
759.49	229.74
759.82	229.67
760.15	229.52
760.47	229.31
760.80	229.06
761.13	228.89
761.45	228.68
761.78	228.49
762.11	228.29
762.43	228.14
762.76	227.97
763.08	227.82
763.41	227.64
763.74	227.47
764.06	227.31
764.39	227.12
764.71	226.93
765.04	226.74
765.37	226.53
765.69	226.41
766.02	226.27
766.34	226.13
766.67	225.90
767.00	225.78
767.32	225.78
767.65	225.77
767.97	225.62
768.30	225.48
768.62	225.36
768.95	225.24
769.27	225.09
769.60	225.01
769.92	224.86
770.25	224.70
770.57	224.52
770.90	224.40
771.22	224.27
771.55	224.19
771.87	224.07
772.20	223.97
772.52	224.02
772.85	224.17
773.17	224.07
773.50	223.91
773.82	223.79
774.15	223.59
774.47	223.39
774.80	223.28
775.12	223.22
775.45	223.13
775.77	223.05
776.09	223.00
776.42	222.88
776.74	222.84
777.07	222.77
777.39	222.73
777.72	222.63
778.04	222.58
778.36	222.50
778.69	222.41
779.01	222.35
779.33	222.09
779.66	221.77
779.98	221.67
780.31	221.63
780.63	221.62
780.95	221.57
781.28	221.49
781.60	221.41
781.92	221.32
782.25	221.24
782.57	221.14
782.89	221.05
783.22	220.98
783.54	220.90
783.86	220.86
784.19	220.76
784.51	220.78
784.83	220.69
785.16	220.57
785.48	220.52
785.80	220.47
786.12	220.42
