SpectraSuite Data File
++++++++++++++++++++++++++++++++++++
Date: Tue Jan 29 16:55:34 EST 2013
User: group
Dark Spectrum Present: No
Reference Spectrum Present: No
Number of Sampled Component Spectra: 1
Spectrometers: USB2E7196
Integration Time (usec): 65000 (USB2E7196)
Spectra Averaged: 100 (USB2E7196)
Boxcar Smoothing: 10 (USB2E7196)
Correct for Electrical Dark: No (USB2E7196)
Strobe/Lamp Enabled: No (USB2E7196)
Correct for Detector Non-linearity: No (USB2E7196)
Correct for Stray Light: No (USB2E7196)
Number of Pixels in Processed Spectrum: 2048
>>>>>Begin Processed Spectral Data<<<<<
339.09	0.00
339.48	201.50
339.86	202.50
340.24	203.96
340.63	205.68
341.01	210.20
341.39	208.02
341.78	209.91
342.16	211.28
342.54	211.44
342.93	200.69
343.31	210.82
343.69	211.37
344.07	211.86
344.46	212.33
344.84	212.74
345.22	212.91
345.60	213.19
345.99	213.38
346.37	213.54
346.75	213.66
347.13	213.76
347.52	213.85
347.90	213.98
348.28	214.03
348.66	214.15
349.05	214.11
349.43	214.18
349.81	214.23
350.19	214.27
350.57	214.34
350.96	214.46
351.34	214.56
351.72	214.67
352.10	214.78
352.48	214.85
352.87	214.87
353.25	214.94
353.63	215.00
354.01	215.08
354.39	215.17
354.77	215.23
355.15	215.36
355.54	215.38
355.92	215.38
356.30	215.44
356.68	215.61
357.06	215.69
357.44	215.73
357.82	215.82
358.20	215.90
358.58	215.96
358.97	216.02
359.35	216.11
359.73	216.21
360.11	216.24
360.49	216.32
360.87	216.40
361.25	216.49
361.63	216.61
362.01	216.67
362.39	216.69
362.77	216.74
363.15	216.74
363.53	216.78
363.91	216.81
364.29	216.84
364.67	216.69
365.05	216.67
365.43	216.74
365.81	216.77
366.19	216.85
366.57	216.96
366.95	216.94
367.33	216.93
367.71	216.89
368.09	216.93
368.47	216.92
368.85	216.92
369.23	216.95
369.61	216.87
369.99	216.90
370.37	216.89
370.75	216.97
371.13	216.92
371.51	216.87
371.89	216.83
372.27	216.82
372.65	216.79
373.03	216.78
373.41	216.73
373.78	216.65
374.16	216.50
374.54	216.39
374.92	216.29
375.30	216.24
375.68	216.18
376.06	216.14
376.44	216.06
376.82	216.04
377.19	215.97
377.57	215.89
377.95	215.80
378.33	215.74
378.71	215.59
379.09	215.57
379.47	215.57
379.84	215.54
380.22	215.48
380.60	215.40
380.98	215.37
381.36	215.30
381.73	215.20
382.11	215.20
382.49	215.18
382.87	215.17
383.25	215.10
383.62	215.30
384.00	215.21
384.38	215.18
384.76	215.19
385.13	215.25
385.51	215.24
385.89	215.19
386.27	215.18
386.64	215.18
387.02	215.15
387.40	215.06
387.78	215.04
388.15	215.02
388.53	214.99
388.91	214.94
389.29	214.92
389.66	214.97
390.04	214.93
390.42	214.89
390.79	214.88
391.17	214.89
391.55	214.64
391.92	214.65
392.30	214.66
392.68	214.57
393.05	214.54
393.43	214.54
393.81	214.53
394.18	214.50
394.56	214.52
394.94	214.56
395.31	214.60
395.69	214.65
396.06	214.70
396.44	214.74
396.82	214.74
397.19	214.84
397.57	214.83
397.95	214.91
398.32	214.90
398.70	214.94
399.07	215.04
399.45	215.07
399.82	215.14
400.20	215.19
400.58	215.24
400.95	215.20
401.33	215.30
401.70	215.55
402.08	215.63
402.45	215.69
402.83	215.82
403.20	215.91
403.58	216.00
403.95	216.12
404.33	216.29
404.71	216.48
405.08	216.79
405.46	216.96
405.83	217.15
406.21	217.37
406.58	217.63
406.96	217.84
407.33	218.13
407.70	218.41
408.08	218.85
408.45	219.19
408.83	219.61
409.20	219.95
409.58	220.18
409.95	220.64
410.33	221.14
410.70	221.59
411.08	222.14
411.45	222.73
411.82	223.33
412.20	224.04
412.57	224.85
412.95	225.42
413.32	226.26
413.69	227.15
414.07	228.04
414.44	228.99
414.82	230.03
415.19	231.24
415.56	232.42
415.94	233.62
416.31	235.07
416.68	236.47
417.06	238.11
417.43	239.67
417.81	241.46
418.18	243.29
418.55	245.19
418.93	247.26
419.30	249.40
419.67	251.65
420.04	253.93
420.42	256.31
420.79	259.10
421.16	261.91
421.54	264.77
421.91	267.81
422.28	270.98
422.66	274.31
423.03	277.56
423.40	280.98
423.77	284.60
424.15	288.27
424.52	292.15
424.89	296.35
425.26	300.47
425.64	304.35
426.01	308.62
426.38	313.13
426.75	317.67
427.13	322.37
427.50	327.39
427.87	332.61
428.24	337.82
428.61	342.90
428.99	348.46
429.36	354.47
429.73	360.36
430.10	366.26
430.47	372.31
430.85	378.64
431.22	385.37
431.59	392.53
431.96	399.44
432.33	406.99
432.70	414.24
433.08	422.84
433.45	430.95
433.82	439.00
434.19	447.95
434.56	456.70
434.93	465.12
435.30	473.42
435.68	482.54
436.05	491.61
436.42	500.60
436.79	508.84
437.16	517.70
437.53	527.05
437.90	536.23
438.27	545.25
438.64	554.61
439.01	563.16
439.38	570.80
439.75	578.19
440.13	586.67
440.50	594.66
440.87	601.09
441.24	607.80
441.61	615.13
441.98	620.52
442.35	626.89
442.72	633.26
443.09	639.38
443.46	643.20
443.83	645.75
444.20	647.96
444.57	651.14
444.94	652.63
445.31	654.06
445.68	655.45
446.05	656.12
446.42	655.29
446.79	654.39
447.16	653.32
447.53	652.56
447.90	649.20
448.27	645.97
448.64	641.35
449.01	638.03
449.37	632.22
449.74	626.61
450.11	619.68
450.48	612.30
450.85	604.83
451.22	598.31
451.59	592.05
451.96	586.10
452.33	578.14
452.70	570.95
453.07	562.56
453.43	553.97
453.80	545.60
454.17	537.53
454.54	529.91
454.91	521.66
455.28	513.54
455.65	506.03
456.02	498.45
456.38	492.08
456.75	484.12
457.12	477.45
457.49	470.83
457.86	464.56
458.23	459.05
458.59	453.02
458.96	446.98
459.33	441.68
459.70	436.32
460.07	432.05
460.43	427.16
460.80	422.48
461.17	418.39
461.54	414.17
461.91	410.18
462.27	406.06
462.64	402.57
463.01	398.81
463.38	395.15
463.74	391.42
464.11	388.09
464.48	385.27
464.85	382.17
465.21	379.72
465.58	377.08
465.95	373.99
466.32	371.38
466.68	368.78
467.05	366.21
467.42	363.60
467.78	360.91
468.15	358.35
468.52	356.40
468.88	353.84
469.25	351.60
469.62	349.71
469.98	347.71
470.35	345.90
470.72	344.12
471.08	342.24
471.45	340.74
471.82	339.20
472.18	337.47
472.55	336.21
472.92	334.83
473.28	333.62
473.65	332.43
474.02	331.25
474.38	330.31
474.75	329.52
475.11	328.70
475.48	328.02
475.85	327.50
476.21	327.03
476.58	326.67
476.94	326.42
477.31	326.12
477.67	325.83
478.04	325.67
478.41	325.65
478.77	325.82
479.14	325.74
479.50	325.86
479.87	326.18
480.23	326.47
480.60	326.72
480.96	327.01
481.33	327.62
481.69	328.22
482.06	328.73
482.42	329.20
482.79	329.82
483.15	330.65
483.52	331.60
483.88	332.46
484.25	333.41
484.61	334.40
484.98	335.44
485.34	336.77
485.71	338.14
486.07	339.57
486.44	340.84
486.80	342.43
487.17	344.10
487.53	345.91
487.90	347.79
488.26	349.84
488.62	351.98
488.99	354.01
489.35	356.17
489.72	358.54
490.08	361.05
490.44	363.59
490.81	366.29
491.17	369.03
491.54	371.98
491.90	375.01
492.26	378.27
492.63	381.69
492.99	385.20
493.36	388.82
493.72	392.73
494.08	396.79
494.45	401.06
494.81	405.42
495.17	409.84
495.54	414.59
495.90	419.30
496.26	424.16
496.63	429.33
496.99	434.74
497.35	440.34
497.72	446.12
498.08	452.07
498.44	458.17
498.80	464.55
499.17	471.03
499.53	477.77
499.89	484.64
500.26	491.55
500.62	498.55
500.98	505.95
501.34	513.33
501.71	521.03
502.07	528.82
502.43	536.80
502.79	544.96
503.16	553.27
503.52	561.96
503.88	570.63
504.24	579.62
504.60	588.69
504.97	597.83
505.33	607.11
505.69	616.91
506.05	626.73
506.41	636.57
506.78	646.63
507.14	656.80
507.50	667.15
507.86	677.81
508.22	688.61
508.59	699.22
508.95	710.30
509.31	721.54
509.67	732.87
510.03	744.22
510.39	755.82
510.75	767.57
511.12	779.33
511.48	791.30
511.84	803.37
512.20	815.65
512.56	828.26
512.92	840.99
513.28	853.64
513.64	866.40
514.00	879.23
514.37	892.21
514.73	905.30
515.09	918.32
515.45	931.27
515.81	944.29
516.17	957.61
516.53	970.80
516.89	983.84
517.25	997.00
517.61	1010.53
517.97	1024.01
518.33	1037.18
518.69	1050.73
519.05	1064.62
519.41	1078.39
519.77	1092.14
520.13	1105.42
520.49	1118.51
520.85	1131.98
521.21	1145.26
521.57	1158.89
521.93	1171.87
522.29	1185.66
522.65	1199.25
523.01	1212.88
523.37	1225.97
523.73	1239.32
524.09	1252.62
524.45	1266.10
524.81	1279.70
525.17	1293.13
525.53	1306.31
525.89	1319.73
526.25	1332.87
526.61	1345.66
526.97	1358.79
527.33	1371.88
527.68	1385.42
528.04	1399.10
528.40	1412.14
528.76	1425.62
529.12	1438.51
529.48	1451.95
529.84	1464.23
530.20	1477.21
530.56	1489.84
530.91	1503.12
531.27	1516.08
531.63	1528.69
531.99	1541.49
532.35	1553.71
532.71	1566.01
533.07	1578.99
533.42	1591.36
533.78	1603.50
534.14	1615.63
534.50	1627.02
534.86	1638.64
535.21	1649.57
535.57	1661.14
535.93	1672.38
536.29	1683.42
536.65	1694.93
537.00	1705.84
537.36	1717.33
537.72	1728.24
538.08	1739.65
538.44	1750.85
538.79	1762.04
539.15	1773.17
539.51	1784.11
539.87	1795.52
540.22	1806.59
540.58	1817.67
540.94	1828.53
541.29	1838.95
541.65	1848.87
542.01	1859.38
542.37	1869.50
542.72	1879.64
543.08	1889.45
543.44	1900.04
543.79	1909.36
544.15	1918.98
544.51	1929.01
544.87	1938.89
545.22	1948.21
545.58	1957.15
545.94	1966.04
546.29	1974.53
546.65	1982.95
547.01	1991.06
547.36	1998.85
547.72	2006.68
548.07	2014.19
548.43	2021.93
548.79	2029.83
549.14	2038.02
549.50	2046.47
549.86	2054.45
550.21	2061.99
550.57	2069.79
550.92	2076.67
551.28	2084.15
551.64	2091.43
551.99	2098.87
552.35	2106.13
552.70	2113.15
553.06	2119.89
553.41	2126.23
553.77	2132.82
554.13	2139.16
554.48	2146.34
554.84	2153.53
555.19	2159.89
555.55	2166.13
555.90	2172.36
556.26	2179.27
556.61	2185.45
556.97	2190.22
557.32	2195.80
557.68	2202.11
558.03	2207.86
558.39	2213.24
558.74	2219.28
559.10	2224.71
559.45	2230.36
559.81	2235.83
560.16	2241.10
560.52	2246.82
560.87	2253.06
561.23	2258.84
561.58	2265.39
561.94	2270.55
562.29	2274.96
562.64	2280.95
563.00	2286.72
563.35	2292.44
563.71	2297.81
564.06	2303.32
564.42	2309.11
564.77	2314.11
565.12	2319.40
565.48	2324.29
565.83	2329.61
566.19	2334.71
566.54	2339.94
566.89	2344.39
567.25	2348.67
567.60	2354.47
567.96	2359.47
568.31	2364.00
568.66	2368.26
569.02	2372.09
569.37	2375.69
569.72	2380.16
570.08	2383.52
570.43	2386.58
570.78	2389.42
571.14	2391.79
571.49	2394.75
571.84	2398.16
572.20	2401.14
572.55	2403.97
572.90	2406.23
573.26	2408.96
573.61	2411.66
573.96	2413.76
574.31	2415.68
574.67	2417.66
575.02	2418.13
575.37	2419.59
575.72	2420.07
576.08	2421.32
576.43	2421.38
576.78	2421.62
577.13	2422.83
577.49	2423.94
577.84	2424.61
578.19	2425.59
578.54	2426.15
578.90	2426.49
579.25	2426.27
579.60	2425.90
579.95	2424.80
580.30	2424.54
580.66	2423.60
581.01	2421.78
581.36	2419.02
581.71	2417.41
582.06	2415.95
582.42	2414.98
582.77	2412.46
583.12	2410.71
583.47	2408.97
583.82	2408.15
584.17	2406.64
584.53	2404.30
584.88	2402.00
585.23	2400.09
585.58	2397.89
585.93	2395.87
586.28	2393.60
586.63	2390.92
586.98	2388.54
587.34	2386.54
587.69	2383.79
588.04	2381.35
588.39	2379.63
588.74	2377.05
589.09	2374.26
589.44	2370.72
589.79	2367.94
590.14	2365.68
590.49	2362.74
590.84	2358.66
591.19	2355.21
591.54	2351.94
591.89	2347.95
592.25	2344.50
592.60	2340.11
592.95	2335.72
593.30	2331.37
593.65	2326.87
594.00	2322.50
594.35	2319.31
594.70	2314.41
595.05	2310.15
595.40	2304.90
595.75	2298.92
596.10	2295.31
596.45	2290.22
596.80	2285.74
597.15	2280.53
597.50	2274.66
597.85	2269.49
598.19	2264.48
598.54	2258.89
598.89	2253.55
599.24	2248.80
599.59	2242.68
599.94	2236.69
600.29	2230.61
600.64	2224.60
600.99	2217.63
601.34	2211.76
601.69	2204.90
602.04	2198.57
602.39	2191.73
602.74	2185.48
603.08	2179.94
603.43	2173.45
603.78	2166.70
604.13	2159.49
604.48	2152.11
604.83	2146.02
605.18	2139.82
605.53	2132.90
605.87	2125.76
606.22	2119.06
606.57	2111.13
606.92	2103.08
607.27	2096.10
607.62	2089.60
607.96	2082.64
608.31	2076.36
608.66	2068.79
609.01	2061.19
609.36	2054.29
609.70	2046.66
610.05	2038.77
610.40	2030.61
610.75	2022.07
611.10	2014.21
611.44	2005.28
611.79	1996.81
612.14	1986.83
612.49	1976.15
612.83	1966.62
613.18	1957.27
613.53	1947.84
613.88	1938.19
614.22	1929.51
614.57	1919.86
614.92	1909.13
615.27	1898.80
615.61	1888.57
615.96	1878.93
616.31	1869.30
616.65	1859.66
617.00	1850.11
617.35	1840.63
617.70	1830.88
618.04	1821.17
618.39	1811.28
618.74	1801.92
619.08	1792.06
619.43	1783.44
619.78	1775.17
620.12	1766.79
620.47	1757.47
620.82	1747.26
621.16	1737.68
621.51	1727.98
621.85	1718.25
622.20	1708.24
622.55	1697.83
622.89	1688.00
623.24	1678.54
623.59	1668.83
623.93	1658.94
624.28	1649.01
624.62	1638.98
624.97	1628.84
625.32	1619.01
625.66	1610.04
626.01	1601.38
626.35	1592.31
626.70	1582.47
627.04	1572.69
627.39	1562.60
627.73	1553.33
628.08	1544.59
628.43	1535.38
628.77	1526.33
629.12	1517.43
629.46	1509.59
629.81	1501.50
630.15	1492.37
630.50	1482.55
630.84	1472.16
631.19	1462.29
631.53	1453.32
631.88	1443.40
632.22	1433.54
632.57	1424.29
632.91	1414.51
633.26	1404.77
633.60	1395.25
633.95	1386.14
634.29	1376.80
634.64	1367.68
634.98	1357.81
635.32	1348.72
635.67	1340.19
636.01	1330.94
636.36	1321.57
636.70	1312.18
637.05	1302.85
637.39	1293.98
637.73	1285.55
638.08	1278.11
638.42	1270.26
638.77	1261.52
639.11	1253.33
639.45	1245.62
639.80	1237.40
640.14	1228.63
640.49	1219.83
640.83	1211.16
641.17	1202.95
641.52	1194.93
641.86	1186.45
642.20	1178.89
642.55	1170.13
642.89	1161.38
643.23	1152.93
643.58	1144.77
643.92	1135.96
644.26	1127.35
644.61	1118.97
644.95	1110.20
645.29	1101.15
645.64	1091.91
645.98	1083.33
646.32	1075.50
646.66	1067.09
647.01	1058.79
647.35	1050.79
647.69	1042.66
648.04	1034.57
648.38	1025.87
648.72	1017.24
649.06	1008.87
649.41	1000.64
649.75	992.92
650.09	985.08
650.43	977.20
650.78	968.92
651.12	961.21
651.46	953.89
651.80	946.77
652.14	939.64
652.49	932.17
652.83	924.98
653.17	917.52
653.51	909.95
653.85	902.83
654.20	895.66
654.54	888.50
654.88	881.34
655.22	874.14
655.56	867.14
655.90	860.37
656.25	853.74
656.59	847.02
656.93	840.14
657.27	833.10
657.61	826.05
657.95	819.96
658.29	814.03
658.64	807.93
658.98	801.45
659.32	794.91
659.66	788.72
660.00	782.42
660.34	776.36
660.68	770.32
661.02	763.91
661.36	757.86
661.70	751.90
662.05	746.26
662.39	740.78
662.73	735.41
663.07	730.02
663.41	724.45
663.75	718.58
664.09	712.80
664.43	707.41
664.77	702.16
665.11	696.44
665.45	690.61
665.79	684.79
666.13	679.17
666.47	673.74
666.81	668.36
667.15	662.96
667.49	657.77
667.83	652.47
668.17	647.23
668.51	642.17
668.85	637.25
669.19	632.38
669.53	627.32
669.87	622.23
670.21	617.39
670.55	612.68
670.89	608.30
671.23	603.95
671.57	599.48
671.91	595.16
672.25	590.98
672.58	586.78
672.92	582.70
673.26	578.72
673.60	574.81
673.94	570.96
674.28	567.38
674.62	563.65
674.96	559.90
675.30	556.44
675.64	552.74
675.97	549.10
676.31	545.51
676.65	541.91
676.99	538.50
677.33	534.72
677.67	531.10
678.01	527.25
678.34	523.63
678.68	520.09
679.02	516.52
679.36	512.87
679.70	509.27
680.04	505.69
680.37	502.26
680.71	498.87
681.05	495.63
681.39	492.30
681.73	489.15
682.06	486.08
682.40	483.01
682.74	479.88
683.08	476.72
683.42	473.44
683.75	470.37
684.09	467.25
684.43	464.36
684.77	461.37
685.10	458.51
685.44	455.61
685.78	452.68
686.12	449.85
686.45	447.11
686.79	444.37
687.13	441.89
687.46	439.27
687.80	436.63
688.14	433.79
688.48	431.09
688.81	428.34
689.15	425.76
689.49	423.12
689.82	420.54
690.16	417.85
690.50	415.43
690.83	412.94
691.17	410.37
691.51	407.92
691.84	405.61
692.18	403.34
692.52	401.13
692.85	398.98
693.19	396.83
693.52	394.65
693.86	392.46
694.20	390.23
694.53	388.00
694.87	385.71
695.21	383.56
695.54	381.42
695.88	379.27
696.21	376.98
696.55	374.85
696.88	372.78
697.22	370.81
697.56	368.88
697.89	367.00
698.23	365.26
698.56	363.49
698.90	361.72
699.23	359.84
699.57	357.96
699.90	356.09
700.24	354.20
700.58	352.37
700.91	350.65
701.25	349.02
701.58	347.41
701.92	345.85
702.25	344.17
702.59	342.50
702.92	340.94
703.26	339.39
703.59	337.86
703.93	336.54
704.26	335.12
704.60	333.59
704.93	332.01
705.26	330.50
705.60	328.98
705.93	327.42
706.27	326.03
706.60	324.71
706.94	323.48
707.27	322.10
707.61	320.77
707.94	319.44
708.27	317.90
708.61	316.45
708.94	315.06
709.28	313.77
709.61	312.53
709.94	311.32
710.28	310.09
710.61	308.90
710.95	307.48
711.28	306.40
711.61	305.19
711.95	304.09
712.28	302.83
712.61	301.64
712.95	300.61
713.28	299.58
713.61	298.43
713.95	297.26
714.28	296.21
714.61	295.17
714.95	294.12
715.28	293.06
715.61	292.05
715.95	291.09
716.28	290.11
716.61	289.16
716.95	288.11
717.28	287.20
717.61	286.20
717.94	285.26
718.28	284.19
718.61	283.31
718.94	282.42
719.27	281.60
719.61	280.78
719.94	279.88
720.27	278.89
720.60	277.99
720.94	277.13
721.27	276.36
721.60	275.63
721.93	274.90
722.27	274.28
722.60	273.60
722.93	272.88
723.26	272.21
723.59	271.44
723.93	270.85
724.26	270.17
724.59	269.51
724.92	268.91
725.25	268.35
725.59	267.76
725.92	267.17
726.25	266.58
726.58	266.00
726.91	265.39
727.24	264.83
727.57	264.25
727.91	263.63
728.24	263.07
728.57	262.50
728.90	261.95
729.23	261.31
729.56	260.85
729.89	260.26
730.22	259.69
730.55	259.18
730.89	258.58
731.22	258.05
731.55	257.56
731.88	257.03
732.21	256.48
732.54	255.92
732.87	255.40
733.20	254.92
733.53	254.42
733.86	253.96
734.19	253.47
734.52	253.06
734.85	252.79
735.18	252.33
735.51	251.93
735.84	251.47
736.17	251.12
736.50	250.56
736.83	250.42
737.16	250.02
737.49	249.65
737.82	249.22
738.15	248.84
738.48	248.41
738.81	248.00
739.14	247.54
739.47	247.18
739.80	246.82
740.13	246.46
740.46	246.06
740.79	245.66
741.12	245.30
741.45	244.91
741.78	244.45
742.11	244.16
742.44	243.74
742.77	243.46
743.10	243.06
743.43	242.72
743.75	242.13
744.08	242.06
744.41	241.69
744.74	241.37
745.07	241.00
745.40	240.68
745.73	240.42
746.06	240.12
746.39	239.83
746.71	239.45
747.04	239.10
747.37	238.78
747.70	238.50
748.03	238.16
748.36	237.85
748.68	237.53
749.01	237.17
749.34	236.89
749.67	236.57
750.00	236.32
750.33	236.18
750.65	235.94
750.98	235.38
751.31	235.15
751.64	234.91
751.97	234.78
752.29	234.54
752.62	234.18
752.95	233.92
753.28	233.64
753.60	233.41
753.93	233.22
754.26	233.00
754.59	232.70
754.91	232.49
755.24	232.26
755.57	232.05
755.90	231.80
756.22	231.58
756.55	231.34
756.88	231.09
757.20	230.74
757.53	230.46
757.86	230.24
758.19	230.01
758.51	229.80
758.84	229.48
759.17	229.26
759.49	229.11
759.82	229.04
760.15	228.87
760.47	228.66
760.80	228.39
761.13	228.24
761.45	228.06
761.78	227.87
762.11	227.69
762.43	227.49
762.76	227.33
763.08	227.18
763.41	227.03
763.74	226.88
764.06	226.69
764.39	226.56
764.71	226.40
765.04	226.23
765.37	226.08
765.69	225.98
766.02	225.84
766.34	225.69
766.67	225.47
767.00	225.35
767.32	225.37
767.65	225.40
767.97	225.22
768.30	225.11
768.62	224.98
768.95	224.83
769.27	224.71
769.60	224.60
769.92	224.44
770.25	224.22
770.57	224.05
770.90	223.94
771.22	223.80
771.55	223.69
771.87	223.57
772.20	223.44
772.52	223.50
772.85	223.64
773.17	223.55
773.50	223.42
773.82	223.28
774.15	223.07
774.47	222.80
774.80	222.67
775.12	222.56
775.45	222.46
775.77	222.40
776.09	222.33
776.42	222.23
776.74	222.22
777.07	222.18
777.39	222.09
777.72	221.99
778.04	221.96
778.36	221.85
778.69	221.81
779.01	221.72
779.33	221.43
779.66	221.10
779.98	221.00
780.31	220.95
780.63	220.96
780.95	220.92
781.28	220.86
781.60	220.80
781.92	220.74
782.25	220.68
782.57	220.59
782.89	220.49
783.22	220.42
783.54	220.31
783.86	220.24
784.19	220.17
784.51	220.17
784.83	220.08
785.16	220.02
785.48	219.95
785.80	219.93
786.12	219.90
