SpectraSuite Data File
++++++++++++++++++++++++++++++++++++
Date: Tue Jan 29 16:03:07 EST 2013
User: group
Dark Spectrum Present: No
Reference Spectrum Present: No
Number of Sampled Component Spectra: 1
Spectrometers: USB2E7196
Integration Time (usec): 65000 (USB2E7196)
Spectra Averaged: 100 (USB2E7196)
Boxcar Smoothing: 10 (USB2E7196)
Correct for Electrical Dark: No (USB2E7196)
Strobe/Lamp Enabled: No (USB2E7196)
Correct for Detector Non-linearity: No (USB2E7196)
Correct for Stray Light: No (USB2E7196)
Number of Pixels in Processed Spectrum: 2048
>>>>>Begin Processed Spectral Data<<<<<
339.09	0.00
339.48	202.71
339.86	204.40
340.24	205.70
340.63	206.95
341.01	211.45
341.39	209.41
341.78	211.44
342.16	212.79
342.54	213.43
342.93	202.04
343.31	212.23
343.69	212.79
344.07	213.27
344.46	213.71
344.84	214.10
345.22	214.25
345.60	214.55
345.99	214.72
346.37	214.85
346.75	214.91
347.13	214.97
347.52	215.05
347.90	215.17
348.28	215.18
348.66	215.25
349.05	215.22
349.43	215.26
349.81	215.32
350.19	215.39
350.57	215.43
350.96	215.50
351.34	215.61
351.72	215.70
352.10	215.77
352.48	215.81
352.87	215.86
353.25	215.96
353.63	216.00
354.01	216.08
354.39	216.14
354.77	216.24
355.15	216.40
355.54	216.44
355.92	216.43
356.30	216.52
356.68	216.73
357.06	216.82
357.44	216.86
357.82	216.91
358.20	216.99
358.58	217.03
358.97	217.10
359.35	217.20
359.73	217.31
360.11	217.36
360.49	217.43
360.87	217.51
361.25	217.57
361.63	217.68
362.01	217.72
362.39	217.76
362.77	217.82
363.15	217.82
363.53	217.86
363.91	217.91
364.29	217.94
364.67	217.75
365.05	217.77
365.43	217.79
365.81	217.82
366.19	217.89
366.57	217.99
366.95	218.00
367.33	217.97
367.71	217.96
368.09	218.03
368.47	218.05
368.85	218.00
369.23	218.05
369.61	217.98
369.99	218.04
370.37	218.04
370.75	218.11
371.13	218.05
371.51	218.03
371.89	218.01
372.27	218.02
372.65	218.04
373.03	218.02
373.41	218.00
373.78	217.98
374.16	217.88
374.54	217.80
374.92	217.71
375.30	217.68
375.68	217.57
376.06	217.51
376.44	217.45
376.82	217.49
377.19	217.42
377.57	217.40
377.95	217.27
378.33	217.20
378.71	217.06
379.09	217.05
379.47	217.03
379.84	216.96
380.22	216.87
380.60	216.78
380.98	216.73
381.36	216.68
381.73	216.57
382.11	216.57
382.49	216.55
382.87	216.54
383.25	216.52
383.62	216.75
384.00	216.69
384.38	216.67
384.76	216.62
385.13	216.66
385.51	216.62
385.89	216.59
386.27	216.56
386.64	216.53
387.02	216.52
387.40	216.43
387.78	216.43
388.15	216.41
388.53	216.38
388.91	216.38
389.29	216.35
389.66	216.40
390.04	216.33
390.42	216.34
390.79	216.34
391.17	216.30
391.55	216.03
391.92	216.03
392.30	216.02
392.68	216.02
393.05	215.98
393.43	215.97
393.81	216.02
394.18	216.00
394.56	216.00
394.94	216.02
395.31	216.02
395.69	216.08
396.06	216.15
396.44	216.17
396.82	216.16
397.19	216.30
397.57	216.31
397.95	216.38
398.32	216.33
398.70	216.35
399.07	216.44
399.45	216.47
399.82	216.53
400.20	216.56
400.58	216.62
400.95	216.60
401.33	216.69
401.70	216.87
402.08	216.99
402.45	217.08
402.83	217.19
403.20	217.33
403.58	217.40
403.95	217.51
404.33	217.68
404.71	217.81
405.08	218.04
405.46	218.19
405.83	218.36
406.21	218.58
406.58	218.83
406.96	219.02
407.33	219.31
407.70	219.57
408.08	220.02
408.45	220.34
408.83	220.72
409.20	221.04
409.58	221.28
409.95	221.72
410.33	222.17
410.70	222.61
411.08	223.14
411.45	223.70
411.82	224.27
412.20	224.92
412.57	225.74
412.95	226.29
413.32	227.11
413.69	227.90
414.07	228.77
414.44	229.68
414.82	230.69
415.19	231.78
415.56	232.92
415.94	234.05
416.31	235.40
416.68	236.73
417.06	238.31
417.43	239.84
417.81	241.51
418.18	243.25
418.55	245.11
418.93	247.04
419.30	249.06
419.67	251.18
420.04	253.39
420.42	255.64
420.79	258.38
421.16	261.06
421.54	263.90
421.91	266.77
422.28	269.79
422.66	272.93
423.03	276.07
423.40	279.32
423.77	282.80
424.15	286.34
424.52	290.04
424.89	294.04
425.26	297.98
425.64	301.69
426.01	305.79
426.38	310.08
426.75	314.50
427.13	319.08
427.50	323.87
427.87	328.86
428.24	333.87
428.61	338.68
428.99	344.00
429.36	349.77
429.73	355.49
430.10	361.20
430.47	367.08
430.85	373.18
431.22	379.61
431.59	386.52
431.96	393.14
432.33	400.41
432.70	407.44
433.08	415.64
433.45	423.47
433.82	431.24
434.19	439.85
434.56	448.24
434.93	456.29
435.30	464.24
435.68	473.11
436.05	481.81
436.42	490.43
436.79	498.29
437.16	506.72
437.53	515.65
437.90	524.41
438.27	533.00
438.64	541.90
439.01	550.14
439.38	557.42
439.75	564.46
440.13	572.54
440.50	580.13
440.87	586.31
441.24	592.70
441.61	599.78
441.98	604.95
442.35	611.06
442.72	617.10
443.09	622.90
443.46	626.44
443.83	628.79
444.20	630.84
444.57	633.81
444.94	635.21
445.31	636.52
445.68	637.90
446.05	638.50
446.42	637.72
446.79	636.83
447.16	635.72
447.53	634.95
447.90	631.70
448.27	628.57
448.64	624.09
449.01	620.86
449.37	615.11
449.74	609.59
450.11	602.91
450.48	595.80
450.85	588.67
451.22	582.41
451.59	576.54
451.96	570.94
452.33	563.41
452.70	556.59
453.07	548.49
453.43	540.13
453.80	532.17
454.17	524.50
454.54	517.21
454.91	509.37
455.28	501.73
455.65	494.63
456.02	487.42
456.38	481.34
456.75	473.79
457.12	467.53
457.49	461.29
457.86	455.35
458.23	450.21
458.59	444.54
458.96	438.78
459.33	433.70
459.70	428.49
460.07	424.42
460.43	419.75
460.80	415.34
461.17	411.51
461.54	407.46
461.91	403.62
462.27	399.63
462.64	396.34
463.01	392.70
463.38	389.13
463.74	385.53
464.11	382.40
464.48	379.68
464.85	376.69
465.21	374.37
465.58	371.84
465.95	368.81
466.32	366.26
466.68	363.82
467.05	361.30
467.42	358.91
467.78	356.30
468.15	353.86
468.52	352.01
468.88	349.63
469.25	347.51
469.62	345.76
469.98	343.96
470.35	342.25
470.72	340.64
471.08	338.93
471.45	337.54
471.82	336.10
472.18	334.55
472.55	333.39
472.92	332.06
473.28	330.90
473.65	329.81
474.02	328.81
474.38	327.97
474.75	327.33
475.11	326.58
475.48	326.09
475.85	325.64
476.21	325.21
476.58	324.89
476.94	324.69
477.31	324.45
477.67	324.24
478.04	324.11
478.41	324.07
478.77	324.29
479.14	324.27
479.50	324.44
479.87	324.74
480.23	325.08
480.60	325.37
480.96	325.66
481.33	326.29
481.69	326.84
482.06	327.33
482.42	327.81
482.79	328.42
483.15	329.24
483.52	330.22
483.88	331.12
484.25	332.08
484.61	333.08
484.98	334.12
485.34	335.37
485.71	336.73
486.07	338.19
486.44	339.49
486.80	341.10
487.17	342.77
487.53	344.62
487.90	346.48
488.26	348.49
488.62	350.61
488.99	352.68
489.35	354.86
489.72	357.28
490.08	359.81
490.44	362.31
490.81	365.01
491.17	367.67
491.54	370.68
491.90	373.72
492.26	376.95
492.63	380.39
492.99	383.91
493.36	387.59
493.72	391.40
494.08	395.42
494.45	399.63
494.81	403.94
495.17	408.31
495.54	412.99
495.90	417.75
496.26	422.71
496.63	427.91
496.99	433.27
497.35	438.79
497.72	444.52
498.08	450.49
498.44	456.50
498.80	462.91
499.17	469.32
499.53	475.99
499.89	482.89
500.26	489.82
500.62	496.86
500.98	504.23
501.34	511.68
501.71	519.33
502.07	527.07
502.43	535.10
502.79	543.20
503.16	551.57
503.52	560.21
503.88	568.84
504.24	577.73
504.60	586.73
504.97	596.03
505.33	605.40
505.69	615.17
506.05	625.05
506.41	634.91
506.78	645.00
507.14	655.25
507.50	665.63
507.86	676.29
508.22	687.03
508.59	697.60
508.95	708.67
509.31	719.99
509.67	731.45
510.03	742.88
510.39	754.62
510.75	766.43
511.12	778.27
511.48	790.36
511.84	802.57
512.20	814.88
512.56	827.40
512.92	840.05
513.28	852.70
513.64	865.31
514.00	878.01
514.37	890.88
514.73	903.87
515.09	916.61
515.45	929.42
515.81	942.42
516.17	955.75
516.53	968.84
516.89	981.72
517.25	994.67
517.61	1007.96
517.97	1021.16
518.33	1034.09
518.69	1047.45
519.05	1061.00
519.41	1074.49
519.77	1088.19
520.13	1101.27
520.49	1114.22
520.85	1127.36
521.21	1140.59
521.57	1154.01
521.93	1166.96
522.29	1180.57
522.65	1194.15
523.01	1207.48
523.37	1220.40
523.73	1233.44
524.09	1246.35
524.45	1259.63
524.81	1272.80
525.17	1285.94
525.53	1298.93
525.89	1311.95
526.25	1324.80
526.61	1337.37
526.97	1350.18
527.33	1362.79
527.68	1375.96
528.04	1389.17
528.40	1401.98
528.76	1414.90
529.12	1427.58
529.48	1440.54
529.84	1452.38
530.20	1464.78
530.56	1477.14
530.91	1490.17
531.27	1502.68
531.63	1515.12
531.99	1527.64
532.35	1539.68
532.71	1551.68
533.07	1564.13
533.42	1576.18
533.78	1587.98
534.14	1599.70
534.50	1610.60
534.86	1621.81
535.21	1632.44
535.57	1643.59
535.93	1654.70
536.29	1665.66
536.65	1676.81
537.00	1687.41
537.36	1698.46
537.72	1709.13
538.08	1720.17
538.44	1730.74
538.79	1741.49
539.15	1752.08
539.51	1762.37
539.87	1773.44
540.22	1784.14
540.58	1794.80
540.94	1805.28
541.29	1815.32
541.65	1824.88
542.01	1835.23
542.37	1845.07
542.72	1855.05
543.08	1864.57
543.44	1874.72
543.79	1883.70
544.15	1892.87
544.51	1902.64
544.87	1912.26
545.22	1921.17
545.58	1929.85
545.94	1938.37
546.29	1946.70
546.65	1954.87
547.01	1962.98
547.36	1970.44
547.72	1977.83
548.07	1985.28
548.43	1992.85
548.79	2000.48
549.14	2008.43
549.50	2016.39
549.86	2024.00
550.21	2031.07
550.57	2038.52
550.92	2045.00
551.28	2052.25
551.64	2059.40
551.99	2066.74
552.35	2073.79
552.70	2080.46
553.06	2087.00
553.41	2093.17
553.77	2099.43
554.13	2105.62
554.48	2112.40
554.84	2119.24
555.19	2125.52
555.55	2131.73
555.90	2137.90
556.26	2144.57
556.61	2150.27
556.97	2155.18
557.32	2161.03
557.68	2167.38
558.03	2173.06
558.39	2178.22
558.74	2184.10
559.10	2189.57
559.45	2195.14
559.81	2200.56
560.16	2206.20
560.52	2211.97
560.87	2218.43
561.23	2224.51
561.58	2231.27
561.94	2236.38
562.29	2241.29
562.64	2247.47
563.00	2253.06
563.35	2258.66
563.71	2264.43
564.06	2270.26
564.42	2276.22
564.77	2281.42
565.12	2286.54
565.48	2291.77
565.83	2297.40
566.19	2303.19
566.54	2308.50
566.89	2313.00
567.25	2317.57
567.60	2323.28
567.96	2328.57
568.31	2333.15
568.66	2337.34
569.02	2341.12
569.37	2345.09
569.72	2349.55
570.08	2353.15
570.43	2356.43
570.78	2359.50
571.14	2362.33
571.49	2365.46
571.84	2369.03
572.20	2371.87
572.55	2375.13
572.90	2377.47
573.26	2380.64
573.61	2382.82
573.96	2385.25
574.31	2387.39
574.67	2389.50
575.02	2390.48
575.37	2391.85
575.72	2392.82
576.08	2394.48
576.43	2394.98
576.78	2395.89
577.13	2397.64
577.49	2398.92
577.84	2400.47
578.19	2402.10
578.54	2402.75
578.90	2404.01
579.25	2404.18
579.60	2404.59
579.95	2404.11
580.30	2404.58
580.66	2403.90
581.01	2402.59
581.36	2400.53
581.71	2399.37
582.06	2398.59
582.42	2398.08
582.77	2396.42
583.12	2395.08
583.47	2394.02
583.82	2393.60
584.17	2392.38
584.53	2390.39
584.88	2388.63
585.23	2386.79
585.58	2384.90
585.93	2382.80
586.28	2380.79
586.63	2378.59
586.98	2376.39
587.34	2374.80
587.69	2372.67
588.04	2370.94
588.39	2369.63
588.74	2367.26
589.09	2364.87
589.44	2362.00
589.79	2359.65
590.14	2357.91
590.49	2355.18
590.84	2351.62
591.19	2348.92
591.54	2345.79
591.89	2341.95
592.25	2338.80
592.60	2334.68
592.95	2330.56
593.30	2326.68
593.65	2322.28
594.00	2318.11
594.35	2315.21
594.70	2310.50
595.05	2305.83
595.40	2300.49
595.75	2295.11
596.10	2291.63
596.45	2286.80
596.80	2282.30
597.15	2277.06
597.50	2271.15
597.85	2266.21
598.19	2260.92
598.54	2255.07
598.89	2250.23
599.24	2245.75
599.59	2239.78
599.94	2234.33
600.29	2228.57
600.64	2222.79
600.99	2216.38
601.34	2210.95
601.69	2204.00
602.04	2197.69
602.39	2191.37
602.74	2185.45
603.08	2179.91
603.43	2173.54
603.78	2166.91
604.13	2159.85
604.48	2152.89
604.83	2146.88
605.18	2140.72
605.53	2133.90
605.87	2126.94
606.22	2120.16
606.57	2112.44
606.92	2104.66
607.27	2097.70
607.62	2091.12
607.96	2084.15
608.31	2077.52
608.66	2069.78
609.01	2062.29
609.36	2055.26
609.70	2047.50
610.05	2039.86
610.40	2031.67
610.75	2023.44
611.10	2015.86
611.44	2007.25
611.79	1998.63
612.14	1988.61
612.49	1978.12
612.83	1969.04
613.18	1959.96
613.53	1950.57
613.88	1940.97
614.22	1932.50
614.57	1922.50
614.92	1912.03
615.27	1901.99
615.61	1892.08
615.96	1882.49
616.31	1872.98
616.65	1863.79
617.00	1853.95
617.35	1844.22
617.70	1834.45
618.04	1824.32
618.39	1813.95
618.74	1804.21
619.08	1794.58
619.43	1785.88
619.78	1777.73
620.12	1768.85
620.47	1758.88
620.82	1748.61
621.16	1738.88
621.51	1728.80
621.85	1718.96
622.20	1708.46
622.55	1697.79
622.89	1687.92
623.24	1678.19
623.59	1668.35
623.93	1658.07
624.28	1648.39
624.62	1638.15
624.97	1627.93
625.32	1618.39
625.66	1609.62
626.01	1600.85
626.35	1591.22
626.70	1581.20
627.04	1571.02
627.39	1561.10
627.73	1552.00
628.08	1542.95
628.43	1533.32
628.77	1524.06
629.12	1515.22
629.46	1507.35
629.81	1498.97
630.15	1489.24
630.50	1479.25
630.84	1468.84
631.19	1458.92
631.53	1449.48
631.88	1439.40
632.22	1429.30
632.57	1419.82
632.91	1409.53
633.26	1399.54
633.60	1390.09
633.95	1380.70
634.29	1371.29
634.64	1361.84
634.98	1351.86
635.32	1342.47
635.67	1333.93
636.01	1324.69
636.36	1314.83
636.70	1305.24
637.05	1295.84
637.39	1286.97
637.73	1278.41
638.08	1270.87
638.42	1262.47
638.77	1253.62
639.11	1245.32
639.45	1237.46
639.80	1228.77
640.14	1220.25
640.49	1211.26
640.83	1202.48
641.17	1194.38
641.52	1186.12
641.86	1177.53
642.20	1169.66
642.55	1161.06
642.89	1152.14
643.23	1143.35
643.58	1135.20
643.92	1126.18
644.26	1117.64
644.61	1109.11
644.95	1100.48
645.29	1091.06
645.64	1081.98
645.98	1073.75
646.32	1065.81
646.66	1057.27
647.01	1048.87
647.35	1040.63
647.69	1032.26
648.04	1023.85
648.38	1014.80
648.72	1005.99
649.06	997.57
649.41	989.35
649.75	981.42
650.09	973.55
650.43	965.52
650.78	957.41
651.12	949.86
651.46	942.40
651.80	935.13
652.14	927.68
652.49	920.15
652.83	912.81
653.17	904.99
653.51	897.33
653.85	890.11
654.20	882.85
654.54	875.30
654.88	868.28
655.22	861.18
655.56	854.37
655.90	847.64
656.25	840.97
656.59	834.00
656.93	826.98
657.27	819.91
657.61	813.09
657.95	806.92
658.29	801.00
658.64	794.85
658.98	788.47
659.32	781.99
659.66	775.92
660.00	769.69
660.34	763.72
660.68	757.72
661.02	751.51
661.36	745.71
661.70	740.04
662.05	734.30
662.39	728.81
662.73	723.39
663.07	718.04
663.41	712.47
663.75	706.96
664.09	701.40
664.43	696.05
664.77	690.71
665.11	684.91
665.45	678.98
665.79	673.22
666.13	667.55
666.47	662.13
666.81	656.75
667.15	651.41
667.49	646.20
667.83	640.98
668.17	635.81
668.51	630.65
668.85	625.81
669.19	620.96
669.53	616.07
669.87	611.06
670.21	606.33
670.55	601.66
670.89	597.32
671.23	593.10
671.57	588.82
671.91	584.61
672.25	580.54
672.58	576.50
672.92	572.57
673.26	568.74
673.60	564.91
673.94	561.13
674.28	557.60
674.62	553.88
674.96	550.16
675.30	546.66
675.64	543.12
675.97	539.56
676.31	536.05
676.65	532.42
676.99	529.03
677.33	525.25
677.67	521.66
678.01	517.82
678.34	514.20
678.68	510.69
679.02	507.01
679.36	503.37
679.70	499.75
680.04	496.24
680.37	492.89
680.71	489.58
681.05	486.44
681.39	483.25
681.73	480.12
682.06	477.21
682.40	474.12
682.74	470.91
683.08	467.75
683.42	464.63
683.75	461.69
684.09	458.72
684.43	455.94
684.77	453.04
685.10	450.21
685.44	447.32
685.78	444.42
686.12	441.83
686.45	439.21
686.79	436.58
687.13	434.09
687.46	431.45
687.80	428.83
688.14	426.01
688.48	423.45
688.81	420.85
689.15	418.29
689.49	415.73
689.82	413.27
690.16	410.74
690.50	408.32
690.83	405.88
691.17	403.38
691.51	401.02
691.84	398.87
692.18	396.68
692.52	394.53
692.85	392.45
693.19	390.35
693.52	388.21
693.86	386.07
694.20	383.95
694.53	381.88
694.87	379.71
695.21	377.72
695.54	375.58
695.88	373.47
696.21	371.31
696.55	369.27
696.88	367.27
697.22	365.37
697.56	363.51
697.89	361.71
698.23	360.02
698.56	358.27
698.90	356.51
699.23	354.63
699.57	352.76
699.90	350.96
700.24	349.13
700.58	347.40
700.91	345.81
701.25	344.23
701.58	342.66
701.92	341.10
702.25	339.49
702.59	337.88
702.92	336.42
703.26	334.91
703.59	333.47
703.93	332.21
704.26	330.82
704.60	329.33
704.93	327.87
705.26	326.39
705.60	324.95
705.93	323.46
706.27	322.20
706.60	321.01
706.94	319.80
707.27	318.44
707.61	317.19
707.94	315.84
708.27	314.42
708.61	312.98
708.94	311.72
709.28	310.45
709.61	309.27
709.94	308.08
710.28	306.85
710.61	305.66
710.95	304.26
711.28	303.22
711.61	302.06
711.95	300.95
712.28	299.81
712.61	298.67
712.95	297.62
713.28	296.57
713.61	295.43
713.95	294.29
714.28	293.33
714.61	292.27
714.95	291.26
715.28	290.23
715.61	289.23
715.95	288.28
716.28	287.33
716.61	286.38
716.95	285.41
717.28	284.58
717.61	283.68
717.94	282.83
718.28	281.80
718.61	280.97
718.94	280.12
719.27	279.26
719.61	278.46
719.94	277.62
720.27	276.72
720.60	275.91
720.94	275.14
721.27	274.42
721.60	273.80
721.93	273.13
722.27	272.52
722.60	271.87
722.93	271.14
723.26	270.55
723.59	269.86
723.93	269.25
724.26	268.60
724.59	267.99
724.92	267.39
725.25	266.88
725.59	266.31
725.92	265.77
726.25	265.20
726.58	264.63
726.91	264.03
727.24	263.57
727.57	263.00
727.91	262.42
728.24	261.88
728.57	261.29
728.90	260.74
729.23	260.19
729.56	259.76
729.89	259.30
730.22	258.74
730.55	258.25
730.89	257.74
731.22	257.23
731.55	256.71
731.88	256.25
732.21	255.69
732.54	255.18
732.87	254.71
733.20	254.26
733.53	253.78
733.86	253.36
734.19	252.89
734.52	252.52
734.85	252.26
735.18	251.80
735.51	251.40
735.84	250.99
736.17	250.59
736.50	250.10
736.83	249.91
737.16	249.52
737.49	249.12
737.82	248.72
738.15	248.35
738.48	248.00
738.81	247.60
739.14	247.22
739.47	246.82
739.80	246.43
740.13	246.09
740.46	245.72
740.79	245.34
741.12	244.97
741.45	244.58
741.78	244.16
742.11	243.92
742.44	243.53
742.77	243.25
743.10	242.91
743.43	242.59
743.75	242.08
744.08	242.03
744.41	241.71
744.74	241.38
745.07	241.00
745.40	240.67
745.73	240.41
746.06	240.10
746.39	239.82
746.71	239.48
747.04	239.17
747.37	238.87
747.70	238.60
748.03	238.29
748.36	238.02
748.68	237.71
749.01	237.34
749.34	237.07
749.67	236.77
750.00	236.52
750.33	236.38
750.65	236.10
750.98	235.58
751.31	235.34
751.64	235.13
751.97	235.04
752.29	234.80
752.62	234.46
752.95	234.20
753.28	233.94
753.60	233.71
753.93	233.57
754.26	233.37
754.59	233.11
754.91	232.89
755.24	232.64
755.57	232.41
755.90	232.18
756.22	231.97
756.55	231.74
756.88	231.45
757.20	231.14
757.53	230.89
757.86	230.66
758.19	230.47
758.51	230.25
758.84	229.96
759.17	229.77
759.49	229.61
759.82	229.54
760.15	229.42
760.47	229.24
760.80	228.98
761.13	228.83
761.45	228.65
761.78	228.46
762.11	228.31
762.43	228.13
762.76	228.00
763.08	227.86
763.41	227.71
763.74	227.59
764.06	227.42
764.39	227.27
764.71	227.14
765.04	227.01
765.37	226.84
765.69	226.68
766.02	226.54
766.34	226.41
766.67	226.20
767.00	226.07
767.32	226.06
767.65	226.06
767.97	225.89
768.30	225.80
768.62	225.68
768.95	225.54
769.27	225.42
769.60	225.32
769.92	225.14
770.25	224.97
770.57	224.81
770.90	224.71
771.22	224.58
771.55	224.47
771.87	224.34
772.20	224.24
772.52	224.29
772.85	224.39
773.17	224.31
773.50	224.20
773.82	224.09
774.15	223.91
774.47	223.68
774.80	223.59
775.12	223.52
775.45	223.43
775.77	223.35
776.09	223.26
776.42	223.18
776.74	223.21
777.07	223.13
777.39	223.09
777.72	222.98
778.04	222.94
778.36	222.87
778.69	222.80
779.01	222.73
779.33	222.48
779.66	222.18
779.98	222.07
780.31	222.01
780.63	222.04
780.95	222.01
781.28	221.96
781.60	221.87
781.92	221.78
782.25	221.70
782.57	221.64
782.89	221.56
783.22	221.47
783.54	221.35
783.86	221.31
784.19	221.22
784.51	221.24
784.83	221.17
785.16	221.06
785.48	220.99
785.80	220.96
786.12	220.93
