SpectraSuite Data File
++++++++++++++++++++++++++++++++++++
Date: Tue Jan 29 16:07:55 EST 2013
User: group
Dark Spectrum Present: No
Reference Spectrum Present: No
Number of Sampled Component Spectra: 1
Spectrometers: USB2E7196
Integration Time (usec): 65000 (USB2E7196)
Spectra Averaged: 100 (USB2E7196)
Boxcar Smoothing: 10 (USB2E7196)
Correct for Electrical Dark: No (USB2E7196)
Strobe/Lamp Enabled: No (USB2E7196)
Correct for Detector Non-linearity: No (USB2E7196)
Correct for Stray Light: No (USB2E7196)
Number of Pixels in Processed Spectrum: 2048
>>>>>Begin Processed Spectral Data<<<<<
339.09	0.00
339.48	202.32
339.86	204.23
340.24	204.71
340.63	206.35
341.01	211.22
341.39	209.69
341.78	211.16
342.16	212.47
342.54	212.53
342.93	201.72
343.31	211.90
343.69	212.45
344.07	212.89
344.46	213.38
344.84	213.79
345.22	213.97
345.60	214.24
345.99	214.46
346.37	214.60
346.75	214.73
347.13	214.85
347.52	214.93
347.90	215.11
348.28	215.15
348.66	215.24
349.05	215.20
349.43	215.28
349.81	215.33
350.19	215.39
350.57	215.46
350.96	215.56
351.34	215.69
351.72	215.80
352.10	215.94
352.48	216.02
352.87	216.09
353.25	216.17
353.63	216.24
354.01	216.28
354.39	216.37
354.77	216.43
355.15	216.53
355.54	216.57
355.92	216.55
356.30	216.64
356.68	216.84
357.06	216.94
357.44	216.98
357.82	217.06
358.20	217.16
358.58	217.23
358.97	217.26
359.35	217.34
359.73	217.46
360.11	217.50
360.49	217.54
360.87	217.57
361.25	217.64
361.63	217.74
362.01	217.82
362.39	217.84
362.77	217.92
363.15	217.95
363.53	217.97
363.91	218.00
364.29	218.01
364.67	217.84
365.05	217.85
365.43	217.89
365.81	217.94
366.19	218.03
366.57	218.11
366.95	218.18
367.33	218.18
367.71	218.18
368.09	218.25
368.47	218.24
368.85	218.27
369.23	218.28
369.61	218.21
369.99	218.23
370.37	218.20
370.75	218.27
371.13	218.21
371.51	218.17
371.89	218.19
372.27	218.17
372.65	218.15
373.03	218.16
373.41	218.07
373.78	218.00
374.16	217.85
374.54	217.75
374.92	217.67
375.30	217.62
375.68	217.55
376.06	217.49
376.44	217.43
376.82	217.40
377.19	217.35
377.57	217.33
377.95	217.22
378.33	217.19
378.71	217.00
379.09	216.98
379.47	216.97
379.84	216.91
380.22	216.85
380.60	216.76
380.98	216.65
381.36	216.59
381.73	216.55
382.11	216.57
382.49	216.51
382.87	216.44
383.25	216.38
383.62	216.59
384.00	216.50
384.38	216.48
384.76	216.49
385.13	216.53
385.51	216.48
385.89	216.46
386.27	216.43
386.64	216.46
387.02	216.38
387.40	216.34
387.78	216.28
388.15	216.29
388.53	216.28
388.91	216.26
389.29	216.22
389.66	216.23
390.04	216.18
390.42	216.21
390.79	216.21
391.17	216.16
391.55	215.89
391.92	215.90
392.30	215.91
392.68	215.84
393.05	215.79
393.43	215.76
393.81	215.74
394.18	215.68
394.56	215.66
394.94	215.70
395.31	215.69
395.69	215.80
396.06	215.78
396.44	215.79
396.82	215.85
397.19	216.00
397.57	215.98
397.95	216.03
398.32	216.01
398.70	216.08
399.07	216.17
399.45	216.21
399.82	216.27
400.20	216.30
400.58	216.36
400.95	216.37
401.33	216.50
401.70	216.71
402.08	216.80
402.45	216.91
402.83	217.05
403.20	217.17
403.58	217.25
403.95	217.43
404.33	217.59
404.71	217.69
405.08	217.95
405.46	218.12
405.83	218.30
406.21	218.49
406.58	218.68
406.96	218.91
407.33	219.16
407.70	219.46
408.08	219.88
408.45	220.20
408.83	220.60
409.20	220.93
409.58	221.20
409.95	221.68
410.33	222.12
410.70	222.58
411.08	223.10
411.45	223.65
411.82	224.21
412.20	224.91
412.57	225.73
412.95	226.25
413.32	227.05
413.69	227.83
414.07	228.75
414.44	229.72
414.82	230.69
415.19	231.85
415.56	232.99
415.94	234.15
416.31	235.52
416.68	236.88
417.06	238.39
417.43	239.88
417.81	241.53
418.18	243.26
418.55	245.10
418.93	247.07
419.30	249.10
419.67	251.26
420.04	253.44
420.42	255.74
420.79	258.51
421.16	261.19
421.54	264.03
421.91	266.88
422.28	269.88
422.66	273.08
423.03	276.18
423.40	279.42
423.77	282.85
424.15	286.35
424.52	290.02
424.89	294.07
425.26	298.01
425.64	301.79
426.01	305.87
426.38	310.20
426.75	314.62
427.13	319.20
427.50	323.97
427.87	329.00
428.24	334.04
428.61	338.84
428.99	344.18
429.36	349.99
429.73	355.66
430.10	361.31
430.47	367.18
430.85	373.29
431.22	379.77
431.59	386.67
431.96	393.30
432.33	400.58
432.70	407.57
433.08	415.77
433.45	423.56
433.82	431.35
434.19	439.95
434.56	448.36
434.93	456.38
435.30	464.36
435.68	473.13
436.05	481.80
436.42	490.37
436.79	498.27
437.16	506.72
437.53	515.74
437.90	524.60
438.27	533.19
438.64	542.11
439.01	550.33
439.38	557.67
439.75	564.80
440.13	572.96
440.50	580.64
440.87	586.85
441.24	593.26
441.61	600.35
441.98	605.48
442.35	611.58
442.72	617.67
443.09	623.53
443.46	627.14
443.83	629.51
444.20	631.58
444.57	634.58
444.94	635.99
445.31	637.31
445.68	638.63
446.05	639.24
446.42	638.40
446.79	637.44
447.16	636.31
447.53	635.49
447.90	632.19
448.27	628.94
448.64	624.47
449.01	621.26
449.37	615.58
449.74	610.15
450.11	603.42
450.48	596.31
450.85	589.08
451.22	582.82
451.59	576.95
451.96	571.38
452.33	563.82
452.70	556.92
453.07	548.75
453.43	540.40
453.80	532.43
454.17	524.75
454.54	517.52
454.91	509.68
455.28	502.00
455.65	494.92
456.02	487.78
456.38	481.69
456.75	474.13
457.12	467.80
457.49	461.53
457.86	455.61
458.23	450.44
458.59	444.75
458.96	438.99
459.33	433.91
459.70	428.72
460.07	424.60
460.43	419.96
460.80	415.53
461.17	411.74
461.54	407.69
461.91	403.83
462.27	399.85
462.64	396.57
463.01	392.90
463.38	389.29
463.74	385.73
464.11	382.59
464.48	379.80
464.85	376.83
465.21	374.50
465.58	371.94
465.95	368.95
466.32	366.46
466.68	363.99
467.05	361.46
467.42	359.00
467.78	356.39
468.15	353.92
468.52	352.12
468.88	349.72
469.25	347.59
469.62	345.89
469.98	344.05
470.35	342.29
470.72	340.70
471.08	338.99
471.45	337.53
471.82	336.12
472.18	334.52
472.55	333.33
472.92	331.99
473.28	330.84
473.65	329.74
474.02	328.68
474.38	327.81
474.75	327.11
475.11	326.34
475.48	325.81
475.85	325.36
476.21	324.91
476.58	324.56
476.94	324.37
477.31	324.07
477.67	323.85
478.04	323.75
478.41	323.73
478.77	323.88
479.14	323.88
479.50	324.06
479.87	324.42
480.23	324.76
480.60	325.05
480.96	325.35
481.33	325.97
481.69	326.52
482.06	327.10
482.42	327.58
482.79	328.21
483.15	329.05
483.52	329.99
483.88	330.89
484.25	331.86
484.61	332.88
484.98	333.95
485.34	335.28
485.71	336.62
486.07	338.09
486.44	339.44
486.80	341.01
487.17	342.65
487.53	344.49
487.90	346.36
488.26	348.36
488.62	350.51
488.99	352.51
489.35	354.69
489.72	357.05
490.08	359.55
490.44	362.09
490.81	364.77
491.17	367.51
491.54	370.52
491.90	373.55
492.26	376.77
492.63	380.20
492.99	383.70
493.36	387.38
493.72	391.22
494.08	395.23
494.45	399.40
494.81	403.73
495.17	408.18
495.54	412.87
495.90	417.69
496.26	422.60
496.63	427.73
496.99	433.16
497.35	438.69
497.72	444.53
498.08	450.42
498.44	456.46
498.80	462.84
499.17	469.25
499.53	475.93
499.89	482.84
500.26	489.72
500.62	496.71
500.98	504.04
501.34	511.53
501.71	519.28
502.07	527.07
502.43	535.02
502.79	543.05
503.16	551.43
503.52	560.01
503.88	568.65
504.24	577.64
504.60	586.56
504.97	595.80
505.33	605.02
505.69	614.86
506.05	624.74
506.41	634.52
506.78	644.61
507.14	654.82
507.50	665.23
507.86	675.94
508.22	686.68
508.59	697.29
508.95	708.24
509.31	719.42
509.67	730.85
510.03	742.21
510.39	753.94
510.75	765.60
511.12	777.39
511.48	789.47
511.84	801.60
512.20	813.92
512.56	826.41
512.92	839.11
513.28	851.70
513.64	864.29
514.00	877.08
514.37	889.88
514.73	902.90
515.09	915.76
515.45	928.45
515.81	941.38
516.17	954.62
516.53	967.71
516.89	980.66
517.25	993.67
517.61	1007.05
517.97	1020.23
518.33	1033.25
518.69	1046.63
519.05	1060.14
519.41	1073.58
519.77	1087.27
520.13	1100.40
520.49	1113.41
520.85	1126.62
521.21	1139.72
521.57	1153.15
521.93	1166.10
522.29	1179.69
522.65	1193.06
523.01	1206.43
523.37	1219.41
523.73	1232.45
524.09	1245.37
524.45	1258.64
524.81	1271.87
525.17	1285.01
525.53	1298.02
525.89	1311.15
526.25	1324.01
526.61	1336.58
526.97	1349.48
527.33	1362.21
527.68	1375.39
528.04	1388.67
528.40	1401.42
528.76	1414.45
529.12	1426.96
529.48	1439.93
529.84	1451.85
530.20	1464.34
530.56	1476.69
530.91	1489.55
531.27	1502.14
531.63	1514.57
531.99	1526.94
532.35	1538.95
532.71	1550.98
533.07	1563.31
533.42	1575.13
533.78	1586.94
534.14	1598.68
534.50	1609.51
534.86	1620.73
535.21	1631.29
535.57	1642.31
535.93	1653.33
536.29	1664.20
536.65	1675.48
537.00	1686.12
537.36	1697.20
537.72	1707.81
538.08	1718.85
538.44	1729.59
538.79	1740.34
539.15	1750.77
539.51	1761.29
539.87	1772.25
540.22	1782.80
540.58	1793.66
540.94	1804.24
541.29	1814.25
541.65	1823.75
542.01	1834.11
542.37	1843.89
542.72	1853.70
543.08	1863.26
543.44	1873.34
543.79	1882.45
544.15	1891.39
544.51	1901.09
544.87	1910.57
545.22	1919.47
545.58	1928.11
545.94	1936.73
546.29	1945.09
546.65	1953.42
547.01	1961.42
547.36	1968.78
547.72	1976.16
548.07	1983.52
548.43	1991.09
548.79	1998.60
549.14	2006.59
549.50	2014.80
549.86	2022.35
550.21	2029.65
550.57	2037.09
550.92	2043.75
551.28	2051.21
551.64	2058.40
551.99	2065.78
552.35	2072.84
552.70	2079.54
553.06	2086.03
553.41	2092.07
553.77	2098.33
554.13	2104.60
554.48	2111.31
554.84	2118.20
555.19	2124.67
555.55	2131.09
555.90	2137.36
556.26	2144.13
556.61	2149.82
556.97	2154.52
557.32	2160.23
557.68	2166.60
558.03	2172.19
558.39	2177.33
558.74	2183.08
559.10	2188.54
559.45	2193.85
559.81	2199.34
560.16	2204.91
560.52	2210.82
560.87	2217.30
561.23	2223.26
561.58	2229.80
561.94	2235.01
562.29	2239.87
562.64	2245.99
563.00	2251.44
563.35	2256.97
563.71	2262.76
564.06	2268.50
564.42	2274.48
564.77	2279.71
565.12	2284.87
565.48	2290.26
565.83	2295.95
566.19	2301.47
566.54	2307.09
566.89	2311.77
567.25	2316.30
567.60	2321.93
567.96	2327.12
568.31	2331.64
568.66	2335.98
569.02	2339.74
569.37	2343.63
569.72	2348.15
570.08	2351.77
570.43	2354.88
570.78	2357.93
571.14	2360.75
571.49	2364.05
571.84	2367.61
572.20	2370.43
572.55	2373.58
572.90	2375.71
573.26	2378.77
573.61	2381.40
573.96	2383.52
574.31	2385.78
574.67	2387.92
575.02	2389.04
575.37	2390.50
575.72	2391.37
576.08	2392.95
576.43	2393.51
576.78	2394.32
577.13	2396.03
577.49	2397.31
577.84	2398.78
578.19	2400.44
578.54	2401.15
578.90	2402.30
579.25	2402.33
579.60	2402.56
579.95	2402.13
580.30	2402.63
580.66	2401.92
581.01	2400.33
581.36	2398.37
581.71	2397.12
582.06	2396.30
582.42	2395.62
582.77	2393.63
583.12	2392.38
583.47	2391.30
583.82	2390.83
584.17	2389.76
584.53	2387.88
584.88	2386.00
585.23	2384.07
585.58	2381.99
585.93	2379.93
586.28	2377.70
586.63	2375.67
586.98	2373.84
587.34	2371.97
587.69	2369.79
588.04	2368.12
588.39	2366.79
588.74	2364.53
589.09	2362.14
589.44	2359.05
589.79	2356.74
590.14	2355.13
590.49	2352.34
590.84	2348.65
591.19	2345.79
591.54	2342.63
591.89	2338.54
592.25	2335.43
592.60	2331.45
592.95	2327.43
593.30	2323.30
593.65	2319.17
594.00	2314.86
594.35	2311.79
594.70	2307.23
595.05	2302.68
595.40	2297.34
595.75	2292.01
596.10	2288.40
596.45	2283.53
596.80	2279.14
597.15	2274.06
597.50	2268.20
597.85	2263.48
598.19	2258.39
598.54	2252.69
598.89	2247.64
599.24	2243.32
599.59	2237.27
599.94	2231.80
600.29	2226.01
600.64	2220.22
600.99	2213.63
601.34	2208.35
601.69	2201.50
602.04	2195.30
602.39	2188.97
602.74	2182.89
603.08	2177.28
603.43	2170.80
603.78	2164.11
604.13	2157.04
604.48	2149.95
604.83	2143.92
605.18	2137.53
605.53	2130.71
605.87	2123.69
606.22	2116.96
606.57	2109.18
606.92	2101.54
607.27	2094.58
607.62	2088.03
607.96	2081.27
608.31	2074.71
608.66	2066.92
609.01	2059.40
609.36	2052.19
609.70	2044.41
610.05	2036.70
610.40	2028.42
610.75	2020.24
611.10	2012.75
611.44	2004.13
611.79	1995.38
612.14	1985.48
612.49	1975.11
612.83	1965.86
613.18	1956.83
613.53	1947.50
613.88	1937.99
614.22	1929.44
614.57	1919.53
614.92	1909.00
615.27	1898.93
615.61	1889.05
615.96	1879.42
616.31	1869.77
616.65	1860.54
617.00	1850.65
617.35	1841.13
617.70	1831.53
618.04	1821.40
618.39	1810.90
618.74	1801.12
619.08	1791.72
619.43	1783.13
619.78	1774.91
620.12	1766.22
620.47	1756.37
620.82	1746.14
621.16	1736.34
621.51	1726.22
621.85	1716.29
622.20	1705.81
622.55	1695.18
622.89	1685.21
623.24	1675.48
623.59	1665.81
623.93	1655.69
624.28	1645.99
624.62	1635.77
624.97	1625.45
625.32	1615.89
625.66	1607.32
626.01	1598.40
626.35	1588.87
626.70	1578.72
627.04	1568.49
627.39	1558.39
627.73	1549.26
628.08	1540.23
628.43	1530.59
628.77	1521.40
629.12	1512.63
629.46	1504.88
629.81	1496.42
630.15	1486.86
630.50	1477.03
630.84	1466.56
631.19	1456.62
631.53	1447.34
631.88	1437.26
632.22	1427.30
632.57	1417.93
632.91	1407.65
633.26	1397.94
633.60	1388.34
633.95	1379.03
634.29	1369.65
634.64	1360.36
634.98	1350.44
635.32	1341.15
635.67	1332.67
636.01	1323.44
636.36	1313.64
636.70	1304.15
637.05	1294.86
637.39	1285.95
637.73	1277.30
638.08	1269.76
638.42	1261.54
638.77	1252.75
639.11	1244.42
639.45	1236.58
639.80	1227.88
640.14	1219.21
640.49	1210.36
640.83	1201.51
641.17	1193.44
641.52	1185.21
641.86	1176.60
642.20	1168.70
642.55	1160.11
642.89	1151.24
643.23	1142.58
643.58	1134.52
643.92	1125.39
644.26	1116.70
644.61	1108.25
644.95	1099.52
645.29	1090.22
645.64	1081.03
645.98	1072.68
646.32	1064.80
646.66	1056.20
647.01	1047.76
647.35	1039.62
647.69	1031.13
648.04	1022.83
648.38	1013.79
648.72	1005.05
649.06	996.67
649.41	988.52
649.75	980.51
650.09	972.71
650.43	964.62
650.78	956.41
651.12	948.87
651.46	941.55
651.80	934.32
652.14	927.00
652.49	919.49
652.83	912.22
653.17	904.45
653.51	896.84
653.85	889.71
654.20	882.59
654.54	875.09
654.88	868.06
655.22	860.89
655.56	854.01
655.90	847.26
656.25	840.66
656.59	833.71
656.93	826.80
657.27	819.69
657.61	812.89
657.95	806.81
658.29	800.85
658.64	794.75
658.98	788.37
659.32	781.83
659.66	775.68
660.00	769.38
660.34	763.40
660.68	757.31
661.02	751.06
661.36	745.13
661.70	739.45
662.05	733.75
662.39	728.30
662.73	723.02
663.07	717.69
663.41	712.12
663.75	706.57
664.09	700.96
664.43	695.63
664.77	690.28
665.11	684.49
665.45	678.59
665.79	672.85
666.13	667.16
666.47	661.74
666.81	656.52
667.15	651.21
667.49	646.07
667.83	640.90
668.17	635.72
668.51	630.73
668.85	625.87
669.19	621.07
669.53	616.16
669.87	611.04
670.21	606.41
670.55	601.73
670.89	597.31
671.23	593.05
671.57	588.74
671.91	584.52
672.25	580.48
672.58	576.44
672.92	572.43
673.26	568.58
673.60	564.80
673.94	560.86
674.28	557.29
674.62	553.59
674.96	549.89
675.30	546.39
675.64	542.72
675.97	539.18
676.31	535.67
676.65	532.16
676.99	528.78
677.33	524.99
677.67	521.36
678.01	517.60
678.34	514.03
678.68	510.54
679.02	506.96
679.36	503.28
679.70	499.71
680.04	496.20
680.37	492.73
680.71	489.47
681.05	486.38
681.39	483.23
681.73	480.09
682.06	477.17
682.40	474.16
682.74	471.04
683.08	467.86
683.42	464.76
683.75	461.83
684.09	458.86
684.43	456.09
684.77	453.20
685.10	450.44
685.44	447.53
685.78	444.62
686.12	441.93
686.45	439.26
686.79	436.66
687.13	434.17
687.46	431.69
687.80	429.03
688.14	426.23
688.48	423.64
688.81	421.06
689.15	418.49
689.49	415.89
689.82	413.42
690.16	410.92
690.50	408.48
690.83	405.96
691.17	403.53
691.51	401.07
691.84	398.86
692.18	396.66
692.52	394.53
692.85	392.46
693.19	390.40
693.52	388.27
693.86	386.08
694.20	383.91
694.53	381.77
694.87	379.63
695.21	377.56
695.54	375.45
695.88	373.32
696.21	371.19
696.55	369.13
696.88	367.11
697.22	365.18
697.56	363.33
697.89	361.50
698.23	359.77
698.56	358.06
698.90	356.32
699.23	354.40
699.57	352.58
699.90	350.80
700.24	349.03
700.58	347.32
700.91	345.68
701.25	344.17
701.58	342.61
701.92	341.01
702.25	339.44
702.59	337.88
702.92	336.41
703.26	334.88
703.59	333.48
703.93	332.26
704.26	330.84
704.60	329.35
704.93	327.91
705.26	326.45
705.60	325.03
705.93	323.61
706.27	322.37
706.60	321.14
706.94	319.92
707.27	318.51
707.61	317.21
707.94	315.93
708.27	314.46
708.61	313.04
708.94	311.74
709.28	310.56
709.61	309.31
709.94	308.08
710.28	306.89
710.61	305.69
710.95	304.25
711.28	303.23
711.61	302.08
711.95	301.00
712.28	299.83
712.61	298.64
712.95	297.61
713.28	296.58
713.61	295.44
713.95	294.28
714.28	293.34
714.61	292.30
714.95	291.30
715.28	290.30
715.61	289.32
715.95	288.41
716.28	287.42
716.61	286.52
716.95	285.58
717.28	284.68
717.61	283.77
717.94	282.92
718.28	281.89
718.61	281.02
718.94	280.14
719.27	279.30
719.61	278.56
719.94	277.66
720.27	276.71
720.60	275.90
720.94	275.18
721.27	274.42
721.60	273.75
721.93	273.07
722.27	272.45
722.60	271.81
722.93	271.12
723.26	270.48
723.59	269.84
723.93	269.23
724.26	268.62
724.59	267.98
724.92	267.45
725.25	266.93
725.59	266.36
725.92	265.83
726.25	265.28
726.58	264.68
726.91	264.13
727.24	263.64
727.57	263.10
727.91	262.48
728.24	261.97
728.57	261.39
728.90	260.85
729.23	260.29
729.56	259.87
729.89	259.37
730.22	258.82
730.55	258.26
730.89	257.72
731.22	257.15
731.55	256.63
731.88	256.09
732.21	255.54
732.54	255.07
732.87	254.57
733.20	254.08
733.53	253.62
733.86	253.17
734.19	252.66
734.52	252.26
734.85	251.99
735.18	251.50
735.51	251.13
735.84	250.67
736.17	250.28
736.50	249.78
736.83	249.62
737.16	249.27
737.49	248.90
737.82	248.52
738.15	248.18
738.48	247.88
738.81	247.48
739.14	247.06
739.47	246.68
739.80	246.34
740.13	246.00
740.46	245.63
740.79	245.24
741.12	244.94
741.45	244.57
741.78	244.12
742.11	243.88
742.44	243.55
742.77	243.27
743.10	242.92
743.43	242.56
743.75	242.01
744.08	241.91
744.41	241.56
744.74	241.21
745.07	240.85
745.40	240.53
745.73	240.28
746.06	240.00
746.39	239.70
746.71	239.37
747.04	239.04
747.37	238.73
747.70	238.46
748.03	238.11
748.36	237.86
748.68	237.54
749.01	237.16
749.34	236.86
749.67	236.58
750.00	236.33
750.33	236.21
750.65	235.98
750.98	235.50
751.31	235.27
751.64	235.04
751.97	234.93
752.29	234.66
752.62	234.35
752.95	234.09
753.28	233.86
753.60	233.62
753.93	233.46
754.26	233.23
754.59	232.97
754.91	232.76
755.24	232.52
755.57	232.34
755.90	232.12
756.22	231.90
756.55	231.68
756.88	231.42
757.20	231.10
757.53	230.80
757.86	230.59
758.19	230.39
758.51	230.18
758.84	229.88
759.17	229.70
759.49	229.53
759.82	229.46
760.15	229.30
760.47	229.09
760.80	228.84
761.13	228.71
761.45	228.50
761.78	228.37
762.11	228.22
762.43	228.03
762.76	227.90
763.08	227.76
763.41	227.60
763.74	227.48
764.06	227.33
764.39	227.20
764.71	227.05
765.04	226.89
765.37	226.75
765.69	226.61
766.02	226.47
766.34	226.34
766.67	226.13
767.00	226.05
767.32	226.05
767.65	226.02
767.97	225.88
768.30	225.78
768.62	225.63
768.95	225.46
769.27	225.34
769.60	225.24
769.92	225.08
770.25	224.93
770.57	224.77
770.90	224.66
771.22	224.55
771.55	224.43
771.87	224.35
772.20	224.27
772.52	224.32
772.85	224.43
773.17	224.33
773.50	224.19
773.82	224.05
774.15	223.86
774.47	223.68
774.80	223.58
775.12	223.49
775.45	223.41
775.77	223.34
776.09	223.28
776.42	223.19
776.74	223.15
777.07	223.05
777.39	222.97
777.72	222.90
778.04	222.84
778.36	222.73
778.69	222.67
779.01	222.59
779.33	222.34
779.66	222.05
779.98	221.95
780.31	221.92
780.63	221.92
780.95	221.90
781.28	221.83
781.60	221.69
781.92	221.62
782.25	221.54
782.57	221.44
782.89	221.32
783.22	221.23
783.54	221.12
783.86	221.10
784.19	221.02
784.51	221.00
784.83	220.92
785.16	220.89
785.48	220.82
785.80	220.73
786.12	220.68
