SpectraSuite Data File
++++++++++++++++++++++++++++++++++++
Date: Tue Jan 29 16:17:24 EST 2013
User: group
Dark Spectrum Present: No
Reference Spectrum Present: No
Number of Sampled Component Spectra: 1
Spectrometers: USB2E7196
Integration Time (usec): 65000 (USB2E7196)
Spectra Averaged: 100 (USB2E7196)
Boxcar Smoothing: 10 (USB2E7196)
Correct for Electrical Dark: No (USB2E7196)
Strobe/Lamp Enabled: No (USB2E7196)
Correct for Detector Non-linearity: No (USB2E7196)
Correct for Stray Light: No (USB2E7196)
Number of Pixels in Processed Spectrum: 2048
>>>>>Begin Processed Spectral Data<<<<<
339.09	0.00
339.48	202.07
339.86	204.34
340.24	205.37
340.63	206.77
341.01	211.47
341.39	209.25
341.78	211.19
342.16	211.75
342.54	212.26
342.93	201.60
343.31	211.81
343.69	212.36
344.07	212.81
344.46	213.26
344.84	213.66
345.22	213.82
345.60	214.10
345.99	214.29
346.37	214.46
346.75	214.59
347.13	214.65
347.52	214.75
347.90	214.90
348.28	214.95
348.66	215.02
349.05	214.99
349.43	215.07
349.81	215.15
350.19	215.20
350.57	215.29
350.96	215.40
351.34	215.49
351.72	215.60
352.10	215.72
352.48	215.80
352.87	215.87
353.25	215.93
353.63	215.99
354.01	216.05
354.39	216.14
354.77	216.22
355.15	216.36
355.54	216.42
355.92	216.42
356.30	216.53
356.68	216.74
357.06	216.84
357.44	216.86
357.82	216.93
358.20	217.02
358.58	217.05
358.97	217.11
359.35	217.23
359.73	217.31
360.11	217.38
360.49	217.44
360.87	217.49
361.25	217.60
361.63	217.69
362.01	217.77
362.39	217.78
362.77	217.84
363.15	217.86
363.53	217.90
363.91	217.94
364.29	217.99
364.67	217.81
365.05	217.80
365.43	217.85
365.81	217.88
366.19	217.99
366.57	218.11
366.95	218.10
367.33	218.07
367.71	218.08
368.09	218.11
368.47	218.11
368.85	218.09
369.23	218.11
369.61	218.05
369.99	218.09
370.37	218.11
370.75	218.20
371.13	218.16
371.51	218.13
371.89	218.15
372.27	218.11
372.65	218.11
373.03	218.11
373.41	218.10
373.78	218.10
374.16	217.94
374.54	217.81
374.92	217.76
375.30	217.70
375.68	217.60
376.06	217.51
376.44	217.46
376.82	217.46
377.19	217.38
377.57	217.33
377.95	217.20
378.33	217.14
378.71	216.98
379.09	216.96
379.47	216.89
379.84	216.80
380.22	216.70
380.60	216.60
380.98	216.55
381.36	216.46
381.73	216.34
382.11	216.35
382.49	216.30
382.87	216.22
383.25	216.19
383.62	216.40
384.00	216.34
384.38	216.30
384.76	216.28
385.13	216.32
385.51	216.27
385.89	216.20
386.27	216.16
386.64	216.15
387.02	216.08
387.40	216.05
387.78	216.03
388.15	216.03
388.53	216.04
388.91	215.98
389.29	215.96
389.66	215.98
390.04	215.91
390.42	215.93
390.79	215.93
391.17	215.91
391.55	215.67
391.92	215.67
392.30	215.67
392.68	215.61
393.05	215.59
393.43	215.58
393.81	215.58
394.18	215.55
394.56	215.53
394.94	215.56
395.31	215.59
395.69	215.67
396.06	215.69
396.44	215.71
396.82	215.72
397.19	215.86
397.57	215.85
397.95	215.92
398.32	215.89
398.70	215.97
399.07	216.06
399.45	216.09
399.82	216.12
400.20	216.15
400.58	216.24
400.95	216.19
401.33	216.30
401.70	216.53
402.08	216.63
402.45	216.73
402.83	216.86
403.20	216.91
403.58	216.96
403.95	217.12
404.33	217.25
404.71	217.38
405.08	217.64
405.46	217.79
405.83	217.98
406.21	218.22
406.58	218.41
406.96	218.63
407.33	218.88
407.70	219.20
408.08	219.67
408.45	220.02
408.83	220.42
409.20	220.75
409.58	221.04
409.95	221.49
410.33	221.96
410.70	222.40
411.08	222.94
411.45	223.48
411.82	224.05
412.20	224.74
412.57	225.56
412.95	226.08
413.32	226.91
413.69	227.71
414.07	228.54
414.44	229.49
414.82	230.45
415.19	231.60
415.56	232.73
415.94	233.83
416.31	235.16
416.68	236.53
417.06	238.09
417.43	239.57
417.81	241.24
418.18	242.96
418.55	244.84
418.93	246.83
419.30	248.90
419.67	251.06
420.04	253.24
420.42	255.55
420.79	258.31
421.16	260.94
421.54	263.77
421.91	266.65
422.28	269.67
422.66	272.88
423.03	275.97
423.40	279.22
423.77	282.70
424.15	286.26
424.52	289.92
424.89	293.98
425.26	297.90
425.64	301.66
426.01	305.78
426.38	310.11
426.75	314.47
427.13	319.04
427.50	323.85
427.87	328.91
428.24	333.92
428.61	338.70
428.99	344.07
429.36	349.86
429.73	355.61
430.10	361.29
430.47	367.14
430.85	373.25
431.22	379.75
431.59	386.62
431.96	393.21
432.33	400.43
432.70	407.37
433.08	415.63
433.45	423.41
433.82	431.12
434.19	439.67
434.56	448.05
434.93	456.07
435.30	464.09
435.68	472.91
436.05	481.59
436.42	490.17
436.79	498.04
437.16	506.51
437.53	515.50
437.90	524.33
438.27	532.98
438.64	541.90
439.01	550.11
439.38	557.40
439.75	564.48
440.13	572.62
440.50	580.34
440.87	586.51
441.24	592.94
441.61	600.07
441.98	605.23
442.35	611.38
442.72	617.43
443.09	623.21
443.46	626.74
443.83	629.19
444.20	631.35
444.57	634.36
444.94	635.78
445.31	637.08
445.68	638.43
446.05	638.98
446.42	638.21
446.79	637.30
447.16	636.27
447.53	635.52
447.90	632.35
448.27	629.12
448.64	624.58
449.01	621.37
449.37	615.67
449.74	610.22
450.11	603.58
450.48	596.54
450.85	589.36
451.22	583.10
451.59	577.15
451.96	571.55
452.33	563.99
452.70	557.09
453.07	548.92
453.43	540.59
453.80	532.64
454.17	524.96
454.54	517.66
454.91	509.80
455.28	502.10
455.65	494.94
456.02	487.77
456.38	481.78
456.75	474.23
457.12	467.90
457.49	461.66
457.86	455.70
458.23	450.50
458.59	444.81
458.96	439.10
459.33	433.98
459.70	428.79
460.07	424.71
460.43	420.01
460.80	415.58
461.17	411.79
461.54	407.77
461.91	403.88
462.27	399.93
462.64	396.60
463.01	392.92
463.38	389.37
463.74	385.77
464.11	382.62
464.48	379.82
464.85	376.80
465.21	374.44
465.58	371.88
465.95	368.88
466.32	366.32
466.68	363.82
467.05	361.34
467.42	358.87
467.78	356.29
468.15	353.83
468.52	352.03
468.88	349.58
469.25	347.41
469.62	345.67
469.98	343.81
470.35	342.07
470.72	340.47
471.08	338.72
471.45	337.31
471.82	335.81
472.18	334.26
472.55	333.15
472.92	331.80
473.28	330.62
473.65	329.44
474.02	328.45
474.38	327.56
474.75	326.87
475.11	326.13
475.48	325.59
475.85	325.15
476.21	324.69
476.58	324.37
476.94	324.20
477.31	323.95
477.67	323.71
478.04	323.58
478.41	323.57
478.77	323.77
479.14	323.73
479.50	323.90
479.87	324.21
480.23	324.51
480.60	324.82
480.96	325.12
481.33	325.79
481.69	326.33
482.06	326.85
482.42	327.35
482.79	327.93
483.15	328.68
483.52	329.67
483.88	330.56
484.25	331.56
484.61	332.54
484.98	333.61
485.34	334.97
485.71	336.33
486.07	337.80
486.44	339.11
486.80	340.79
487.17	342.45
487.53	344.28
487.90	346.14
488.26	348.16
488.62	350.28
488.99	352.32
489.35	354.46
489.72	356.85
490.08	359.36
490.44	361.97
490.81	364.69
491.17	367.36
491.54	370.30
491.90	373.33
492.26	376.54
492.63	379.91
492.99	383.35
493.36	386.99
493.72	390.86
494.08	394.89
494.45	399.06
494.81	403.39
495.17	407.85
495.54	412.55
495.90	417.33
496.26	422.27
496.63	427.43
496.99	432.90
497.35	438.44
497.72	444.18
498.08	450.00
498.44	456.07
498.80	462.47
499.17	468.93
499.53	475.55
499.89	482.43
500.26	489.39
500.62	496.39
500.98	503.74
501.34	511.13
501.71	518.81
502.07	526.57
502.43	534.58
502.79	542.57
503.16	550.90
503.52	559.42
503.88	568.04
504.24	576.94
504.60	585.82
504.97	594.99
505.33	604.19
505.69	614.04
506.05	623.85
506.41	633.61
506.78	643.56
507.14	653.71
507.50	664.05
507.86	674.67
508.22	685.41
508.59	696.01
508.95	706.99
509.31	718.18
509.67	729.47
510.03	740.68
510.39	752.36
510.75	764.20
511.12	776.00
511.48	787.95
511.84	800.12
512.20	812.29
512.56	824.85
512.92	837.52
513.28	849.96
513.64	862.48
514.00	875.14
514.37	887.98
514.73	900.97
515.09	913.81
515.45	926.42
515.81	939.27
516.17	952.37
516.53	965.41
516.89	978.32
517.25	991.43
517.61	1004.78
517.97	1017.94
518.33	1030.75
518.69	1044.14
519.05	1057.68
519.41	1071.02
519.77	1084.73
520.13	1097.73
520.49	1110.73
520.85	1123.93
521.21	1137.13
521.57	1150.66
521.93	1163.50
522.29	1176.93
522.65	1190.33
523.01	1203.71
523.37	1216.68
523.73	1229.79
524.09	1242.65
524.45	1255.81
524.81	1268.90
525.17	1282.04
525.53	1294.87
525.89	1307.86
526.25	1320.56
526.61	1333.16
526.97	1345.96
527.33	1358.57
527.68	1371.68
528.04	1384.83
528.40	1397.65
528.76	1410.63
529.12	1423.18
529.48	1436.16
529.84	1448.16
530.20	1460.57
530.56	1472.88
530.91	1485.78
531.27	1498.24
531.63	1510.66
531.99	1523.02
532.35	1534.97
532.71	1547.07
533.07	1559.57
533.42	1571.59
533.78	1583.41
534.14	1595.05
534.50	1606.15
534.86	1617.39
535.21	1628.02
535.57	1639.15
535.93	1650.03
536.29	1660.67
536.65	1671.68
537.00	1682.30
537.36	1693.34
537.72	1703.94
538.08	1715.04
538.44	1725.57
538.79	1736.30
539.15	1746.85
539.51	1757.30
539.87	1768.27
540.22	1778.65
540.58	1789.27
540.94	1799.70
541.29	1809.67
541.65	1819.19
542.01	1829.25
542.37	1839.00
542.72	1848.78
543.08	1858.25
543.44	1868.43
543.79	1877.57
544.15	1886.70
544.51	1896.44
544.87	1906.00
545.22	1914.87
545.58	1923.37
545.94	1931.98
546.29	1940.28
546.65	1948.51
547.01	1956.42
547.36	1963.84
547.72	1971.24
548.07	1978.65
548.43	1986.20
548.79	1993.84
549.14	2001.76
549.50	2009.87
549.86	2017.45
550.21	2024.61
550.57	2031.95
550.92	2038.48
551.28	2045.66
551.64	2052.69
551.99	2059.94
552.35	2066.83
552.70	2073.68
553.06	2080.13
553.41	2086.35
553.77	2092.63
554.13	2098.76
554.48	2105.61
554.84	2112.46
555.19	2118.93
555.55	2125.17
555.90	2131.24
556.26	2137.79
556.61	2143.58
556.97	2148.46
557.32	2154.12
557.68	2160.52
558.03	2166.31
558.39	2171.51
558.74	2177.45
559.10	2183.08
559.45	2188.48
559.81	2194.06
560.16	2199.38
560.52	2205.23
560.87	2211.59
561.23	2217.54
561.58	2224.22
561.94	2229.31
562.29	2234.08
562.64	2240.09
563.00	2245.60
563.35	2251.11
563.71	2256.91
564.06	2262.59
564.42	2268.44
564.77	2273.63
565.12	2278.81
565.48	2283.94
565.83	2289.46
566.19	2294.87
566.54	2300.27
566.89	2304.80
567.25	2309.31
567.60	2315.11
567.96	2320.34
568.31	2324.73
568.66	2329.08
569.02	2332.90
569.37	2336.79
569.72	2341.28
570.08	2344.92
570.43	2348.25
570.78	2351.50
571.14	2354.08
571.49	2357.22
571.84	2360.75
572.20	2363.72
572.55	2366.71
572.90	2369.01
573.26	2372.10
573.61	2374.56
573.96	2376.67
574.31	2378.95
574.67	2381.01
575.02	2381.87
575.37	2383.47
575.72	2384.58
576.08	2386.14
576.43	2386.59
576.78	2387.26
577.13	2389.00
577.49	2390.26
577.84	2391.52
578.19	2392.97
578.54	2393.78
578.90	2394.82
579.25	2394.94
579.60	2395.09
579.95	2394.68
580.30	2395.05
580.66	2394.35
581.01	2392.97
581.36	2390.95
581.71	2389.55
582.06	2388.69
582.42	2387.96
582.77	2385.86
583.12	2384.18
583.47	2383.03
583.82	2382.44
584.17	2381.44
584.53	2379.39
584.88	2377.37
585.23	2375.56
585.58	2373.39
585.93	2371.40
586.28	2369.33
586.63	2367.04
586.98	2364.95
587.34	2363.18
587.69	2360.96
588.04	2359.18
588.39	2357.91
588.74	2355.49
589.09	2353.15
589.44	2350.16
589.79	2347.97
590.14	2346.15
590.49	2343.50
590.84	2339.73
591.19	2336.95
591.54	2333.73
591.89	2329.87
592.25	2326.95
592.60	2322.90
592.95	2319.04
593.30	2314.97
593.65	2310.58
594.00	2306.35
594.35	2303.41
594.70	2298.72
595.05	2294.13
595.40	2288.77
595.75	2283.23
596.10	2279.65
596.45	2274.89
596.80	2270.31
597.15	2265.24
597.50	2259.48
597.85	2254.68
598.19	2249.58
598.54	2243.83
598.89	2238.78
599.24	2234.38
599.59	2228.25
599.94	2222.67
600.29	2216.93
600.64	2211.22
600.99	2204.83
601.34	2199.47
601.69	2192.61
602.04	2186.44
602.39	2180.10
602.74	2174.20
603.08	2168.71
603.43	2162.44
603.78	2155.71
604.13	2148.65
604.48	2141.41
604.83	2135.37
605.18	2129.15
605.53	2122.39
605.87	2115.44
606.22	2108.75
606.57	2100.89
606.92	2093.09
607.27	2086.11
607.62	2079.44
607.96	2072.53
608.31	2065.98
608.66	2058.37
609.01	2050.90
609.36	2043.82
609.70	2036.02
610.05	2028.22
610.40	2020.01
610.75	2011.82
611.10	2004.27
611.44	1995.71
611.79	1987.06
612.14	1977.20
612.49	1966.80
612.83	1957.59
613.18	1948.47
613.53	1939.14
613.88	1929.69
614.22	1921.08
614.57	1911.27
614.92	1900.85
615.27	1890.72
615.61	1880.83
615.96	1871.15
616.31	1861.60
616.65	1852.31
617.00	1842.50
617.35	1832.97
617.70	1823.34
618.04	1813.30
618.39	1803.09
618.74	1793.44
619.08	1783.93
619.43	1775.34
619.78	1767.10
620.12	1758.42
620.47	1748.64
620.82	1738.50
621.16	1728.71
621.51	1718.84
621.85	1709.12
622.20	1698.76
622.55	1688.29
622.89	1678.41
623.24	1668.77
623.59	1659.07
623.93	1649.05
624.28	1639.50
624.62	1629.41
624.97	1619.17
625.32	1609.49
625.66	1600.73
626.01	1591.94
626.35	1582.52
626.70	1572.30
627.04	1562.39
627.39	1552.37
627.73	1543.14
628.08	1534.17
628.43	1524.60
628.77	1515.46
629.12	1506.65
629.46	1498.88
629.81	1490.56
630.15	1481.05
630.50	1471.22
630.84	1460.93
631.19	1451.04
631.53	1441.65
631.88	1431.55
632.22	1421.60
632.57	1412.23
632.91	1402.09
633.26	1392.22
633.60	1382.64
633.95	1373.35
634.29	1363.94
634.64	1354.67
634.98	1344.90
635.32	1335.63
635.67	1327.25
636.01	1318.03
636.36	1308.26
636.70	1298.76
637.05	1289.32
637.39	1280.36
637.73	1271.81
638.08	1264.25
638.42	1256.00
638.77	1247.26
639.11	1239.09
639.45	1231.35
639.80	1222.74
640.14	1214.12
640.49	1205.33
640.83	1196.68
641.17	1188.69
641.52	1180.49
641.86	1171.90
642.20	1164.03
642.55	1155.52
642.89	1146.74
643.23	1138.07
643.58	1130.08
643.92	1121.03
644.26	1112.58
644.61	1104.26
644.95	1095.57
645.29	1086.27
645.64	1077.12
645.98	1068.87
646.32	1060.94
646.66	1052.36
647.01	1044.17
647.35	1036.18
647.69	1027.89
648.04	1019.69
648.38	1010.90
648.72	1002.11
649.06	993.76
649.41	985.78
649.75	977.84
650.09	969.94
650.43	961.99
650.78	953.76
651.12	946.19
651.46	938.75
651.80	931.47
652.14	924.14
652.49	916.64
652.83	909.48
653.17	901.73
653.51	894.24
653.85	887.11
654.20	879.88
654.54	872.34
654.88	865.24
655.22	858.10
655.56	851.22
655.90	844.53
656.25	837.93
656.59	830.93
656.93	824.05
657.27	817.05
657.61	810.27
657.95	804.20
658.29	798.43
658.64	792.42
658.98	786.15
659.32	779.75
659.66	773.68
660.00	767.42
660.34	761.52
660.68	755.48
661.02	749.31
661.36	743.52
661.70	737.77
662.05	732.25
662.39	726.75
662.73	721.45
663.07	716.14
663.41	710.63
663.75	705.10
664.09	699.50
664.43	694.11
664.77	688.84
665.11	683.07
665.45	677.21
665.79	671.46
666.13	665.79
666.47	660.43
666.81	655.03
667.15	649.77
667.49	644.67
667.83	639.44
668.17	634.24
668.51	629.14
668.85	624.34
669.19	619.49
669.53	614.66
669.87	609.59
670.21	604.96
670.55	600.30
670.89	595.95
671.23	591.73
671.57	587.48
671.91	583.26
672.25	579.27
672.58	575.18
672.92	571.20
673.26	567.44
673.60	563.58
673.94	559.86
674.28	556.28
674.62	552.53
674.96	548.91
675.30	545.53
675.64	542.00
675.97	538.51
676.31	534.94
676.65	531.39
676.99	528.04
677.33	524.26
677.67	520.73
678.01	516.96
678.34	513.37
678.68	509.91
679.02	506.31
679.36	502.64
679.70	499.06
680.04	495.63
680.37	492.21
680.71	488.98
681.05	485.90
681.39	482.75
681.73	479.70
682.06	476.72
682.40	473.64
682.74	470.43
683.08	467.34
683.42	464.22
683.75	461.28
684.09	458.30
684.43	455.55
684.77	452.65
685.10	449.84
685.44	447.00
685.78	444.13
686.12	441.50
686.45	438.85
686.79	436.25
687.13	433.79
687.46	431.19
687.80	428.56
688.14	425.76
688.48	423.19
688.81	420.56
689.15	418.01
689.49	415.44
689.82	412.99
690.16	410.37
690.50	408.02
690.83	405.54
691.17	403.05
691.51	400.63
691.84	398.46
692.18	396.33
692.52	394.19
692.85	392.12
693.19	390.01
693.52	387.93
693.86	385.81
694.20	383.64
694.53	381.59
694.87	379.43
695.21	377.36
695.54	375.20
695.88	373.11
696.21	370.95
696.55	368.90
696.88	366.92
697.22	365.03
697.56	363.15
697.89	361.38
698.23	359.67
698.56	357.92
698.90	356.15
699.23	354.26
699.57	352.42
699.90	350.59
700.24	348.83
700.58	347.11
700.91	345.43
701.25	343.95
701.58	342.34
701.92	340.81
702.25	339.23
702.59	337.70
702.92	336.23
703.26	334.75
703.59	333.28
703.93	332.04
704.26	330.66
704.60	329.20
704.93	327.71
705.26	326.28
705.60	324.84
705.93	323.40
706.27	322.11
706.60	320.87
706.94	319.69
707.27	318.32
707.61	317.01
707.94	315.73
708.27	314.21
708.61	312.81
708.94	311.48
709.28	310.21
709.61	308.99
709.94	307.80
710.28	306.61
710.61	305.46
710.95	304.08
711.28	303.04
711.61	301.87
711.95	300.81
712.28	299.65
712.61	298.48
712.95	297.44
713.28	296.41
713.61	295.27
713.95	294.11
714.28	293.10
714.61	292.08
714.95	291.12
715.28	290.18
715.61	289.18
715.95	288.26
716.28	287.36
716.61	286.45
716.95	285.47
717.28	284.61
717.61	283.68
717.94	282.77
718.28	281.74
718.61	280.89
718.94	279.96
719.27	279.13
719.61	278.31
719.94	277.48
720.27	276.55
720.60	275.74
720.94	275.01
721.27	274.30
721.60	273.62
721.93	272.88
722.27	272.23
722.60	271.62
722.93	270.90
723.26	270.22
723.59	269.49
723.93	268.86
724.26	268.19
724.59	267.58
724.92	267.06
725.25	266.56
725.59	266.02
725.92	265.49
726.25	264.96
726.58	264.46
726.91	263.88
727.24	263.38
727.57	262.85
727.91	262.25
728.24	261.71
728.57	261.16
728.90	260.62
729.23	259.97
729.56	259.52
729.89	259.04
730.22	258.51
730.55	258.00
730.89	257.47
731.22	256.99
731.55	256.50
731.88	255.98
732.21	255.40
732.54	254.86
732.87	254.38
733.20	253.91
733.53	253.43
733.86	252.97
734.19	252.47
734.52	252.05
734.85	251.80
735.18	251.32
735.51	250.91
735.84	250.52
736.17	250.19
736.50	249.68
736.83	249.50
737.16	249.15
737.49	248.80
737.82	248.43
738.15	248.05
738.48	247.67
738.81	247.28
739.14	246.89
739.47	246.50
739.80	246.15
740.13	245.79
740.46	245.43
740.79	245.05
741.12	244.72
741.45	244.36
741.78	243.88
742.11	243.67
742.44	243.28
742.77	242.99
743.10	242.62
743.43	242.28
743.75	241.73
744.08	241.65
744.41	241.30
744.74	240.95
745.07	240.61
745.40	240.35
745.73	240.09
746.06	239.81
746.39	239.57
746.71	239.22
747.04	238.90
747.37	238.58
747.70	238.34
748.03	238.06
748.36	237.83
748.68	237.56
749.01	237.20
749.34	236.96
749.67	236.67
750.00	236.43
750.33	236.31
750.65	236.06
750.98	235.55
751.31	235.33
751.64	235.13
751.97	235.03
752.29	234.75
752.62	234.44
752.95	234.19
753.28	233.92
753.60	233.70
753.93	233.51
754.26	233.29
754.59	233.01
754.91	232.80
755.24	232.53
755.57	232.29
755.90	232.05
756.22	231.83
756.55	231.57
756.88	231.34
757.20	231.03
757.53	230.80
757.86	230.57
758.19	230.37
758.51	230.14
758.84	229.80
759.17	229.58
759.49	229.44
759.82	229.38
760.15	229.23
760.47	229.06
760.80	228.81
761.13	228.66
761.45	228.48
761.78	228.30
762.11	228.11
762.43	227.97
762.76	227.79
763.08	227.61
763.41	227.48
763.74	227.35
764.06	227.19
764.39	226.99
764.71	226.86
765.04	226.69
765.37	226.51
765.69	226.38
766.02	226.26
766.34	226.08
766.67	225.85
767.00	225.75
767.32	225.69
767.65	225.70
767.97	225.57
768.30	225.46
768.62	225.32
768.95	225.18
769.27	225.04
769.60	224.95
769.92	224.81
770.25	224.65
770.57	224.49
770.90	224.38
771.22	224.28
771.55	224.16
771.87	224.06
772.20	223.96
772.52	224.02
772.85	224.15
773.17	224.06
773.50	223.93
773.82	223.77
774.15	223.59
774.47	223.36
774.80	223.23
775.12	223.14
775.45	223.05
775.77	223.00
776.09	222.93
776.42	222.80
776.74	222.78
777.07	222.72
777.39	222.65
777.72	222.53
778.04	222.50
778.36	222.43
778.69	222.35
779.01	222.25
779.33	221.99
779.66	221.66
779.98	221.57
780.31	221.51
780.63	221.57
780.95	221.53
781.28	221.48
781.60	221.40
781.92	221.29
782.25	221.25
782.57	221.18
782.89	221.10
783.22	221.06
783.54	220.95
783.86	220.87
784.19	220.79
784.51	220.79
784.83	220.67
785.16	220.64
785.48	220.57
785.80	220.59
786.12	220.56
