SpectraSuite Data File
++++++++++++++++++++++++++++++++++++
Date: Tue Jan 29 16:07:29 EST 2013
User: group
Dark Spectrum Present: No
Reference Spectrum Present: No
Number of Sampled Component Spectra: 1
Spectrometers: USB2E7196
Integration Time (usec): 65000 (USB2E7196)
Spectra Averaged: 100 (USB2E7196)
Boxcar Smoothing: 10 (USB2E7196)
Correct for Electrical Dark: No (USB2E7196)
Strobe/Lamp Enabled: No (USB2E7196)
Correct for Detector Non-linearity: No (USB2E7196)
Correct for Stray Light: No (USB2E7196)
Number of Pixels in Processed Spectrum: 2048
>>>>>Begin Processed Spectral Data<<<<<
339.09	0.00
339.48	202.67
339.86	204.27
340.24	205.81
340.63	206.50
341.01	211.37
341.39	209.85
341.78	211.79
342.16	212.24
342.54	213.18
342.93	201.91
343.31	212.14
343.69	212.66
344.07	213.12
344.46	213.55
344.84	214.00
345.22	214.18
345.60	214.44
345.99	214.63
346.37	214.78
346.75	214.89
347.13	214.98
347.52	215.08
347.90	215.22
348.28	215.27
348.66	215.36
349.05	215.31
349.43	215.38
349.81	215.43
350.19	215.52
350.57	215.58
350.96	215.67
351.34	215.74
351.72	215.85
352.10	215.98
352.48	216.04
352.87	216.08
353.25	216.15
353.63	216.18
354.01	216.22
354.39	216.31
354.77	216.38
355.15	216.49
355.54	216.48
355.92	216.48
356.30	216.55
356.68	216.74
357.06	216.84
357.44	216.85
357.82	216.92
358.20	216.97
358.58	217.06
358.97	217.14
359.35	217.26
359.73	217.38
360.11	217.40
360.49	217.47
360.87	217.53
361.25	217.58
361.63	217.73
362.01	217.79
362.39	217.80
362.77	217.86
363.15	217.90
363.53	217.96
363.91	217.99
364.29	218.00
364.67	217.79
365.05	217.84
365.43	217.91
365.81	217.94
366.19	218.01
366.57	218.06
366.95	218.05
367.33	218.00
367.71	217.98
368.09	218.04
368.47	218.04
368.85	217.99
369.23	218.02
369.61	217.91
369.99	217.96
370.37	217.97
370.75	218.03
371.13	217.92
371.51	217.88
371.89	217.88
372.27	217.90
372.65	217.93
373.03	217.91
373.41	217.84
373.78	217.77
374.16	217.64
374.54	217.58
374.92	217.50
375.30	217.47
375.68	217.40
376.06	217.34
376.44	217.27
376.82	217.26
377.19	217.21
377.57	217.19
377.95	217.09
378.33	217.04
378.71	216.88
379.09	216.92
379.47	216.92
379.84	216.86
380.22	216.75
380.60	216.68
380.98	216.57
381.36	216.50
381.73	216.48
382.11	216.47
382.49	216.43
382.87	216.40
383.25	216.34
383.62	216.52
384.00	216.45
384.38	216.43
384.76	216.42
385.13	216.47
385.51	216.42
385.89	216.36
386.27	216.31
386.64	216.32
387.02	216.26
387.40	216.18
387.78	216.14
388.15	216.12
388.53	216.06
388.91	216.08
389.29	216.07
389.66	216.05
390.04	216.00
390.42	216.00
390.79	216.02
391.17	216.00
391.55	215.77
391.92	215.78
392.30	215.77
392.68	215.72
393.05	215.68
393.43	215.68
393.81	215.66
394.18	215.62
394.56	215.63
394.94	215.67
395.31	215.67
395.69	215.77
396.06	215.83
396.44	215.87
396.82	215.87
397.19	216.04
397.57	216.05
397.95	216.11
398.32	216.06
398.70	216.08
399.07	216.16
399.45	216.21
399.82	216.25
400.20	216.29
400.58	216.33
400.95	216.33
401.33	216.46
401.70	216.71
402.08	216.83
402.45	216.92
402.83	217.05
403.20	217.19
403.58	217.24
403.95	217.39
404.33	217.58
404.71	217.74
405.08	217.97
405.46	218.13
405.83	218.31
406.21	218.55
406.58	218.75
406.96	218.97
407.33	219.24
407.70	219.51
408.08	219.98
408.45	220.38
408.83	220.75
409.20	221.12
409.58	221.39
409.95	221.82
410.33	222.29
410.70	222.69
411.08	223.22
411.45	223.81
411.82	224.36
412.20	224.98
412.57	225.77
412.95	226.31
413.32	227.11
413.69	227.93
414.07	228.79
414.44	229.76
414.82	230.74
415.19	231.86
415.56	233.04
415.94	234.18
416.31	235.52
416.68	236.88
417.06	238.40
417.43	239.87
417.81	241.53
418.18	243.24
418.55	245.11
418.93	247.05
419.30	249.06
419.67	251.21
420.04	253.42
420.42	255.71
420.79	258.42
421.16	261.14
421.54	263.95
421.91	266.85
422.28	269.84
422.66	273.05
423.03	276.21
423.40	279.44
423.77	282.92
424.15	286.48
424.52	290.15
424.89	294.17
425.26	298.13
425.64	301.89
426.01	306.04
426.38	310.37
426.75	314.76
427.13	319.32
427.50	324.11
427.87	329.16
428.24	334.21
428.61	339.10
428.99	344.42
429.36	350.21
429.73	355.89
430.10	361.58
430.47	367.44
430.85	373.49
431.22	379.99
431.59	386.82
431.96	393.36
432.33	400.62
432.70	407.66
433.08	415.93
433.45	423.74
433.82	431.48
434.19	440.04
434.56	448.47
434.93	456.56
435.30	464.60
435.68	473.33
436.05	481.99
436.42	490.53
436.79	498.36
437.16	506.86
437.53	515.80
437.90	524.61
438.27	533.21
438.64	542.18
439.01	550.36
439.38	557.70
439.75	564.77
440.13	572.95
440.50	580.53
440.87	586.65
441.24	593.08
441.61	600.11
441.98	605.30
442.35	611.40
442.72	617.43
443.09	623.20
443.46	626.83
443.83	629.26
444.20	631.37
444.57	634.43
444.94	635.76
445.31	637.07
445.68	638.37
446.05	638.96
446.42	638.12
446.79	637.22
447.16	636.22
447.53	635.47
447.90	632.17
448.27	628.97
448.64	624.47
449.01	621.19
449.37	615.51
449.74	610.05
450.11	603.33
450.48	596.21
450.85	589.00
451.22	582.76
451.59	576.79
451.96	571.08
452.33	563.49
452.70	556.67
453.07	548.55
453.43	540.27
453.80	532.29
454.17	524.60
454.54	517.34
454.91	509.43
455.28	501.81
455.65	494.65
456.02	487.48
456.38	481.38
456.75	473.85
457.12	467.53
457.49	461.25
457.86	455.33
458.23	450.18
458.59	444.52
458.96	438.77
459.33	433.75
459.70	428.62
460.07	424.54
460.43	419.85
460.80	415.47
461.17	411.65
461.54	407.60
461.91	403.70
462.27	399.69
462.64	396.37
463.01	392.65
463.38	389.12
463.74	385.49
464.11	382.39
464.48	379.61
464.85	376.63
465.21	374.29
465.58	371.75
465.95	368.76
466.32	366.23
466.68	363.74
467.05	361.19
467.42	358.78
467.78	356.15
468.15	353.72
468.52	351.86
468.88	349.46
469.25	347.35
469.62	345.68
469.98	343.83
470.35	342.09
470.72	340.50
471.08	338.79
471.45	337.43
471.82	335.93
472.18	334.40
472.55	333.29
472.92	331.96
473.28	330.80
473.65	329.70
474.02	328.68
474.38	327.85
474.75	327.12
475.11	326.32
475.48	325.77
475.85	325.30
476.21	324.87
476.58	324.59
476.94	324.41
477.31	324.11
477.67	323.83
478.04	323.69
478.41	323.70
478.77	323.90
479.14	323.91
479.50	324.11
479.87	324.41
480.23	324.71
480.60	324.99
480.96	325.30
481.33	325.91
481.69	326.47
482.06	326.95
482.42	327.51
482.79	328.13
483.15	328.96
483.52	329.97
483.88	330.86
484.25	331.82
484.61	332.86
484.98	333.94
485.34	335.31
485.71	336.71
486.07	338.18
486.44	339.46
486.80	341.03
487.17	342.70
487.53	344.50
487.90	346.34
488.26	348.38
488.62	350.53
488.99	352.54
489.35	354.64
489.72	357.04
490.08	359.54
490.44	362.11
490.81	364.80
491.17	367.48
491.54	370.47
491.90	373.45
492.26	376.61
492.63	380.03
492.99	383.52
493.36	387.12
493.72	390.92
494.08	394.93
494.45	399.12
494.81	403.44
495.17	407.93
495.54	412.65
495.90	417.42
496.26	422.26
496.63	427.48
496.99	432.90
497.35	438.47
497.72	444.25
498.08	450.18
498.44	456.26
498.80	462.59
499.17	469.04
499.53	475.76
499.89	482.62
500.26	489.52
500.62	496.58
500.98	503.99
501.34	511.41
501.71	519.21
502.07	526.99
502.43	535.02
502.79	543.10
503.16	551.50
503.52	560.08
503.88	568.83
504.24	577.71
504.60	586.74
504.97	595.88
505.33	605.15
505.69	614.96
506.05	624.81
506.41	634.62
506.78	644.63
507.14	654.85
507.50	665.25
507.86	675.98
508.22	686.68
508.59	697.33
508.95	708.33
509.31	719.52
509.67	730.89
510.03	742.20
510.39	753.90
510.75	765.71
511.12	777.56
511.48	789.60
511.84	801.81
512.20	814.09
512.56	826.69
512.92	839.36
513.28	851.91
513.64	864.52
514.00	877.23
514.37	890.04
514.73	903.01
515.09	915.90
515.45	928.62
515.81	941.45
516.17	954.62
516.53	967.70
516.89	980.70
517.25	993.77
517.61	1007.09
517.97	1020.33
518.33	1033.26
518.69	1046.58
519.05	1060.02
519.41	1073.45
519.77	1087.17
520.13	1100.31
520.49	1113.31
520.85	1126.50
521.21	1139.57
521.57	1153.11
521.93	1166.00
522.29	1179.55
522.65	1193.02
523.01	1206.43
523.37	1219.44
523.73	1232.57
524.09	1245.56
524.45	1258.76
524.81	1271.93
525.17	1285.10
525.53	1297.96
525.89	1311.06
526.25	1323.90
526.61	1336.55
526.97	1349.34
527.33	1361.88
527.68	1375.07
528.04	1388.27
528.40	1401.06
528.76	1414.20
529.12	1426.78
529.48	1439.79
529.84	1451.74
530.20	1464.12
530.56	1476.49
530.91	1489.66
531.27	1502.25
531.63	1514.76
531.99	1527.13
532.35	1539.21
532.71	1551.30
533.07	1563.81
533.42	1575.68
533.78	1587.51
534.14	1599.24
534.50	1610.22
534.86	1621.54
535.21	1632.15
535.57	1643.29
535.93	1654.42
536.29	1665.26
536.65	1676.40
537.00	1687.21
537.36	1698.26
537.72	1709.09
538.08	1720.17
538.44	1730.65
538.79	1741.32
539.15	1751.72
539.51	1762.16
539.87	1773.13
540.22	1783.62
540.58	1794.24
540.94	1804.84
541.29	1814.71
541.65	1824.30
542.01	1834.58
542.37	1844.37
542.72	1854.22
543.08	1863.73
543.44	1873.80
543.79	1882.80
544.15	1892.01
544.51	1901.63
544.87	1911.25
545.22	1920.02
545.58	1928.56
545.94	1937.14
546.29	1945.43
546.65	1953.73
547.01	1961.77
547.36	1969.19
547.72	1976.68
548.07	1984.18
548.43	1991.65
548.79	1999.39
549.14	2007.30
549.50	2015.36
549.86	2022.93
550.21	2030.14
550.57	2037.58
550.92	2044.10
551.28	2051.44
551.64	2058.41
551.99	2065.72
552.35	2072.65
552.70	2079.24
553.06	2085.74
553.41	2091.84
553.77	2098.17
554.13	2104.28
554.48	2111.07
554.84	2117.85
555.19	2124.15
555.55	2130.49
555.90	2136.64
556.26	2143.29
556.61	2148.97
556.97	2153.96
557.32	2159.76
557.68	2166.06
558.03	2171.68
558.39	2176.86
558.74	2182.66
559.10	2188.32
559.45	2193.78
559.81	2199.26
560.16	2205.00
560.52	2210.84
560.87	2217.16
561.23	2223.13
561.58	2229.79
561.94	2235.04
562.29	2239.92
562.64	2246.25
563.00	2251.64
563.35	2257.29
563.71	2263.06
564.06	2268.78
564.42	2274.71
564.77	2279.86
565.12	2285.08
565.48	2290.32
565.83	2296.04
566.19	2301.55
566.54	2306.92
566.89	2311.59
567.25	2316.22
567.60	2321.98
567.96	2327.25
568.31	2331.88
568.66	2336.03
569.02	2339.98
569.37	2343.63
569.72	2348.02
570.08	2351.57
570.43	2354.90
570.78	2357.95
571.14	2360.70
571.49	2363.85
571.84	2367.40
572.20	2370.32
572.55	2373.51
572.90	2375.85
573.26	2378.78
573.61	2381.31
573.96	2383.58
574.31	2385.74
574.67	2387.76
575.02	2388.65
575.37	2390.14
575.72	2391.07
576.08	2392.84
576.43	2393.36
576.78	2394.26
577.13	2396.01
577.49	2397.14
577.84	2398.51
578.19	2400.15
578.54	2400.77
578.90	2401.91
579.25	2401.99
579.60	2402.19
579.95	2401.55
580.30	2402.01
580.66	2401.59
581.01	2400.22
581.36	2398.16
581.71	2396.95
582.06	2396.20
582.42	2395.55
582.77	2393.73
583.12	2392.16
583.47	2391.14
583.82	2390.64
584.17	2389.56
584.53	2387.66
584.88	2385.91
585.23	2384.18
585.58	2382.10
585.93	2380.31
586.28	2378.40
586.63	2376.14
586.98	2374.05
587.34	2372.33
587.69	2370.12
588.04	2368.26
588.39	2366.88
588.74	2364.52
589.09	2362.09
589.44	2359.02
589.79	2356.66
590.14	2354.87
590.49	2352.47
590.84	2348.73
591.19	2345.87
591.54	2342.70
591.89	2338.78
592.25	2335.81
592.60	2331.71
592.95	2327.74
593.30	2323.67
593.65	2319.43
594.00	2315.24
594.35	2312.25
594.70	2307.72
595.05	2303.07
595.40	2297.77
595.75	2292.42
596.10	2288.92
596.45	2284.12
596.80	2279.76
597.15	2274.61
597.50	2268.87
597.85	2263.93
598.19	2258.76
598.54	2253.10
598.89	2248.26
599.24	2243.92
599.59	2237.74
599.94	2232.15
600.29	2226.33
600.64	2220.58
600.99	2213.98
601.34	2208.60
601.69	2201.76
602.04	2195.58
602.39	2189.26
602.74	2183.24
603.08	2177.66
603.43	2171.26
603.78	2164.54
604.13	2157.44
604.48	2150.42
604.83	2144.25
605.18	2138.04
605.53	2131.14
605.87	2124.17
606.22	2117.26
606.57	2109.63
606.92	2101.81
607.27	2095.03
607.62	2088.39
607.96	2081.28
608.31	2074.69
608.66	2066.95
609.01	2059.42
609.36	2052.25
609.70	2044.62
610.05	2036.89
610.40	2028.66
610.75	2020.56
611.10	2013.01
611.44	2004.41
611.79	1995.57
612.14	1985.69
612.49	1975.26
612.83	1966.02
613.18	1956.88
613.53	1947.67
613.88	1938.00
614.22	1929.38
614.57	1919.44
614.92	1909.02
615.27	1899.17
615.61	1889.23
615.96	1879.60
616.31	1870.15
616.65	1860.83
617.00	1850.92
617.35	1841.33
617.70	1831.71
618.04	1821.47
618.39	1811.14
618.74	1801.44
619.08	1791.91
619.43	1783.24
619.78	1774.98
620.12	1766.37
620.47	1756.63
620.82	1746.28
621.16	1736.51
621.51	1726.61
621.85	1716.73
622.20	1706.28
622.55	1695.59
622.89	1685.78
623.24	1676.16
623.59	1666.34
623.93	1656.19
624.28	1646.52
624.62	1636.19
624.97	1625.83
625.32	1616.21
625.66	1607.48
626.01	1598.49
626.35	1589.03
626.70	1578.88
627.04	1568.73
627.39	1558.61
627.73	1549.24
628.08	1540.23
628.43	1530.54
628.77	1521.30
629.12	1512.40
629.46	1504.55
629.81	1496.15
630.15	1486.49
630.50	1476.63
630.84	1466.14
631.19	1456.26
631.53	1446.81
631.88	1436.74
632.22	1426.73
632.57	1417.32
632.91	1407.03
633.26	1397.19
633.60	1387.73
633.95	1378.30
634.29	1368.99
634.64	1359.76
634.98	1349.97
635.32	1340.67
635.67	1332.09
636.01	1322.89
636.36	1313.14
636.70	1303.58
637.05	1294.18
637.39	1285.26
637.73	1276.56
638.08	1269.07
638.42	1260.80
638.77	1252.08
639.11	1243.88
639.45	1236.02
639.80	1227.37
640.14	1218.72
640.49	1210.02
640.83	1201.13
641.17	1193.21
641.52	1184.97
641.86	1176.34
642.20	1168.43
642.55	1159.87
642.89	1150.99
643.23	1142.21
643.58	1134.10
643.92	1125.13
644.26	1116.51
644.61	1108.05
644.95	1099.31
645.29	1090.00
645.64	1080.85
645.98	1072.44
646.32	1064.53
646.66	1056.00
647.01	1047.65
647.35	1039.49
647.69	1031.03
648.04	1022.75
648.38	1013.80
648.72	1004.94
649.06	996.56
649.41	988.40
649.75	980.37
650.09	972.61
650.43	964.64
650.78	956.39
651.12	948.76
651.46	941.39
651.80	934.15
652.14	926.78
652.49	919.25
652.83	911.91
653.17	904.20
653.51	896.62
653.85	889.55
654.20	882.37
654.54	874.89
654.88	867.82
655.22	860.68
655.56	853.72
655.90	846.99
656.25	840.32
656.59	833.37
656.93	826.42
657.27	819.33
657.61	812.48
657.95	806.43
658.29	800.54
658.64	794.40
658.98	788.03
659.32	781.62
659.66	775.46
660.00	769.26
660.34	763.31
660.68	757.26
661.02	750.96
661.36	745.16
661.70	739.49
662.05	733.79
662.39	728.36
662.73	723.14
663.07	717.81
663.41	712.30
663.75	706.71
664.09	701.11
664.43	695.84
664.77	690.48
665.11	684.66
665.45	678.77
665.79	673.12
666.13	667.49
666.47	661.98
666.81	656.66
667.15	651.31
667.49	646.15
667.83	640.88
668.17	635.75
668.51	630.64
668.85	625.74
669.19	620.91
669.53	615.95
669.87	610.80
670.21	606.07
670.55	601.30
670.89	596.98
671.23	592.79
671.57	588.39
671.91	584.27
672.25	580.28
672.58	576.27
672.92	572.22
673.26	568.35
673.60	564.60
673.94	560.82
674.28	557.25
674.62	553.54
674.96	549.86
675.30	546.33
675.64	542.73
675.97	539.17
676.31	535.63
676.65	532.05
676.99	528.62
677.33	524.83
677.67	521.27
678.01	517.42
678.34	513.75
678.68	510.28
679.02	506.63
679.36	502.90
679.70	499.29
680.04	495.80
680.37	492.47
680.71	489.20
681.05	486.03
681.39	482.93
681.73	479.84
682.06	476.88
682.40	473.81
682.74	470.66
683.08	467.53
683.42	464.43
683.75	461.54
684.09	458.63
684.43	455.94
684.77	453.07
685.10	450.29
685.44	447.49
685.78	444.62
686.12	441.94
686.45	439.28
686.79	436.62
687.13	434.19
687.46	431.54
687.80	428.90
688.14	426.12
688.48	423.49
688.81	420.83
689.15	418.32
689.49	415.80
689.82	413.33
690.16	410.80
690.50	408.36
690.83	405.90
691.17	403.40
691.51	401.00
691.84	398.80
692.18	396.62
692.52	394.43
692.85	392.35
693.19	390.28
693.52	388.21
693.86	386.07
694.20	383.90
694.53	381.82
694.87	379.65
695.21	377.60
695.54	375.47
695.88	373.36
696.21	371.16
696.55	369.03
696.88	366.96
697.22	365.06
697.56	363.21
697.89	361.40
698.23	359.73
698.56	358.03
698.90	356.32
699.23	354.42
699.57	352.65
699.90	350.80
700.24	349.03
700.58	347.26
700.91	345.69
701.25	344.15
701.58	342.59
701.92	341.08
702.25	339.52
702.59	337.98
702.92	336.48
703.26	335.00
703.59	333.62
703.93	332.46
704.26	331.05
704.60	329.56
704.93	328.12
705.26	326.61
705.60	325.07
705.93	323.57
706.27	322.31
706.60	321.05
706.94	319.85
707.27	318.48
707.61	317.17
707.94	315.85
708.27	314.36
708.61	312.95
708.94	311.60
709.28	310.35
709.61	309.09
709.94	307.93
710.28	306.69
710.61	305.50
710.95	304.05
711.28	303.01
711.61	301.85
711.95	300.70
712.28	299.52
712.61	298.42
712.95	297.42
713.28	296.39
713.61	295.24
713.95	294.10
714.28	293.12
714.61	292.13
714.95	291.06
715.28	290.09
715.61	289.12
715.95	288.20
716.28	287.27
716.61	286.34
716.95	285.35
717.28	284.47
717.61	283.52
717.94	282.70
718.28	281.68
718.61	280.86
718.94	280.01
719.27	279.19
719.61	278.39
719.94	277.51
720.27	276.62
720.60	275.80
720.94	275.10
721.27	274.36
721.60	273.70
721.93	273.02
722.27	272.42
722.60	271.76
722.93	271.06
723.26	270.42
723.59	269.76
723.93	269.17
724.26	268.54
724.59	267.90
724.92	267.33
725.25	266.81
725.59	266.28
725.92	265.74
726.25	265.21
726.58	264.64
726.91	264.05
727.24	263.50
727.57	262.94
727.91	262.28
728.24	261.75
728.57	261.18
728.90	260.63
729.23	259.96
729.56	259.51
729.89	258.97
730.22	258.43
730.55	257.88
730.89	257.37
731.22	256.88
731.55	256.43
731.88	255.91
732.21	255.38
732.54	254.83
732.87	254.34
733.20	253.83
733.53	253.38
733.86	252.96
734.19	252.44
734.52	252.03
734.85	251.81
735.18	251.33
735.51	250.93
735.84	250.55
736.17	250.21
736.50	249.68
736.83	249.55
737.16	249.15
737.49	248.80
737.82	248.42
738.15	248.12
738.48	247.75
738.81	247.38
739.14	246.95
739.47	246.55
739.80	246.21
740.13	245.93
740.46	245.54
740.79	245.17
741.12	244.90
741.45	244.57
741.78	244.12
742.11	243.89
742.44	243.53
742.77	243.23
743.10	242.93
743.43	242.65
743.75	242.06
744.08	242.03
744.41	241.64
744.74	241.28
745.07	240.87
745.40	240.55
745.73	240.27
746.06	239.99
746.39	239.74
746.71	239.36
747.04	239.00
747.37	238.68
747.70	238.39
748.03	238.07
748.36	237.83
748.68	237.53
749.01	237.17
749.34	236.88
749.67	236.56
750.00	236.26
750.33	236.14
750.65	235.93
750.98	235.41
751.31	235.24
751.64	235.00
751.97	234.88
752.29	234.64
752.62	234.32
752.95	234.11
753.28	233.84
753.60	233.63
753.93	233.49
754.26	233.28
754.59	233.03
754.91	232.78
755.24	232.53
755.57	232.30
755.90	232.05
756.22	231.83
756.55	231.62
756.88	231.38
757.20	231.04
757.53	230.77
757.86	230.59
758.19	230.38
758.51	230.19
758.84	229.87
759.17	229.68
759.49	229.54
759.82	229.45
760.15	229.29
760.47	229.11
760.80	228.87
761.13	228.77
761.45	228.54
761.78	228.38
762.11	228.18
762.43	228.00
762.76	227.87
763.08	227.73
763.41	227.59
763.74	227.46
764.06	227.30
764.39	227.15
764.71	226.99
765.04	226.84
765.37	226.67
765.69	226.56
766.02	226.43
766.34	226.27
766.67	226.05
767.00	225.92
767.32	225.90
767.65	225.87
767.97	225.74
768.30	225.67
768.62	225.54
768.95	225.42
769.27	225.31
769.60	225.20
769.92	225.02
770.25	224.85
770.57	224.71
770.90	224.59
771.22	224.47
771.55	224.37
771.87	224.27
772.20	224.16
772.52	224.21
772.85	224.33
773.17	224.23
773.50	224.10
773.82	223.98
774.15	223.82
774.47	223.59
774.80	223.46
775.12	223.37
775.45	223.28
775.77	223.21
776.09	223.14
776.42	223.07
776.74	223.09
777.07	223.03
777.39	222.96
777.72	222.86
778.04	222.80
778.36	222.70
778.69	222.62
779.01	222.59
779.33	222.34
779.66	222.01
779.98	221.94
780.31	221.88
780.63	221.91
780.95	221.86
781.28	221.80
781.60	221.69
781.92	221.62
782.25	221.53
782.57	221.46
782.89	221.40
783.22	221.30
783.54	221.18
783.86	221.15
784.19	221.05
784.51	221.05
784.83	220.98
785.16	220.93
785.48	220.88
785.80	220.80
786.12	220.76
