SpectraSuite Data File
++++++++++++++++++++++++++++++++++++
Date: Tue Jan 29 16:47:19 EST 2013
User: group
Dark Spectrum Present: No
Reference Spectrum Present: No
Number of Sampled Component Spectra: 1
Spectrometers: USB2E7196
Integration Time (usec): 65000 (USB2E7196)
Spectra Averaged: 100 (USB2E7196)
Boxcar Smoothing: 10 (USB2E7196)
Correct for Electrical Dark: No (USB2E7196)
Strobe/Lamp Enabled: No (USB2E7196)
Correct for Detector Non-linearity: No (USB2E7196)
Correct for Stray Light: No (USB2E7196)
Number of Pixels in Processed Spectrum: 2048
>>>>>Begin Processed Spectral Data<<<<<
339.09	0.00
339.48	201.60
339.86	203.14
340.24	204.61
340.63	205.86
341.01	210.22
341.39	208.39
341.78	209.96
342.16	211.28
342.54	211.19
342.93	200.76
343.31	210.91
343.69	211.47
344.07	211.90
344.46	212.33
344.84	212.73
345.22	212.89
345.60	213.17
345.99	213.38
346.37	213.53
346.75	213.66
347.13	213.76
347.52	213.83
347.90	213.97
348.28	214.00
348.66	214.07
349.05	214.02
349.43	214.10
349.81	214.14
350.19	214.21
350.57	214.25
350.96	214.37
351.34	214.48
351.72	214.56
352.10	214.74
352.48	214.82
352.87	214.88
353.25	214.97
353.63	214.99
354.01	215.06
354.39	215.12
354.77	215.23
355.15	215.34
355.54	215.39
355.92	215.38
356.30	215.44
356.68	215.65
357.06	215.75
357.44	215.79
357.82	215.84
358.20	215.94
358.58	216.06
358.97	216.11
359.35	216.25
359.73	216.33
360.11	216.36
360.49	216.41
360.87	216.45
361.25	216.50
361.63	216.62
362.01	216.67
362.39	216.71
362.77	216.73
363.15	216.77
363.53	216.80
363.91	216.85
364.29	216.89
364.67	216.75
365.05	216.77
365.43	216.81
365.81	216.88
366.19	216.97
366.57	217.04
366.95	217.04
367.33	216.97
367.71	216.95
368.09	216.99
368.47	217.01
368.85	217.01
369.23	217.07
369.61	217.00
369.99	217.10
370.37	217.11
370.75	217.19
371.13	217.15
371.51	217.10
371.89	217.09
372.27	217.10
372.65	217.06
373.03	217.04
373.41	216.95
373.78	216.89
374.16	216.74
374.54	216.65
374.92	216.62
375.30	216.58
375.68	216.55
376.06	216.52
376.44	216.47
376.82	216.47
377.19	216.40
377.57	216.40
377.95	216.24
378.33	216.17
378.71	215.99
379.09	215.94
379.47	215.98
379.84	215.88
380.22	215.80
380.60	215.71
380.98	215.68
381.36	215.69
381.73	215.63
382.11	215.63
382.49	215.59
382.87	215.49
383.25	215.44
383.62	215.62
384.00	215.52
384.38	215.46
384.76	215.45
385.13	215.48
385.51	215.42
385.89	215.37
386.27	215.34
386.64	215.36
387.02	215.31
387.40	215.24
387.78	215.26
388.15	215.25
388.53	215.21
388.91	215.17
389.29	215.08
389.66	215.09
390.04	215.05
390.42	215.06
390.79	215.09
391.17	215.10
391.55	214.83
391.92	214.81
392.30	214.84
392.68	214.77
393.05	214.74
393.43	214.73
393.81	214.75
394.18	214.73
394.56	214.71
394.94	214.78
395.31	214.76
395.69	214.79
396.06	214.82
396.44	214.88
396.82	214.89
397.19	215.03
397.57	215.03
397.95	215.08
398.32	215.01
398.70	215.04
399.07	215.10
399.45	215.13
399.82	215.18
400.20	215.20
400.58	215.27
400.95	215.24
401.33	215.34
401.70	215.56
402.08	215.64
402.45	215.75
402.83	215.88
403.20	216.01
403.58	216.12
403.95	216.28
404.33	216.41
404.71	216.54
405.08	216.80
405.46	216.98
405.83	217.17
406.21	217.40
406.58	217.65
406.96	217.88
407.33	218.14
407.70	218.44
408.08	218.92
408.45	219.25
408.83	219.69
409.20	220.03
409.58	220.32
409.95	220.81
410.33	221.29
410.70	221.72
411.08	222.27
411.45	222.83
411.82	223.42
412.20	224.14
412.57	224.97
412.95	225.54
413.32	226.35
413.69	227.21
414.07	228.15
414.44	229.11
414.82	230.11
415.19	231.35
415.56	232.54
415.94	233.71
416.31	235.14
416.68	236.49
417.06	238.10
417.43	239.65
417.81	241.38
418.18	243.22
418.55	245.18
418.93	247.24
419.30	249.36
419.67	251.58
420.04	253.86
420.42	256.24
420.79	259.09
421.16	261.91
421.54	264.86
421.91	267.85
422.28	270.99
422.66	274.31
423.03	277.54
423.40	280.95
423.77	284.55
424.15	288.25
424.52	292.13
424.89	296.34
425.26	300.43
425.64	304.34
426.01	308.65
426.38	313.12
426.75	317.70
427.13	322.50
427.50	327.51
427.87	332.79
428.24	338.04
428.61	343.02
428.99	348.58
429.36	354.63
429.73	360.48
430.10	366.34
430.47	372.43
430.85	378.80
431.22	385.57
431.59	392.72
431.96	399.58
432.33	407.14
432.70	414.40
433.08	422.98
433.45	431.07
433.82	439.10
434.19	448.01
434.56	456.78
434.93	465.08
435.30	473.34
435.68	482.43
436.05	491.49
436.42	500.44
436.79	508.60
437.16	517.31
437.53	526.66
437.90	535.87
438.27	544.93
438.64	554.11
439.01	562.64
439.38	570.23
439.75	577.59
440.13	586.04
440.50	594.04
440.87	600.51
441.24	607.15
441.61	614.54
441.98	619.92
442.35	626.23
442.72	632.64
443.09	638.76
443.46	642.51
443.83	645.09
444.20	647.29
444.57	650.49
444.94	651.99
445.31	653.47
445.68	654.94
446.05	655.54
446.42	654.84
446.79	653.89
447.16	652.83
447.53	652.00
447.90	648.70
448.27	645.37
448.64	640.75
449.01	637.48
449.37	631.52
449.74	625.88
450.11	618.95
450.48	611.51
450.85	604.01
451.22	597.60
451.59	591.37
451.96	585.59
452.33	577.67
452.70	570.58
453.07	562.06
453.43	553.38
453.80	545.02
454.17	536.98
454.54	529.37
454.91	521.18
455.28	513.21
455.65	505.69
456.02	498.18
456.38	491.77
456.75	483.81
457.12	477.22
457.49	470.66
457.86	464.44
458.23	459.03
458.59	453.14
458.96	447.06
459.33	441.78
459.70	436.32
460.07	432.03
460.43	427.10
460.80	422.49
461.17	418.47
461.54	414.27
461.91	410.19
462.27	406.12
462.64	402.64
463.01	398.83
463.38	395.17
463.74	391.44
464.11	388.13
464.48	385.30
464.85	382.16
465.21	379.72
465.58	377.05
465.95	373.89
466.32	371.24
466.68	368.62
467.05	365.96
467.42	363.41
467.78	360.69
468.15	358.13
468.52	356.25
468.88	353.74
469.25	351.50
469.62	349.75
469.98	347.75
470.35	345.91
470.72	344.21
471.08	342.37
471.45	340.85
471.82	339.34
472.18	337.68
472.55	336.47
472.92	335.07
473.28	333.89
473.65	332.77
474.02	331.65
474.38	330.70
474.75	329.97
475.11	329.14
475.48	328.56
475.85	328.04
476.21	327.52
476.58	327.16
476.94	326.92
477.31	326.57
477.67	326.30
478.04	326.16
478.41	326.11
478.77	326.27
479.14	326.20
479.50	326.32
479.87	326.59
480.23	326.89
480.60	327.15
480.96	327.39
481.33	327.94
481.69	328.48
482.06	329.07
482.42	329.49
482.79	330.11
483.15	330.92
483.52	331.90
483.88	332.76
484.25	333.67
484.61	334.66
484.98	335.68
485.34	336.98
485.71	338.33
486.07	339.74
486.44	341.07
486.80	342.71
487.17	344.35
487.53	346.20
487.90	348.04
488.26	350.06
488.62	352.20
488.99	354.22
489.35	356.37
489.72	358.72
490.08	361.27
490.44	363.81
490.81	366.52
491.17	369.15
491.54	372.14
491.90	375.18
492.26	378.41
492.63	381.80
492.99	385.29
493.36	388.97
493.72	392.84
494.08	396.82
494.45	401.01
494.81	405.41
495.17	409.87
495.54	414.57
495.90	419.34
496.26	424.22
496.63	429.41
496.99	434.82
497.35	440.35
497.72	446.15
498.08	452.05
498.44	458.16
498.80	464.63
499.17	471.12
499.53	477.79
499.89	484.69
500.26	491.75
500.62	498.85
500.98	506.21
501.34	513.67
501.71	521.51
502.07	529.33
502.43	537.26
502.79	545.39
503.16	553.87
503.52	562.48
503.88	571.25
504.24	580.24
504.60	589.32
504.97	598.59
505.33	607.87
505.69	617.70
506.05	627.51
506.41	637.39
506.78	647.46
507.14	657.76
507.50	668.19
507.86	678.86
508.22	689.54
508.59	700.20
508.95	711.26
509.31	722.39
509.67	733.85
510.03	745.29
510.39	757.05
510.75	768.82
511.12	780.66
511.48	792.69
511.84	804.90
512.20	817.22
512.56	829.79
512.92	842.61
513.28	855.37
513.64	868.10
514.00	880.91
514.37	893.83
514.73	906.93
515.09	920.02
515.45	932.98
515.81	946.10
516.17	959.49
516.53	972.74
516.89	985.90
517.25	999.05
517.61	1012.64
517.97	1026.07
518.33	1039.20
518.69	1052.89
519.05	1066.72
519.41	1080.42
519.77	1094.30
520.13	1107.71
520.49	1120.92
520.85	1134.22
521.21	1147.65
521.57	1161.38
521.93	1174.52
522.29	1188.28
522.65	1201.86
523.01	1215.46
523.37	1228.73
523.73	1242.11
524.09	1255.27
524.45	1268.86
524.81	1282.49
525.17	1295.90
525.53	1309.09
525.89	1322.50
526.25	1335.61
526.61	1348.48
526.97	1361.67
527.33	1374.91
527.68	1388.30
528.04	1401.83
528.40	1415.10
528.76	1428.62
529.12	1441.54
529.48	1454.95
529.84	1467.25
530.20	1480.15
530.56	1492.84
530.91	1506.08
531.27	1518.96
531.63	1531.89
531.99	1544.60
532.35	1556.88
532.71	1569.31
533.07	1582.28
533.42	1594.34
533.78	1606.55
534.14	1618.70
534.50	1630.01
534.86	1641.53
535.21	1652.54
535.57	1664.09
535.93	1675.50
536.29	1686.69
536.65	1698.24
537.00	1709.28
537.36	1720.88
537.72	1731.90
538.08	1743.40
538.44	1754.58
538.79	1765.89
539.15	1776.87
539.51	1787.80
539.87	1799.15
540.22	1809.99
540.58	1820.96
540.94	1832.18
541.29	1842.57
541.65	1852.48
542.01	1863.15
542.37	1873.23
542.72	1883.49
543.08	1893.34
543.44	1903.75
543.79	1912.99
544.15	1922.54
544.51	1932.54
544.87	1942.42
545.22	1951.77
545.58	1960.67
545.94	1969.57
546.29	1978.05
546.65	1986.52
547.01	1994.82
547.36	2002.50
547.72	2010.40
548.07	2017.99
548.43	2025.77
548.79	2033.68
549.14	2041.92
549.50	2050.40
549.86	2058.38
550.21	2065.90
550.57	2073.75
550.92	2080.50
551.28	2088.08
551.64	2095.42
551.99	2102.95
552.35	2110.13
552.70	2117.09
553.06	2123.77
553.41	2130.10
553.77	2136.59
554.13	2143.02
554.48	2150.05
554.84	2157.26
555.19	2163.84
555.55	2170.32
555.90	2176.83
556.26	2183.59
556.61	2189.68
556.97	2194.44
557.32	2200.28
557.68	2206.70
558.03	2212.25
558.39	2217.91
558.74	2223.86
559.10	2229.32
559.45	2234.92
559.81	2240.40
560.16	2245.74
560.52	2251.50
560.87	2257.80
561.23	2263.65
561.58	2270.20
561.94	2275.41
562.29	2279.97
562.64	2285.93
563.00	2291.65
563.35	2296.96
563.71	2302.70
564.06	2308.22
564.42	2314.11
564.77	2319.12
565.12	2324.28
565.48	2329.52
565.83	2334.73
566.19	2339.91
566.54	2345.10
566.89	2349.55
567.25	2354.20
567.60	2359.90
567.96	2365.03
568.31	2369.51
568.66	2373.88
569.02	2377.67
569.37	2381.30
569.72	2385.59
570.08	2388.92
570.43	2391.86
570.78	2394.92
571.14	2397.27
571.49	2400.37
571.84	2403.81
572.20	2406.66
572.55	2409.70
572.90	2411.81
573.26	2414.52
573.61	2417.17
573.96	2419.36
574.31	2421.21
574.67	2422.90
575.02	2423.54
575.37	2424.96
575.72	2425.57
576.08	2426.82
576.43	2426.96
576.78	2427.26
577.13	2428.78
577.49	2430.16
577.84	2431.14
578.19	2432.18
578.54	2432.77
578.90	2433.15
579.25	2432.78
579.60	2432.39
579.95	2431.28
580.30	2431.31
580.66	2430.49
581.01	2428.43
581.36	2425.83
581.71	2424.43
582.06	2423.22
582.42	2422.18
582.77	2419.74
583.12	2417.97
583.47	2416.51
583.82	2415.79
584.17	2414.21
584.53	2411.88
584.88	2409.33
585.23	2407.24
585.58	2404.95
585.93	2402.76
586.28	2400.55
586.63	2398.11
586.98	2395.67
587.34	2393.66
587.69	2390.90
588.04	2388.71
588.39	2387.30
588.74	2384.63
589.09	2381.67
589.44	2378.24
589.79	2375.69
590.14	2373.46
590.49	2370.51
590.84	2366.32
591.19	2362.88
591.54	2359.62
591.89	2355.62
592.25	2352.32
592.60	2347.94
592.95	2343.64
593.30	2339.23
593.65	2334.55
594.00	2329.99
594.35	2326.88
594.70	2322.07
595.05	2317.56
595.40	2311.96
595.75	2305.96
596.10	2302.30
596.45	2297.40
596.80	2292.77
597.15	2287.53
597.50	2281.64
597.85	2276.64
598.19	2271.32
598.54	2265.52
598.89	2260.19
599.24	2255.49
599.59	2249.23
599.94	2243.31
600.29	2237.26
600.64	2231.37
600.99	2224.64
601.34	2219.15
601.69	2212.22
602.04	2205.67
602.39	2198.92
602.74	2192.80
603.08	2187.37
603.43	2180.86
603.78	2173.86
604.13	2166.74
604.48	2159.29
604.83	2153.19
605.18	2146.94
605.53	2140.16
605.87	2133.07
606.22	2126.27
606.57	2118.30
606.92	2110.22
607.27	2103.24
607.62	2096.68
607.96	2089.63
608.31	2083.33
608.66	2075.47
609.01	2067.75
609.36	2060.82
609.70	2053.16
610.05	2045.38
610.40	2036.96
610.75	2028.68
611.10	2020.96
611.44	2011.95
611.79	2003.28
612.14	1993.21
612.49	1982.39
612.83	1973.01
613.18	1963.80
613.53	1954.52
613.88	1944.96
614.22	1936.45
614.57	1926.70
614.92	1916.06
615.27	1905.84
615.61	1895.59
615.96	1885.98
616.31	1876.49
616.65	1866.94
617.00	1857.18
617.35	1847.61
617.70	1837.91
618.04	1827.90
618.39	1817.89
618.74	1808.42
619.08	1798.70
619.43	1790.07
619.78	1781.96
620.12	1773.53
620.47	1764.05
620.82	1753.76
621.16	1744.07
621.51	1734.27
621.85	1724.56
622.20	1714.36
622.55	1703.89
622.89	1693.95
623.24	1684.34
623.59	1674.62
623.93	1664.56
624.28	1654.87
624.62	1644.89
624.97	1634.73
625.32	1624.85
625.66	1615.97
626.01	1607.30
626.35	1598.15
626.70	1588.17
627.04	1578.19
627.39	1568.12
627.73	1558.81
628.08	1550.08
628.43	1540.58
628.77	1531.40
629.12	1522.57
629.46	1514.77
629.81	1506.57
630.15	1497.23
630.50	1487.46
630.84	1477.03
631.19	1467.21
631.53	1458.02
631.88	1447.89
632.22	1437.93
632.57	1428.79
632.91	1418.83
633.26	1409.00
633.60	1399.47
633.95	1390.30
634.29	1380.88
634.64	1371.63
634.98	1361.72
635.32	1352.55
635.67	1344.16
636.01	1335.02
636.36	1325.30
636.70	1315.86
637.05	1306.49
637.39	1297.64
637.73	1289.24
638.08	1281.78
638.42	1273.74
638.77	1264.98
639.11	1256.79
639.45	1249.17
639.80	1240.71
640.14	1232.06
640.49	1223.31
640.83	1214.63
641.17	1206.54
641.52	1198.47
641.86	1189.97
642.20	1182.30
642.55	1173.61
642.89	1164.81
643.23	1156.23
643.58	1148.23
643.92	1139.21
644.26	1130.47
644.61	1122.12
644.95	1113.24
645.29	1104.09
645.64	1095.00
645.98	1086.55
646.32	1078.64
646.66	1070.21
647.01	1062.05
647.35	1053.96
647.69	1045.66
648.04	1037.39
648.38	1028.60
648.72	1020.00
649.06	1011.49
649.41	1003.28
649.75	995.44
650.09	987.61
650.43	979.65
650.78	971.38
651.12	963.67
651.46	956.47
651.80	949.26
652.14	942.04
652.49	934.52
652.83	927.22
653.17	919.58
653.51	912.06
653.85	904.79
654.20	897.50
654.54	890.14
654.88	882.92
655.22	875.76
655.56	868.69
655.90	861.88
656.25	855.28
656.59	848.43
656.93	841.36
657.27	834.21
657.61	827.21
657.95	821.08
658.29	815.18
658.64	809.10
658.98	802.56
659.32	796.07
659.66	789.79
660.00	783.43
660.34	777.36
660.68	771.24
661.02	764.87
661.36	758.85
661.70	753.03
662.05	747.52
662.39	741.96
662.73	736.63
663.07	731.18
663.41	725.52
663.75	719.82
664.09	714.14
664.43	708.67
664.77	703.35
665.11	697.51
665.45	691.67
665.79	685.79
666.13	680.11
666.47	674.52
666.81	669.15
667.15	663.85
667.49	658.62
667.83	653.34
668.17	648.13
668.51	643.03
668.85	638.04
669.19	633.00
669.53	627.99
669.87	622.84
670.21	618.07
670.55	613.44
670.89	608.97
671.23	604.68
671.57	600.38
671.91	596.06
672.25	591.88
672.58	587.77
672.92	583.74
673.26	579.81
673.60	576.00
673.94	572.16
674.28	568.47
674.62	564.86
674.96	561.05
675.30	557.51
675.64	553.85
675.97	550.25
676.31	546.67
676.65	543.09
676.99	539.67
677.33	535.77
677.67	532.11
678.01	528.23
678.34	524.54
678.68	520.96
679.02	517.36
679.36	513.65
679.70	509.95
680.04	506.32
680.37	502.85
680.71	499.47
681.05	496.24
681.39	492.91
681.73	489.61
682.06	486.63
682.40	483.52
682.74	480.28
683.08	477.13
683.42	473.90
683.75	470.85
684.09	467.70
684.43	464.91
684.77	461.93
685.10	459.04
685.44	456.11
685.78	453.15
686.12	450.33
686.45	447.55
686.79	444.88
687.13	442.40
687.46	439.75
687.80	437.01
688.14	434.16
688.48	431.53
688.81	428.86
689.15	426.22
689.49	423.58
689.82	420.98
690.16	418.25
690.50	415.80
690.83	413.30
691.17	410.80
691.51	408.30
691.84	406.00
692.18	403.79
692.52	401.62
692.85	399.46
693.19	397.30
693.52	395.15
693.86	392.92
694.20	390.63
694.53	388.44
694.87	386.24
695.21	384.09
695.54	381.90
695.88	379.65
696.21	377.43
696.55	375.29
696.88	373.26
697.22	371.27
697.56	369.31
697.89	367.41
698.23	365.63
698.56	363.83
698.90	362.03
699.23	360.08
699.57	358.11
699.90	356.17
700.24	354.32
700.58	352.51
700.91	350.79
701.25	349.24
701.58	347.66
701.92	346.05
702.25	344.38
702.59	342.71
702.92	341.17
703.26	339.59
703.59	338.09
703.93	336.80
704.26	335.36
704.60	333.85
704.93	332.34
705.26	330.84
705.60	329.34
705.93	327.79
706.27	326.48
706.60	325.22
706.94	324.03
707.27	322.61
707.61	321.28
707.94	319.92
708.27	318.40
708.61	316.90
708.94	315.50
709.28	314.21
709.61	312.97
709.94	311.72
710.28	310.45
710.61	309.24
710.95	307.76
711.28	306.66
711.61	305.43
711.95	304.21
712.28	302.92
712.61	301.70
712.95	300.67
713.28	299.58
713.61	298.35
713.95	297.18
714.28	296.16
714.61	295.12
714.95	294.05
715.28	292.98
715.61	291.95
715.95	291.00
716.28	290.06
716.61	289.11
716.95	288.12
717.28	287.21
717.61	286.19
717.94	285.32
718.28	284.29
718.61	283.44
718.94	282.59
719.27	281.79
719.61	280.95
719.94	280.04
720.27	279.09
720.60	278.22
720.94	277.43
721.27	276.66
721.60	275.95
721.93	275.21
722.27	274.59
722.60	273.93
722.93	273.19
723.26	272.49
723.59	271.73
723.93	271.10
724.26	270.41
724.59	269.78
724.92	269.13
725.25	268.56
725.59	267.95
725.92	267.39
726.25	266.78
726.58	266.21
726.91	265.60
727.24	265.04
727.57	264.50
727.91	263.83
728.24	263.25
728.57	262.63
728.90	262.10
729.23	261.42
729.56	260.95
729.89	260.42
730.22	259.84
730.55	259.32
730.89	258.76
731.22	258.25
731.55	257.74
731.88	257.20
732.21	256.65
732.54	256.13
732.87	255.63
733.20	255.14
733.53	254.69
733.86	254.21
734.19	253.71
734.52	253.28
734.85	253.02
735.18	252.53
735.51	252.18
735.84	251.73
736.17	251.37
736.50	250.85
736.83	250.66
737.16	250.25
737.49	249.87
737.82	249.46
738.15	249.09
738.48	248.71
738.81	248.35
739.14	247.91
739.47	247.51
739.80	247.09
740.13	246.73
740.46	246.29
740.79	245.91
741.12	245.56
741.45	245.18
741.78	244.69
742.11	244.42
742.44	244.02
742.77	243.69
743.10	243.32
743.43	242.94
743.75	242.38
744.08	242.32
744.41	241.93
744.74	241.60
745.07	241.20
745.40	240.87
745.73	240.62
746.06	240.30
746.39	239.99
746.71	239.66
747.04	239.29
747.37	238.97
747.70	238.67
748.03	238.35
748.36	238.08
748.68	237.77
749.01	237.40
749.34	237.08
749.67	236.78
750.00	236.51
750.33	236.39
750.65	236.12
750.98	235.55
751.31	235.32
751.64	235.09
751.97	234.95
752.29	234.69
752.62	234.33
752.95	234.06
753.28	233.80
753.60	233.55
753.93	233.40
754.26	233.21
754.59	232.94
754.91	232.67
755.24	232.37
755.57	232.13
755.90	231.89
756.22	231.65
756.55	231.39
756.88	231.13
757.20	230.77
757.53	230.51
757.86	230.31
758.19	230.08
758.51	229.89
758.84	229.53
759.17	229.33
759.49	229.15
759.82	229.05
760.15	228.86
760.47	228.70
760.80	228.44
761.13	228.23
761.45	228.00
761.78	227.85
762.11	227.70
762.43	227.56
762.76	227.40
763.08	227.27
763.41	227.13
763.74	227.00
764.06	226.86
764.39	226.71
764.71	226.57
765.04	226.40
765.37	226.20
765.69	226.10
766.02	225.96
766.34	225.77
766.67	225.58
767.00	225.49
767.32	225.45
767.65	225.43
767.97	225.27
768.30	225.16
768.62	225.04
768.95	224.89
769.27	224.73
769.60	224.63
769.92	224.45
770.25	224.31
770.57	224.16
770.90	224.03
771.22	223.88
771.55	223.77
771.87	223.69
772.20	223.56
772.52	223.62
772.85	223.74
773.17	223.67
773.50	223.56
773.82	223.37
774.15	223.17
774.47	222.91
774.80	222.82
775.12	222.72
775.45	222.61
775.77	222.51
776.09	222.43
776.42	222.37
776.74	222.34
777.07	222.24
777.39	222.19
777.72	222.10
778.04	222.08
778.36	221.95
778.69	221.86
779.01	221.78
779.33	221.50
779.66	221.17
779.98	221.07
780.31	221.01
780.63	221.07
780.95	221.02
781.28	220.98
781.60	220.88
781.92	220.83
782.25	220.79
782.57	220.72
782.89	220.64
783.22	220.52
783.54	220.42
783.86	220.36
784.19	220.24
784.51	220.22
784.83	220.12
785.16	220.07
785.48	220.03
785.80	220.01
786.12	219.97
