SpectraSuite Data File
++++++++++++++++++++++++++++++++++++
Date: Tue Jan 29 16:01:54 EST 2013
User: group
Dark Spectrum Present: No
Reference Spectrum Present: No
Number of Sampled Component Spectra: 1
Spectrometers: USB2E7196
Integration Time (usec): 65000 (USB2E7196)
Spectra Averaged: 100 (USB2E7196)
Boxcar Smoothing: 10 (USB2E7196)
Correct for Electrical Dark: No (USB2E7196)
Strobe/Lamp Enabled: No (USB2E7196)
Correct for Detector Non-linearity: No (USB2E7196)
Correct for Stray Light: No (USB2E7196)
Number of Pixels in Processed Spectrum: 2048
>>>>>Begin Processed Spectral Data<<<<<
339.09	0.00
339.48	202.51
339.86	204.29
340.24	205.58
340.63	206.98
341.01	211.98
341.39	209.87
341.78	211.53
342.16	212.71
342.54	213.34
342.93	202.10
343.31	212.31
343.69	212.88
344.07	213.34
344.46	213.83
344.84	214.24
345.22	214.41
345.60	214.70
345.99	214.89
346.37	215.04
346.75	215.13
347.13	215.23
347.52	215.32
347.90	215.41
348.28	215.46
348.66	215.55
349.05	215.51
349.43	215.56
349.81	215.64
350.19	215.69
350.57	215.79
350.96	215.88
351.34	215.97
351.72	216.04
352.10	216.12
352.48	216.16
352.87	216.20
353.25	216.22
353.63	216.26
354.01	216.31
354.39	216.39
354.77	216.45
355.15	216.55
355.54	216.57
355.92	216.53
356.30	216.59
356.68	216.73
357.06	216.81
357.44	216.85
357.82	216.88
358.20	216.93
358.58	216.94
358.97	216.99
359.35	217.05
359.73	217.15
360.11	217.23
360.49	217.25
360.87	217.31
361.25	217.42
361.63	217.52
362.01	217.57
362.39	217.55
362.77	217.59
363.15	217.60
363.53	217.62
363.91	217.68
364.29	217.67
364.67	217.52
365.05	217.53
365.43	217.55
365.81	217.61
366.19	217.72
366.57	217.81
366.95	217.80
367.33	217.80
367.71	217.80
368.09	217.81
368.47	217.83
368.85	217.81
369.23	217.83
369.61	217.74
369.99	217.78
370.37	217.83
370.75	217.94
371.13	217.90
371.51	217.87
371.89	217.87
372.27	217.88
372.65	217.88
373.03	217.85
373.41	217.82
373.78	217.75
374.16	217.63
374.54	217.55
374.92	217.50
375.30	217.46
375.68	217.38
376.06	217.37
376.44	217.34
376.82	217.31
377.19	217.22
377.57	217.18
377.95	217.06
378.33	217.01
378.71	216.83
379.09	216.82
379.47	216.80
379.84	216.73
380.22	216.64
380.60	216.54
380.98	216.54
381.36	216.47
381.73	216.41
382.11	216.39
382.49	216.36
382.87	216.33
383.25	216.28
383.62	216.50
384.00	216.41
384.38	216.34
384.76	216.38
385.13	216.44
385.51	216.39
385.89	216.35
386.27	216.31
386.64	216.31
387.02	216.28
387.40	216.23
387.78	216.21
388.15	216.22
388.53	216.20
388.91	216.18
389.29	216.12
389.66	216.16
390.04	216.10
390.42	216.13
390.79	216.09
391.17	216.09
391.55	215.83
391.92	215.81
392.30	215.81
392.68	215.74
393.05	215.73
393.43	215.75
393.81	215.77
394.18	215.74
394.56	215.73
394.94	215.75
395.31	215.76
395.69	215.85
396.06	215.92
396.44	215.95
396.82	215.95
397.19	216.11
397.57	216.12
397.95	216.21
398.32	216.15
398.70	216.24
399.07	216.31
399.45	216.35
399.82	216.42
400.20	216.45
400.58	216.49
400.95	216.49
401.33	216.61
401.70	216.87
402.08	216.97
402.45	217.07
402.83	217.19
403.20	217.31
403.58	217.36
403.95	217.47
404.33	217.62
404.71	217.76
405.08	217.98
405.46	218.16
405.83	218.36
406.21	218.60
406.58	218.82
406.96	219.02
407.33	219.29
407.70	219.59
408.08	220.07
408.45	220.44
408.83	220.79
409.20	221.09
409.58	221.32
409.95	221.74
410.33	222.23
410.70	222.64
411.08	223.21
411.45	223.77
411.82	224.31
412.20	225.00
412.57	225.81
412.95	226.36
413.32	227.15
413.69	227.91
414.07	228.78
414.44	229.69
414.82	230.68
415.19	231.80
415.56	232.89
415.94	234.00
416.31	235.32
416.68	236.68
417.06	238.21
417.43	239.70
417.81	241.42
418.18	243.09
418.55	244.94
418.93	246.88
419.30	248.87
419.67	251.06
420.04	253.21
420.42	255.48
420.79	258.22
421.16	260.87
421.54	263.71
421.91	266.59
422.28	269.61
422.66	272.77
423.03	275.90
423.40	279.20
423.77	282.68
424.15	286.22
424.52	289.90
424.89	293.94
425.26	297.87
425.64	301.64
426.01	305.83
426.38	310.17
426.75	314.55
427.13	319.16
427.50	323.92
427.87	328.95
428.24	333.93
428.61	338.79
428.99	344.13
429.36	349.88
429.73	355.56
430.10	361.20
430.47	367.07
430.85	373.15
431.22	379.59
431.59	386.44
431.96	392.95
432.33	400.18
432.70	407.22
433.08	415.45
433.45	423.22
433.82	430.94
434.19	439.52
434.56	447.93
434.93	455.99
435.30	463.99
435.68	472.79
436.05	481.45
436.42	490.02
436.79	497.84
437.16	506.29
437.53	515.21
437.90	524.04
438.27	532.66
438.64	541.63
439.01	549.80
439.38	557.13
439.75	564.28
440.13	572.40
440.50	580.00
440.87	586.13
441.24	592.48
441.61	599.52
441.98	604.69
442.35	610.76
442.72	616.72
443.09	622.55
443.46	626.11
443.83	628.55
444.20	630.64
444.57	633.65
444.94	635.07
445.31	636.45
445.68	637.83
446.05	638.34
446.42	637.44
446.79	636.51
447.16	635.41
447.53	634.62
447.90	631.33
448.27	628.12
448.64	623.64
449.01	620.44
449.37	614.72
449.74	609.22
450.11	602.50
450.48	595.45
450.85	588.23
451.22	582.02
451.59	576.09
451.96	570.45
452.33	562.86
452.70	556.01
453.07	547.85
453.43	539.54
453.80	531.65
454.17	524.06
454.54	516.85
454.91	509.03
455.28	501.40
455.65	494.35
456.02	487.22
456.38	481.16
456.75	473.62
457.12	467.32
457.49	461.04
457.86	455.13
458.23	450.00
458.59	444.33
458.96	438.60
459.33	433.48
459.70	428.31
460.07	424.26
460.43	419.57
460.80	415.15
461.17	411.32
461.54	407.25
461.91	403.35
462.27	399.37
462.64	396.06
463.01	392.39
463.38	388.84
463.74	385.32
464.11	382.23
464.48	379.48
464.85	376.49
465.21	374.16
465.58	371.65
465.95	368.61
466.32	366.07
466.68	363.53
467.05	361.09
467.42	358.67
467.78	356.13
468.15	353.71
468.52	351.87
468.88	349.46
469.25	347.35
469.62	345.61
469.98	343.77
470.35	342.04
470.72	340.43
471.08	338.70
471.45	337.23
471.82	335.77
472.18	334.18
472.55	333.07
472.92	331.75
473.28	330.62
473.65	329.58
474.02	328.56
474.38	327.77
474.75	327.09
475.11	326.32
475.48	325.76
475.85	325.33
476.21	324.94
476.58	324.62
476.94	324.38
477.31	324.12
477.67	323.91
478.04	323.77
478.41	323.76
478.77	323.93
479.14	323.90
479.50	324.05
479.87	324.40
480.23	324.74
480.60	325.03
480.96	325.33
481.33	325.88
481.69	326.46
482.06	326.97
482.42	327.44
482.79	328.07
483.15	328.92
483.52	329.84
483.88	330.73
484.25	331.67
484.61	332.75
484.98	333.87
485.34	335.18
485.71	336.59
486.07	338.07
486.44	339.42
486.80	341.04
487.17	342.74
487.53	344.54
487.90	346.41
488.26	348.46
488.62	350.57
488.99	352.61
489.35	354.79
489.72	357.17
490.08	359.64
490.44	362.21
490.81	364.93
491.17	367.66
491.54	370.64
491.90	373.73
492.26	376.91
492.63	380.31
492.99	383.77
493.36	387.42
493.72	391.27
494.08	395.28
494.45	399.48
494.81	403.78
495.17	408.17
495.54	412.87
495.90	417.65
496.26	422.67
496.63	427.86
496.99	433.26
497.35	438.81
497.72	444.69
498.08	450.59
498.44	456.63
498.80	463.02
499.17	469.47
499.53	476.15
499.89	483.07
500.26	489.99
500.62	497.06
500.98	504.41
501.34	511.86
501.71	519.59
502.07	527.35
502.43	535.34
502.79	543.53
503.16	551.89
503.52	560.49
503.88	569.11
504.24	578.03
504.60	586.99
504.97	596.20
505.33	605.49
505.69	615.31
506.05	625.19
506.41	635.02
506.78	645.05
507.14	655.28
507.50	665.69
507.86	676.39
508.22	687.17
508.59	697.84
508.95	708.92
509.31	720.17
509.67	731.64
510.03	743.10
510.39	754.77
510.75	766.60
511.12	778.40
511.48	790.41
511.84	802.61
512.20	814.90
512.56	827.50
512.92	840.16
513.28	852.75
513.64	865.32
514.00	878.04
514.37	890.84
514.73	903.84
515.09	916.74
515.45	929.43
515.81	942.30
516.17	955.60
516.53	968.69
516.89	981.66
517.25	994.57
517.61	1007.81
517.97	1020.98
518.33	1033.85
518.69	1047.25
519.05	1060.91
519.41	1074.37
519.77	1088.10
520.13	1101.09
520.49	1114.06
520.85	1127.22
521.21	1140.39
521.57	1153.82
521.93	1166.80
522.29	1180.34
522.65	1193.77
523.01	1207.17
523.37	1220.06
523.73	1233.06
524.09	1245.94
524.45	1259.09
524.81	1272.38
525.17	1285.54
525.53	1298.49
525.89	1311.65
526.25	1324.40
526.61	1336.86
526.97	1349.71
527.33	1362.27
527.68	1375.52
528.04	1388.66
528.40	1401.61
528.76	1414.70
529.12	1427.30
529.48	1440.26
529.84	1452.15
530.20	1464.57
530.56	1477.01
530.91	1490.00
531.27	1502.58
531.63	1515.00
531.99	1527.54
532.35	1539.49
532.71	1551.49
533.07	1564.11
533.42	1576.07
533.78	1588.02
534.14	1599.81
534.50	1610.68
534.86	1622.07
535.21	1632.74
535.57	1643.94
535.93	1654.81
536.29	1665.77
536.65	1676.96
537.00	1687.57
537.36	1698.73
537.72	1709.59
538.08	1720.52
538.44	1731.11
538.79	1741.81
539.15	1752.35
539.51	1762.68
539.87	1773.69
540.22	1784.33
540.58	1794.88
540.94	1805.41
541.29	1815.30
541.65	1824.79
542.01	1835.08
542.37	1844.85
542.72	1854.83
543.08	1864.47
543.44	1874.61
543.79	1883.41
544.15	1892.62
544.51	1902.48
544.87	1912.06
545.22	1920.75
545.58	1929.43
545.94	1938.25
546.29	1946.48
546.65	1954.53
547.01	1962.50
547.36	1970.00
547.72	1977.50
548.07	1984.96
548.43	1992.44
548.79	2000.17
549.14	2008.06
549.50	2016.05
549.86	2023.62
550.21	2030.61
550.57	2038.01
550.92	2044.54
551.28	2051.86
551.64	2058.93
551.99	2066.22
552.35	2073.16
552.70	2079.94
553.06	2086.50
553.41	2092.39
553.77	2098.89
554.13	2105.19
554.48	2112.08
554.84	2118.94
555.19	2125.21
555.55	2131.44
555.90	2137.37
556.26	2143.96
556.61	2149.74
556.97	2154.70
557.32	2160.50
557.68	2166.94
558.03	2172.44
558.39	2177.74
558.74	2183.69
559.10	2189.16
559.45	2194.58
559.81	2200.06
560.16	2205.52
560.52	2211.24
560.87	2217.78
561.23	2223.62
561.58	2230.29
561.94	2235.39
562.29	2240.13
562.64	2246.31
563.00	2251.97
563.35	2257.89
563.71	2263.82
564.06	2269.63
564.42	2275.68
564.77	2280.80
565.12	2285.97
565.48	2291.32
565.83	2296.90
566.19	2302.28
566.54	2307.77
566.89	2312.51
567.25	2317.17
567.60	2322.78
567.96	2327.99
568.31	2332.56
568.66	2336.85
569.02	2340.72
569.37	2344.56
569.72	2349.15
570.08	2352.84
570.43	2355.84
570.78	2358.77
571.14	2361.45
571.49	2364.61
571.84	2368.22
572.20	2371.14
572.55	2374.22
572.90	2376.55
573.26	2379.65
573.61	2382.31
573.96	2384.57
574.31	2386.64
574.67	2388.67
575.02	2389.90
575.37	2391.41
575.72	2392.36
576.08	2394.06
576.43	2394.45
576.78	2395.36
577.13	2397.22
577.49	2398.43
577.84	2400.19
578.19	2401.94
578.54	2402.69
578.90	2403.88
579.25	2403.92
579.60	2404.15
579.95	2403.68
580.30	2404.10
580.66	2403.51
581.01	2401.95
581.36	2400.03
581.71	2398.84
582.06	2398.04
582.42	2397.40
582.77	2395.58
583.12	2394.15
583.47	2393.11
583.82	2392.77
584.17	2391.84
584.53	2389.87
584.88	2388.06
585.23	2386.11
585.58	2383.95
585.93	2381.88
586.28	2379.83
586.63	2377.65
586.98	2375.74
587.34	2373.95
587.69	2371.82
588.04	2370.06
588.39	2368.95
588.74	2366.47
589.09	2364.18
589.44	2361.35
589.79	2359.09
590.14	2357.50
590.49	2354.79
590.84	2351.26
591.19	2348.51
591.54	2345.18
591.89	2341.26
592.25	2338.10
592.60	2333.94
592.95	2330.13
593.30	2326.33
593.65	2321.99
594.00	2317.75
594.35	2314.71
594.70	2310.33
595.05	2305.82
595.40	2300.48
595.75	2295.08
596.10	2291.63
596.45	2286.83
596.80	2282.30
597.15	2277.04
597.50	2271.09
597.85	2266.28
598.19	2261.08
598.54	2255.28
598.89	2250.36
599.24	2245.99
599.59	2240.10
599.94	2234.79
600.29	2228.96
600.64	2223.16
600.99	2216.77
601.34	2211.54
601.69	2204.52
602.04	2198.17
602.39	2191.76
602.74	2185.88
603.08	2180.32
603.43	2174.07
603.78	2167.32
604.13	2160.34
604.48	2153.36
604.83	2147.46
605.18	2141.29
605.53	2134.35
605.87	2127.39
606.22	2120.69
606.57	2112.82
606.92	2105.05
607.27	2098.10
607.62	2091.50
607.96	2084.36
608.31	2077.82
608.66	2069.95
609.01	2062.63
609.36	2055.53
609.70	2047.79
610.05	2039.98
610.40	2031.72
610.75	2023.39
611.10	2015.82
611.44	2006.99
611.79	1998.19
612.14	1988.17
612.49	1977.71
612.83	1968.49
613.18	1959.53
613.53	1950.25
613.88	1940.86
614.22	1932.27
614.57	1922.19
614.92	1911.78
615.27	1901.90
615.61	1891.88
615.96	1882.29
616.31	1872.66
616.65	1863.53
617.00	1853.71
617.35	1844.15
617.70	1834.49
618.04	1824.37
618.39	1813.88
618.74	1804.26
619.08	1794.73
619.43	1786.08
619.78	1777.98
620.12	1769.22
620.47	1759.24
620.82	1748.82
621.16	1739.02
621.51	1729.01
621.85	1719.19
622.20	1708.59
622.55	1697.89
622.89	1688.10
623.24	1678.32
623.59	1668.60
623.93	1658.26
624.28	1648.66
624.62	1638.35
624.97	1627.97
625.32	1618.28
625.66	1609.72
626.01	1600.83
626.35	1591.34
626.70	1581.14
627.04	1570.83
627.39	1560.74
627.73	1551.64
628.08	1542.76
628.43	1533.12
628.77	1523.91
629.12	1515.04
629.46	1507.20
629.81	1498.67
630.15	1489.00
630.50	1479.22
630.84	1468.76
631.19	1458.88
631.53	1449.27
631.88	1439.20
632.22	1429.12
632.57	1419.70
632.91	1409.38
633.26	1399.66
633.60	1390.15
633.95	1380.77
634.29	1371.34
634.64	1362.09
634.98	1352.18
635.32	1342.76
635.67	1334.07
636.01	1324.74
636.36	1314.94
636.70	1305.39
637.05	1296.17
637.39	1287.11
637.73	1278.39
638.08	1270.87
638.42	1262.47
638.77	1253.73
639.11	1245.39
639.45	1237.64
639.80	1228.98
640.14	1220.28
640.49	1211.24
640.83	1202.39
641.17	1194.34
641.52	1186.17
641.86	1177.49
642.20	1169.58
642.55	1160.99
642.89	1152.09
643.23	1143.41
643.58	1135.28
643.92	1126.23
644.26	1117.62
644.61	1109.25
644.95	1100.53
645.29	1091.17
645.64	1082.09
645.98	1073.76
646.32	1065.86
646.66	1057.27
647.01	1048.88
647.35	1040.80
647.69	1032.36
648.04	1024.00
648.38	1015.01
648.72	1006.17
649.06	997.72
649.41	989.49
649.75	981.41
650.09	973.60
650.43	965.54
650.78	957.32
651.12	949.61
651.46	942.18
651.80	934.92
652.14	927.67
652.49	920.16
652.83	912.78
653.17	905.17
653.51	897.59
653.85	890.38
654.20	883.16
654.54	875.51
654.88	868.52
655.22	861.41
655.56	854.55
655.90	847.83
656.25	841.16
656.59	834.22
656.93	827.31
657.27	820.18
657.61	813.37
657.95	807.30
658.29	801.49
658.64	795.26
658.98	788.85
659.32	782.21
659.66	775.99
660.00	769.71
660.34	763.60
660.68	757.52
661.02	751.24
661.36	745.38
661.70	739.66
662.05	733.98
662.39	728.48
662.73	723.09
663.07	717.75
663.41	712.28
663.75	706.60
664.09	700.96
664.43	695.60
664.77	690.24
665.11	684.45
665.45	678.63
665.79	672.91
666.13	667.20
666.47	661.79
666.81	656.41
667.15	651.17
667.49	645.97
667.83	640.74
668.17	635.62
668.51	630.50
668.85	625.70
669.19	620.75
669.53	615.80
669.87	610.75
670.21	606.06
670.55	601.34
670.89	597.05
671.23	592.88
671.57	588.59
671.91	584.35
672.25	580.32
672.58	576.13
672.92	572.16
673.26	568.34
673.60	564.51
673.94	560.76
674.28	557.15
674.62	553.47
674.96	549.78
675.30	546.26
675.64	542.74
675.97	539.19
676.31	535.71
676.65	532.12
676.99	528.72
677.33	524.91
677.67	521.29
678.01	517.48
678.34	513.81
678.68	510.32
679.02	506.71
679.36	503.03
679.70	499.54
680.04	496.10
680.37	492.69
680.71	489.49
681.05	486.40
681.39	483.24
681.73	480.10
682.06	477.14
682.40	474.09
682.74	470.87
683.08	467.72
683.42	464.59
683.75	461.70
684.09	458.73
684.43	455.95
684.77	453.12
685.10	450.29
685.44	447.46
685.78	444.58
686.12	441.92
686.45	439.23
686.79	436.64
687.13	434.09
687.46	431.49
687.80	428.74
688.14	425.91
688.48	423.36
688.81	420.76
689.15	418.19
689.49	415.68
689.82	413.23
690.16	410.68
690.50	408.27
690.83	405.82
691.17	403.37
691.51	400.96
691.84	398.75
692.18	396.58
692.52	394.40
692.85	392.33
693.19	390.17
693.52	388.03
693.86	385.80
694.20	383.68
694.53	381.62
694.87	379.50
695.21	377.47
695.54	375.34
695.88	373.24
696.21	371.10
696.55	368.99
696.88	366.96
697.22	365.07
697.56	363.23
697.89	361.38
698.23	359.69
698.56	357.96
698.90	356.20
699.23	354.36
699.57	352.53
699.90	350.73
700.24	349.03
700.58	347.33
700.91	345.70
701.25	344.15
701.58	342.56
701.92	341.06
702.25	339.48
702.59	337.91
702.92	336.38
703.26	334.86
703.59	333.45
703.93	332.19
704.26	330.77
704.60	329.30
704.93	327.86
705.26	326.37
705.60	324.94
705.93	323.50
706.27	322.23
706.60	321.03
706.94	319.82
707.27	318.44
707.61	317.16
707.94	315.89
708.27	314.39
708.61	313.00
708.94	311.62
709.28	310.40
709.61	309.21
709.94	308.06
710.28	306.92
710.61	305.76
710.95	304.40
711.28	303.38
711.61	302.22
711.95	301.14
712.28	299.96
712.61	298.80
712.95	297.82
713.28	296.78
713.61	295.65
713.95	294.51
714.28	293.51
714.61	292.49
714.95	291.51
715.28	290.53
715.61	289.52
715.95	288.62
716.28	287.68
716.61	286.72
716.95	285.75
717.28	284.85
717.61	283.90
717.94	283.05
718.28	282.02
718.61	281.14
718.94	280.22
719.27	279.39
719.61	278.59
719.94	277.69
720.27	276.77
720.60	275.92
720.94	275.18
721.27	274.44
721.60	273.78
721.93	273.07
722.27	272.48
722.60	271.85
722.93	271.15
723.26	270.51
723.59	269.81
723.93	269.21
724.26	268.56
724.59	267.92
724.92	267.30
725.25	266.76
725.59	266.22
725.92	265.73
726.25	265.19
726.58	264.66
726.91	264.10
727.24	263.58
727.57	263.05
727.91	262.44
728.24	261.90
728.57	261.30
728.90	260.75
729.23	260.15
729.56	259.71
729.89	259.20
730.22	258.64
730.55	258.11
730.89	257.59
731.22	257.08
731.55	256.61
731.88	256.13
732.21	255.63
732.54	255.12
732.87	254.62
733.20	254.14
733.53	253.65
733.86	253.20
734.19	252.72
734.52	252.32
734.85	252.02
735.18	251.56
735.51	251.18
735.84	250.74
736.17	250.40
736.50	249.86
736.83	249.70
737.16	249.32
737.49	248.96
737.82	248.57
738.15	248.24
738.48	247.88
738.81	247.53
739.14	247.12
739.47	246.72
739.80	246.35
740.13	246.01
740.46	245.66
740.79	245.28
741.12	244.94
741.45	244.56
741.78	244.13
742.11	243.88
742.44	243.53
742.77	243.26
743.10	242.86
743.43	242.53
743.75	241.96
744.08	241.88
744.41	241.54
744.74	241.18
745.07	240.81
745.40	240.49
745.73	240.23
746.06	239.93
746.39	239.67
746.71	239.32
747.04	238.95
747.37	238.56
747.70	238.29
748.03	238.01
748.36	237.76
748.68	237.50
749.01	237.17
749.34	236.89
749.67	236.57
750.00	236.33
750.33	236.23
750.65	235.99
750.98	235.50
751.31	235.26
751.64	235.07
751.97	234.96
752.29	234.71
752.62	234.35
752.95	234.11
753.28	233.82
753.60	233.61
753.93	233.52
754.26	233.38
754.59	233.13
754.91	232.88
755.24	232.64
755.57	232.43
755.90	232.20
756.22	231.96
756.55	231.79
756.88	231.55
757.20	231.20
757.53	230.96
757.86	230.74
758.19	230.54
758.51	230.34
758.84	230.05
759.17	229.85
759.49	229.69
759.82	229.62
760.15	229.48
760.47	229.30
760.80	229.03
761.13	228.88
761.45	228.69
761.78	228.50
762.11	228.34
762.43	228.13
762.76	227.98
763.08	227.86
763.41	227.68
763.74	227.56
764.06	227.40
764.39	227.24
764.71	227.10
765.04	226.96
765.37	226.80
765.69	226.64
766.02	226.51
766.34	226.39
766.67	226.18
767.00	226.10
767.32	226.07
767.65	226.05
767.97	225.88
768.30	225.79
768.62	225.69
768.95	225.54
769.27	225.44
769.60	225.33
769.92	225.14
770.25	225.00
770.57	224.86
770.90	224.77
771.22	224.63
771.55	224.56
771.87	224.49
772.20	224.37
772.52	224.44
772.85	224.58
773.17	224.48
773.50	224.34
773.82	224.22
774.15	224.03
774.47	223.82
774.80	223.71
775.12	223.60
775.45	223.52
775.77	223.43
776.09	223.32
776.42	223.24
776.74	223.22
777.07	223.10
777.39	223.01
777.72	222.89
778.04	222.88
778.36	222.77
778.69	222.67
779.01	222.62
779.33	222.34
779.66	222.05
779.98	221.94
780.31	221.89
780.63	221.90
780.95	221.86
781.28	221.79
781.60	221.72
781.92	221.67
782.25	221.63
782.57	221.56
782.89	221.51
783.22	221.43
783.54	221.35
783.86	221.34
784.19	221.26
784.51	221.29
784.83	221.20
785.16	221.12
785.48	221.03
785.80	220.93
786.12	220.89
