SpectraSuite Data File
++++++++++++++++++++++++++++++++++++
Date: Tue Jan 29 16:52:00 EST 2013
User: group
Dark Spectrum Present: No
Reference Spectrum Present: No
Number of Sampled Component Spectra: 1
Spectrometers: USB2E7196
Integration Time (usec): 65000 (USB2E7196)
Spectra Averaged: 100 (USB2E7196)
Boxcar Smoothing: 10 (USB2E7196)
Correct for Electrical Dark: No (USB2E7196)
Strobe/Lamp Enabled: No (USB2E7196)
Correct for Detector Non-linearity: No (USB2E7196)
Correct for Stray Light: No (USB2E7196)
Number of Pixels in Processed Spectrum: 2048
>>>>>Begin Processed Spectral Data<<<<<
339.09	0.00
339.48	200.63
339.86	202.80
340.24	204.12
340.63	205.65
341.01	209.76
341.39	208.30
341.78	210.13
342.16	211.22
342.54	211.07
342.93	200.59
343.31	210.71
343.69	211.28
344.07	211.78
344.46	212.24
344.84	212.66
345.22	212.87
345.60	213.15
345.99	213.35
346.37	213.48
346.75	213.64
347.13	213.71
347.52	213.78
347.90	213.92
348.28	213.95
348.66	214.00
349.05	213.99
349.43	214.06
349.81	214.11
350.19	214.15
350.57	214.27
350.96	214.35
351.34	214.48
351.72	214.63
352.10	214.70
352.48	214.74
352.87	214.78
353.25	214.84
353.63	214.89
354.01	214.94
354.39	215.00
354.77	215.08
355.15	215.20
355.54	215.26
355.92	215.27
356.30	215.37
356.68	215.60
357.06	215.66
357.44	215.70
357.82	215.76
358.20	215.84
358.58	215.88
358.97	215.97
359.35	216.09
359.73	216.16
360.11	216.21
360.49	216.30
360.87	216.35
361.25	216.42
361.63	216.52
362.01	216.57
362.39	216.60
362.77	216.66
363.15	216.69
363.53	216.73
363.91	216.76
364.29	216.75
364.67	216.56
365.05	216.63
365.43	216.68
365.81	216.74
366.19	216.84
366.57	216.91
366.95	216.89
367.33	216.80
367.71	216.80
368.09	216.87
368.47	216.89
368.85	216.89
369.23	216.89
369.61	216.84
369.99	216.91
370.37	216.95
370.75	217.04
371.13	216.99
371.51	216.92
371.89	216.94
372.27	216.95
372.65	216.95
373.03	216.89
373.41	216.86
373.78	216.82
374.16	216.67
374.54	216.58
374.92	216.55
375.30	216.55
375.68	216.48
376.06	216.43
376.44	216.36
376.82	216.36
377.19	216.34
377.57	216.30
377.95	216.17
378.33	216.09
378.71	215.92
379.09	215.90
379.47	215.89
379.84	215.81
380.22	215.74
380.60	215.67
380.98	215.63
381.36	215.57
381.73	215.52
382.11	215.53
382.49	215.50
382.87	215.43
383.25	215.39
383.62	215.56
384.00	215.43
384.38	215.40
384.76	215.38
385.13	215.40
385.51	215.36
385.89	215.32
386.27	215.30
386.64	215.30
387.02	215.26
387.40	215.23
387.78	215.21
388.15	215.20
388.53	215.18
388.91	215.16
389.29	215.12
389.66	215.08
390.04	215.02
390.42	215.03
390.79	215.03
391.17	214.99
391.55	214.79
391.92	214.84
392.30	214.83
392.68	214.79
393.05	214.79
393.43	214.79
393.81	214.81
394.18	214.78
394.56	214.76
394.94	214.80
395.31	214.78
395.69	214.88
396.06	214.92
396.44	214.96
396.82	214.98
397.19	215.12
397.57	215.16
397.95	215.25
398.32	215.21
398.70	215.25
399.07	215.35
399.45	215.37
399.82	215.40
400.20	215.43
400.58	215.49
400.95	215.42
401.33	215.52
401.70	215.74
402.08	215.84
402.45	215.94
402.83	216.07
403.20	216.18
403.58	216.20
403.95	216.36
404.33	216.51
404.71	216.66
405.08	216.88
405.46	217.03
405.83	217.18
406.21	217.39
406.58	217.63
406.96	217.83
407.33	218.10
407.70	218.42
408.08	218.88
408.45	219.23
408.83	219.67
409.20	220.01
409.58	220.24
409.95	220.71
410.33	221.21
410.70	221.61
411.08	222.17
411.45	222.74
411.82	223.34
412.20	224.02
412.57	224.84
412.95	225.40
413.32	226.22
413.69	227.09
414.07	227.99
414.44	228.99
414.82	229.99
415.19	231.17
415.56	232.34
415.94	233.57
416.31	234.98
416.68	236.33
417.06	237.91
417.43	239.53
417.81	241.30
418.18	243.06
418.55	245.04
418.93	247.07
419.30	249.25
419.67	251.46
420.04	253.76
420.42	256.12
420.79	258.97
421.16	261.76
421.54	264.65
421.91	267.72
422.28	270.79
422.66	274.09
423.03	277.35
423.40	280.74
423.77	284.33
424.15	288.04
424.52	291.98
424.89	296.21
425.26	300.29
425.64	304.15
426.01	308.47
426.38	313.00
426.75	317.58
427.13	322.32
427.50	327.31
427.87	332.54
428.24	337.79
428.61	342.86
428.99	348.45
429.36	354.53
429.73	360.44
430.10	366.37
430.47	372.50
430.85	378.91
431.22	385.66
431.59	392.81
431.96	399.62
432.33	407.09
432.70	414.39
433.08	422.94
433.45	431.02
433.82	439.14
434.19	448.04
434.56	456.76
434.93	465.13
435.30	473.47
435.68	482.64
436.05	491.71
436.42	500.64
436.79	508.88
437.16	517.66
437.53	526.96
437.90	536.12
438.27	545.10
438.64	554.36
439.01	562.90
439.38	570.53
439.75	577.93
440.13	586.35
440.50	594.31
440.87	600.84
441.24	607.60
441.61	614.91
441.98	620.37
442.35	626.72
442.72	633.06
443.09	639.17
443.46	642.94
443.83	645.45
444.20	647.66
444.57	650.80
444.94	652.33
445.31	653.79
445.68	655.19
446.05	655.86
446.42	655.13
446.79	654.25
447.16	653.18
447.53	652.44
447.90	649.15
448.27	645.91
448.64	641.23
449.01	637.89
449.37	632.04
449.74	626.33
450.11	619.45
450.48	612.06
450.85	604.62
451.22	598.11
451.59	591.94
451.96	586.05
452.33	578.15
452.70	570.99
453.07	562.48
453.43	553.89
453.80	545.53
454.17	537.39
454.54	529.76
454.91	521.52
455.28	513.44
455.65	506.02
456.02	498.46
456.38	492.06
456.75	484.08
457.12	477.44
457.49	470.84
457.86	464.59
458.23	459.13
458.59	453.08
458.96	446.95
459.33	441.61
459.70	436.29
460.07	431.98
460.43	427.04
460.80	422.41
461.17	418.35
461.54	414.13
461.91	410.12
462.27	406.02
462.64	402.59
463.01	398.81
463.38	395.09
463.74	391.38
464.11	388.11
464.48	385.27
464.85	382.14
465.21	379.69
465.58	377.07
465.95	373.94
466.32	371.36
466.68	368.84
467.05	366.20
467.42	363.61
467.78	360.88
468.15	358.30
468.52	356.41
468.88	353.89
469.25	351.63
469.62	349.77
469.98	347.76
470.35	345.91
470.72	344.17
471.08	342.34
471.45	340.82
471.82	339.23
472.18	337.60
472.55	336.37
472.92	334.97
473.28	333.72
473.65	332.50
474.02	331.32
474.38	330.38
474.75	329.63
475.11	328.75
475.48	328.17
475.85	327.66
476.21	327.11
476.58	326.78
476.94	326.56
477.31	326.21
477.67	325.94
478.04	325.77
478.41	325.72
478.77	325.88
479.14	325.80
479.50	325.98
479.87	326.20
480.23	326.50
480.60	326.72
480.96	327.02
481.33	327.63
481.69	328.21
482.06	328.77
482.42	329.26
482.79	329.87
483.15	330.66
483.52	331.62
483.88	332.56
484.25	333.50
484.61	334.52
484.98	335.63
485.34	336.93
485.71	338.30
486.07	339.72
486.44	341.02
486.80	342.65
487.17	344.27
487.53	346.13
487.90	348.00
488.26	350.06
488.62	352.25
488.99	354.30
489.35	356.48
489.72	358.80
490.08	361.28
490.44	363.83
490.81	366.49
491.17	369.21
491.54	372.14
491.90	375.11
492.26	378.36
492.63	381.76
492.99	385.24
493.36	388.87
493.72	392.76
494.08	396.83
494.45	400.97
494.81	405.33
495.17	409.78
495.54	414.48
495.90	419.30
496.26	424.15
496.63	429.35
496.99	434.66
497.35	440.25
497.72	446.05
498.08	451.99
498.44	458.07
498.80	464.49
499.17	470.95
499.53	477.65
499.89	484.57
500.26	491.51
500.62	498.56
500.98	505.93
501.34	513.41
501.71	521.09
502.07	528.93
502.43	536.88
502.79	545.05
503.16	553.44
503.52	562.03
503.88	570.67
504.24	579.59
504.60	588.61
504.97	597.85
505.33	607.12
505.69	617.00
506.05	626.84
506.41	636.61
506.78	646.69
507.14	656.93
507.50	667.29
507.86	677.94
508.22	688.68
508.59	699.37
508.95	710.37
509.31	721.66
509.67	733.00
510.03	744.43
510.39	756.05
510.75	767.85
511.12	779.67
511.48	791.72
511.84	803.97
512.20	816.34
512.56	828.94
512.92	841.72
513.28	854.29
513.64	867.13
514.00	879.99
514.37	892.95
514.73	906.09
515.09	919.10
515.45	932.00
515.81	945.07
516.17	958.45
516.53	971.68
516.89	984.68
517.25	998.00
517.61	1011.52
517.97	1024.86
518.33	1038.05
518.69	1051.68
519.05	1065.50
519.41	1079.18
519.77	1093.07
520.13	1106.29
520.49	1119.49
520.85	1132.99
521.21	1146.23
521.57	1159.95
521.93	1173.08
522.29	1186.78
522.65	1200.32
523.01	1214.00
523.37	1227.13
523.73	1240.47
524.09	1253.69
524.45	1267.17
524.81	1280.65
525.17	1294.05
525.53	1307.43
525.89	1320.69
526.25	1333.75
526.61	1346.71
526.97	1359.71
527.33	1372.69
527.68	1386.31
528.04	1399.88
528.40	1412.91
528.76	1426.29
529.12	1439.22
529.48	1452.57
529.84	1464.91
530.20	1477.71
530.56	1490.36
530.91	1503.83
531.27	1516.77
531.63	1529.54
531.99	1542.40
532.35	1554.63
532.71	1567.11
533.07	1580.07
533.42	1592.32
533.78	1604.50
534.14	1616.59
534.50	1627.95
534.86	1639.61
535.21	1650.47
535.57	1661.99
535.93	1673.34
536.29	1684.53
536.65	1696.02
537.00	1707.01
537.36	1718.47
537.72	1729.61
538.08	1741.04
538.44	1752.08
538.79	1763.22
539.15	1774.30
539.51	1785.15
539.87	1796.52
540.22	1807.43
540.58	1818.34
540.94	1829.47
541.29	1839.98
541.65	1849.63
542.01	1860.25
542.37	1870.39
542.72	1880.54
543.08	1890.37
543.44	1900.94
543.79	1910.09
544.15	1919.55
544.51	1929.63
544.87	1939.50
545.22	1948.81
545.58	1957.56
545.94	1966.45
546.29	1974.98
546.65	1983.29
547.01	1991.52
547.36	1999.28
547.72	2007.05
548.07	2014.59
548.43	2022.39
548.79	2030.09
549.14	2038.56
549.50	2047.16
549.86	2055.23
550.21	2062.71
550.57	2070.48
550.92	2077.32
551.28	2085.02
551.64	2092.36
551.99	2099.81
552.35	2107.03
552.70	2114.06
553.06	2120.83
553.41	2127.07
553.77	2133.63
554.13	2140.02
554.48	2147.03
554.84	2154.14
555.19	2160.67
555.55	2167.07
555.90	2173.25
556.26	2180.28
556.61	2186.27
556.97	2190.96
557.32	2196.56
557.68	2203.24
558.03	2208.98
558.39	2214.30
558.74	2220.33
559.10	2225.82
559.45	2231.47
559.81	2237.17
560.16	2242.62
560.52	2248.48
560.87	2255.03
561.23	2260.75
561.58	2267.40
561.94	2272.77
562.29	2277.30
562.64	2283.21
563.00	2288.85
563.35	2294.35
563.71	2299.88
564.06	2305.57
564.42	2311.46
564.77	2316.41
565.12	2321.54
565.48	2326.55
565.83	2331.94
566.19	2337.13
566.54	2342.44
566.89	2346.86
567.25	2351.19
567.60	2356.71
567.96	2361.74
568.31	2366.00
568.66	2370.24
569.02	2374.00
569.37	2377.52
569.72	2381.95
570.08	2385.48
570.43	2388.56
570.78	2391.49
571.14	2393.74
571.49	2396.72
571.84	2400.09
572.20	2403.00
572.55	2405.67
572.90	2407.95
573.26	2410.52
573.61	2413.04
573.96	2414.99
574.31	2416.92
574.67	2418.62
575.02	2419.19
575.37	2420.60
575.72	2421.11
576.08	2422.40
576.43	2422.43
576.78	2422.74
577.13	2424.07
577.49	2425.12
577.84	2425.98
578.19	2427.12
578.54	2427.65
578.90	2427.95
579.25	2427.73
579.60	2427.41
579.95	2426.38
580.30	2426.07
580.66	2425.29
581.01	2423.47
581.36	2420.83
581.71	2419.22
582.06	2417.93
582.42	2416.88
582.77	2414.40
583.12	2412.57
583.47	2410.95
583.82	2410.11
584.17	2408.63
584.53	2406.31
584.88	2403.83
585.23	2401.78
585.58	2399.43
585.93	2397.40
586.28	2395.14
586.63	2392.36
586.98	2389.91
587.34	2387.82
587.69	2385.20
588.04	2382.92
588.39	2381.32
588.74	2378.80
589.09	2375.85
589.44	2372.42
589.79	2369.73
590.14	2367.61
590.49	2364.68
590.84	2360.81
591.19	2357.60
591.54	2354.17
591.89	2349.94
592.25	2346.71
592.60	2342.39
592.95	2338.15
593.30	2333.81
593.65	2329.40
594.00	2324.96
594.35	2322.02
594.70	2317.40
595.05	2312.89
595.40	2307.41
595.75	2301.35
596.10	2297.63
596.45	2292.82
596.80	2288.28
597.15	2283.12
597.50	2277.18
597.85	2272.09
598.19	2266.88
598.54	2261.02
598.89	2255.78
599.24	2251.30
599.59	2245.03
599.94	2239.05
600.29	2233.06
600.64	2227.01
600.99	2220.15
601.34	2214.55
601.69	2207.44
602.04	2200.92
602.39	2194.23
602.74	2187.99
603.08	2182.64
603.43	2176.05
603.78	2169.10
604.13	2162.04
604.48	2154.65
604.83	2148.42
605.18	2142.36
605.53	2135.44
605.87	2128.43
606.22	2121.67
606.57	2113.76
606.92	2105.75
607.27	2098.83
607.62	2092.07
607.96	2085.13
608.31	2078.74
608.66	2070.98
609.01	2063.30
609.36	2056.21
609.70	2048.50
610.05	2040.75
610.40	2032.36
610.75	2024.01
611.10	2016.23
611.44	2007.25
611.79	1998.63
612.14	1988.77
612.49	1978.06
612.83	1968.76
613.18	1959.40
613.53	1950.06
613.88	1940.43
614.22	1931.90
614.57	1922.16
614.92	1911.60
615.27	1901.27
615.61	1890.98
615.96	1881.48
616.31	1871.88
616.65	1862.47
617.00	1852.91
617.35	1843.27
617.70	1833.63
618.04	1823.90
618.39	1813.88
618.74	1804.26
619.08	1794.71
619.43	1786.01
619.78	1777.72
620.12	1769.04
620.47	1759.66
620.82	1749.41
621.16	1739.74
621.51	1729.89
621.85	1720.21
622.20	1710.12
622.55	1699.74
622.89	1689.94
623.24	1680.26
623.59	1670.59
623.93	1660.62
624.28	1650.88
624.62	1641.00
624.97	1630.88
625.32	1620.98
625.66	1612.18
626.01	1603.50
626.35	1594.29
626.70	1584.45
627.04	1574.59
627.39	1564.61
627.73	1555.37
628.08	1546.58
628.43	1537.23
628.77	1528.14
629.12	1519.25
629.46	1511.42
629.81	1503.18
630.15	1493.95
630.50	1484.34
630.84	1474.03
631.19	1464.13
631.53	1454.92
631.88	1444.87
632.22	1435.00
632.57	1425.79
632.91	1415.84
633.26	1406.24
633.60	1396.74
633.95	1387.51
634.29	1378.11
634.64	1368.90
634.98	1359.01
635.32	1349.82
635.67	1341.39
636.01	1332.21
636.36	1322.66
636.70	1313.27
637.05	1303.97
637.39	1295.12
637.73	1286.59
638.08	1279.12
638.42	1271.25
638.77	1262.61
639.11	1254.48
639.45	1246.78
639.80	1238.44
640.14	1229.75
640.49	1220.94
640.83	1212.22
641.17	1204.16
641.52	1196.20
641.86	1187.78
642.20	1180.05
642.55	1171.46
642.89	1162.75
643.23	1154.27
643.58	1146.18
643.92	1137.32
644.26	1128.78
644.61	1120.34
644.95	1111.60
645.29	1102.59
645.64	1093.45
645.98	1084.87
646.32	1077.01
646.66	1068.60
647.01	1060.33
647.35	1052.32
647.69	1044.15
648.04	1035.98
648.38	1027.23
648.72	1018.53
649.06	1010.08
649.41	1002.01
649.75	994.20
650.09	986.32
650.43	978.28
650.78	969.98
651.12	962.19
651.46	954.78
651.80	947.67
652.14	940.45
652.49	932.96
652.83	925.74
653.17	918.21
653.51	910.56
653.85	903.30
654.20	896.12
654.54	888.68
654.88	881.47
655.22	874.28
655.56	867.22
655.90	860.38
656.25	853.79
656.59	846.94
656.93	839.86
657.27	832.80
657.61	825.83
657.95	819.75
658.29	813.85
658.64	807.81
658.98	801.34
659.32	794.83
659.66	788.61
660.00	782.22
660.34	776.14
660.68	770.16
661.02	763.85
661.36	757.83
661.70	752.03
662.05	746.38
662.39	740.84
662.73	735.54
663.07	730.21
663.41	724.60
663.75	718.93
664.09	713.25
664.43	707.73
664.77	702.45
665.11	696.70
665.45	690.85
665.79	685.05
666.13	679.37
666.47	673.86
666.81	668.39
667.15	663.02
667.49	657.89
667.83	652.63
668.17	647.36
668.51	642.33
668.85	637.47
669.19	632.58
669.53	627.56
669.87	622.44
670.21	617.67
670.55	612.95
670.89	608.49
671.23	604.20
671.57	599.84
671.91	595.55
672.25	591.37
672.58	587.30
672.92	583.26
673.26	579.37
673.60	575.52
673.94	571.69
674.28	568.12
674.62	564.33
674.96	560.55
675.30	557.06
675.64	553.34
675.97	549.69
676.31	546.06
676.65	542.48
676.99	539.06
677.33	535.22
677.67	531.60
678.01	527.78
678.34	524.19
678.68	520.68
679.02	517.10
679.36	513.51
679.70	509.76
680.04	506.10
680.37	502.57
680.71	499.22
681.05	495.99
681.39	492.64
681.73	489.45
682.06	486.44
682.40	483.35
682.74	480.15
683.08	476.93
683.42	473.72
683.75	470.68
684.09	467.55
684.43	464.71
684.77	461.73
685.10	458.88
685.44	455.93
685.78	452.98
686.12	450.15
686.45	447.33
686.79	444.73
687.13	442.18
687.46	439.54
687.80	436.82
688.14	433.99
688.48	431.39
688.81	428.69
689.15	426.03
689.49	423.40
689.82	420.87
690.16	418.20
690.50	415.75
690.83	413.21
691.17	410.69
691.51	408.22
691.84	405.94
692.18	403.63
692.52	401.39
692.85	399.20
693.19	397.06
693.52	394.88
693.86	392.62
694.20	390.42
694.53	388.22
694.87	386.01
695.21	383.83
695.54	381.61
695.88	379.40
696.21	377.18
696.55	375.04
696.88	372.95
697.22	370.99
697.56	369.04
697.89	367.16
698.23	365.38
698.56	363.50
698.90	361.70
699.23	359.80
699.57	357.94
699.90	356.05
700.24	354.18
700.58	352.39
700.91	350.65
701.25	349.05
701.58	347.47
701.92	345.84
702.25	344.27
702.59	342.63
702.92	341.10
703.26	339.57
703.59	338.02
703.93	336.76
704.26	335.30
704.60	333.79
704.93	332.33
705.26	330.79
705.60	329.39
705.93	327.79
706.27	326.43
706.60	325.14
706.94	323.91
707.27	322.54
707.61	321.14
707.94	319.78
708.27	318.28
708.61	316.79
708.94	315.45
709.28	314.09
709.61	312.82
709.94	311.55
710.28	310.31
710.61	309.12
710.95	307.67
711.28	306.59
711.61	305.35
711.95	304.14
712.28	302.95
712.61	301.72
712.95	300.68
713.28	299.60
713.61	298.41
713.95	297.27
714.28	296.22
714.61	295.18
714.95	294.17
715.28	293.10
715.61	292.05
715.95	291.06
716.28	290.09
716.61	289.15
716.95	288.15
717.28	287.19
717.61	286.21
717.94	285.23
718.28	284.18
718.61	283.32
718.94	282.43
719.27	281.55
719.61	280.75
719.94	279.88
720.27	278.90
720.60	277.99
720.94	277.13
721.27	276.35
721.60	275.65
721.93	274.87
722.27	274.26
722.60	273.63
722.93	272.88
723.26	272.20
723.59	271.46
723.93	270.82
724.26	270.16
724.59	269.46
724.92	268.85
725.25	268.33
725.59	267.72
725.92	267.17
726.25	266.57
726.58	265.98
726.91	265.36
727.24	264.82
727.57	264.27
727.91	263.68
728.24	263.09
728.57	262.48
728.90	261.92
729.23	261.29
729.56	260.83
729.89	260.27
730.22	259.71
730.55	259.14
730.89	258.57
731.22	258.03
731.55	257.54
731.88	257.06
732.21	256.46
732.54	255.91
732.87	255.36
733.20	254.89
733.53	254.38
733.86	253.92
734.19	253.46
734.52	253.05
734.85	252.77
735.18	252.28
735.51	251.92
735.84	251.51
736.17	251.11
736.50	250.58
736.83	250.41
737.16	250.02
737.49	249.65
737.82	249.26
738.15	248.89
738.48	248.47
738.81	248.08
739.14	247.67
739.47	247.27
739.80	246.90
740.13	246.54
740.46	246.14
740.79	245.73
741.12	245.34
741.45	244.97
741.78	244.49
742.11	244.21
742.44	243.80
742.77	243.47
743.10	243.11
743.43	242.73
743.75	242.13
744.08	242.04
744.41	241.69
744.74	241.32
745.07	240.95
745.40	240.67
745.73	240.40
746.06	240.09
746.39	239.84
746.71	239.47
747.04	239.10
747.37	238.77
747.70	238.50
748.03	238.22
748.36	237.94
748.68	237.63
749.01	237.28
749.34	236.99
749.67	236.72
750.00	236.43
750.33	236.31
750.65	236.08
750.98	235.56
751.31	235.32
751.64	235.12
751.97	234.94
752.29	234.66
752.62	234.35
752.95	234.07
753.28	233.77
753.60	233.55
753.93	233.37
754.26	233.15
754.59	232.89
754.91	232.63
755.24	232.39
755.57	232.16
755.90	231.95
756.22	231.73
756.55	231.45
756.88	231.23
757.20	230.90
757.53	230.65
757.86	230.46
758.19	230.23
758.51	229.99
758.84	229.74
759.17	229.54
759.49	229.32
759.82	229.25
760.15	229.07
760.47	228.91
760.80	228.65
761.13	228.51
761.45	228.32
761.78	228.11
762.11	227.93
762.43	227.75
762.76	227.58
763.08	227.42
763.41	227.26
763.74	227.09
764.06	226.90
764.39	226.72
764.71	226.53
765.04	226.37
765.37	226.23
765.69	226.05
766.02	225.92
766.34	225.79
766.67	225.57
767.00	225.48
767.32	225.46
767.65	225.43
767.97	225.26
768.30	225.13
768.62	225.03
768.95	224.89
769.27	224.78
769.60	224.63
769.92	224.47
770.25	224.31
770.57	224.12
770.90	223.98
771.22	223.84
771.55	223.76
771.87	223.64
772.20	223.51
772.52	223.58
772.85	223.68
773.17	223.54
773.50	223.41
773.82	223.26
774.15	223.02
774.47	222.79
774.80	222.69
775.12	222.58
775.45	222.48
775.77	222.37
776.09	222.25
776.42	222.20
776.74	222.13
777.07	222.05
777.39	222.03
777.72	221.96
778.04	221.90
778.36	221.78
778.69	221.73
779.01	221.64
779.33	221.34
779.66	221.05
779.98	221.00
780.31	220.94
780.63	220.96
780.95	220.91
781.28	220.86
781.60	220.76
781.92	220.71
782.25	220.62
782.57	220.57
782.89	220.50
783.22	220.39
783.54	220.35
783.86	220.30
784.19	220.19
784.51	220.19
784.83	220.12
785.16	220.06
785.48	219.98
785.80	219.92
786.12	219.89
