SpectraSuite Data File
++++++++++++++++++++++++++++++++++++
Date: Tue Jan 29 16:11:36 EST 2013
User: group
Dark Spectrum Present: No
Reference Spectrum Present: No
Number of Sampled Component Spectra: 1
Spectrometers: USB2E7196
Integration Time (usec): 65000 (USB2E7196)
Spectra Averaged: 100 (USB2E7196)
Boxcar Smoothing: 10 (USB2E7196)
Correct for Electrical Dark: No (USB2E7196)
Strobe/Lamp Enabled: No (USB2E7196)
Correct for Detector Non-linearity: No (USB2E7196)
Correct for Stray Light: No (USB2E7196)
Number of Pixels in Processed Spectrum: 2048
>>>>>Begin Processed Spectral Data<<<<<
339.09	0.00
339.48	202.52
339.86	203.93
340.24	204.74
340.63	207.30
341.01	211.95
341.39	210.06
341.78	211.51
342.16	212.36
342.54	212.64
342.93	201.80
343.31	211.98
343.69	212.53
344.07	212.98
344.46	213.42
344.84	213.78
345.22	213.90
345.60	214.13
345.99	214.30
346.37	214.42
346.75	214.50
347.13	214.55
347.52	214.61
347.90	214.71
348.28	214.74
348.66	214.81
349.05	214.76
349.43	214.82
349.81	214.93
350.19	214.99
350.57	215.03
350.96	215.09
351.34	215.18
351.72	215.28
352.10	215.40
352.48	215.49
352.87	215.52
353.25	215.59
353.63	215.66
354.01	215.71
354.39	215.81
354.77	215.92
355.15	216.06
355.54	216.09
355.92	216.09
356.30	216.15
356.68	216.33
357.06	216.41
357.44	216.42
357.82	216.44
358.20	216.53
358.58	216.60
358.97	216.70
359.35	216.83
359.73	216.90
360.11	216.96
360.49	217.04
360.87	217.11
361.25	217.20
361.63	217.31
362.01	217.35
362.39	217.36
362.77	217.42
363.15	217.44
363.53	217.48
363.91	217.52
364.29	217.57
364.67	217.40
365.05	217.42
365.43	217.49
365.81	217.54
366.19	217.62
366.57	217.70
366.95	217.68
367.33	217.64
367.71	217.67
368.09	217.71
368.47	217.70
368.85	217.71
369.23	217.72
369.61	217.64
369.99	217.73
370.37	217.73
370.75	217.80
371.13	217.73
371.51	217.71
371.89	217.71
372.27	217.68
372.65	217.69
373.03	217.66
373.41	217.61
373.78	217.57
374.16	217.42
374.54	217.34
374.92	217.35
375.30	217.28
375.68	217.18
376.06	217.15
376.44	217.07
376.82	217.03
377.19	216.96
377.57	216.92
377.95	216.82
378.33	216.75
378.71	216.58
379.09	216.58
379.47	216.54
379.84	216.49
380.22	216.44
380.60	216.36
380.98	216.29
381.36	216.24
381.73	216.16
382.11	216.19
382.49	216.15
382.87	216.07
383.25	216.04
383.62	216.22
384.00	216.17
384.38	216.15
384.76	216.18
385.13	216.23
385.51	216.17
385.89	216.08
386.27	216.07
386.64	216.05
387.02	216.00
387.40	215.96
387.78	215.94
388.15	215.91
388.53	215.88
388.91	215.90
389.29	215.87
389.66	215.92
390.04	215.89
390.42	215.89
390.79	215.86
391.17	215.86
391.55	215.65
391.92	215.64
392.30	215.64
392.68	215.55
393.05	215.54
393.43	215.59
393.81	215.60
394.18	215.59
394.56	215.58
394.94	215.63
395.31	215.63
395.69	215.67
396.06	215.72
396.44	215.76
396.82	215.71
397.19	215.86
397.57	215.81
397.95	215.85
398.32	215.84
398.70	215.90
399.07	215.97
399.45	215.98
399.82	216.03
400.20	216.02
400.58	216.07
400.95	216.04
401.33	216.13
401.70	216.35
402.08	216.41
402.45	216.50
402.83	216.62
403.20	216.76
403.58	216.86
403.95	217.00
404.33	217.16
404.71	217.34
405.08	217.56
405.46	217.77
405.83	217.95
406.21	218.13
406.58	218.36
406.96	218.60
407.33	218.87
407.70	219.15
408.08	219.62
408.45	220.00
408.83	220.39
409.20	220.71
409.58	220.95
409.95	221.40
410.33	221.87
410.70	222.30
411.08	222.83
411.45	223.38
411.82	223.90
412.20	224.54
412.57	225.38
412.95	225.91
413.32	226.70
413.69	227.52
414.07	228.40
414.44	229.31
414.82	230.26
415.19	231.41
415.56	232.54
415.94	233.66
416.31	234.99
416.68	236.34
417.06	237.90
417.43	239.43
417.81	241.12
418.18	242.86
418.55	244.71
418.93	246.69
419.30	248.73
419.67	250.93
420.04	253.13
420.42	255.38
420.79	258.14
421.16	260.82
421.54	263.61
421.91	266.50
422.28	269.51
422.66	272.70
423.03	275.81
423.40	279.10
423.77	282.64
424.15	286.21
424.52	289.88
424.89	293.90
425.26	297.84
425.64	301.57
426.01	305.71
426.38	310.04
426.75	314.40
427.13	318.98
427.50	323.77
427.87	328.82
428.24	333.87
428.61	338.68
428.99	344.01
429.36	349.81
429.73	355.51
430.10	361.18
430.47	367.12
430.85	373.21
431.22	379.67
431.59	386.51
431.96	393.10
432.33	400.40
432.70	407.45
433.08	415.66
433.45	423.48
433.82	431.26
434.19	439.84
434.56	448.25
434.93	456.29
435.30	464.35
435.68	473.09
436.05	481.80
436.42	490.40
436.79	498.27
437.16	506.71
437.53	515.61
437.90	524.40
438.27	533.02
438.64	541.94
439.01	550.22
439.38	557.54
439.75	564.62
440.13	572.68
440.50	580.33
440.87	586.56
441.24	592.97
441.61	600.01
441.98	605.17
442.35	611.25
442.72	617.35
443.09	623.17
443.46	626.80
443.83	629.18
444.20	631.29
444.57	634.31
444.94	635.71
445.31	637.15
445.68	638.48
446.05	638.97
446.42	638.16
446.79	637.13
447.16	636.00
447.53	635.20
447.90	632.05
448.27	628.81
448.64	624.27
449.01	620.98
449.37	615.23
449.74	609.80
450.11	603.13
450.48	595.94
450.85	588.71
451.22	582.52
451.59	576.59
451.96	570.91
452.33	563.34
452.70	556.54
453.07	548.39
453.43	540.13
453.80	532.25
454.17	524.58
454.54	517.35
454.91	509.54
455.28	501.91
455.65	494.72
456.02	487.50
456.38	481.45
456.75	473.92
457.12	467.68
457.49	461.39
457.86	455.48
458.23	450.37
458.59	444.66
458.96	438.82
459.33	433.72
459.70	428.59
460.07	424.52
460.43	419.80
460.80	415.35
461.17	411.52
461.54	407.42
461.91	403.53
462.27	399.58
462.64	396.28
463.01	392.62
463.38	389.10
463.74	385.59
464.11	382.45
464.48	379.70
464.85	376.68
465.21	374.34
465.58	371.77
465.95	368.68
466.32	366.14
466.68	363.68
467.05	361.23
467.42	358.75
467.78	356.14
468.15	353.71
468.52	351.90
468.88	349.52
469.25	347.44
469.62	345.72
469.98	343.86
470.35	342.15
470.72	340.55
471.08	338.80
471.45	337.36
471.82	335.93
472.18	334.37
472.55	333.23
472.92	331.90
473.28	330.75
473.65	329.72
474.02	328.72
474.38	327.90
474.75	327.18
475.11	326.43
475.48	325.94
475.85	325.48
476.21	324.97
476.58	324.64
476.94	324.42
477.31	324.16
477.67	323.91
478.04	323.74
478.41	323.68
478.77	323.91
479.14	323.88
479.50	324.02
479.87	324.34
480.23	324.69
480.60	324.94
480.96	325.25
481.33	325.87
481.69	326.42
482.06	326.93
482.42	327.42
482.79	328.03
483.15	328.83
483.52	329.80
483.88	330.73
484.25	331.64
484.61	332.68
484.98	333.76
485.34	335.13
485.71	336.52
486.07	337.96
486.44	339.25
486.80	340.89
487.17	342.53
487.53	344.36
487.90	346.21
488.26	348.26
488.62	350.39
488.99	352.41
489.35	354.58
489.72	356.93
490.08	359.45
490.44	362.04
490.81	364.74
491.17	367.45
491.54	370.40
491.90	373.45
492.26	376.65
492.63	379.99
492.99	383.47
493.36	387.10
493.72	390.99
494.08	394.94
494.45	399.09
494.81	403.42
495.17	407.87
495.54	412.54
495.90	417.35
496.26	422.30
496.63	427.43
496.99	432.79
497.35	438.34
497.72	444.06
498.08	449.95
498.44	455.99
498.80	462.41
499.17	468.83
499.53	475.51
499.89	482.33
500.26	489.27
500.62	496.31
500.98	503.67
501.34	511.09
501.71	518.81
502.07	526.54
502.43	534.48
502.79	542.54
503.16	550.91
503.52	559.44
503.88	568.08
504.24	577.07
504.60	586.06
504.97	595.19
505.33	604.42
505.69	614.29
506.05	624.13
506.41	633.88
506.78	643.92
507.14	654.11
507.50	664.56
507.86	675.20
508.22	685.80
508.59	696.41
508.95	707.42
509.31	718.64
509.67	730.05
510.03	741.41
510.39	753.11
510.75	764.89
511.12	776.66
511.48	788.62
511.84	800.72
512.20	813.01
512.56	825.61
512.92	838.38
513.28	850.89
513.64	863.45
514.00	876.27
514.37	889.12
514.73	902.12
515.09	914.97
515.45	927.73
515.81	940.75
516.17	953.98
516.53	967.03
516.89	979.97
517.25	992.94
517.61	1006.36
517.97	1019.51
518.33	1032.38
518.69	1045.74
519.05	1059.30
519.41	1072.75
519.77	1086.41
520.13	1099.43
520.49	1112.33
520.85	1125.54
521.21	1138.64
521.57	1152.00
521.93	1164.86
522.29	1178.37
522.65	1191.82
523.01	1205.20
523.37	1218.11
523.73	1231.14
524.09	1244.02
524.45	1257.27
524.81	1270.62
525.17	1283.59
525.53	1296.58
525.89	1309.58
526.25	1322.39
526.61	1334.93
526.97	1347.77
527.33	1360.38
527.68	1373.61
528.04	1386.83
528.40	1399.53
528.76	1412.63
529.12	1425.28
529.48	1438.32
529.84	1450.23
530.20	1462.62
530.56	1474.95
530.91	1487.95
531.27	1500.47
531.63	1512.99
531.99	1525.33
532.35	1537.15
532.71	1549.35
533.07	1561.80
533.42	1573.84
533.78	1585.66
534.14	1597.39
534.50	1608.32
534.86	1619.72
535.21	1630.24
535.57	1641.34
535.93	1652.41
536.29	1663.26
536.65	1674.17
537.00	1684.73
537.36	1695.88
537.72	1706.50
538.08	1717.50
538.44	1728.14
538.79	1738.87
539.15	1749.42
539.51	1759.81
539.87	1770.93
540.22	1781.32
540.58	1791.87
540.94	1802.31
541.29	1812.33
541.65	1821.84
542.01	1832.02
542.37	1841.64
542.72	1851.62
543.08	1861.13
543.44	1871.21
543.79	1880.14
544.15	1889.43
544.51	1899.14
544.87	1908.57
545.22	1917.58
545.58	1926.25
545.94	1934.67
546.29	1943.01
546.65	1951.17
547.01	1959.11
547.36	1966.48
547.72	1974.06
548.07	1981.50
548.43	1989.07
548.79	1996.60
549.14	2004.56
549.50	2012.78
549.86	2020.40
550.21	2027.54
550.57	2035.05
550.92	2041.63
551.28	2048.85
551.64	2055.98
551.99	2063.35
552.35	2070.34
552.70	2076.91
553.06	2083.40
553.41	2089.62
553.77	2096.02
554.13	2102.16
554.48	2109.03
554.84	2115.94
555.19	2122.19
555.55	2128.53
555.90	2134.59
556.26	2141.27
556.61	2147.13
556.97	2151.90
557.32	2157.65
557.68	2163.91
558.03	2169.56
558.39	2174.67
558.74	2180.64
559.10	2186.05
559.45	2191.50
559.81	2197.03
560.16	2202.46
560.52	2208.18
560.87	2214.49
561.23	2220.40
561.58	2227.08
561.94	2232.27
562.29	2236.99
562.64	2243.16
563.00	2248.69
563.35	2254.43
563.71	2260.37
564.06	2266.01
564.42	2271.94
564.77	2277.02
565.12	2282.27
565.48	2287.49
565.83	2293.11
566.19	2298.63
566.54	2304.09
566.89	2308.79
567.25	2313.42
567.60	2319.27
567.96	2324.59
568.31	2329.14
568.66	2333.35
569.02	2337.19
569.37	2341.03
569.72	2345.48
570.08	2349.11
570.43	2352.35
570.78	2355.48
571.14	2358.10
571.49	2361.24
571.84	2364.74
572.20	2367.77
572.55	2370.89
572.90	2373.23
573.26	2376.30
573.61	2378.77
573.96	2380.97
574.31	2382.95
574.67	2384.87
575.02	2385.83
575.37	2387.27
575.72	2388.19
576.08	2389.78
576.43	2390.18
576.78	2390.99
577.13	2392.85
577.49	2394.05
577.84	2395.32
578.19	2396.86
578.54	2397.61
578.90	2398.66
579.25	2398.66
579.60	2398.82
579.95	2398.23
580.30	2398.63
580.66	2397.95
581.01	2396.43
581.36	2394.42
581.71	2393.25
582.06	2392.40
582.42	2391.79
582.77	2389.82
583.12	2388.53
583.47	2387.48
583.82	2386.96
584.17	2385.84
584.53	2383.72
584.88	2381.86
585.23	2380.08
585.58	2377.88
585.93	2375.71
586.28	2373.70
586.63	2371.63
586.98	2369.59
587.34	2367.80
587.69	2365.59
588.04	2363.79
588.39	2362.57
588.74	2360.35
589.09	2357.96
589.44	2355.03
589.79	2352.64
590.14	2350.92
590.49	2348.06
590.84	2344.35
591.19	2341.61
591.54	2338.45
591.89	2334.61
592.25	2331.39
592.60	2327.27
592.95	2323.34
593.30	2319.36
593.65	2315.06
594.00	2310.86
594.35	2307.90
594.70	2303.48
595.05	2298.93
595.40	2293.55
595.75	2288.12
596.10	2284.54
596.45	2279.80
596.80	2275.29
597.15	2270.18
597.50	2264.39
597.85	2259.63
598.19	2254.48
598.54	2248.73
598.89	2243.76
599.24	2239.35
599.59	2233.50
599.94	2227.98
600.29	2222.25
600.64	2216.62
600.99	2210.09
601.34	2204.67
601.69	2197.83
602.04	2191.52
602.39	2184.95
602.74	2178.96
603.08	2173.45
603.43	2166.98
603.78	2160.02
604.13	2153.11
604.48	2146.08
604.83	2140.21
605.18	2134.00
605.53	2127.13
605.87	2120.03
606.22	2113.28
606.57	2105.47
606.92	2097.60
607.27	2090.73
607.62	2084.14
607.96	2077.22
608.31	2070.78
608.66	2063.06
609.01	2055.31
609.36	2048.17
609.70	2040.53
610.05	2032.87
610.40	2024.61
610.75	2016.48
611.10	2009.05
611.44	2000.31
611.79	1991.51
612.14	1981.45
612.49	1971.09
612.83	1961.97
613.18	1953.15
613.53	1943.74
613.88	1934.21
614.22	1925.67
614.57	1915.83
614.92	1905.24
615.27	1895.16
615.61	1885.24
615.96	1875.61
616.31	1866.29
616.65	1857.04
617.00	1847.25
617.35	1837.68
617.70	1827.99
618.04	1817.86
618.39	1807.57
618.74	1797.88
619.08	1788.38
619.43	1779.55
619.78	1771.34
620.12	1762.69
620.47	1752.65
620.82	1742.50
621.16	1732.70
621.51	1722.81
621.85	1713.01
622.20	1702.68
622.55	1691.93
622.89	1681.94
623.24	1672.26
623.59	1662.48
623.93	1652.33
624.28	1642.72
624.62	1632.63
624.97	1622.30
625.32	1612.58
625.66	1603.87
626.01	1594.97
626.35	1585.51
626.70	1575.50
627.04	1565.37
627.39	1555.22
627.73	1546.12
628.08	1537.12
628.43	1527.71
628.77	1518.48
629.12	1509.60
629.46	1501.67
629.81	1493.38
630.15	1483.84
630.50	1474.08
630.84	1463.53
631.19	1453.67
631.53	1444.29
631.88	1434.24
632.22	1424.24
632.57	1414.92
632.91	1404.76
633.26	1395.05
633.60	1385.54
633.95	1376.28
634.29	1366.87
634.64	1357.61
634.98	1347.85
635.32	1338.58
635.67	1329.95
636.01	1320.71
636.36	1310.95
636.70	1301.49
637.05	1292.25
637.39	1283.30
637.73	1274.59
638.08	1267.16
638.42	1258.94
638.77	1250.20
639.11	1241.94
639.45	1234.12
639.80	1225.46
640.14	1216.76
640.49	1207.89
640.83	1199.11
641.17	1191.10
641.52	1182.83
641.86	1174.24
642.20	1166.21
642.55	1157.65
642.89	1148.87
643.23	1140.21
643.58	1132.18
643.92	1123.19
644.26	1114.53
644.61	1106.14
644.95	1097.53
645.29	1088.26
645.64	1079.16
645.98	1070.77
646.32	1062.91
646.66	1054.48
647.01	1046.22
647.35	1038.20
647.69	1029.82
648.04	1021.46
648.38	1012.50
648.72	1003.82
649.06	995.33
649.41	987.22
649.75	979.21
650.09	971.43
650.43	963.38
650.78	955.18
651.12	947.55
651.46	940.19
651.80	933.05
652.14	925.69
652.49	918.32
652.83	911.00
653.17	903.30
653.51	895.64
653.85	888.45
654.20	881.23
654.54	873.65
654.88	866.60
655.22	859.60
655.56	852.67
655.90	845.96
656.25	839.36
656.59	832.46
656.93	825.54
657.27	818.40
657.61	811.60
657.95	805.49
658.29	799.65
658.64	793.52
658.98	787.08
659.32	780.55
659.66	774.36
660.00	768.11
660.34	762.20
660.68	756.15
661.02	749.89
661.36	744.04
661.70	738.38
662.05	732.73
662.39	727.23
662.73	721.94
663.07	716.64
663.41	711.19
663.75	705.64
664.09	700.07
664.43	694.74
664.77	689.46
665.11	683.71
665.45	677.87
665.79	672.11
666.13	666.46
666.47	661.09
666.81	655.66
667.15	650.35
667.49	645.15
667.83	640.02
668.17	634.88
668.51	629.79
668.85	624.95
669.19	620.14
669.53	615.24
669.87	610.16
670.21	605.40
670.55	600.70
670.89	596.32
671.23	592.11
671.57	587.79
671.91	583.54
672.25	579.50
672.58	575.45
672.92	571.51
673.26	567.64
673.60	563.83
673.94	560.09
674.28	556.53
674.62	552.87
674.96	549.14
675.30	545.66
675.64	542.12
675.97	538.59
676.31	535.04
676.65	531.47
676.99	528.16
677.33	524.40
677.67	520.87
678.01	517.10
678.34	513.46
678.68	510.01
679.02	506.43
679.36	502.75
679.70	499.16
680.04	495.68
680.37	492.32
680.71	489.04
681.05	485.91
681.39	482.72
681.73	479.60
682.06	476.60
682.40	473.54
682.74	470.36
683.08	467.25
683.42	464.20
683.75	461.30
684.09	458.34
684.43	455.58
684.77	452.66
685.10	449.84
685.44	447.01
685.78	444.11
686.12	441.47
686.45	438.86
686.79	436.21
687.13	433.71
687.46	431.15
687.80	428.54
688.14	425.77
688.48	423.27
688.81	420.65
689.15	418.21
689.49	415.66
689.82	413.20
690.16	410.62
690.50	408.20
690.83	405.70
691.17	403.16
691.51	400.79
691.84	398.59
692.18	396.46
692.52	394.27
692.85	392.22
693.19	390.09
693.52	387.93
693.86	385.81
694.20	383.63
694.53	381.55
694.87	379.40
695.21	377.30
695.54	375.15
695.88	373.01
696.21	370.80
696.55	368.73
696.88	366.73
697.22	364.81
697.56	362.92
697.89	361.12
698.23	359.43
698.56	357.65
698.90	355.92
699.23	354.03
699.57	352.23
699.90	350.39
700.24	348.65
700.58	346.96
700.91	345.33
701.25	343.83
701.58	342.22
701.92	340.67
702.25	339.12
702.59	337.55
702.92	336.10
703.26	334.62
703.59	333.20
703.93	331.95
704.26	330.54
704.60	329.10
704.93	327.66
705.26	326.17
705.60	324.73
705.93	323.27
706.27	322.00
706.60	320.75
706.94	319.52
707.27	318.10
707.61	316.76
707.94	315.45
708.27	313.96
708.61	312.61
708.94	311.27
709.28	310.03
709.61	308.78
709.94	307.58
710.28	306.39
710.61	305.24
710.95	303.84
711.28	302.80
711.61	301.63
711.95	300.53
712.28	299.36
712.61	298.24
712.95	297.21
713.28	296.20
713.61	295.07
713.95	293.95
714.28	292.98
714.61	292.02
714.95	291.03
715.28	290.09
715.61	289.08
715.95	288.18
716.28	287.23
716.61	286.28
716.95	285.34
717.28	284.47
717.61	283.51
717.94	282.70
718.28	281.70
718.61	280.86
718.94	279.94
719.27	279.16
719.61	278.38
719.94	277.53
720.27	276.56
720.60	275.74
720.94	275.02
721.27	274.30
721.60	273.61
721.93	272.92
722.27	272.31
722.60	271.65
722.93	270.94
723.26	270.33
723.59	269.70
723.93	269.05
724.26	268.37
724.59	267.74
724.92	267.13
725.25	266.60
725.59	266.05
725.92	265.56
726.25	264.99
726.58	264.43
726.91	263.85
727.24	263.38
727.57	262.89
727.91	262.31
728.24	261.75
728.57	261.16
728.90	260.63
729.23	260.05
729.56	259.65
729.89	259.13
730.22	258.58
730.55	258.04
730.89	257.50
731.22	256.98
731.55	256.50
731.88	256.00
732.21	255.47
732.54	254.91
732.87	254.41
733.20	253.93
733.53	253.46
733.86	253.00
734.19	252.50
734.52	252.05
734.85	251.74
735.18	251.29
735.51	250.90
735.84	250.51
736.17	250.09
736.50	249.59
736.83	249.46
737.16	249.10
737.49	248.73
737.82	248.35
738.15	248.05
738.48	247.68
738.81	247.28
739.14	246.90
739.47	246.56
739.80	246.22
740.13	245.87
740.46	245.49
740.79	245.10
741.12	244.75
741.45	244.40
741.78	243.98
742.11	243.68
742.44	243.33
742.77	243.02
743.10	242.69
743.43	242.31
743.75	241.77
744.08	241.66
744.41	241.34
744.74	240.99
745.07	240.63
745.40	240.33
745.73	240.10
746.06	239.80
746.39	239.51
746.71	239.15
747.04	238.83
747.37	238.52
747.70	238.26
748.03	237.97
748.36	237.68
748.68	237.38
749.01	237.07
749.34	236.78
749.67	236.45
750.00	236.19
750.33	236.07
750.65	235.80
750.98	235.29
751.31	235.05
751.64	234.85
751.97	234.69
752.29	234.41
752.62	234.08
752.95	233.81
753.28	233.48
753.60	233.25
753.93	233.10
754.26	232.89
754.59	232.60
754.91	232.38
755.24	232.16
755.57	231.95
755.90	231.72
756.22	231.47
756.55	231.28
756.88	231.03
757.20	230.71
757.53	230.47
757.86	230.29
758.19	230.10
758.51	229.88
758.84	229.57
759.17	229.37
759.49	229.19
759.82	229.10
760.15	229.00
760.47	228.81
760.80	228.54
761.13	228.43
761.45	228.26
761.78	228.08
762.11	227.91
762.43	227.74
762.76	227.56
763.08	227.44
763.41	227.25
763.74	227.13
764.06	226.96
764.39	226.83
764.71	226.70
765.04	226.57
765.37	226.44
765.69	226.31
766.02	226.20
766.34	226.04
766.67	225.82
767.00	225.75
767.32	225.74
767.65	225.72
767.97	225.52
768.30	225.46
768.62	225.35
768.95	225.21
769.27	225.09
769.60	225.01
769.92	224.87
770.25	224.78
770.57	224.62
770.90	224.54
771.22	224.39
771.55	224.26
771.87	224.14
772.20	224.01
772.52	224.08
772.85	224.25
773.17	224.17
773.50	224.05
773.82	223.89
774.15	223.71
774.47	223.51
774.80	223.41
775.12	223.29
775.45	223.19
775.77	223.11
776.09	223.05
776.42	222.98
776.74	222.94
777.07	222.82
777.39	222.75
777.72	222.63
778.04	222.58
778.36	222.49
778.69	222.42
779.01	222.36
779.33	222.08
779.66	221.76
779.98	221.70
780.31	221.65
780.63	221.67
780.95	221.66
781.28	221.59
781.60	221.52
781.92	221.45
782.25	221.37
782.57	221.30
782.89	221.20
783.22	221.10
783.54	220.99
783.86	220.94
784.19	220.85
784.51	220.87
784.83	220.78
785.16	220.72
785.48	220.64
785.80	220.59
786.12	220.57
