SpectraSuite Data File
++++++++++++++++++++++++++++++++++++
Date: Tue Jan 29 16:04:48 EST 2013
User: group
Dark Spectrum Present: No
Reference Spectrum Present: No
Number of Sampled Component Spectra: 1
Spectrometers: USB2E7196
Integration Time (usec): 65000 (USB2E7196)
Spectra Averaged: 100 (USB2E7196)
Boxcar Smoothing: 10 (USB2E7196)
Correct for Electrical Dark: No (USB2E7196)
Strobe/Lamp Enabled: No (USB2E7196)
Correct for Detector Non-linearity: No (USB2E7196)
Correct for Stray Light: No (USB2E7196)
Number of Pixels in Processed Spectrum: 2048
>>>>>Begin Processed Spectral Data<<<<<
339.09	0.00
339.48	202.90
339.86	204.06
340.24	205.20
340.63	206.48
341.01	211.48
341.39	209.62
341.78	211.09
342.16	213.17
342.54	212.94
342.93	201.93
343.31	212.14
343.69	212.70
344.07	213.17
344.46	213.64
344.84	214.05
345.22	214.25
345.60	214.52
345.99	214.71
346.37	214.83
346.75	214.91
347.13	215.00
347.52	215.05
347.90	215.18
348.28	215.20
348.66	215.31
349.05	215.34
349.43	215.39
349.81	215.43
350.19	215.48
350.57	215.58
350.96	215.68
351.34	215.77
351.72	215.87
352.10	216.00
352.48	216.08
352.87	216.18
353.25	216.21
353.63	216.28
354.01	216.37
354.39	216.45
354.77	216.56
355.15	216.65
355.54	216.70
355.92	216.67
356.30	216.77
356.68	216.94
357.06	216.98
357.44	217.01
357.82	217.05
358.20	217.14
358.58	217.19
358.97	217.25
359.35	217.35
359.73	217.41
360.11	217.44
360.49	217.48
360.87	217.52
361.25	217.64
361.63	217.74
362.01	217.78
362.39	217.80
362.77	217.84
363.15	217.88
363.53	217.91
363.91	217.96
364.29	217.97
364.67	217.82
365.05	217.86
365.43	217.93
365.81	217.93
366.19	218.01
366.57	218.09
366.95	218.07
367.33	217.99
367.71	218.01
368.09	218.04
368.47	218.00
368.85	217.97
369.23	217.98
369.61	217.88
369.99	217.93
370.37	217.93
370.75	218.00
371.13	217.93
371.51	217.93
371.89	217.93
372.27	217.91
372.65	217.90
373.03	217.86
373.41	217.77
373.78	217.77
374.16	217.62
374.54	217.53
374.92	217.48
375.30	217.48
375.68	217.38
376.06	217.35
376.44	217.31
376.82	217.28
377.19	217.23
377.57	217.21
377.95	217.10
378.33	217.04
378.71	216.85
379.09	216.84
379.47	216.79
379.84	216.72
380.22	216.69
380.60	216.63
380.98	216.59
381.36	216.59
381.73	216.50
382.11	216.51
382.49	216.48
382.87	216.44
383.25	216.40
383.62	216.62
384.00	216.54
384.38	216.53
384.76	216.54
385.13	216.54
385.51	216.51
385.89	216.44
386.27	216.42
386.64	216.44
387.02	216.43
387.40	216.40
387.78	216.40
388.15	216.37
388.53	216.31
388.91	216.30
389.29	216.26
389.66	216.29
390.04	216.25
390.42	216.27
390.79	216.25
391.17	216.26
391.55	216.03
391.92	216.07
392.30	216.06
392.68	216.00
393.05	215.96
393.43	215.97
393.81	215.97
394.18	215.96
394.56	215.96
394.94	215.94
395.31	215.90
395.69	215.93
396.06	215.98
396.44	216.01
396.82	215.99
397.19	216.12
397.57	216.14
397.95	216.20
398.32	216.12
398.70	216.18
399.07	216.25
399.45	216.29
399.82	216.30
400.20	216.32
400.58	216.39
400.95	216.39
401.33	216.49
401.70	216.74
402.08	216.82
402.45	216.91
402.83	217.07
403.20	217.17
403.58	217.25
403.95	217.39
404.33	217.55
404.71	217.74
405.08	217.95
405.46	218.10
405.83	218.27
406.21	218.48
406.58	218.69
406.96	218.89
407.33	219.15
407.70	219.42
408.08	219.88
408.45	220.21
408.83	220.58
409.20	220.93
409.58	221.21
409.95	221.69
410.33	222.13
410.70	222.53
411.08	223.13
411.45	223.69
411.82	224.22
412.20	224.88
412.57	225.62
412.95	226.19
413.32	227.00
413.69	227.81
414.07	228.70
414.44	229.64
414.82	230.62
415.19	231.70
415.56	232.88
415.94	234.03
416.31	235.40
416.68	236.76
417.06	238.29
417.43	239.77
417.81	241.41
418.18	243.19
418.55	245.11
418.93	247.00
419.30	249.00
419.67	251.15
420.04	253.37
420.42	255.73
420.79	258.47
421.16	261.14
421.54	263.95
421.91	266.88
422.28	269.89
422.66	273.10
423.03	276.26
423.40	279.48
423.77	282.94
424.15	286.46
424.52	290.17
424.89	294.21
425.26	298.15
425.64	301.92
426.01	306.01
426.38	310.31
426.75	314.76
427.13	319.37
427.50	324.18
427.87	329.15
428.24	334.13
428.61	338.93
428.99	344.27
429.36	350.05
429.73	355.75
430.10	361.43
430.47	367.24
430.85	373.30
431.22	379.75
431.59	386.64
431.96	393.28
432.33	400.49
432.70	407.46
433.08	415.64
433.45	423.47
433.82	431.18
434.19	439.84
434.56	448.24
434.93	456.26
435.30	464.22
435.68	472.99
436.05	481.64
436.42	490.17
436.79	498.00
437.16	506.49
437.53	515.45
437.90	524.25
438.27	532.91
438.64	541.88
439.01	550.16
439.38	557.46
439.75	564.48
440.13	572.67
440.50	580.36
440.87	586.58
441.24	592.95
441.61	600.09
441.98	605.17
442.35	611.22
442.72	617.32
443.09	623.16
443.46	626.78
443.83	629.20
444.20	631.32
444.57	634.38
444.94	635.73
445.31	637.05
445.68	638.40
446.05	638.89
446.42	638.04
446.79	637.12
447.16	636.04
447.53	635.26
447.90	632.04
448.27	628.81
448.64	624.24
449.01	621.00
449.37	615.26
449.74	609.75
450.11	603.09
450.48	595.93
450.85	588.70
451.22	582.48
451.59	576.51
451.96	570.89
452.33	563.26
452.70	556.40
453.07	548.24
453.43	539.93
453.80	532.05
454.17	524.41
454.54	517.14
454.91	509.28
455.28	501.67
455.65	494.50
456.02	487.34
456.38	481.34
456.75	473.82
457.12	467.53
457.49	461.31
457.86	455.39
458.23	450.28
458.59	444.63
458.96	438.87
459.33	433.87
459.70	428.77
460.07	424.75
460.43	420.05
460.80	415.62
461.17	411.75
461.54	407.66
461.91	403.76
462.27	399.76
462.64	396.38
463.01	392.67
463.38	389.12
463.74	385.52
464.11	382.34
464.48	379.56
464.85	376.53
465.21	374.19
465.58	371.64
465.95	368.61
466.32	366.06
466.68	363.54
467.05	361.02
467.42	358.54
467.78	355.92
468.15	353.51
468.52	351.70
468.88	349.38
469.25	347.25
469.62	345.53
469.98	343.70
470.35	342.03
470.72	340.42
471.08	338.66
471.45	337.26
471.82	335.81
472.18	334.23
472.55	333.13
472.92	331.83
473.28	330.67
473.65	329.56
474.02	328.53
474.38	327.71
474.75	327.01
475.11	326.25
475.48	325.72
475.85	325.28
476.21	324.83
476.58	324.48
476.94	324.31
477.31	324.06
477.67	323.85
478.04	323.75
478.41	323.73
478.77	323.94
479.14	323.93
479.50	324.13
479.87	324.46
480.23	324.79
480.60	325.07
480.96	325.39
481.33	326.02
481.69	326.66
482.06	327.20
482.42	327.71
482.79	328.31
483.15	329.13
483.52	330.09
483.88	331.01
484.25	331.95
484.61	332.96
484.98	334.03
485.34	335.36
485.71	336.73
486.07	338.20
486.44	339.52
486.80	341.12
487.17	342.75
487.53	344.55
487.90	346.44
488.26	348.44
488.62	350.53
488.99	352.57
489.35	354.69
489.72	357.08
490.08	359.55
490.44	362.15
490.81	364.85
491.17	367.54
491.54	370.51
491.90	373.55
492.26	376.82
492.63	380.25
492.99	383.72
493.36	387.34
493.72	391.21
494.08	395.26
494.45	399.49
494.81	403.88
495.17	408.31
495.54	413.03
495.90	417.87
496.26	422.82
496.63	428.02
496.99	433.42
497.35	438.95
497.72	444.75
498.08	450.67
498.44	456.78
498.80	463.18
499.17	469.64
499.53	476.27
499.89	483.14
500.26	490.06
500.62	497.13
500.98	504.57
501.34	511.98
501.71	519.67
502.07	527.42
502.43	535.43
502.79	543.52
503.16	551.85
503.52	560.34
503.88	568.95
504.24	577.89
504.60	586.90
504.97	596.07
505.33	605.35
505.69	615.16
506.05	624.95
506.41	634.79
506.78	644.78
507.14	655.00
507.50	665.38
507.86	675.98
508.22	686.68
508.59	697.31
508.95	708.38
509.31	719.62
509.67	731.00
510.03	742.36
510.39	754.12
510.75	765.95
511.12	777.88
511.48	790.00
511.84	802.15
512.20	814.45
512.56	827.08
512.92	839.78
513.28	852.31
513.64	864.96
514.00	877.71
514.37	890.62
514.73	903.65
515.09	916.52
515.45	929.42
515.81	942.38
516.17	955.56
516.53	968.55
516.89	981.53
517.25	994.50
517.61	1007.82
517.97	1020.96
518.33	1033.82
518.69	1047.21
519.05	1060.78
519.41	1074.29
519.77	1087.89
520.13	1100.99
520.49	1114.00
520.85	1127.25
521.21	1140.43
521.57	1153.96
521.93	1166.88
522.29	1180.51
522.65	1194.00
523.01	1207.24
523.37	1220.24
523.73	1233.30
524.09	1246.24
524.45	1259.38
524.81	1272.71
525.17	1285.86
525.53	1298.88
525.89	1311.99
526.25	1324.75
526.61	1337.31
526.97	1350.13
527.33	1362.81
527.68	1375.93
528.04	1389.09
528.40	1401.91
528.76	1414.92
529.12	1427.49
529.48	1440.53
529.84	1452.36
530.20	1464.72
530.56	1477.14
530.91	1489.98
531.27	1502.62
531.63	1515.19
531.99	1527.68
532.35	1539.68
532.71	1551.70
533.07	1564.28
533.42	1576.10
533.78	1587.92
534.14	1599.68
534.50	1610.56
534.86	1621.90
535.21	1632.55
535.57	1643.68
535.93	1654.76
536.29	1665.59
536.65	1676.68
537.00	1687.31
537.36	1698.46
537.72	1709.25
538.08	1720.21
538.44	1730.79
538.79	1741.54
539.15	1752.11
539.51	1762.58
539.87	1773.53
540.22	1784.08
540.58	1794.58
540.94	1805.29
541.29	1815.30
541.65	1824.79
542.01	1835.14
542.37	1844.93
542.72	1854.80
543.08	1864.35
543.44	1874.35
543.79	1883.29
544.15	1892.50
544.51	1902.27
544.87	1911.89
545.22	1920.69
545.58	1929.38
545.94	1938.18
546.29	1946.42
546.65	1954.49
547.01	1962.46
547.36	1970.02
547.72	1977.57
548.07	1985.06
548.43	1992.51
548.79	2000.16
549.14	2008.05
549.50	2016.12
549.86	2023.73
550.21	2030.85
550.57	2038.25
550.92	2044.84
551.28	2052.20
551.64	2059.38
551.99	2066.58
552.35	2073.55
552.70	2080.31
553.06	2086.74
553.41	2092.72
553.77	2099.00
554.13	2105.08
554.48	2111.95
554.84	2118.74
555.19	2125.14
555.55	2131.44
555.90	2137.68
556.26	2144.25
556.61	2150.00
556.97	2154.64
557.32	2160.38
557.68	2166.75
558.03	2172.41
558.39	2177.54
558.74	2183.39
559.10	2188.89
559.45	2194.44
559.81	2199.86
560.16	2205.31
560.52	2211.32
560.87	2217.81
561.23	2223.86
561.58	2230.63
561.94	2235.78
562.29	2240.61
562.64	2246.66
563.00	2252.23
563.35	2257.79
563.71	2263.69
564.06	2269.43
564.42	2275.50
564.77	2280.67
565.12	2285.82
565.48	2291.19
565.83	2296.94
566.19	2302.60
566.54	2307.94
566.89	2312.54
567.25	2317.10
567.60	2322.94
567.96	2328.08
568.31	2332.60
568.66	2336.92
569.02	2340.85
569.37	2344.63
569.72	2348.98
570.08	2352.62
570.43	2355.74
570.78	2358.93
571.14	2361.67
571.49	2364.93
571.84	2368.64
572.20	2371.53
572.55	2374.80
572.90	2377.10
573.26	2380.18
573.61	2382.61
573.96	2384.82
574.31	2386.94
574.67	2388.97
575.02	2390.04
575.37	2391.55
575.72	2392.59
576.08	2394.21
576.43	2394.61
576.78	2395.52
577.13	2397.50
577.49	2398.66
577.84	2400.09
578.19	2401.69
578.54	2402.50
578.90	2403.66
579.25	2403.69
579.60	2403.91
579.95	2403.25
580.30	2403.64
580.66	2402.96
581.01	2401.47
581.36	2399.65
581.71	2398.69
582.06	2398.03
582.42	2397.31
582.77	2395.45
583.12	2394.04
583.47	2392.88
583.82	2392.43
584.17	2391.33
584.53	2389.25
584.88	2387.49
585.23	2385.67
585.58	2383.58
585.93	2381.58
586.28	2379.54
586.63	2377.51
586.98	2375.56
587.34	2374.05
587.69	2372.00
588.04	2370.34
588.39	2369.25
588.74	2366.62
589.09	2364.16
589.44	2361.19
589.79	2358.89
590.14	2357.17
590.49	2354.38
590.84	2350.75
591.19	2348.02
591.54	2344.74
591.89	2340.86
592.25	2337.84
592.60	2333.81
592.95	2329.91
593.30	2325.82
593.65	2321.52
594.00	2317.12
594.35	2314.05
594.70	2309.48
595.05	2304.76
595.40	2299.41
595.75	2293.89
596.10	2290.49
596.45	2285.60
596.80	2281.11
597.15	2275.98
597.50	2270.02
597.85	2265.34
598.19	2260.27
598.54	2254.70
598.89	2249.79
599.24	2245.36
599.59	2239.34
599.94	2233.89
600.29	2227.99
600.64	2222.28
600.99	2215.78
601.34	2210.51
601.69	2203.67
602.04	2197.26
602.39	2190.81
602.74	2184.86
603.08	2179.28
603.43	2172.88
603.78	2166.25
604.13	2159.22
604.48	2152.21
604.83	2146.30
605.18	2140.01
605.53	2133.01
605.87	2125.89
606.22	2119.22
606.57	2111.39
606.92	2103.53
607.27	2096.59
607.62	2090.04
607.96	2082.99
608.31	2076.49
608.66	2068.71
609.01	2061.23
609.36	2054.23
609.70	2046.71
610.05	2039.03
610.40	2030.87
610.75	2022.72
611.10	2015.11
611.44	2006.34
611.79	1997.46
612.14	1987.51
612.49	1977.10
612.83	1967.99
613.18	1958.83
613.53	1949.49
613.88	1940.09
614.22	1931.46
614.57	1921.55
614.92	1911.10
615.27	1901.06
615.61	1891.14
615.96	1881.50
616.31	1871.98
616.65	1862.65
617.00	1852.63
617.35	1842.96
617.70	1833.31
618.04	1823.09
618.39	1812.63
618.74	1803.00
619.08	1793.51
619.43	1784.78
619.78	1776.45
620.12	1767.73
620.47	1757.95
620.82	1747.71
621.16	1737.81
621.51	1727.89
621.85	1718.06
622.20	1707.48
622.55	1696.97
622.89	1687.07
623.24	1677.34
623.59	1667.54
623.93	1657.39
624.28	1647.94
624.62	1637.76
624.97	1627.30
625.32	1617.79
625.66	1609.13
626.01	1600.24
626.35	1590.79
626.70	1580.74
627.04	1570.63
627.39	1560.60
627.73	1551.33
628.08	1542.17
628.43	1532.62
628.77	1523.53
629.12	1514.61
629.46	1506.71
629.81	1498.26
630.15	1488.56
630.50	1478.72
630.84	1468.24
631.19	1458.35
631.53	1448.70
631.88	1438.51
632.22	1428.54
632.57	1419.04
632.91	1408.75
633.26	1398.80
633.60	1389.19
633.95	1379.79
634.29	1370.34
634.64	1360.84
634.98	1351.02
635.32	1341.73
635.67	1333.15
636.01	1323.77
636.36	1313.95
636.70	1304.50
637.05	1295.09
637.39	1286.17
637.73	1277.49
638.08	1269.97
638.42	1261.65
638.77	1252.91
639.11	1244.63
639.45	1236.78
639.80	1228.09
640.14	1219.48
640.49	1210.73
640.83	1201.96
641.17	1193.94
641.52	1185.71
641.86	1177.16
642.20	1169.14
642.55	1160.55
642.89	1151.75
643.23	1143.01
643.58	1134.89
643.92	1125.83
644.26	1117.23
644.61	1108.78
644.95	1100.10
645.29	1090.68
645.64	1081.60
645.98	1073.28
646.32	1065.35
646.66	1056.91
647.01	1048.54
647.35	1040.41
647.69	1031.94
648.04	1023.52
648.38	1014.49
648.72	1005.74
649.06	997.34
649.41	989.28
649.75	981.24
650.09	973.32
650.43	965.30
650.78	957.12
651.12	949.49
651.46	942.09
651.80	934.86
652.14	927.44
652.49	920.03
652.83	912.63
653.17	904.89
653.51	897.26
653.85	889.92
654.20	882.69
654.54	875.10
654.88	868.00
655.22	860.87
655.56	854.01
655.90	847.20
656.25	840.52
656.59	833.51
656.93	826.53
657.27	819.50
657.61	812.69
657.95	806.60
658.29	800.76
658.64	794.56
658.98	788.07
659.32	781.62
659.66	775.44
660.00	769.17
660.34	763.20
660.68	757.15
661.02	750.95
661.36	745.08
661.70	739.36
662.05	733.76
662.39	728.39
662.73	723.11
663.07	717.88
663.41	712.35
663.75	706.78
664.09	701.30
664.43	695.91
664.77	690.55
665.11	684.81
665.45	678.91
665.79	673.19
666.13	667.62
666.47	662.19
666.81	656.83
667.15	651.53
667.49	646.37
667.83	641.15
668.17	635.94
668.51	630.92
668.85	626.07
669.19	621.18
669.53	616.21
669.87	611.05
670.21	606.24
670.55	601.60
670.89	597.23
671.23	592.98
671.57	588.63
671.91	584.39
672.25	580.37
672.58	576.25
672.92	572.27
673.26	568.35
673.60	564.57
673.94	560.76
674.28	557.18
674.62	553.48
674.96	549.81
675.30	546.34
675.64	542.74
675.97	539.24
676.31	535.71
676.65	532.16
676.99	528.81
677.33	525.09
677.67	521.47
678.01	517.70
678.34	514.05
678.68	510.59
679.02	507.00
679.36	503.25
679.70	499.71
680.04	496.29
680.37	492.95
680.71	489.71
681.05	486.56
681.39	483.40
681.73	480.28
682.06	477.30
682.40	474.23
682.74	471.03
683.08	467.86
683.42	464.79
683.75	461.91
684.09	458.97
684.43	456.14
684.77	453.26
685.10	450.45
685.44	447.63
685.78	444.71
686.12	442.03
686.45	439.39
686.79	436.75
687.13	434.25
687.46	431.62
687.80	428.90
688.14	426.14
688.48	423.55
688.81	420.89
689.15	418.36
689.49	415.85
689.82	413.42
690.16	410.85
690.50	408.36
690.83	405.81
691.17	403.30
691.51	400.94
691.84	398.78
692.18	396.59
692.52	394.44
692.85	392.38
693.19	390.29
693.52	388.13
693.86	385.99
694.20	383.76
694.53	381.69
694.87	379.54
695.21	377.46
695.54	375.34
695.88	373.25
696.21	371.09
696.55	368.96
696.88	366.94
697.22	365.07
697.56	363.29
697.89	361.52
698.23	359.80
698.56	358.05
698.90	356.28
699.23	354.37
699.57	352.55
699.90	350.71
700.24	348.95
700.58	347.26
700.91	345.65
701.25	344.15
701.58	342.57
701.92	341.06
702.25	339.50
702.59	337.90
702.92	336.40
703.26	334.90
703.59	333.50
703.93	332.26
704.26	330.85
704.60	329.35
704.93	327.85
705.26	326.36
705.60	324.89
705.93	323.42
706.27	322.17
706.60	320.95
706.94	319.77
707.27	318.42
707.61	317.09
707.94	315.78
708.27	314.29
708.61	312.88
708.94	311.54
709.28	310.30
709.61	309.11
709.94	307.95
710.28	306.71
710.61	305.56
710.95	304.16
711.28	303.10
711.61	301.89
711.95	300.81
712.28	299.68
712.61	298.55
712.95	297.58
713.28	296.54
713.61	295.37
713.95	294.24
714.28	293.22
714.61	292.21
714.95	291.20
715.28	290.21
715.61	289.24
715.95	288.32
716.28	287.36
716.61	286.46
716.95	285.47
717.28	284.63
717.61	283.69
717.94	282.83
718.28	281.83
718.61	281.10
718.94	280.17
719.27	279.35
719.61	278.56
719.94	277.68
720.27	276.76
720.60	275.95
720.94	275.20
721.27	274.44
721.60	273.77
721.93	273.09
722.27	272.48
722.60	271.83
722.93	271.13
723.26	270.55
723.59	269.85
723.93	269.26
724.26	268.61
724.59	268.02
724.92	267.43
725.25	266.96
725.59	266.35
725.92	265.84
726.25	265.27
726.58	264.73
726.91	264.16
727.24	263.65
727.57	263.10
727.91	262.51
728.24	261.99
728.57	261.41
728.90	260.84
729.23	260.25
729.56	259.81
729.89	259.27
730.22	258.71
730.55	258.16
730.89	257.61
731.22	257.11
731.55	256.59
731.88	256.09
732.21	255.51
732.54	254.99
732.87	254.50
733.20	254.04
733.53	253.57
733.86	253.12
734.19	252.61
734.52	252.22
734.85	251.98
735.18	251.54
735.51	251.19
735.84	250.77
736.17	250.38
736.50	249.87
736.83	249.75
737.16	249.31
737.49	248.95
737.82	248.58
738.15	248.19
738.48	247.77
738.81	247.40
739.14	247.00
739.47	246.64
739.80	246.32
740.13	246.01
740.46	245.61
740.79	245.25
741.12	244.93
741.45	244.57
741.78	244.09
742.11	243.78
742.44	243.41
742.77	243.17
743.10	242.86
743.43	242.53
743.75	242.00
744.08	241.98
744.41	241.67
744.74	241.32
745.07	240.97
745.40	240.72
745.73	240.51
746.06	240.19
746.39	239.88
746.71	239.51
747.04	239.14
747.37	238.85
747.70	238.57
748.03	238.27
748.36	238.00
748.68	237.72
749.01	237.40
749.34	237.10
749.67	236.79
750.00	236.54
750.33	236.44
750.65	236.14
750.98	235.65
751.31	235.38
751.64	235.17
751.97	235.05
752.29	234.78
752.62	234.45
752.95	234.24
753.28	234.00
753.60	233.81
753.93	233.66
754.26	233.45
754.59	233.17
754.91	232.95
755.24	232.73
755.57	232.48
755.90	232.28
756.22	232.05
756.55	231.81
756.88	231.52
757.20	231.17
757.53	230.94
757.86	230.73
758.19	230.53
758.51	230.35
758.84	230.04
759.17	229.83
759.49	229.66
759.82	229.57
760.15	229.42
760.47	229.22
760.80	228.97
761.13	228.79
761.45	228.65
761.78	228.45
762.11	228.27
762.43	228.10
762.76	227.89
763.08	227.77
763.41	227.63
763.74	227.54
764.06	227.37
764.39	227.19
764.71	227.00
765.04	226.84
765.37	226.69
765.69	226.59
766.02	226.46
766.34	226.30
766.67	226.06
767.00	225.94
767.32	225.92
767.65	225.93
767.97	225.85
768.30	225.72
768.62	225.62
768.95	225.50
769.27	225.38
769.60	225.31
769.92	225.14
770.25	224.95
770.57	224.80
770.90	224.67
771.22	224.57
771.55	224.45
771.87	224.37
772.20	224.22
772.52	224.24
772.85	224.37
773.17	224.24
773.50	224.13
773.82	224.00
774.15	223.78
774.47	223.59
774.80	223.46
775.12	223.34
775.45	223.21
775.77	223.11
776.09	223.07
776.42	222.99
776.74	222.97
777.07	222.91
777.39	222.85
777.72	222.77
778.04	222.71
778.36	222.67
778.69	222.60
779.01	222.57
779.33	222.32
779.66	222.03
779.98	221.92
780.31	221.83
780.63	221.82
780.95	221.80
781.28	221.68
781.60	221.57
781.92	221.52
782.25	221.51
782.57	221.44
782.89	221.32
783.22	221.19
783.54	221.09
783.86	221.01
784.19	220.92
784.51	220.90
784.83	220.80
785.16	220.71
785.48	220.65
785.80	220.57
786.12	220.54
