SpectraSuite Data File
++++++++++++++++++++++++++++++++++++
Date: Tue Jan 29 16:34:22 EST 2013
User: group
Dark Spectrum Present: No
Reference Spectrum Present: No
Number of Sampled Component Spectra: 1
Spectrometers: USB2E7196
Integration Time (usec): 65000 (USB2E7196)
Spectra Averaged: 100 (USB2E7196)
Boxcar Smoothing: 10 (USB2E7196)
Correct for Electrical Dark: No (USB2E7196)
Strobe/Lamp Enabled: No (USB2E7196)
Correct for Detector Non-linearity: No (USB2E7196)
Correct for Stray Light: No (USB2E7196)
Number of Pixels in Processed Spectrum: 2048
>>>>>Begin Processed Spectral Data<<<<<
339.09	0.00
339.48	201.82
339.86	203.27
340.24	205.06
340.63	206.10
341.01	210.26
341.39	208.81
341.78	210.36
342.16	212.29
342.54	212.02
342.93	201.21
343.31	211.38
343.69	211.93
344.07	212.39
344.46	212.82
344.84	213.23
345.22	213.41
345.60	213.67
345.99	213.86
346.37	213.98
346.75	214.06
347.13	214.09
347.52	214.12
347.90	214.26
348.28	214.30
348.66	214.36
349.05	214.30
349.43	214.37
349.81	214.44
350.19	214.50
350.57	214.55
350.96	214.66
351.34	214.71
351.72	214.80
352.10	214.92
352.48	214.98
352.87	214.99
353.25	215.06
353.63	215.12
354.01	215.17
354.39	215.24
354.77	215.33
355.15	215.45
355.54	215.51
355.92	215.45
356.30	215.47
356.68	215.69
357.06	215.78
357.44	215.78
357.82	215.82
358.20	215.93
358.58	215.98
358.97	216.04
359.35	216.16
359.73	216.27
360.11	216.28
360.49	216.36
360.87	216.44
361.25	216.52
361.63	216.64
362.01	216.70
362.39	216.72
362.77	216.75
363.15	216.75
363.53	216.78
363.91	216.80
364.29	216.84
364.67	216.62
365.05	216.64
365.43	216.66
365.81	216.70
366.19	216.78
366.57	216.87
366.95	216.87
367.33	216.82
367.71	216.81
368.09	216.86
368.47	216.83
368.85	216.85
369.23	216.86
369.61	216.77
369.99	216.82
370.37	216.85
370.75	216.94
371.13	216.88
371.51	216.84
371.89	216.87
372.27	216.85
372.65	216.90
373.03	216.86
373.41	216.86
373.78	216.79
374.16	216.67
374.54	216.59
374.92	216.52
375.30	216.49
375.68	216.40
376.06	216.37
376.44	216.35
376.82	216.29
377.19	216.22
377.57	216.17
377.95	216.07
378.33	215.98
378.71	215.83
379.09	215.87
379.47	215.90
379.84	215.81
380.22	215.74
380.60	215.66
380.98	215.65
381.36	215.62
381.73	215.58
382.11	215.60
382.49	215.60
382.87	215.56
383.25	215.52
383.62	215.75
384.00	215.67
384.38	215.60
384.76	215.62
385.13	215.68
385.51	215.65
385.89	215.61
386.27	215.61
386.64	215.60
387.02	215.54
387.40	215.46
387.78	215.46
388.15	215.48
388.53	215.44
388.91	215.40
389.29	215.37
389.66	215.39
390.04	215.31
390.42	215.31
390.79	215.33
391.17	215.32
391.55	215.07
391.92	215.07
392.30	215.08
392.68	215.00
393.05	214.94
393.43	214.94
393.81	214.92
394.18	214.91
394.56	214.93
394.94	214.98
395.31	214.96
395.69	215.01
396.06	215.06
396.44	215.10
396.82	215.08
397.19	215.19
397.57	215.19
397.95	215.27
398.32	215.21
398.70	215.26
399.07	215.34
399.45	215.37
399.82	215.41
400.20	215.46
400.58	215.55
400.95	215.57
401.33	215.70
401.70	215.96
402.08	216.04
402.45	216.09
402.83	216.23
403.20	216.37
403.58	216.44
403.95	216.56
404.33	216.69
404.71	216.85
405.08	217.12
405.46	217.30
405.83	217.45
406.21	217.69
406.58	217.92
406.96	218.15
407.33	218.41
407.70	218.73
408.08	219.20
408.45	219.55
408.83	219.93
409.20	220.27
409.58	220.52
409.95	221.00
410.33	221.50
410.70	221.95
411.08	222.50
411.45	223.09
411.82	223.65
412.20	224.35
412.57	225.20
412.95	225.77
413.32	226.60
413.69	227.48
414.07	228.35
414.44	229.34
414.82	230.37
415.19	231.56
415.56	232.76
415.94	233.92
416.31	235.36
416.68	236.80
417.06	238.40
417.43	239.94
417.81	241.66
418.18	243.45
418.55	245.38
418.93	247.46
419.30	249.60
419.67	251.87
420.04	254.19
420.42	256.57
420.79	259.40
421.16	262.20
421.54	265.09
421.91	268.13
422.28	271.24
422.66	274.55
423.03	277.81
423.40	281.17
423.77	284.77
424.15	288.44
424.52	292.28
424.89	296.48
425.26	300.54
425.64	304.46
426.01	308.75
426.38	313.25
426.75	317.78
427.13	322.45
427.50	327.42
427.87	332.63
428.24	337.84
428.61	342.87
428.99	348.39
429.36	354.40
429.73	360.29
430.10	366.20
430.47	372.26
430.85	378.54
431.22	385.26
431.59	392.41
431.96	399.23
432.33	406.73
432.70	413.96
433.08	422.53
433.45	430.58
433.82	438.62
434.19	447.50
434.56	456.18
434.93	464.60
435.30	472.91
435.68	481.98
436.05	490.90
436.42	499.77
436.79	507.94
437.16	516.67
437.53	525.95
437.90	535.06
438.27	544.06
438.64	553.25
439.01	561.86
439.38	569.46
439.75	576.81
440.13	585.20
440.50	593.18
440.87	599.65
441.24	606.29
441.61	613.64
441.98	619.04
442.35	625.36
442.72	631.69
443.09	637.78
443.46	641.55
443.83	644.13
444.20	646.40
444.57	649.55
444.94	651.07
445.31	652.53
445.68	653.92
446.05	654.49
446.42	653.75
446.79	652.71
447.16	651.62
447.53	650.79
447.90	647.48
448.27	644.20
448.64	639.54
449.01	636.25
449.37	630.31
449.74	624.62
450.11	617.74
450.48	610.33
450.85	602.83
451.22	596.39
451.59	590.21
451.96	584.38
452.33	576.48
452.70	569.38
453.07	560.87
453.43	552.25
453.80	543.95
454.17	535.92
454.54	528.40
454.91	520.22
455.28	512.22
455.65	504.78
456.02	497.26
456.38	490.94
456.75	483.02
457.12	476.41
457.49	469.92
457.86	463.73
458.23	458.33
458.59	452.43
458.96	446.40
459.33	441.11
459.70	435.63
460.07	431.35
460.43	426.43
460.80	421.83
461.17	417.85
461.54	413.63
461.91	409.63
462.27	405.46
462.64	402.03
463.01	398.25
463.38	394.59
463.74	390.90
464.11	387.60
464.48	384.77
464.85	381.70
465.21	379.26
465.58	376.62
465.95	373.47
466.32	370.81
466.68	368.16
467.05	365.60
467.42	363.08
467.78	360.40
468.15	357.86
468.52	355.98
468.88	353.47
469.25	351.24
469.62	349.46
469.98	347.53
470.35	345.72
470.72	344.06
471.08	342.20
471.45	340.69
471.82	339.11
472.18	337.44
472.55	336.21
472.92	334.76
473.28	333.53
473.65	332.35
474.02	331.24
474.38	330.36
474.75	329.57
475.11	328.75
475.48	328.15
475.85	327.67
476.21	327.19
476.58	326.82
476.94	326.58
477.31	326.28
477.67	326.03
478.04	325.82
478.41	325.72
478.77	325.93
479.14	325.89
479.50	326.05
479.87	326.37
480.23	326.68
480.60	326.94
480.96	327.23
481.33	327.85
481.69	328.40
482.06	328.92
482.42	329.38
482.79	329.97
483.15	330.75
483.52	331.72
483.88	332.56
484.25	333.56
484.61	334.60
484.98	335.66
485.34	336.94
485.71	338.33
486.07	339.81
486.44	341.07
486.80	342.70
487.17	344.43
487.53	346.19
487.90	348.06
488.26	350.13
488.62	352.26
488.99	354.31
489.35	356.48
489.72	358.87
490.08	361.46
490.44	364.02
490.81	366.76
491.17	369.49
491.54	372.47
491.90	375.46
492.26	378.71
492.63	382.14
492.99	385.66
493.36	389.38
493.72	393.27
494.08	397.31
494.45	401.50
494.81	405.82
495.17	410.30
495.54	415.01
495.90	419.80
496.26	424.76
496.63	429.97
496.99	435.43
497.35	441.08
497.72	446.89
498.08	452.90
498.44	459.00
498.80	465.36
499.17	471.87
499.53	478.65
499.89	485.56
500.26	492.59
500.62	499.67
500.98	507.04
501.34	514.46
501.71	522.35
502.07	530.24
502.43	538.31
502.79	546.51
503.16	554.99
503.52	563.65
503.88	572.41
504.24	581.38
504.60	590.44
504.97	599.62
505.33	608.93
505.69	618.84
506.05	628.76
506.41	638.73
506.78	648.82
507.14	659.11
507.50	669.55
507.86	680.23
508.22	691.09
508.59	701.81
508.95	713.04
509.31	724.30
509.67	735.85
510.03	747.28
510.39	759.03
510.75	770.88
511.12	782.86
511.48	795.05
511.84	807.37
512.20	819.75
512.56	832.49
512.92	845.34
513.28	858.05
513.64	870.84
514.00	883.75
514.37	896.80
514.73	909.98
515.09	923.07
515.45	936.06
515.81	949.19
516.17	962.72
516.53	976.01
516.89	989.25
517.25	1002.42
517.61	1016.05
517.97	1029.56
518.33	1042.81
518.69	1056.52
519.05	1070.36
519.41	1084.15
519.77	1098.17
520.13	1111.57
520.49	1124.77
520.85	1138.30
521.21	1151.86
521.57	1165.65
521.93	1178.79
522.29	1192.53
522.65	1206.25
523.01	1219.96
523.37	1233.27
523.73	1246.66
524.09	1259.92
524.45	1273.41
524.81	1286.94
525.17	1300.45
525.53	1313.69
525.89	1327.18
526.25	1340.42
526.61	1353.32
526.97	1366.51
527.33	1379.59
527.68	1393.19
528.04	1406.89
528.40	1419.99
528.76	1433.39
529.12	1446.39
529.48	1459.79
529.84	1472.21
530.20	1485.15
530.56	1497.92
530.91	1511.47
531.27	1524.35
531.63	1537.20
531.99	1549.99
532.35	1562.33
532.71	1574.78
533.07	1587.97
533.42	1600.29
533.78	1612.51
534.14	1624.72
534.50	1636.03
534.86	1647.70
535.21	1658.69
535.57	1670.36
535.93	1681.77
536.29	1692.87
536.65	1704.44
537.00	1715.52
537.36	1727.09
537.72	1738.23
538.08	1749.83
538.44	1760.79
538.79	1772.10
539.15	1783.18
539.51	1794.14
539.87	1805.66
540.22	1816.67
540.58	1827.55
540.94	1838.56
541.29	1848.92
541.65	1858.73
542.01	1869.42
542.37	1879.61
542.72	1889.93
543.08	1899.74
543.44	1910.34
543.79	1919.89
544.15	1929.43
544.51	1939.57
544.87	1949.52
545.22	1958.94
545.58	1967.86
545.94	1976.74
546.29	1985.30
546.65	1993.80
547.01	2002.17
547.36	2009.95
547.72	2017.69
548.07	2025.39
548.43	2033.16
548.79	2041.06
549.14	2049.46
549.50	2058.07
549.86	2065.95
550.21	2073.39
550.57	2081.15
550.92	2087.93
551.28	2095.43
551.64	2102.68
551.99	2110.22
552.35	2117.36
552.70	2124.21
553.06	2130.82
553.41	2137.13
553.77	2143.75
554.13	2150.02
554.48	2157.01
554.84	2164.23
555.19	2170.86
555.55	2177.34
555.90	2183.83
556.26	2190.89
556.61	2197.03
556.97	2201.73
557.32	2207.54
557.68	2214.02
558.03	2219.83
558.39	2225.36
558.74	2231.39
559.10	2236.93
559.45	2242.65
559.81	2248.33
560.16	2253.85
560.52	2259.84
560.87	2266.22
561.23	2272.13
561.58	2278.91
561.94	2284.29
562.29	2289.04
562.64	2295.17
563.00	2300.96
563.35	2306.50
563.71	2312.08
564.06	2317.63
564.42	2323.64
564.77	2328.76
565.12	2334.00
565.48	2339.19
565.83	2344.78
566.19	2350.19
566.54	2355.55
566.89	2360.15
567.25	2364.76
567.60	2370.57
567.96	2375.63
568.31	2380.17
568.66	2384.53
569.02	2388.50
569.37	2392.17
569.72	2396.43
570.08	2399.88
570.43	2403.03
570.78	2405.87
571.14	2408.21
571.49	2411.41
571.84	2415.04
572.20	2417.89
572.55	2420.71
572.90	2422.97
573.26	2425.80
573.61	2428.28
573.96	2430.52
574.31	2432.55
574.67	2434.40
575.02	2435.02
575.37	2436.46
575.72	2437.11
576.08	2438.47
576.43	2438.52
576.78	2438.90
577.13	2440.30
577.49	2441.33
577.84	2442.07
578.19	2443.49
578.54	2444.14
578.90	2444.68
579.25	2444.39
579.60	2444.29
579.95	2443.59
580.30	2443.52
580.66	2442.72
581.01	2441.10
581.36	2438.66
581.71	2437.02
582.06	2435.83
582.42	2434.84
582.77	2432.58
583.12	2430.98
583.47	2429.57
583.82	2428.77
584.17	2427.44
584.53	2425.36
584.88	2423.29
585.23	2421.46
585.58	2419.20
585.93	2417.22
586.28	2414.95
586.63	2412.47
586.98	2410.27
587.34	2408.12
587.69	2405.59
588.04	2403.31
588.39	2401.60
588.74	2399.26
589.09	2396.51
589.44	2393.12
589.79	2390.66
590.14	2388.54
590.49	2385.73
590.84	2381.67
591.19	2378.44
591.54	2375.11
591.89	2371.09
592.25	2367.78
592.60	2363.60
592.95	2359.33
593.30	2355.20
593.65	2350.68
594.00	2346.14
594.35	2343.06
594.70	2338.51
595.05	2334.07
595.40	2328.51
595.75	2322.68
596.10	2318.69
596.45	2313.84
596.80	2309.27
597.15	2303.97
597.50	2297.95
597.85	2292.93
598.19	2287.74
598.54	2282.06
598.89	2276.70
599.24	2271.98
599.59	2265.71
599.94	2259.64
600.29	2253.50
600.64	2247.34
600.99	2240.53
601.34	2234.99
601.69	2227.91
602.04	2221.35
602.39	2214.42
602.74	2208.31
603.08	2202.80
603.43	2196.34
603.78	2189.42
604.13	2182.28
604.48	2174.91
604.83	2168.88
605.18	2162.49
605.53	2155.60
605.87	2148.40
606.22	2141.63
606.57	2133.71
606.92	2125.62
607.27	2118.76
607.62	2112.20
607.96	2105.19
608.31	2098.84
608.66	2091.02
609.01	2083.25
609.36	2076.14
609.70	2068.59
610.05	2060.75
610.40	2052.35
610.75	2043.93
611.10	2036.09
611.44	2027.14
611.79	2018.35
612.14	2008.34
612.49	1997.70
612.83	1988.07
613.18	1978.78
613.53	1969.46
613.88	1959.87
614.22	1951.25
614.57	1941.39
614.92	1930.67
615.27	1920.46
615.61	1910.15
615.96	1900.50
616.31	1891.05
616.65	1881.55
617.00	1871.69
617.35	1861.95
617.70	1852.22
618.04	1842.14
618.39	1832.01
618.74	1822.32
619.08	1812.67
619.43	1803.81
619.78	1795.52
620.12	1787.15
620.47	1777.59
620.82	1767.23
621.16	1757.41
621.51	1747.50
621.85	1737.55
622.20	1727.41
622.55	1716.76
622.89	1706.71
623.24	1696.98
623.59	1687.20
623.93	1677.02
624.28	1667.21
624.62	1657.10
624.97	1646.81
625.32	1637.06
625.66	1628.09
626.01	1619.34
626.35	1610.01
626.70	1600.04
627.04	1589.99
627.39	1579.66
627.73	1570.46
628.08	1561.45
628.43	1551.93
628.77	1542.71
629.12	1533.79
629.46	1525.77
629.81	1517.45
630.15	1508.10
630.50	1498.11
630.84	1487.50
631.19	1477.65
631.53	1468.42
631.88	1458.28
632.22	1448.28
632.57	1438.87
632.91	1428.75
633.26	1418.85
633.60	1409.14
633.95	1399.83
634.29	1390.26
634.64	1380.96
634.98	1370.79
635.32	1361.48
635.67	1352.93
636.01	1343.65
636.36	1333.84
636.70	1324.27
637.05	1314.80
637.39	1305.75
637.73	1297.31
638.08	1289.71
638.42	1281.47
638.77	1272.59
639.11	1264.41
639.45	1256.50
639.80	1248.01
640.14	1239.26
640.49	1230.37
640.83	1221.51
641.17	1213.23
641.52	1205.10
641.86	1196.60
642.20	1188.79
642.55	1180.10
642.89	1171.19
643.23	1162.50
643.58	1154.45
643.92	1145.39
644.26	1136.65
644.61	1128.18
644.95	1119.20
645.29	1109.95
645.64	1100.81
645.98	1092.26
646.32	1084.27
646.66	1075.76
647.01	1067.32
647.35	1059.16
647.69	1050.78
648.04	1042.61
648.38	1033.77
648.72	1024.91
649.06	1016.38
649.41	1008.08
649.75	1000.12
650.09	992.15
650.43	984.09
650.78	975.66
651.12	967.93
651.46	960.47
651.80	953.23
652.14	945.96
652.49	938.39
652.83	931.04
653.17	923.34
653.51	915.64
653.85	908.31
654.20	901.08
654.54	893.64
654.88	886.43
655.22	879.20
655.56	872.12
655.90	865.33
656.25	858.52
656.59	851.61
656.93	844.59
657.27	837.47
657.61	830.36
657.95	824.23
658.29	818.24
658.64	812.04
658.98	805.49
659.32	798.82
659.66	792.53
660.00	786.09
660.34	779.97
660.68	773.77
661.02	767.41
661.36	761.32
661.70	755.43
662.05	749.76
662.39	744.18
662.73	738.71
663.07	733.28
663.41	727.57
663.75	721.78
664.09	716.03
664.43	710.52
664.77	705.18
665.11	699.29
665.45	693.33
665.79	687.53
666.13	681.84
666.47	676.36
666.81	670.80
667.15	665.41
667.49	660.06
667.83	654.82
668.17	649.51
668.51	644.37
668.85	639.35
669.19	634.36
669.53	629.21
669.87	624.08
670.21	619.26
670.55	614.62
670.89	610.19
671.23	605.85
671.57	601.43
671.91	597.13
672.25	592.95
672.58	588.73
672.92	584.57
673.26	580.63
673.60	576.71
673.94	572.96
674.28	569.30
674.62	565.61
674.96	561.78
675.30	558.29
675.64	554.58
675.97	551.04
676.31	547.39
676.65	543.80
676.99	540.36
677.33	536.44
677.67	532.70
678.01	528.79
678.34	525.14
678.68	521.60
679.02	517.98
679.36	514.28
679.70	510.63
680.04	507.07
680.37	503.55
680.71	500.17
681.05	496.91
681.39	493.57
681.73	490.36
682.06	487.36
682.40	484.22
682.74	481.02
683.08	477.71
683.42	474.44
683.75	471.36
684.09	468.29
684.43	465.46
684.77	462.54
685.10	459.70
685.44	456.68
685.78	453.71
686.12	450.84
686.45	448.06
686.79	445.37
687.13	442.80
687.46	440.13
687.80	437.41
688.14	434.48
688.48	431.83
688.81	429.06
689.15	426.39
689.49	423.73
689.82	421.14
690.16	418.51
690.50	416.03
690.83	413.51
691.17	410.92
691.51	408.46
691.84	406.12
692.18	403.87
692.52	401.65
692.85	399.50
693.19	397.36
693.52	395.22
693.86	392.99
694.20	390.74
694.53	388.60
694.87	386.36
695.21	384.25
695.54	382.02
695.88	379.85
696.21	377.63
696.55	375.49
696.88	373.42
697.22	371.41
697.56	369.53
697.89	367.62
698.23	365.81
698.56	363.95
698.90	362.22
699.23	360.28
699.57	358.37
699.90	356.45
700.24	354.55
700.58	352.75
700.91	351.05
701.25	349.47
701.58	347.83
701.92	346.21
702.25	344.60
702.59	343.01
702.92	341.43
703.26	339.85
703.59	338.33
703.93	337.00
704.26	335.52
704.60	333.97
704.93	332.46
705.26	330.96
705.60	329.48
705.93	327.90
706.27	326.52
706.60	325.25
706.94	324.02
707.27	322.65
707.61	321.24
707.94	319.87
708.27	318.34
708.61	316.85
708.94	315.47
709.28	314.09
709.61	312.85
709.94	311.66
710.28	310.40
710.61	309.17
710.95	307.74
711.28	306.70
711.61	305.49
711.95	304.34
712.28	303.12
712.61	301.90
712.95	300.82
713.28	299.78
713.61	298.62
713.95	297.42
714.28	296.36
714.61	295.33
714.95	294.27
715.28	293.25
715.61	292.20
715.95	291.27
716.28	290.33
716.61	289.32
716.95	288.27
717.28	287.37
717.61	286.43
717.94	285.53
718.28	284.46
718.61	283.61
718.94	282.71
719.27	281.90
719.61	281.07
719.94	280.20
720.27	279.18
720.60	278.30
720.94	277.51
721.27	276.75
721.60	276.05
721.93	275.33
722.27	274.68
722.60	274.03
722.93	273.27
723.26	272.65
723.59	271.92
723.93	271.29
724.26	270.61
724.59	269.95
724.92	269.32
725.25	268.79
725.59	268.18
725.92	267.62
726.25	266.99
726.58	266.39
726.91	265.78
727.24	265.26
727.57	264.70
727.91	264.07
728.24	263.50
728.57	262.87
728.90	262.34
729.23	261.68
729.56	261.22
729.89	260.66
730.22	260.05
730.55	259.52
730.89	258.97
731.22	258.44
731.55	257.88
731.88	257.37
732.21	256.81
732.54	256.26
732.87	255.73
733.20	255.26
733.53	254.78
733.86	254.35
734.19	253.85
734.52	253.45
734.85	253.16
735.18	252.70
735.51	252.33
735.84	251.88
736.17	251.54
736.50	250.98
736.83	250.83
737.16	250.44
737.49	250.04
737.82	249.61
738.15	249.24
738.48	248.88
738.81	248.47
739.14	248.01
739.47	247.62
739.80	247.20
740.13	246.83
740.46	246.46
740.79	246.02
741.12	245.64
741.45	245.21
741.78	244.74
742.11	244.48
742.44	244.07
742.77	243.76
743.10	243.38
743.43	243.04
743.75	242.44
744.08	242.36
744.41	242.01
744.74	241.66
745.07	241.25
745.40	240.93
745.73	240.69
746.06	240.41
746.39	240.10
746.71	239.79
747.04	239.44
747.37	239.08
747.70	238.81
748.03	238.51
748.36	238.26
748.68	237.95
749.01	237.54
749.34	237.26
749.67	236.95
750.00	236.67
750.33	236.52
750.65	236.28
750.98	235.74
751.31	235.48
751.64	235.27
751.97	235.20
752.29	234.93
752.62	234.58
752.95	234.33
753.28	234.05
753.60	233.80
753.93	233.65
754.26	233.44
754.59	233.17
754.91	232.92
755.24	232.66
755.57	232.41
755.90	232.20
756.22	231.94
756.55	231.67
756.88	231.46
757.20	231.11
757.53	230.86
757.86	230.64
758.19	230.47
758.51	230.26
758.84	229.89
759.17	229.71
759.49	229.52
759.82	229.42
760.15	229.27
760.47	229.09
760.80	228.81
761.13	228.66
761.45	228.45
761.78	228.29
762.11	228.09
762.43	227.91
762.76	227.75
763.08	227.59
763.41	227.46
763.74	227.26
764.06	227.12
764.39	226.95
764.71	226.79
765.04	226.58
765.37	226.44
765.69	226.32
766.02	226.17
766.34	226.01
766.67	225.79
767.00	225.68
767.32	225.68
767.65	225.68
767.97	225.54
768.30	225.42
768.62	225.28
768.95	225.16
769.27	225.05
769.60	224.93
769.92	224.82
770.25	224.64
770.57	224.50
770.90	224.37
771.22	224.22
771.55	224.17
771.87	224.09
772.20	223.94
772.52	223.98
772.85	224.10
773.17	223.99
773.50	223.89
773.82	223.75
774.15	223.53
774.47	223.30
774.80	223.18
775.12	223.07
775.45	222.96
775.77	222.86
776.09	222.75
776.42	222.68
776.74	222.63
777.07	222.54
777.39	222.45
777.72	222.37
778.04	222.35
778.36	222.19
778.69	222.09
779.01	222.04
779.33	221.79
779.66	221.49
779.98	221.41
780.31	221.33
780.63	221.33
780.95	221.27
781.28	221.19
781.60	221.11
781.92	221.05
782.25	221.01
782.57	220.97
782.89	220.90
783.22	220.81
783.54	220.69
783.86	220.65
784.19	220.58
784.51	220.58
784.83	220.51
785.16	220.47
785.48	220.40
785.80	220.33
786.12	220.30
