SpectraSuite Data File
++++++++++++++++++++++++++++++++++++
Date: Tue Jan 29 16:50:13 EST 2013
User: group
Dark Spectrum Present: No
Reference Spectrum Present: No
Number of Sampled Component Spectra: 1
Spectrometers: USB2E7196
Integration Time (usec): 65000 (USB2E7196)
Spectra Averaged: 100 (USB2E7196)
Boxcar Smoothing: 10 (USB2E7196)
Correct for Electrical Dark: No (USB2E7196)
Strobe/Lamp Enabled: No (USB2E7196)
Correct for Detector Non-linearity: No (USB2E7196)
Correct for Stray Light: No (USB2E7196)
Number of Pixels in Processed Spectrum: 2048
>>>>>Begin Processed Spectral Data<<<<<
339.09	0.00
339.48	201.46
339.86	203.42
340.24	204.23
340.63	206.11
341.01	209.95
341.39	208.75
341.78	210.75
342.16	211.89
342.54	212.30
342.93	201.02
343.31	211.15
343.69	211.72
344.07	212.18
344.46	212.69
344.84	213.08
345.22	213.27
345.60	213.53
345.99	213.67
346.37	213.76
346.75	213.85
347.13	213.93
347.52	214.02
347.90	214.11
348.28	214.14
348.66	214.22
349.05	214.18
349.43	214.23
349.81	214.33
350.19	214.41
350.57	214.51
350.96	214.55
351.34	214.65
351.72	214.71
352.10	214.81
352.48	214.81
352.87	214.87
353.25	214.94
353.63	214.98
354.01	215.06
354.39	215.20
354.77	215.29
355.15	215.41
355.54	215.42
355.92	215.42
356.30	215.48
356.68	215.66
357.06	215.70
357.44	215.72
357.82	215.76
358.20	215.79
358.58	215.83
358.97	215.91
359.35	216.01
359.73	216.13
360.11	216.17
360.49	216.22
360.87	216.26
361.25	216.33
361.63	216.44
362.01	216.49
362.39	216.49
362.77	216.53
363.15	216.52
363.53	216.57
363.91	216.63
364.29	216.64
364.67	216.48
365.05	216.52
365.43	216.57
365.81	216.59
366.19	216.71
366.57	216.77
366.95	216.79
367.33	216.74
367.71	216.73
368.09	216.79
368.47	216.79
368.85	216.77
369.23	216.77
369.61	216.70
369.99	216.76
370.37	216.76
370.75	216.81
371.13	216.75
371.51	216.69
371.89	216.65
372.27	216.65
372.65	216.64
373.03	216.58
373.41	216.52
373.78	216.46
374.16	216.29
374.54	216.18
374.92	216.13
375.30	216.10
375.68	216.02
376.06	215.96
376.44	215.92
376.82	215.92
377.19	215.87
377.57	215.85
377.95	215.71
378.33	215.65
378.71	215.50
379.09	215.49
379.47	215.50
379.84	215.44
380.22	215.40
380.60	215.32
380.98	215.27
381.36	215.27
381.73	215.26
382.11	215.28
382.49	215.26
382.87	215.21
383.25	215.16
383.62	215.36
384.00	215.27
384.38	215.21
384.76	215.19
385.13	215.24
385.51	215.17
385.89	215.12
386.27	215.11
386.64	215.07
387.02	215.02
387.40	214.98
387.78	214.98
388.15	214.97
388.53	214.93
388.91	214.93
389.29	214.87
389.66	214.85
390.04	214.80
390.42	214.85
390.79	214.85
391.17	214.82
391.55	214.58
391.92	214.62
392.30	214.63
392.68	214.57
393.05	214.53
393.43	214.54
393.81	214.53
394.18	214.49
394.56	214.54
394.94	214.57
395.31	214.57
395.69	214.64
396.06	214.67
396.44	214.72
396.82	214.71
397.19	214.84
397.57	214.84
397.95	214.90
398.32	214.84
398.70	214.89
399.07	214.98
399.45	215.02
399.82	215.06
400.20	215.09
400.58	215.17
400.95	215.17
401.33	215.27
401.70	215.51
402.08	215.60
402.45	215.65
402.83	215.80
403.20	215.89
403.58	215.96
403.95	216.13
404.33	216.28
404.71	216.44
405.08	216.72
405.46	216.92
405.83	217.09
406.21	217.34
406.58	217.59
406.96	217.84
407.33	218.09
407.70	218.37
408.08	218.87
408.45	219.23
408.83	219.65
409.20	220.02
409.58	220.31
409.95	220.83
410.33	221.35
410.70	221.76
411.08	222.32
411.45	222.92
411.82	223.47
412.20	224.18
412.57	225.03
412.95	225.55
413.32	226.36
413.69	227.20
414.07	228.09
414.44	229.04
414.82	230.07
415.19	231.27
415.56	232.49
415.94	233.69
416.31	235.10
416.68	236.49
417.06	238.11
417.43	239.67
417.81	241.36
418.18	243.18
418.55	245.18
418.93	247.20
419.30	249.31
419.67	251.59
420.04	253.85
420.42	256.24
420.79	259.13
421.16	261.95
421.54	264.89
421.91	267.94
422.28	271.08
422.66	274.38
423.03	277.63
423.40	280.97
423.77	284.56
424.15	288.29
424.52	292.13
424.89	296.36
425.26	300.45
425.64	304.37
426.01	308.67
426.38	313.21
426.75	317.80
427.13	322.55
427.50	327.54
427.87	332.79
428.24	338.01
428.61	342.97
428.99	348.52
429.36	354.54
429.73	360.44
430.10	366.33
430.47	372.51
430.85	378.86
431.22	385.63
431.59	392.77
431.96	399.59
432.33	407.17
432.70	414.43
433.08	423.00
433.45	431.11
433.82	439.13
434.19	447.97
434.56	456.74
434.93	465.12
435.30	473.44
435.68	482.59
436.05	491.65
436.42	500.60
436.79	508.83
437.16	517.61
437.53	526.94
437.90	536.16
438.27	545.07
438.64	554.33
439.01	562.91
439.38	570.58
439.75	577.92
440.13	586.38
440.50	594.37
440.87	600.86
441.24	607.50
441.61	614.91
441.98	620.34
442.35	626.64
442.72	633.03
443.09	639.17
443.46	642.91
443.83	645.44
444.20	647.67
444.57	650.86
444.94	652.36
445.31	653.82
445.68	655.18
446.05	655.75
446.42	654.95
446.79	654.03
447.16	652.91
447.53	652.16
447.90	648.84
448.27	645.53
448.64	640.83
449.01	637.55
449.37	631.59
449.74	625.90
450.11	619.05
450.48	611.61
450.85	604.06
451.22	597.58
451.59	591.37
451.96	585.53
452.33	577.58
452.70	570.44
453.07	561.91
453.43	553.29
453.80	544.97
454.17	536.95
454.54	529.32
454.91	521.09
455.28	513.06
455.65	505.55
456.02	498.00
456.38	491.66
456.75	483.73
457.12	477.17
457.49	470.61
457.86	464.38
458.23	458.92
458.59	452.97
458.96	446.92
459.33	441.59
459.70	436.16
460.07	431.85
460.43	426.90
460.80	422.31
461.17	418.26
461.54	414.09
461.91	410.09
462.27	405.94
462.64	402.52
463.01	398.71
463.38	395.06
463.74	391.35
464.11	388.09
464.48	385.24
464.85	382.13
465.21	379.67
465.58	376.98
465.95	373.82
466.32	371.17
466.68	368.57
467.05	365.96
467.42	363.41
467.78	360.73
468.15	358.22
468.52	356.31
468.88	353.77
469.25	351.53
469.62	349.71
469.98	347.74
470.35	345.90
470.72	344.19
471.08	342.30
471.45	340.74
471.82	339.19
472.18	337.49
472.55	336.27
472.92	334.86
473.28	333.64
473.65	332.49
474.02	331.38
474.38	330.52
474.75	329.75
475.11	328.92
475.48	328.31
475.85	327.81
476.21	327.30
476.58	326.97
476.94	326.73
477.31	326.39
477.67	326.11
478.04	325.91
478.41	325.89
478.77	326.07
479.14	326.02
479.50	326.13
479.87	326.41
480.23	326.70
480.60	326.94
480.96	327.22
481.33	327.84
481.69	328.36
482.06	328.79
482.42	329.24
482.79	329.84
483.15	330.62
483.52	331.55
483.88	332.43
484.25	333.40
484.61	334.43
484.98	335.48
485.34	336.82
485.71	338.18
486.07	339.61
486.44	340.92
486.80	342.55
487.17	344.25
487.53	346.06
487.90	347.92
488.26	349.92
488.62	352.08
488.99	354.10
489.35	356.30
489.72	358.73
490.08	361.32
490.44	363.86
490.81	366.56
491.17	369.24
491.54	372.20
491.90	375.23
492.26	378.49
492.63	381.89
492.99	385.36
493.36	389.04
493.72	392.92
494.08	396.93
494.45	401.12
494.81	405.44
495.17	409.88
495.54	414.57
495.90	419.44
496.26	424.36
496.63	429.58
496.99	434.96
497.35	440.51
497.72	446.27
498.08	452.20
498.44	458.21
498.80	464.65
499.17	471.10
499.53	477.75
499.89	484.60
500.26	491.52
500.62	498.53
500.98	505.89
501.34	513.28
501.71	521.04
502.07	528.83
502.43	536.85
502.79	545.02
503.16	553.34
503.52	561.91
503.88	570.65
504.24	579.62
504.60	588.74
504.97	597.95
505.33	607.19
505.69	617.05
506.05	626.98
506.41	636.88
506.78	646.97
507.14	657.20
507.50	667.55
507.86	678.34
508.22	689.17
508.59	699.87
508.95	710.97
509.31	722.14
509.67	733.53
510.03	744.86
510.39	756.52
510.75	768.35
511.12	780.19
511.48	792.27
511.84	804.49
512.20	816.76
512.56	829.38
512.92	842.19
513.28	854.77
513.64	867.58
514.00	880.33
514.37	893.30
514.73	906.50
515.09	919.55
515.45	932.46
515.81	945.53
516.17	958.90
516.53	972.15
516.89	985.25
517.25	998.56
517.61	1012.16
517.97	1025.66
518.33	1038.82
518.69	1052.39
519.05	1066.02
519.41	1079.74
519.77	1093.61
520.13	1106.97
520.49	1120.15
520.85	1133.57
521.21	1146.82
521.57	1160.49
521.93	1173.58
522.29	1187.23
522.65	1200.87
523.01	1214.48
523.37	1227.81
523.73	1241.14
524.09	1254.34
524.45	1267.83
524.81	1281.28
525.17	1294.65
525.53	1307.82
525.89	1321.21
526.25	1334.39
526.61	1347.37
526.97	1360.55
527.33	1373.60
527.68	1386.99
528.04	1400.65
528.40	1413.82
528.76	1427.20
529.12	1440.24
529.48	1453.57
529.84	1465.94
530.20	1478.79
530.56	1491.39
530.91	1504.59
531.27	1517.44
531.63	1530.20
531.99	1543.06
532.35	1555.31
532.71	1567.81
533.07	1580.73
533.42	1592.94
533.78	1605.16
534.14	1617.29
534.50	1628.55
534.86	1640.17
535.21	1651.13
535.57	1662.61
535.93	1673.92
536.29	1685.19
536.65	1696.77
537.00	1707.84
537.36	1719.38
537.72	1730.35
538.08	1741.88
538.44	1752.87
538.79	1764.19
539.15	1775.20
539.51	1786.12
539.87	1797.61
540.22	1808.53
540.58	1819.52
540.94	1830.68
541.29	1841.06
541.65	1850.84
542.01	1861.36
542.37	1871.44
542.72	1881.74
543.08	1891.51
543.44	1902.07
543.79	1911.29
544.15	1920.70
544.51	1930.66
544.87	1940.60
545.22	1949.95
545.58	1958.79
545.94	1967.74
546.29	1976.18
546.65	1984.67
547.01	1992.87
547.36	2000.49
547.72	2008.29
548.07	2015.87
548.43	2023.58
548.79	2031.47
549.14	2039.76
549.50	2048.22
549.86	2056.23
550.21	2063.67
550.57	2071.42
550.92	2078.32
551.28	2085.90
551.64	2093.10
551.99	2100.65
552.35	2107.71
552.70	2114.66
553.06	2121.32
553.41	2127.73
553.77	2134.24
554.13	2140.58
554.48	2147.65
554.84	2154.84
555.19	2161.33
555.55	2167.80
555.90	2174.03
556.26	2180.89
556.61	2187.03
556.97	2191.94
557.32	2197.71
557.68	2204.20
558.03	2209.95
558.39	2215.23
558.74	2221.36
559.10	2226.96
559.45	2232.49
559.81	2238.05
560.16	2243.43
560.52	2249.32
560.87	2255.61
561.23	2261.43
561.58	2267.92
561.94	2273.04
562.29	2277.73
562.64	2283.68
563.00	2289.44
563.35	2294.90
563.71	2300.42
564.06	2306.02
564.42	2311.89
564.77	2316.84
565.12	2321.88
565.48	2327.01
565.83	2332.37
566.19	2337.48
566.54	2342.66
566.89	2347.24
567.25	2351.78
567.60	2357.44
567.96	2362.52
568.31	2366.98
568.66	2371.34
569.02	2375.34
569.37	2379.08
569.72	2383.29
570.08	2386.78
570.43	2389.64
570.78	2392.83
571.14	2395.38
571.49	2398.27
571.84	2401.53
572.20	2404.33
572.55	2407.21
572.90	2409.28
573.26	2412.04
573.61	2414.59
573.96	2416.61
574.31	2418.60
574.67	2420.36
575.02	2421.02
575.37	2422.36
575.72	2422.84
576.08	2424.16
576.43	2424.08
576.78	2424.33
577.13	2425.59
577.49	2426.63
577.84	2427.47
578.19	2428.46
578.54	2428.77
578.90	2429.27
579.25	2429.02
579.60	2428.84
579.95	2427.86
580.30	2427.79
580.66	2426.98
581.01	2425.22
581.36	2422.68
581.71	2421.01
582.06	2419.55
582.42	2418.42
582.77	2415.83
583.12	2414.07
583.47	2412.42
583.82	2411.60
584.17	2410.07
584.53	2408.01
584.88	2405.69
585.23	2403.67
585.58	2401.24
585.93	2399.19
586.28	2396.78
586.63	2394.21
586.98	2391.72
587.34	2389.75
587.69	2387.20
588.04	2384.78
588.39	2383.06
588.74	2380.49
589.09	2377.61
589.44	2374.37
589.79	2371.80
590.14	2369.82
590.49	2366.75
590.84	2362.67
591.19	2359.24
591.54	2355.90
591.89	2351.64
592.25	2348.12
592.60	2343.89
592.95	2339.61
593.30	2335.24
593.65	2330.78
594.00	2326.25
594.35	2323.14
594.70	2318.21
595.05	2313.59
595.40	2308.13
595.75	2302.12
596.10	2298.39
596.45	2293.47
596.80	2288.85
597.15	2283.56
597.50	2277.48
597.85	2272.60
598.19	2267.43
598.54	2261.65
598.89	2256.44
599.24	2251.77
599.59	2245.67
599.94	2239.67
600.29	2233.65
600.64	2227.67
600.99	2220.76
601.34	2215.19
601.69	2208.27
602.04	2202.04
602.39	2195.26
602.74	2189.06
603.08	2183.65
603.43	2177.10
603.78	2170.22
604.13	2162.98
604.48	2155.49
604.83	2149.35
605.18	2143.08
605.53	2136.18
605.87	2129.20
606.22	2122.42
606.57	2114.49
606.92	2106.53
607.27	2099.55
607.62	2093.12
607.96	2086.11
608.31	2079.81
608.66	2072.09
609.01	2064.34
609.36	2057.18
609.70	2049.40
610.05	2041.71
610.40	2033.41
610.75	2025.13
611.10	2017.29
611.44	2008.51
611.79	2000.15
612.14	1990.28
612.49	1979.54
612.83	1970.09
613.18	1960.79
613.53	1951.38
613.88	1941.91
614.22	1933.21
614.57	1923.41
614.92	1912.61
615.27	1902.45
615.61	1892.26
615.96	1882.65
616.31	1873.12
616.65	1863.63
617.00	1854.11
617.35	1844.52
617.70	1834.61
618.04	1824.66
618.39	1814.75
618.74	1805.20
619.08	1795.41
619.43	1786.77
619.78	1778.61
620.12	1770.22
620.47	1760.85
620.82	1750.56
621.16	1740.85
621.51	1731.22
621.85	1721.45
622.20	1711.31
622.55	1700.79
622.89	1690.94
623.24	1681.26
623.59	1671.57
623.93	1661.64
624.28	1651.88
624.62	1641.89
624.97	1631.83
625.32	1622.14
625.66	1613.15
626.01	1604.45
626.35	1595.22
626.70	1585.24
627.04	1575.44
627.39	1565.28
627.73	1556.10
628.08	1547.49
628.43	1538.03
628.77	1528.90
629.12	1520.09
629.46	1512.40
629.81	1504.29
630.15	1495.05
630.50	1485.46
630.84	1475.12
631.19	1465.16
631.53	1456.06
631.88	1445.96
632.22	1436.08
632.57	1426.89
632.91	1417.02
633.26	1407.25
633.60	1397.87
633.95	1388.69
634.29	1379.21
634.64	1369.99
634.98	1360.04
635.32	1350.73
635.67	1342.33
636.01	1333.12
636.36	1323.60
636.70	1314.15
637.05	1304.83
637.39	1295.98
637.73	1287.38
638.08	1279.82
638.42	1271.93
638.77	1263.32
639.11	1255.22
639.45	1247.57
639.80	1239.13
640.14	1230.47
640.49	1221.65
640.83	1212.76
641.17	1204.67
641.52	1196.65
641.86	1188.23
642.20	1180.56
642.55	1171.99
642.89	1163.20
643.23	1154.60
643.58	1146.55
643.92	1137.60
644.26	1128.90
644.61	1120.55
644.95	1111.85
645.29	1102.67
645.64	1093.56
645.98	1084.94
646.32	1077.00
646.66	1068.53
647.01	1060.30
647.35	1052.30
647.69	1044.15
648.04	1036.06
648.38	1027.26
648.72	1018.54
649.06	1010.17
649.41	1001.95
649.75	994.15
650.09	986.42
650.43	978.46
650.78	970.18
651.12	962.52
651.46	955.21
651.80	948.05
652.14	940.74
652.49	933.38
652.83	926.15
653.17	918.58
653.51	911.03
653.85	903.84
654.20	896.58
654.54	889.12
654.88	881.91
655.22	874.81
655.56	867.90
655.90	861.09
656.25	854.46
656.59	847.68
656.93	840.71
657.27	833.51
657.61	826.51
657.95	820.41
658.29	814.42
658.64	808.37
658.98	801.85
659.32	795.40
659.66	789.23
660.00	782.82
660.34	776.78
660.68	770.77
661.02	764.41
661.36	758.42
661.70	752.59
662.05	746.99
662.39	741.38
662.73	735.98
663.07	730.68
663.41	725.02
663.75	719.25
664.09	713.57
664.43	708.12
664.77	702.84
665.11	697.09
665.45	691.26
665.79	685.39
666.13	679.70
666.47	674.16
666.81	668.64
667.15	663.26
667.49	658.02
667.83	652.71
668.17	647.49
668.51	642.37
668.85	637.44
669.19	632.45
669.53	627.45
669.87	622.34
670.21	617.53
670.55	612.90
670.89	608.50
671.23	604.03
671.57	599.68
671.91	595.39
672.25	591.19
672.58	587.09
672.92	583.00
673.26	579.09
673.60	575.27
673.94	571.46
674.28	567.90
674.62	564.17
674.96	560.39
675.30	556.89
675.64	553.17
675.97	549.58
676.31	546.03
676.65	542.40
676.99	538.92
677.33	535.06
677.67	531.34
678.01	527.42
678.34	523.84
678.68	520.36
679.02	516.71
679.36	513.04
679.70	509.34
680.04	505.76
680.37	502.26
680.71	498.84
681.05	495.68
681.39	492.32
681.73	489.12
682.06	486.11
682.40	482.99
682.74	479.83
683.08	476.63
683.42	473.41
683.75	470.41
684.09	467.41
684.43	464.55
684.77	461.62
685.10	458.79
685.44	455.81
685.78	452.83
686.12	450.10
686.45	447.30
686.79	444.62
687.13	442.08
687.46	439.43
687.80	436.74
688.14	433.86
688.48	431.22
688.81	428.50
689.15	425.94
689.49	423.34
689.82	420.84
690.16	418.21
690.50	415.72
690.83	413.20
691.17	410.60
691.51	408.15
691.84	405.83
692.18	403.60
692.52	401.41
692.85	399.23
693.19	397.06
693.52	394.94
693.86	392.69
694.20	390.44
694.53	388.27
694.87	386.08
695.21	383.94
695.54	381.76
695.88	379.62
696.21	377.31
696.55	375.14
696.88	373.02
697.22	371.01
697.56	369.11
697.89	367.17
698.23	365.44
698.56	363.66
698.90	361.94
699.23	360.01
699.57	358.12
699.90	356.25
700.24	354.34
700.58	352.58
700.91	350.91
701.25	349.34
701.58	347.74
701.92	346.16
702.25	344.52
702.59	342.87
702.92	341.31
703.26	339.73
703.59	338.22
703.93	336.93
704.26	335.47
704.60	333.92
704.93	332.43
705.26	330.87
705.60	329.37
705.93	327.76
706.27	326.41
706.60	325.16
706.94	323.93
707.27	322.57
707.61	321.17
707.94	319.77
708.27	318.23
708.61	316.71
708.94	315.24
709.28	313.92
709.61	312.65
709.94	311.40
710.28	310.20
710.61	309.02
710.95	307.55
711.28	306.47
711.61	305.28
711.95	304.13
712.28	302.92
712.61	301.71
712.95	300.65
713.28	299.56
713.61	298.35
713.95	297.15
714.28	296.13
714.61	295.07
714.95	294.03
715.28	292.97
715.61	292.00
715.95	291.06
716.28	290.07
716.61	289.13
716.95	288.12
717.28	287.15
717.61	286.19
717.94	285.27
718.28	284.21
718.61	283.31
718.94	282.39
719.27	281.56
719.61	280.70
719.94	279.84
720.27	278.88
720.60	278.00
720.94	277.20
721.27	276.39
721.60	275.67
721.93	274.92
722.27	274.29
722.60	273.58
722.93	272.89
723.26	272.22
723.59	271.47
723.93	270.83
724.26	270.21
724.59	269.50
724.92	268.95
725.25	268.43
725.59	267.82
725.92	267.24
726.25	266.62
726.58	266.05
726.91	265.42
727.24	264.88
727.57	264.34
727.91	263.70
728.24	263.15
728.57	262.52
728.90	261.99
729.23	261.38
729.56	260.92
729.89	260.34
730.22	259.79
730.55	259.30
730.89	258.74
731.22	258.17
731.55	257.69
731.88	257.14
732.21	256.56
732.54	255.99
732.87	255.46
733.20	255.02
733.53	254.51
733.86	254.05
734.19	253.53
734.52	253.12
734.85	252.87
735.18	252.39
735.51	252.04
735.84	251.60
736.17	251.21
736.50	250.67
736.83	250.51
737.16	250.10
737.49	249.67
737.82	249.24
738.15	248.86
738.48	248.44
738.81	248.04
739.14	247.60
739.47	247.28
739.80	246.93
740.13	246.56
740.46	246.16
740.79	245.76
741.12	245.38
741.45	244.96
741.78	244.52
742.11	244.21
742.44	243.79
742.77	243.48
743.10	243.09
743.43	242.76
743.75	242.18
744.08	242.10
744.41	241.71
744.74	241.37
745.07	240.97
745.40	240.70
745.73	240.44
746.06	240.14
746.39	239.82
746.71	239.45
747.04	239.11
747.37	238.80
747.70	238.51
748.03	238.23
748.36	237.98
748.68	237.62
749.01	237.25
749.34	236.96
749.67	236.64
750.00	236.38
750.33	236.24
750.65	236.00
750.98	235.49
751.31	235.28
751.64	235.03
751.97	234.93
752.29	234.64
752.62	234.26
752.95	233.98
753.28	233.70
753.60	233.48
753.93	233.28
754.26	233.05
754.59	232.75
754.91	232.50
755.24	232.23
755.57	231.99
755.90	231.81
756.22	231.57
756.55	231.35
756.88	231.13
757.20	230.75
757.53	230.46
757.86	230.19
758.19	229.97
758.51	229.77
758.84	229.43
759.17	229.22
759.49	229.08
759.82	229.02
760.15	228.86
760.47	228.65
760.80	228.37
761.13	228.22
761.45	228.07
761.78	227.91
762.11	227.77
762.43	227.58
762.76	227.37
763.08	227.21
763.41	227.04
763.74	226.85
764.06	226.68
764.39	226.55
764.71	226.41
765.04	226.24
765.37	226.09
765.69	225.95
766.02	225.79
766.34	225.65
766.67	225.41
767.00	225.29
767.32	225.30
767.65	225.33
767.97	225.16
768.30	225.04
768.62	224.90
768.95	224.72
769.27	224.58
769.60	224.52
769.92	224.40
770.25	224.23
770.57	224.08
770.90	223.96
771.22	223.81
771.55	223.68
771.87	223.61
772.20	223.49
772.52	223.51
772.85	223.64
773.17	223.51
773.50	223.40
773.82	223.30
774.15	223.05
774.47	222.83
774.80	222.73
775.12	222.62
775.45	222.53
775.77	222.44
776.09	222.39
776.42	222.29
776.74	222.23
777.07	222.13
777.39	222.08
777.72	221.99
778.04	221.93
778.36	221.87
778.69	221.79
779.01	221.68
779.33	221.45
779.66	221.16
779.98	221.07
780.31	220.97
780.63	220.97
780.95	220.94
781.28	220.83
781.60	220.75
781.92	220.69
782.25	220.62
782.57	220.59
782.89	220.50
783.22	220.41
783.54	220.31
783.86	220.27
784.19	220.15
784.51	220.16
784.83	220.09
785.16	219.99
785.48	219.92
785.80	219.88
786.12	219.84
