SpectraSuite Data File
++++++++++++++++++++++++++++++++++++
Date: Tue Jan 29 16:39:36 EST 2013
User: group
Dark Spectrum Present: No
Reference Spectrum Present: No
Number of Sampled Component Spectra: 1
Spectrometers: USB2E7196
Integration Time (usec): 65000 (USB2E7196)
Spectra Averaged: 100 (USB2E7196)
Boxcar Smoothing: 10 (USB2E7196)
Correct for Electrical Dark: No (USB2E7196)
Strobe/Lamp Enabled: No (USB2E7196)
Correct for Detector Non-linearity: No (USB2E7196)
Correct for Stray Light: No (USB2E7196)
Number of Pixels in Processed Spectrum: 2048
>>>>>Begin Processed Spectral Data<<<<<
339.09	0.00
339.48	201.62
339.86	202.73
340.24	204.59
340.63	205.71
341.01	210.71
341.39	208.39
341.78	210.16
342.16	211.51
342.54	212.03
342.93	201.05
343.31	211.22
343.69	211.78
344.07	212.29
344.46	212.73
344.84	213.17
345.22	213.30
345.60	213.59
345.99	213.82
346.37	213.95
346.75	214.06
347.13	214.14
347.52	214.19
347.90	214.30
348.28	214.32
348.66	214.42
349.05	214.40
349.43	214.46
349.81	214.52
350.19	214.58
350.57	214.61
350.96	214.71
351.34	214.80
351.72	214.92
352.10	215.04
352.48	215.11
352.87	215.15
353.25	215.24
353.63	215.31
354.01	215.34
354.39	215.43
354.77	215.52
355.15	215.66
355.54	215.70
355.92	215.73
356.30	215.82
356.68	215.97
357.06	216.05
357.44	216.07
357.82	216.13
358.20	216.20
358.58	216.26
358.97	216.32
359.35	216.40
359.73	216.45
360.11	216.51
360.49	216.59
360.87	216.64
361.25	216.74
361.63	216.84
362.01	216.91
362.39	216.95
362.77	216.98
363.15	216.99
363.53	217.01
363.91	217.03
364.29	217.06
364.67	216.93
365.05	216.95
365.43	217.02
365.81	217.05
366.19	217.15
366.57	217.28
366.95	217.29
367.33	217.25
367.71	217.27
368.09	217.28
368.47	217.26
368.85	217.25
369.23	217.24
369.61	217.16
369.99	217.20
370.37	217.20
370.75	217.30
371.13	217.24
371.51	217.23
371.89	217.25
372.27	217.23
372.65	217.21
373.03	217.17
373.41	217.11
373.78	217.06
374.16	216.92
374.54	216.82
374.92	216.74
375.30	216.71
375.68	216.59
376.06	216.55
376.44	216.49
376.82	216.47
377.19	216.43
377.57	216.42
377.95	216.30
378.33	216.28
378.71	216.10
379.09	216.10
379.47	216.06
379.84	216.01
380.22	215.96
380.60	215.87
380.98	215.89
381.36	215.88
381.73	215.79
382.11	215.83
382.49	215.78
382.87	215.77
383.25	215.72
383.62	215.95
384.00	215.91
384.38	215.88
384.76	215.88
385.13	215.92
385.51	215.86
385.89	215.81
386.27	215.77
386.64	215.81
387.02	215.73
387.40	215.70
387.78	215.66
388.15	215.65
388.53	215.64
388.91	215.54
389.29	215.49
389.66	215.51
390.04	215.47
390.42	215.48
390.79	215.43
391.17	215.42
391.55	215.17
391.92	215.14
392.30	215.17
392.68	215.15
393.05	215.13
393.43	215.14
393.81	215.17
394.18	215.11
394.56	215.07
394.94	215.15
395.31	215.17
395.69	215.26
396.06	215.29
396.44	215.34
396.82	215.36
397.19	215.48
397.57	215.49
397.95	215.53
398.32	215.50
398.70	215.59
399.07	215.69
399.45	215.75
399.82	215.81
400.20	215.83
400.58	215.88
400.95	215.84
401.33	215.95
401.70	216.13
402.08	216.27
402.45	216.37
402.83	216.50
403.20	216.59
403.58	216.66
403.95	216.81
404.33	216.92
404.71	217.08
405.08	217.36
405.46	217.55
405.83	217.75
406.21	217.98
406.58	218.19
406.96	218.43
407.33	218.66
407.70	218.98
408.08	219.44
408.45	219.78
408.83	220.20
409.20	220.52
409.58	220.81
409.95	221.27
410.33	221.75
410.70	222.17
411.08	222.77
411.45	223.33
411.82	223.93
412.20	224.63
412.57	225.44
412.95	225.99
413.32	226.79
413.69	227.63
414.07	228.54
414.44	229.54
414.82	230.54
415.19	231.76
415.56	232.94
415.94	234.12
416.31	235.55
416.68	236.97
417.06	238.63
417.43	240.20
417.81	241.93
418.18	243.73
418.55	245.68
418.93	247.68
419.30	249.78
419.67	252.02
420.04	254.30
420.42	256.70
420.79	259.51
421.16	262.31
421.54	265.21
421.91	268.22
422.28	271.34
422.66	274.69
423.03	277.90
423.40	281.29
423.77	284.92
424.15	288.56
424.52	292.36
424.89	296.50
425.26	300.54
425.64	304.46
426.01	308.73
426.38	313.17
426.75	317.74
427.13	322.50
427.50	327.46
427.87	332.74
428.24	337.95
428.61	342.99
428.99	348.51
429.36	354.56
429.73	360.49
430.10	366.37
430.47	372.46
430.85	378.80
431.22	385.51
431.59	392.64
431.96	399.52
432.33	407.05
432.70	414.31
433.08	422.87
433.45	430.91
433.82	438.98
434.19	447.94
434.56	456.72
434.93	465.07
435.30	473.42
435.68	482.49
436.05	491.52
436.42	500.42
436.79	508.61
437.16	517.38
437.53	526.66
437.90	535.78
438.27	544.78
438.64	554.02
439.01	562.60
439.38	570.18
439.75	577.52
440.13	586.01
440.50	594.01
440.87	600.52
441.24	607.17
441.61	614.45
441.98	619.83
442.35	626.07
442.72	632.42
443.09	638.45
443.46	642.24
443.83	644.80
444.20	646.99
444.57	650.15
444.94	651.63
445.31	653.07
445.68	654.53
446.05	655.10
446.42	654.36
446.79	653.36
447.16	652.21
447.53	651.42
447.90	648.06
448.27	644.80
448.64	640.09
449.01	636.81
449.37	630.96
449.74	625.28
450.11	618.43
450.48	611.03
450.85	603.57
451.22	597.04
451.59	590.85
451.96	585.02
452.33	577.14
452.70	570.00
453.07	561.52
453.43	552.83
453.80	544.51
454.17	536.50
454.54	528.90
454.91	520.74
455.28	512.76
455.65	505.30
456.02	497.73
456.38	491.37
456.75	483.44
457.12	476.85
457.49	470.31
457.86	464.07
458.23	458.63
458.59	452.65
458.96	446.65
459.33	441.32
459.70	435.94
460.07	431.65
460.43	426.73
460.80	422.13
461.17	418.15
461.54	413.96
461.91	409.89
462.27	405.82
462.64	402.42
463.01	398.56
463.38	394.87
463.74	391.19
464.11	387.91
464.48	385.14
464.85	382.04
465.21	379.60
465.58	376.96
465.95	373.82
466.32	371.21
466.68	368.60
467.05	365.99
467.42	363.40
467.78	360.72
468.15	358.18
468.52	356.23
468.88	353.78
469.25	351.52
469.62	349.71
469.98	347.75
470.35	345.86
470.72	344.19
471.08	342.35
471.45	340.83
471.82	339.33
472.18	337.61
472.55	336.38
472.92	334.96
473.28	333.74
473.65	332.61
474.02	331.50
474.38	330.56
474.75	329.81
475.11	328.99
475.48	328.40
475.85	327.90
476.21	327.41
476.58	326.99
476.94	326.74
477.31	326.44
477.67	326.15
478.04	326.02
478.41	326.00
478.77	326.17
479.14	326.12
479.50	326.22
479.87	326.49
480.23	326.83
480.60	327.09
480.96	327.35
481.33	327.97
481.69	328.51
482.06	329.05
482.42	329.52
482.79	330.19
483.15	330.96
483.52	331.96
483.88	332.80
484.25	333.76
484.61	334.82
484.98	335.88
485.34	337.21
485.71	338.61
486.07	340.03
486.44	341.37
486.80	343.02
487.17	344.72
487.53	346.57
487.90	348.43
488.26	350.46
488.62	352.67
488.99	354.68
489.35	356.85
489.72	359.23
490.08	361.75
490.44	364.27
490.81	367.00
491.17	369.65
491.54	372.68
491.90	375.73
492.26	378.96
492.63	382.39
492.99	385.83
493.36	389.49
493.72	393.34
494.08	397.36
494.45	401.54
494.81	405.87
495.17	410.31
495.54	415.02
495.90	419.80
496.26	424.67
496.63	429.89
496.99	435.30
497.35	440.86
497.72	446.65
498.08	452.55
498.44	458.72
498.80	465.16
499.17	471.69
499.53	478.39
499.89	485.33
500.26	492.26
500.62	499.35
500.98	506.74
501.34	514.26
501.71	522.03
502.07	529.81
502.43	537.83
502.79	546.03
503.16	554.48
503.52	563.11
503.88	571.82
504.24	580.76
504.60	589.85
504.97	599.10
505.33	608.46
505.69	618.36
506.05	628.22
506.41	638.06
506.78	648.15
507.14	658.50
507.50	668.95
507.86	679.70
508.22	690.56
508.59	701.31
508.95	712.44
509.31	723.65
509.67	735.20
510.03	746.61
510.39	758.29
510.75	770.07
511.12	781.96
511.48	794.13
511.84	806.43
512.20	818.79
512.56	831.55
512.92	844.36
513.28	857.13
513.64	869.89
514.00	882.82
514.37	895.77
514.73	908.85
515.09	921.91
515.45	934.92
515.81	948.02
516.17	961.42
516.53	974.71
516.89	987.99
517.25	1001.28
517.61	1014.98
517.97	1028.49
518.33	1041.77
518.69	1055.42
519.05	1069.30
519.41	1083.04
519.77	1096.98
520.13	1110.31
520.49	1123.65
520.85	1137.07
521.21	1150.49
521.57	1164.28
521.93	1177.44
522.29	1191.30
522.65	1204.96
523.01	1218.63
523.37	1231.98
523.73	1245.41
524.09	1258.62
524.45	1272.05
524.81	1285.64
525.17	1299.05
525.53	1312.32
525.89	1325.60
526.25	1338.75
526.61	1351.63
526.97	1364.87
527.33	1377.98
527.68	1391.53
528.04	1405.05
528.40	1418.26
528.76	1431.77
529.12	1444.64
529.48	1458.03
529.84	1470.35
530.20	1483.25
530.56	1495.89
530.91	1509.12
531.27	1522.08
531.63	1534.82
531.99	1547.74
532.35	1560.04
532.71	1572.52
533.07	1585.50
533.42	1597.95
533.78	1610.13
534.14	1622.24
534.50	1633.54
534.86	1645.18
535.21	1656.26
535.57	1667.87
535.93	1679.26
536.29	1690.45
536.65	1702.00
537.00	1713.10
537.36	1724.61
537.72	1735.67
538.08	1747.18
538.44	1758.33
538.79	1769.52
539.15	1780.56
539.51	1791.45
539.87	1802.90
540.22	1813.81
540.58	1824.86
540.94	1835.90
541.29	1846.47
541.65	1856.36
542.01	1867.02
542.37	1877.14
542.72	1887.25
543.08	1897.05
543.44	1907.62
543.79	1916.98
544.15	1926.70
544.51	1936.86
544.87	1946.85
545.22	1956.22
545.58	1965.24
545.94	1974.10
546.29	1982.70
546.65	1991.17
547.01	1999.30
547.36	2006.84
547.72	2014.81
548.07	2022.45
548.43	2030.27
548.79	2038.20
549.14	2046.46
549.50	2054.91
549.86	2062.93
550.21	2070.47
550.57	2078.22
550.92	2085.09
551.28	2092.67
551.64	2099.87
551.99	2107.43
552.35	2114.72
552.70	2121.66
553.06	2128.28
553.41	2134.71
553.77	2141.14
554.13	2147.56
554.48	2154.75
554.84	2162.06
555.19	2168.54
555.55	2175.07
555.90	2181.32
556.26	2188.18
556.61	2194.27
556.97	2199.08
557.32	2204.81
557.68	2211.39
558.03	2217.14
558.39	2222.51
558.74	2228.45
559.10	2234.03
559.45	2239.47
559.81	2245.00
560.16	2250.43
560.52	2256.39
560.87	2262.77
561.23	2268.77
561.58	2275.55
561.94	2280.73
562.29	2285.39
562.64	2291.36
563.00	2296.97
563.35	2302.32
563.71	2307.87
564.06	2313.60
564.42	2319.65
564.77	2324.83
565.12	2329.97
565.48	2335.14
565.83	2340.57
566.19	2345.86
566.54	2351.34
566.89	2355.88
567.25	2360.39
567.60	2366.17
567.96	2371.27
568.31	2375.71
568.66	2379.92
569.02	2383.67
569.37	2387.36
569.72	2391.85
570.08	2395.43
570.43	2398.49
570.78	2401.85
571.14	2404.46
571.49	2407.44
571.84	2410.79
572.20	2413.52
572.55	2416.35
572.90	2418.54
573.26	2421.38
573.61	2424.00
573.96	2425.87
574.31	2427.77
574.67	2429.71
575.02	2430.47
575.37	2431.69
575.72	2432.39
576.08	2433.86
576.43	2433.90
576.78	2434.33
577.13	2435.75
577.49	2436.81
577.84	2437.79
578.19	2438.90
578.54	2439.31
578.90	2440.01
579.25	2439.80
579.60	2439.55
579.95	2438.69
580.30	2438.89
580.66	2437.94
581.01	2436.27
581.36	2433.83
581.71	2432.35
582.06	2430.83
582.42	2429.72
582.77	2427.43
583.12	2425.69
583.47	2424.17
583.82	2423.51
584.17	2422.21
584.53	2419.93
584.88	2417.67
585.23	2415.61
585.58	2413.26
585.93	2411.21
586.28	2408.82
586.63	2406.37
586.98	2404.11
587.34	2402.18
587.69	2399.41
588.04	2397.31
588.39	2395.69
588.74	2393.15
589.09	2390.37
589.44	2387.23
589.79	2384.71
590.14	2382.69
590.49	2379.68
590.84	2375.58
591.19	2372.31
591.54	2368.93
591.89	2364.68
592.25	2361.34
592.60	2357.09
592.95	2352.90
593.30	2348.54
593.65	2344.07
594.00	2339.50
594.35	2336.26
594.70	2331.47
595.05	2326.89
595.40	2321.31
595.75	2315.31
596.10	2311.58
596.45	2306.73
596.80	2301.87
597.15	2296.45
597.50	2290.44
597.85	2285.47
598.19	2280.37
598.54	2274.59
598.89	2269.18
599.24	2264.59
599.59	2258.30
599.94	2252.40
600.29	2246.32
600.64	2240.36
600.99	2233.49
601.34	2228.00
601.69	2221.18
602.04	2214.59
602.39	2207.89
602.74	2201.77
603.08	2196.28
603.43	2189.73
603.78	2182.75
604.13	2175.80
604.48	2168.51
604.83	2162.46
605.18	2156.22
605.53	2149.13
605.87	2141.94
606.22	2135.20
606.57	2127.34
606.92	2119.35
607.27	2112.38
607.62	2105.69
607.96	2098.67
608.31	2092.25
608.66	2084.43
609.01	2076.66
609.36	2069.57
609.70	2061.76
610.05	2053.91
610.40	2045.44
610.75	2037.04
611.10	2029.32
611.44	2020.42
611.79	2011.73
612.14	2001.73
612.49	1991.01
612.83	1981.74
613.18	1972.54
613.53	1963.10
613.88	1953.43
614.22	1944.85
614.57	1934.97
614.92	1924.42
615.27	1914.11
615.61	1903.99
615.96	1894.38
616.31	1884.83
616.65	1875.41
617.00	1865.70
617.35	1856.11
617.70	1846.46
618.04	1836.43
618.39	1826.27
618.74	1816.61
619.08	1806.90
619.43	1798.15
619.78	1790.00
620.12	1781.39
620.47	1771.77
620.82	1761.54
621.16	1751.80
621.51	1741.87
621.85	1731.94
622.20	1721.49
622.55	1711.13
622.89	1701.11
623.24	1691.30
623.59	1681.37
623.93	1671.32
624.28	1661.63
624.62	1651.50
624.97	1641.20
625.32	1631.50
625.66	1622.65
626.01	1613.94
626.35	1604.74
626.70	1594.69
627.04	1584.51
627.39	1574.41
627.73	1565.21
628.08	1556.35
628.43	1546.91
628.77	1537.77
629.12	1529.04
629.46	1521.32
629.81	1512.90
630.15	1503.52
630.50	1493.76
630.84	1483.45
631.19	1473.55
631.53	1464.29
631.88	1454.10
632.22	1444.15
632.57	1434.78
632.91	1424.65
633.26	1414.80
633.60	1405.19
633.95	1395.88
634.29	1386.48
634.64	1377.15
634.98	1367.14
635.32	1357.78
635.67	1349.27
636.01	1340.11
636.36	1330.32
636.70	1320.91
637.05	1311.50
637.39	1302.58
637.73	1293.90
638.08	1286.42
638.42	1278.36
638.77	1269.57
639.11	1261.39
639.45	1253.62
639.80	1245.09
640.14	1236.39
640.49	1227.56
640.83	1218.84
641.17	1210.72
641.52	1202.50
641.86	1193.92
642.20	1186.15
642.55	1177.60
642.89	1168.70
643.23	1159.94
643.58	1151.82
643.92	1142.67
644.26	1134.07
644.61	1125.63
644.95	1116.90
645.29	1107.60
645.64	1098.37
645.98	1089.81
646.32	1081.99
646.66	1073.46
647.01	1065.17
647.35	1057.04
647.69	1048.82
648.04	1040.47
648.38	1031.61
648.72	1022.91
649.06	1014.55
649.41	1006.36
649.75	998.36
650.09	990.55
650.43	982.57
650.78	974.34
651.12	966.63
651.46	959.18
651.80	951.90
652.14	944.67
652.49	937.21
652.83	929.90
653.17	922.20
653.51	914.51
653.85	907.31
654.20	900.00
654.54	892.54
654.88	885.23
655.22	877.99
655.56	871.00
655.90	864.29
656.25	857.54
656.59	850.59
656.93	843.58
657.27	836.43
657.61	829.34
657.95	823.09
658.29	817.18
658.64	811.09
658.98	804.63
659.32	798.07
659.66	791.76
660.00	785.39
660.34	779.39
660.68	773.23
661.02	766.81
661.36	760.81
661.70	754.95
662.05	749.20
662.39	743.65
662.73	738.19
663.07	732.76
663.41	727.11
663.75	721.38
664.09	715.67
664.43	710.17
664.77	704.89
665.11	699.13
665.45	693.16
665.79	687.31
666.13	681.60
666.47	676.05
666.81	670.58
667.15	665.08
667.49	659.81
667.83	654.46
668.17	649.19
668.51	644.08
668.85	639.17
669.19	634.29
669.53	629.25
669.87	624.10
670.21	619.23
670.55	614.48
670.89	610.07
671.23	605.73
671.57	601.33
671.91	596.99
672.25	592.83
672.58	588.72
672.92	584.62
673.26	580.62
673.60	576.67
673.94	572.83
674.28	569.29
674.62	565.48
674.96	561.78
675.30	558.30
675.64	554.66
675.97	551.03
676.31	547.35
676.65	543.72
676.99	540.27
677.33	536.35
677.67	532.72
678.01	528.79
678.34	525.08
678.68	521.50
679.02	517.88
679.36	514.09
679.70	510.37
680.04	506.78
680.37	503.31
680.71	500.03
681.05	496.78
681.39	493.40
681.73	490.22
682.06	487.14
682.40	483.99
682.74	480.76
683.08	477.51
683.42	474.32
683.75	471.26
684.09	468.21
684.43	465.47
684.77	462.52
685.10	459.65
685.44	456.71
685.78	453.73
686.12	450.90
686.45	448.16
686.79	445.48
687.13	442.90
687.46	440.27
687.80	437.53
688.14	434.67
688.48	432.01
688.81	429.30
689.15	426.71
689.49	424.07
689.82	421.46
690.16	418.83
690.50	416.31
690.83	413.78
691.17	411.23
691.51	408.65
691.84	406.33
692.18	404.08
692.52	401.88
692.85	399.76
693.19	397.58
693.52	395.42
693.86	393.16
694.20	390.92
694.53	388.70
694.87	386.48
695.21	384.35
695.54	382.18
695.88	379.98
696.21	377.73
696.55	375.54
696.88	373.45
697.22	371.43
697.56	369.53
697.89	367.64
698.23	365.85
698.56	364.06
698.90	362.29
699.23	360.40
699.57	358.44
699.90	356.50
700.24	354.63
700.58	352.77
700.91	351.10
701.25	349.55
701.58	347.91
701.92	346.28
702.25	344.62
702.59	343.01
702.92	341.46
703.26	339.87
703.59	338.41
703.93	337.16
704.26	335.72
704.60	334.15
704.93	332.65
705.26	331.09
705.60	329.58
705.93	328.00
706.27	326.60
706.60	325.37
706.94	324.13
707.27	322.75
707.61	321.46
707.94	320.12
708.27	318.54
708.61	317.11
708.94	315.75
709.28	314.41
709.61	313.11
709.94	311.86
710.28	310.65
710.61	309.43
710.95	307.97
711.28	306.90
711.61	305.73
711.95	304.55
712.28	303.34
712.61	302.16
712.95	301.09
713.28	300.05
713.61	298.87
713.95	297.69
714.28	296.63
714.61	295.56
714.95	294.49
715.28	293.47
715.61	292.42
715.95	291.46
716.28	290.51
716.61	289.58
716.95	288.60
717.28	287.64
717.61	286.68
717.94	285.77
718.28	284.70
718.61	283.84
718.94	282.98
719.27	282.13
719.61	281.30
719.94	280.46
720.27	279.46
720.60	278.60
720.94	277.82
721.27	277.08
721.60	276.33
721.93	275.60
722.27	274.95
722.60	274.27
722.93	273.49
723.26	272.86
723.59	272.12
723.93	271.47
724.26	270.76
724.59	270.08
724.92	269.48
725.25	268.95
725.59	268.30
725.92	267.77
726.25	267.18
726.58	266.60
726.91	265.93
727.24	265.41
727.57	264.85
727.91	264.23
728.24	263.72
728.57	263.16
728.90	262.58
729.23	261.93
729.56	261.49
729.89	260.98
730.22	260.39
730.55	259.87
730.89	259.30
731.22	258.80
731.55	258.33
731.88	257.78
732.21	257.24
732.54	256.72
732.87	256.15
733.20	255.67
733.53	255.17
733.86	254.72
734.19	254.18
734.52	253.78
734.85	253.45
735.18	252.93
735.51	252.56
735.84	252.13
736.17	251.74
736.50	251.22
736.83	251.04
737.16	250.65
737.49	250.25
737.82	249.82
738.15	249.42
738.48	249.00
738.81	248.55
739.14	248.09
739.47	247.68
739.80	247.33
740.13	246.94
740.46	246.54
740.79	246.20
741.12	245.86
741.45	245.42
741.78	245.00
742.11	244.69
742.44	244.27
742.77	243.96
743.10	243.60
743.43	243.23
743.75	242.67
744.08	242.57
744.41	242.23
744.74	241.87
745.07	241.51
745.40	241.21
745.73	240.99
746.06	240.67
746.39	240.37
746.71	240.00
747.04	239.65
747.37	239.33
747.70	239.03
748.03	238.71
748.36	238.46
748.68	238.15
749.01	237.79
749.34	237.50
749.67	237.18
750.00	236.93
750.33	236.78
750.65	236.50
750.98	236.00
751.31	235.72
751.64	235.51
751.97	235.35
752.29	235.12
752.62	234.76
752.95	234.55
753.28	234.27
753.60	234.05
753.93	233.89
754.26	233.64
754.59	233.34
754.91	233.09
755.24	232.82
755.57	232.57
755.90	232.36
756.22	232.13
756.55	231.90
756.88	231.57
757.20	231.23
757.53	230.96
757.86	230.72
758.19	230.51
758.51	230.26
758.84	229.93
759.17	229.71
759.49	229.51
759.82	229.41
760.15	229.25
760.47	229.06
760.80	228.81
761.13	228.67
761.45	228.49
761.78	228.32
762.11	228.13
762.43	227.94
762.76	227.73
763.08	227.55
763.41	227.38
763.74	227.31
764.06	227.13
764.39	226.97
764.71	226.80
765.04	226.63
765.37	226.49
765.69	226.39
766.02	226.24
766.34	226.12
766.67	225.85
767.00	225.76
767.32	225.75
767.65	225.72
767.97	225.55
768.30	225.43
768.62	225.29
768.95	225.15
769.27	225.01
769.60	224.92
769.92	224.77
770.25	224.62
770.57	224.42
770.90	224.32
771.22	224.20
771.55	224.10
771.87	224.01
772.20	223.87
772.52	223.92
772.85	224.03
773.17	223.94
773.50	223.83
773.82	223.68
774.15	223.44
774.47	223.21
774.80	223.12
775.12	222.99
775.45	222.89
775.77	222.79
776.09	222.73
776.42	222.68
776.74	222.69
777.07	222.61
777.39	222.56
777.72	222.48
778.04	222.42
778.36	222.28
778.69	222.20
779.01	222.15
779.33	221.89
779.66	221.59
779.98	221.49
780.31	221.39
780.63	221.40
780.95	221.34
781.28	221.29
781.60	221.16
781.92	221.12
782.25	221.04
782.57	220.99
782.89	220.91
783.22	220.81
783.54	220.68
783.86	220.62
784.19	220.51
784.51	220.48
784.83	220.41
785.16	220.35
785.48	220.26
785.80	220.18
786.12	220.15
