SpectraSuite Data File
++++++++++++++++++++++++++++++++++++
Date: Tue Jan 29 16:04:41 EST 2013
User: group
Dark Spectrum Present: No
Reference Spectrum Present: No
Number of Sampled Component Spectra: 1
Spectrometers: USB2E7196
Integration Time (usec): 65000 (USB2E7196)
Spectra Averaged: 100 (USB2E7196)
Boxcar Smoothing: 10 (USB2E7196)
Correct for Electrical Dark: No (USB2E7196)
Strobe/Lamp Enabled: No (USB2E7196)
Correct for Detector Non-linearity: No (USB2E7196)
Correct for Stray Light: No (USB2E7196)
Number of Pixels in Processed Spectrum: 2048
>>>>>Begin Processed Spectral Data<<<<<
339.09	0.00
339.48	202.89
339.86	204.40
340.24	205.55
340.63	206.56
341.01	211.33
341.39	210.44
341.78	211.39
342.16	212.45
342.54	213.37
342.93	202.08
343.31	212.29
343.69	212.82
344.07	213.28
344.46	213.72
344.84	214.15
345.22	214.33
345.60	214.53
345.99	214.73
346.37	214.89
346.75	214.97
347.13	215.02
347.52	215.12
347.90	215.24
348.28	215.25
348.66	215.30
349.05	215.28
349.43	215.34
349.81	215.36
350.19	215.41
350.57	215.46
350.96	215.55
351.34	215.65
351.72	215.77
352.10	215.84
352.48	215.88
352.87	215.90
353.25	215.98
353.63	216.07
354.01	216.14
354.39	216.19
354.77	216.25
355.15	216.37
355.54	216.39
355.92	216.37
356.30	216.49
356.68	216.69
357.06	216.75
357.44	216.77
357.82	216.82
358.20	216.90
358.58	216.97
358.97	217.06
359.35	217.15
359.73	217.22
360.11	217.30
360.49	217.37
360.87	217.42
361.25	217.47
361.63	217.57
362.01	217.61
362.39	217.62
362.77	217.69
363.15	217.71
363.53	217.74
363.91	217.78
364.29	217.77
364.67	217.60
365.05	217.64
365.43	217.69
365.81	217.71
366.19	217.83
366.57	217.90
366.95	217.87
367.33	217.80
367.71	217.80
368.09	217.80
368.47	217.82
368.85	217.82
369.23	217.84
369.61	217.74
369.99	217.78
370.37	217.80
370.75	217.88
371.13	217.80
371.51	217.76
371.89	217.74
372.27	217.73
372.65	217.71
373.03	217.68
373.41	217.62
373.78	217.58
374.16	217.40
374.54	217.31
374.92	217.27
375.30	217.24
375.68	217.18
376.06	217.17
376.44	217.09
376.82	217.08
377.19	217.04
377.57	217.04
377.95	216.93
378.33	216.89
378.71	216.75
379.09	216.76
379.47	216.73
379.84	216.70
380.22	216.60
380.60	216.52
380.98	216.47
381.36	216.46
381.73	216.39
382.11	216.43
382.49	216.40
382.87	216.36
383.25	216.32
383.62	216.54
384.00	216.49
384.38	216.46
384.76	216.47
385.13	216.50
385.51	216.43
385.89	216.37
386.27	216.31
386.64	216.28
387.02	216.21
387.40	216.17
387.78	216.17
388.15	216.16
388.53	216.20
388.91	216.16
389.29	216.13
389.66	216.17
390.04	216.13
390.42	216.12
390.79	216.11
391.17	216.12
391.55	215.87
391.92	215.86
392.30	215.86
392.68	215.80
393.05	215.78
393.43	215.78
393.81	215.83
394.18	215.83
394.56	215.84
394.94	215.88
395.31	215.89
395.69	215.95
396.06	216.04
396.44	216.05
396.82	216.04
397.19	216.16
397.57	216.13
397.95	216.20
398.32	216.19
398.70	216.24
399.07	216.31
399.45	216.32
399.82	216.39
400.20	216.44
400.58	216.51
400.95	216.49
401.33	216.62
401.70	216.80
402.08	216.89
402.45	216.99
402.83	217.12
403.20	217.24
403.58	217.28
403.95	217.41
404.33	217.56
404.71	217.71
405.08	217.95
405.46	218.11
405.83	218.28
406.21	218.47
406.58	218.67
406.96	218.88
407.33	219.14
407.70	219.36
408.08	219.81
408.45	220.14
408.83	220.55
409.20	220.85
409.58	221.14
409.95	221.57
410.33	222.04
410.70	222.44
411.08	222.97
411.45	223.55
411.82	224.11
412.20	224.79
412.57	225.61
412.95	226.17
413.32	226.94
413.69	227.70
414.07	228.58
414.44	229.54
414.82	230.54
415.19	231.70
415.56	232.91
415.94	234.02
416.31	235.40
416.68	236.72
417.06	238.31
417.43	239.82
417.81	241.50
418.18	243.19
418.55	245.11
418.93	247.05
419.30	249.09
419.67	251.26
420.04	253.45
420.42	255.74
420.79	258.44
421.16	261.16
421.54	263.98
421.91	266.86
422.28	269.86
422.66	273.01
423.03	276.15
423.40	279.40
423.77	282.88
424.15	286.41
424.52	290.12
424.89	294.09
425.26	297.99
425.64	301.75
426.01	305.91
426.38	310.23
426.75	314.67
427.13	319.22
427.50	323.99
427.87	329.01
428.24	334.06
428.61	338.89
428.99	344.20
429.36	350.03
429.73	355.72
430.10	361.35
430.47	367.18
430.85	373.28
431.22	379.73
431.59	386.64
431.96	393.21
432.33	400.45
432.70	407.47
433.08	415.70
433.45	423.45
433.82	431.14
434.19	439.73
434.56	448.14
434.93	456.20
435.30	464.19
435.68	473.01
436.05	481.66
436.42	490.26
436.79	498.12
437.16	506.56
437.53	515.52
437.90	524.38
438.27	533.06
438.64	541.99
439.01	550.24
439.38	557.50
439.75	564.58
440.13	572.69
440.50	580.39
440.87	586.60
441.24	592.99
441.61	600.08
441.98	605.20
442.35	611.29
442.72	617.27
443.09	623.08
443.46	626.58
443.83	628.98
444.20	631.07
444.57	634.07
444.94	635.41
445.31	636.74
445.68	638.08
446.05	638.65
446.42	637.78
446.79	636.88
447.16	635.84
447.53	635.06
447.90	631.84
448.27	628.64
448.64	624.10
449.01	620.89
449.37	615.18
449.74	609.72
450.11	602.99
450.48	595.92
450.85	588.71
451.22	582.51
451.59	576.59
451.96	570.96
452.33	563.39
452.70	556.61
453.07	548.52
453.43	540.21
453.80	532.24
454.17	524.59
454.54	517.23
454.91	509.36
455.28	501.66
455.65	494.56
456.02	487.36
456.38	481.35
456.75	473.83
457.12	467.58
457.49	461.33
457.86	455.41
458.23	450.26
458.59	444.58
458.96	438.82
459.33	433.72
459.70	428.58
460.07	424.52
460.43	419.81
460.80	415.40
461.17	411.57
461.54	407.53
461.91	403.67
462.27	399.70
462.64	396.42
463.01	392.81
463.38	389.21
463.74	385.63
464.11	382.48
464.48	379.75
464.85	376.76
465.21	374.37
465.58	371.86
465.95	368.82
466.32	366.32
466.68	363.82
467.05	361.32
467.42	358.87
467.78	356.27
468.15	353.81
468.52	351.94
468.88	349.54
469.25	347.41
469.62	345.69
469.98	343.90
470.35	342.15
470.72	340.51
471.08	338.76
471.45	337.34
471.82	335.88
472.18	334.28
472.55	333.11
472.92	331.84
473.28	330.70
473.65	329.60
474.02	328.54
474.38	327.71
474.75	327.05
475.11	326.31
475.48	325.79
475.85	325.40
476.21	325.02
476.58	324.71
476.94	324.52
477.31	324.25
477.67	324.02
478.04	323.88
478.41	323.90
478.77	324.14
479.14	324.09
479.50	324.26
479.87	324.58
480.23	324.93
480.60	325.17
480.96	325.44
481.33	326.09
481.69	326.66
482.06	327.17
482.42	327.68
482.79	328.29
483.15	329.12
483.52	330.06
483.88	330.94
484.25	331.90
484.61	332.94
484.98	334.03
485.34	335.33
485.71	336.68
486.07	338.11
486.44	339.41
486.80	341.06
487.17	342.71
487.53	344.49
487.90	346.35
488.26	348.37
488.62	350.58
488.99	352.60
489.35	354.81
489.72	357.21
490.08	359.73
490.44	362.23
490.81	364.90
491.17	367.60
491.54	370.55
491.90	373.61
492.26	376.79
492.63	380.17
492.99	383.70
493.36	387.43
493.72	391.29
494.08	395.33
494.45	399.54
494.81	403.91
495.17	408.35
495.54	413.10
495.90	417.95
496.26	422.81
496.63	428.00
496.99	433.34
497.35	438.92
497.72	444.70
498.08	450.69
498.44	456.73
498.80	463.12
499.17	469.56
499.53	476.19
499.89	483.06
500.26	489.99
500.62	497.02
500.98	504.37
501.34	511.79
501.71	519.53
502.07	527.23
502.43	535.20
502.79	543.34
503.16	551.63
503.52	560.18
503.88	568.89
504.24	577.86
504.60	586.85
504.97	596.05
505.33	605.31
505.69	615.07
506.05	624.94
506.41	634.75
506.78	644.75
507.14	655.02
507.50	665.55
507.86	676.21
508.22	686.95
508.59	697.54
508.95	708.64
509.31	719.77
509.67	731.27
510.03	742.66
510.39	754.37
510.75	766.19
511.12	778.02
511.48	790.06
511.84	802.19
512.20	814.48
512.56	827.05
512.92	839.84
513.28	852.38
513.64	865.00
514.00	877.79
514.37	890.66
514.73	903.62
515.09	916.42
515.45	929.17
515.81	942.03
516.17	955.31
516.53	968.28
516.89	981.26
517.25	994.25
517.61	1007.61
517.97	1020.77
518.33	1033.78
518.69	1047.19
519.05	1060.67
519.41	1074.17
519.77	1087.93
520.13	1101.05
520.49	1113.83
520.85	1127.01
521.21	1140.24
521.57	1153.72
521.93	1166.70
522.29	1180.34
522.65	1193.72
523.01	1207.14
523.37	1220.11
523.73	1233.16
524.09	1246.16
524.45	1259.43
524.81	1272.79
525.17	1285.93
525.53	1298.81
525.89	1311.74
526.25	1324.55
526.61	1337.16
526.97	1350.05
527.33	1362.51
527.68	1375.68
528.04	1388.95
528.40	1401.80
528.76	1414.80
529.12	1427.31
529.48	1440.32
529.84	1452.18
530.20	1464.73
530.56	1477.02
530.91	1490.14
531.27	1502.82
531.63	1515.22
531.99	1527.70
532.35	1539.45
532.71	1551.43
533.07	1563.99
533.42	1575.99
533.78	1587.81
534.14	1599.64
534.50	1610.49
534.86	1621.94
535.21	1632.49
535.57	1643.76
535.93	1654.89
536.29	1665.72
536.65	1676.83
537.00	1687.48
537.36	1698.52
537.72	1709.22
538.08	1720.24
538.44	1730.68
538.79	1741.36
539.15	1751.93
539.51	1762.20
539.87	1773.28
540.22	1783.93
540.58	1794.51
540.94	1805.05
541.29	1815.14
541.65	1824.67
542.01	1834.96
542.37	1844.65
542.72	1854.65
543.08	1864.19
543.44	1874.22
543.79	1883.28
544.15	1892.54
544.51	1902.27
544.87	1911.91
545.22	1920.71
545.58	1929.45
545.94	1938.19
546.29	1946.43
546.65	1954.64
547.01	1962.84
547.36	1970.22
547.72	1977.71
548.07	1985.19
548.43	1992.70
548.79	2000.18
549.14	2008.09
549.50	2016.15
549.86	2023.78
550.21	2030.95
550.57	2038.25
550.92	2044.78
551.28	2052.09
551.64	2059.20
551.99	2066.62
552.35	2073.67
552.70	2080.54
553.06	2086.98
553.41	2092.92
553.77	2099.13
554.13	2105.32
554.48	2112.04
554.84	2118.95
555.19	2125.22
555.55	2131.62
555.90	2137.84
556.26	2144.49
556.61	2150.30
556.97	2155.22
557.32	2160.86
557.68	2167.17
558.03	2172.96
558.39	2178.24
558.74	2183.92
559.10	2189.47
559.45	2194.76
559.81	2200.17
560.16	2205.69
560.52	2211.65
560.87	2218.12
561.23	2224.25
561.58	2230.86
561.94	2235.94
562.29	2240.81
562.64	2247.02
563.00	2252.49
563.35	2258.20
563.71	2264.14
564.06	2269.67
564.42	2275.54
564.77	2280.86
565.12	2286.03
565.48	2291.20
565.83	2296.73
566.19	2302.51
566.54	2307.91
566.89	2312.53
567.25	2317.18
567.60	2322.84
567.96	2327.95
568.31	2332.56
568.66	2336.74
569.02	2340.50
569.37	2344.40
569.72	2348.81
570.08	2352.39
570.43	2355.56
570.78	2358.66
571.14	2361.23
571.49	2364.56
571.84	2368.23
572.20	2371.12
572.55	2374.22
572.90	2376.63
573.26	2379.80
573.61	2382.24
573.96	2384.53
574.31	2386.76
574.67	2388.79
575.02	2389.72
575.37	2391.23
575.72	2392.10
576.08	2393.82
576.43	2394.43
576.78	2395.32
577.13	2397.24
577.49	2398.38
577.84	2400.02
578.19	2401.60
578.54	2402.50
578.90	2403.75
579.25	2403.75
579.60	2404.06
579.95	2403.59
580.30	2403.92
580.66	2403.24
581.01	2401.74
581.36	2399.68
581.71	2398.49
582.06	2397.77
582.42	2397.10
582.77	2395.19
583.12	2393.89
583.47	2392.73
583.82	2392.33
584.17	2391.35
584.53	2389.25
584.88	2387.54
585.23	2385.64
585.58	2383.53
585.93	2381.47
586.28	2379.29
586.63	2377.20
586.98	2375.09
587.34	2373.46
587.69	2371.31
588.04	2369.63
588.39	2368.38
588.74	2366.12
589.09	2363.71
589.44	2360.66
589.79	2358.49
590.14	2356.89
590.49	2354.17
590.84	2350.61
591.19	2347.76
591.54	2344.51
591.89	2340.72
592.25	2337.68
592.60	2333.61
592.95	2329.60
593.30	2325.58
593.65	2321.29
594.00	2317.03
594.35	2314.19
594.70	2309.68
595.05	2305.19
595.40	2299.85
595.75	2294.54
596.10	2290.96
596.45	2286.24
596.80	2281.77
597.15	2276.57
597.50	2270.72
597.85	2265.93
598.19	2260.85
598.54	2255.14
598.89	2250.21
599.24	2245.70
599.59	2239.70
599.94	2234.14
600.29	2228.40
600.64	2222.82
600.99	2216.42
601.34	2211.17
601.69	2204.24
602.04	2197.84
602.39	2191.28
602.74	2185.29
603.08	2179.64
603.43	2173.15
603.78	2166.33
604.13	2159.31
604.48	2152.24
604.83	2146.25
605.18	2139.97
605.53	2132.87
605.87	2125.92
606.22	2119.12
606.57	2111.29
606.92	2103.46
607.27	2096.55
607.62	2089.93
607.96	2082.79
608.31	2076.31
608.66	2068.54
609.01	2061.05
609.36	2053.93
609.70	2046.30
610.05	2038.57
610.40	2030.42
610.75	2022.19
611.10	2014.68
611.44	2006.01
611.79	1997.26
612.14	1987.25
612.49	1976.94
612.83	1967.91
613.18	1958.76
613.53	1949.43
613.88	1940.00
614.22	1931.44
614.57	1921.57
614.92	1911.20
615.27	1901.23
615.61	1891.03
615.96	1881.27
616.31	1871.63
616.65	1862.36
617.00	1852.50
617.35	1842.81
617.70	1833.21
618.04	1823.19
618.39	1812.83
618.74	1803.15
619.08	1793.69
619.43	1785.04
619.78	1776.73
620.12	1768.07
620.47	1758.24
620.82	1747.99
621.16	1738.15
621.51	1728.23
621.85	1718.35
622.20	1707.83
622.55	1697.15
622.89	1687.35
623.24	1677.75
623.59	1668.00
623.93	1657.77
624.28	1648.18
624.62	1638.13
624.97	1627.60
625.32	1618.01
625.66	1609.29
626.01	1600.28
626.35	1590.72
626.70	1580.63
627.04	1570.40
627.39	1560.32
627.73	1551.09
628.08	1542.03
628.43	1532.44
628.77	1523.16
629.12	1514.28
629.46	1506.34
629.81	1497.92
630.15	1488.25
630.50	1478.49
630.84	1468.18
631.19	1458.30
631.53	1448.78
631.88	1438.58
632.22	1428.66
632.57	1419.17
632.91	1408.93
633.26	1399.20
633.60	1389.70
633.95	1380.29
634.29	1370.98
634.64	1361.59
634.98	1351.76
635.32	1342.49
635.67	1333.94
636.01	1324.67
636.36	1314.79
636.70	1305.29
637.05	1295.98
637.39	1287.06
637.73	1278.25
638.08	1270.45
638.42	1262.17
638.77	1253.35
639.11	1245.07
639.45	1237.16
639.80	1228.41
640.14	1219.74
640.49	1210.75
640.83	1201.78
641.17	1193.71
641.52	1185.42
641.86	1176.81
642.20	1168.93
642.55	1160.33
642.89	1151.36
643.23	1142.62
643.58	1134.60
643.92	1125.52
644.26	1116.82
644.61	1108.35
644.95	1099.68
645.29	1090.44
645.64	1081.31
645.98	1073.04
646.32	1065.04
646.66	1056.55
647.01	1048.17
647.35	1039.93
647.69	1031.58
648.04	1023.37
648.38	1014.35
648.72	1005.64
649.06	997.19
649.41	988.93
649.75	980.78
650.09	972.93
650.43	964.92
650.78	956.71
651.12	949.09
651.46	941.71
651.80	934.49
652.14	927.10
652.49	919.60
652.83	912.28
653.17	904.51
653.51	897.00
653.85	889.82
654.20	882.64
654.54	875.16
654.88	868.06
655.22	860.88
655.56	853.99
655.90	847.23
656.25	840.62
656.59	833.59
656.93	826.78
657.27	819.71
657.61	812.83
657.95	806.76
658.29	800.92
658.64	794.86
658.98	788.37
659.32	781.86
659.66	775.78
660.00	769.52
660.34	763.56
660.68	757.47
661.02	751.21
661.36	745.42
661.70	739.70
662.05	734.11
662.39	728.63
662.73	723.33
663.07	717.96
663.41	712.42
663.75	706.86
664.09	701.26
664.43	695.98
664.77	690.65
665.11	684.78
665.45	678.91
665.79	673.10
666.13	667.51
666.47	662.09
666.81	656.58
667.15	651.24
667.49	646.04
667.83	640.83
668.17	635.62
668.51	630.50
668.85	625.64
669.19	620.76
669.53	615.86
669.87	610.82
670.21	606.11
670.55	601.39
670.89	597.06
671.23	592.81
671.57	588.43
671.91	584.19
672.25	580.17
672.58	576.10
672.92	572.11
673.26	568.30
673.60	564.54
673.94	560.82
674.28	557.26
674.62	553.61
674.96	549.95
675.30	546.47
675.64	542.90
675.97	539.37
676.31	535.87
676.65	532.26
676.99	528.84
677.33	525.08
677.67	521.52
678.01	517.72
678.34	514.09
678.68	510.69
679.02	507.13
679.36	503.50
679.70	499.91
680.04	496.41
680.37	493.05
680.71	489.73
681.05	486.59
681.39	483.44
681.73	480.28
682.06	477.30
682.40	474.23
682.74	471.07
683.08	467.89
683.42	464.73
683.75	461.89
684.09	458.89
684.43	456.13
684.77	453.22
685.10	450.43
685.44	447.60
685.78	444.67
686.12	442.04
686.45	439.41
686.79	436.80
687.13	434.33
687.46	431.69
687.80	429.07
688.14	426.28
688.48	423.70
688.81	421.09
689.15	418.54
689.49	415.97
689.82	413.47
690.16	410.99
690.50	408.59
690.83	406.08
691.17	403.61
691.51	401.16
691.84	398.95
692.18	396.82
692.52	394.69
692.85	392.63
693.19	390.46
693.52	388.25
693.86	386.08
694.20	383.90
694.53	381.80
694.87	379.62
695.21	377.54
695.54	375.35
695.88	373.23
696.21	371.07
696.55	369.02
696.88	367.02
697.22	365.11
697.56	363.27
697.89	361.45
698.23	359.73
698.56	357.98
698.90	356.24
699.23	354.27
699.57	352.42
699.90	350.58
700.24	348.86
700.58	347.15
700.91	345.54
701.25	344.01
701.58	342.46
701.92	340.93
702.25	339.42
702.59	337.88
702.92	336.39
703.26	334.94
703.59	333.56
703.93	332.32
704.26	330.91
704.60	329.45
704.93	328.00
705.26	326.53
705.60	325.09
705.93	323.62
706.27	322.40
706.60	321.17
706.94	319.93
707.27	318.52
707.61	317.24
707.94	315.93
708.27	314.49
708.61	313.13
708.94	311.82
709.28	310.54
709.61	309.31
709.94	308.18
710.28	306.97
710.61	305.75
710.95	304.33
711.28	303.22
711.61	302.05
711.95	300.96
712.28	299.84
712.61	298.71
712.95	297.69
713.28	296.70
713.61	295.58
713.95	294.46
714.28	293.51
714.61	292.47
714.95	291.47
715.28	290.48
715.61	289.47
715.95	288.51
716.28	287.56
716.61	286.65
716.95	285.66
717.28	284.74
717.61	283.83
717.94	283.01
718.28	282.04
718.61	281.17
718.94	280.31
719.27	279.45
719.61	278.60
719.94	277.78
720.27	276.81
720.60	276.01
720.94	275.25
721.27	274.49
721.60	273.82
721.93	273.11
722.27	272.47
722.60	271.81
722.93	271.16
723.26	270.51
723.59	269.86
723.93	269.29
724.26	268.65
724.59	268.00
724.92	267.38
725.25	266.86
725.59	266.29
725.92	265.76
726.25	265.22
726.58	264.75
726.91	264.15
727.24	263.67
727.57	263.10
727.91	262.55
728.24	262.04
728.57	261.44
728.90	260.92
729.23	260.35
729.56	259.90
729.89	259.35
730.22	258.78
730.55	258.22
730.89	257.67
731.22	257.16
731.55	256.70
731.88	256.21
732.21	255.70
732.54	255.18
732.87	254.68
733.20	254.21
733.53	253.75
733.86	253.29
734.19	252.78
734.52	252.38
734.85	252.07
735.18	251.59
735.51	251.24
735.84	250.82
736.17	250.40
736.50	249.91
736.83	249.80
737.16	249.44
737.49	249.06
737.82	248.62
738.15	248.26
738.48	247.88
738.81	247.50
739.14	247.07
739.47	246.72
739.80	246.33
740.13	246.00
740.46	245.58
740.79	245.21
741.12	244.91
741.45	244.55
741.78	244.13
742.11	243.90
742.44	243.54
742.77	243.23
743.10	242.88
743.43	242.53
743.75	241.95
744.08	241.89
744.41	241.55
744.74	241.28
745.07	240.89
745.40	240.64
745.73	240.37
746.06	240.06
746.39	239.76
746.71	239.44
747.04	239.06
747.37	238.79
747.70	238.51
748.03	238.20
748.36	237.93
748.68	237.63
749.01	237.27
749.34	237.00
749.67	236.73
750.00	236.49
750.33	236.39
750.65	236.15
750.98	235.63
751.31	235.41
751.64	235.20
751.97	235.13
752.29	234.82
752.62	234.50
752.95	234.27
753.28	233.99
753.60	233.78
753.93	233.66
754.26	233.38
754.59	233.13
754.91	232.89
755.24	232.66
755.57	232.41
755.90	232.21
756.22	231.99
756.55	231.74
756.88	231.51
757.20	231.17
757.53	230.92
757.86	230.73
758.19	230.53
758.51	230.29
758.84	229.97
759.17	229.79
759.49	229.66
759.82	229.60
760.15	229.48
760.47	229.28
760.80	228.98
761.13	228.89
761.45	228.70
761.78	228.50
762.11	228.32
762.43	228.16
762.76	227.94
763.08	227.80
763.41	227.67
763.74	227.51
764.06	227.37
764.39	227.25
764.71	227.11
765.04	226.96
765.37	226.80
765.69	226.66
766.02	226.52
766.34	226.34
766.67	226.11
767.00	226.02
767.32	226.02
767.65	226.03
767.97	225.84
768.30	225.74
768.62	225.61
768.95	225.49
769.27	225.39
769.60	225.34
769.92	225.17
770.25	225.00
770.57	224.83
770.90	224.69
771.22	224.53
771.55	224.44
771.87	224.34
772.20	224.22
772.52	224.30
772.85	224.43
773.17	224.34
773.50	224.22
773.82	224.05
774.15	223.82
774.47	223.59
774.80	223.50
775.12	223.38
775.45	223.33
775.77	223.25
776.09	223.13
776.42	223.01
776.74	222.96
777.07	222.88
777.39	222.83
777.72	222.76
778.04	222.71
778.36	222.60
778.69	222.51
779.01	222.47
779.33	222.19
779.66	221.86
779.98	221.76
780.31	221.73
780.63	221.75
780.95	221.72
781.28	221.67
781.60	221.60
781.92	221.54
782.25	221.49
782.57	221.45
782.89	221.36
783.22	221.25
783.54	221.19
783.86	221.15
784.19	221.07
784.51	221.05
784.83	220.94
785.16	220.83
785.48	220.78
785.80	220.65
786.12	220.63
