SpectraSuite Data File
++++++++++++++++++++++++++++++++++++
Date: Tue Jan 29 15:55:10 EST 2013
User: group
Dark Spectrum Present: No
Reference Spectrum Present: No
Number of Sampled Component Spectra: 1
Spectrometers: USB2E7196
Integration Time (usec): 65000 (USB2E7196)
Spectra Averaged: 100 (USB2E7196)
Boxcar Smoothing: 10 (USB2E7196)
Correct for Electrical Dark: No (USB2E7196)
Strobe/Lamp Enabled: No (USB2E7196)
Correct for Detector Non-linearity: No (USB2E7196)
Correct for Stray Light: No (USB2E7196)
Number of Pixels in Processed Spectrum: 2048
>>>>>Begin Processed Spectral Data<<<<<
339.09	0.00
339.48	203.15
339.86	204.62
340.24	205.88
340.63	207.33
341.01	212.16
341.39	210.25
341.78	211.93
342.16	213.30
342.54	213.11
342.93	202.29
343.31	212.50
343.69	213.05
344.07	213.51
344.46	213.95
344.84	214.33
345.22	214.51
345.60	214.75
345.99	214.93
346.37	215.00
346.75	215.10
347.13	215.20
347.52	215.22
347.90	215.34
348.28	215.35
348.66	215.43
349.05	215.37
349.43	215.43
349.81	215.52
350.19	215.52
350.57	215.59
350.96	215.68
351.34	215.79
351.72	215.88
352.10	215.99
352.48	216.07
352.87	216.12
353.25	216.16
353.63	216.21
354.01	216.25
354.39	216.37
354.77	216.44
355.15	216.56
355.54	216.62
355.92	216.59
356.30	216.65
356.68	216.85
357.06	216.97
357.44	217.02
357.82	217.06
358.20	217.14
358.58	217.22
358.97	217.29
359.35	217.37
359.73	217.45
360.11	217.49
360.49	217.55
360.87	217.61
361.25	217.67
361.63	217.79
362.01	217.87
362.39	217.88
362.77	217.96
363.15	217.95
363.53	217.98
363.91	218.03
364.29	218.06
364.67	217.86
365.05	217.88
365.43	217.95
365.81	218.00
366.19	218.11
366.57	218.20
366.95	218.22
367.33	218.18
367.71	218.18
368.09	218.23
368.47	218.21
368.85	218.20
369.23	218.29
369.61	218.21
369.99	218.26
370.37	218.27
370.75	218.30
371.13	218.27
371.51	218.22
371.89	218.26
372.27	218.28
372.65	218.29
373.03	218.27
373.41	218.16
373.78	218.12
374.16	217.99
374.54	217.89
374.92	217.82
375.30	217.79
375.68	217.69
376.06	217.66
376.44	217.61
376.82	217.56
377.19	217.46
377.57	217.40
377.95	217.27
378.33	217.22
378.71	217.10
379.09	217.09
379.47	217.09
379.84	216.99
380.22	216.88
380.60	216.80
380.98	216.74
381.36	216.72
381.73	216.65
382.11	216.65
382.49	216.62
382.87	216.59
383.25	216.57
383.62	216.73
384.00	216.64
384.38	216.61
384.76	216.67
385.13	216.71
385.51	216.70
385.89	216.67
386.27	216.66
386.64	216.65
387.02	216.58
387.40	216.55
387.78	216.52
388.15	216.52
388.53	216.51
388.91	216.47
389.29	216.45
389.66	216.47
390.04	216.44
390.42	216.48
390.79	216.45
391.17	216.42
391.55	216.24
391.92	216.24
392.30	216.26
392.68	216.19
393.05	216.19
393.43	216.20
393.81	216.19
394.18	216.16
394.56	216.17
394.94	216.24
395.31	216.20
395.69	216.30
396.06	216.34
396.44	216.37
396.82	216.39
397.19	216.54
397.57	216.54
397.95	216.57
398.32	216.52
398.70	216.58
399.07	216.63
399.45	216.65
399.82	216.70
400.20	216.72
400.58	216.74
400.95	216.71
401.33	216.80
401.70	217.00
402.08	217.07
402.45	217.13
402.83	217.25
403.20	217.37
403.58	217.43
403.95	217.58
404.33	217.72
404.71	217.86
405.08	218.06
405.46	218.21
405.83	218.39
406.21	218.57
406.58	218.81
406.96	219.03
407.33	219.28
407.70	219.58
408.08	220.04
408.45	220.40
408.83	220.78
409.20	221.14
409.58	221.42
409.95	221.85
410.33	222.36
410.70	222.78
411.08	223.28
411.45	223.83
411.82	224.37
412.20	225.06
412.57	225.84
412.95	226.38
413.32	227.16
413.69	227.97
414.07	228.85
414.44	229.83
414.82	230.80
415.19	231.93
415.56	233.06
415.94	234.18
416.31	235.51
416.68	236.82
417.06	238.32
417.43	239.80
417.81	241.51
418.18	243.20
418.55	245.05
418.93	247.02
419.30	249.01
419.67	251.18
420.04	253.34
420.42	255.64
420.79	258.35
421.16	261.06
421.54	263.85
421.91	266.70
422.28	269.62
422.66	272.81
423.03	275.94
423.40	279.16
423.77	282.62
424.15	286.15
424.52	289.84
424.89	293.84
425.26	297.74
425.64	301.41
426.01	305.49
426.38	309.74
426.75	314.14
427.13	318.68
427.50	323.42
427.87	328.37
428.24	333.32
428.61	338.11
428.99	343.35
429.36	349.13
429.73	354.77
430.10	360.40
430.47	366.19
430.85	372.21
431.22	378.59
431.59	385.43
431.96	391.98
432.33	399.14
432.70	406.04
433.08	414.20
433.45	421.91
433.82	429.66
434.19	438.21
434.56	446.50
434.93	454.49
435.30	462.40
435.68	471.18
436.05	479.79
436.42	488.29
436.79	496.08
437.16	504.48
437.53	513.31
437.90	522.11
438.27	530.66
438.64	539.48
439.01	547.74
439.38	554.99
439.75	561.99
440.13	570.07
440.50	577.70
440.87	583.87
441.24	590.27
441.61	597.24
441.98	602.38
442.35	608.39
442.72	614.41
443.09	620.13
443.46	623.63
443.83	626.02
444.20	628.15
444.57	631.14
444.94	632.48
445.31	633.87
445.68	635.13
446.05	635.71
446.42	634.93
446.79	633.89
447.16	632.75
447.53	631.95
447.90	628.71
448.27	625.53
448.64	621.03
449.01	617.82
449.37	612.19
449.74	606.69
450.11	600.10
450.48	593.01
450.85	585.92
451.22	579.73
451.59	573.87
451.96	568.30
452.33	560.80
452.70	554.03
453.07	545.91
453.43	537.73
453.80	529.84
454.17	522.26
454.54	515.10
454.91	507.35
455.28	499.83
455.65	492.77
456.02	485.68
456.38	479.72
456.75	472.27
457.12	466.00
457.49	459.88
457.86	454.01
458.23	448.91
458.59	443.26
458.96	437.62
459.33	432.54
459.70	427.41
460.07	423.39
460.43	418.73
460.80	414.42
461.17	410.57
461.54	406.52
461.91	402.64
462.27	398.71
462.64	395.40
463.01	391.74
463.38	388.21
463.74	384.64
464.11	381.45
464.48	378.66
464.85	375.63
465.21	373.28
465.58	370.76
465.95	367.78
466.32	365.30
466.68	362.82
467.05	360.36
467.42	357.96
467.78	355.33
468.15	352.93
468.52	351.10
468.88	348.74
469.25	346.72
469.62	345.06
469.98	343.22
470.35	341.55
470.72	339.97
471.08	338.27
471.45	336.89
471.82	335.54
472.18	334.01
472.55	332.94
472.92	331.64
473.28	330.50
473.65	329.43
474.02	328.42
474.38	327.56
474.75	326.87
475.11	326.06
475.48	325.60
475.85	325.21
476.21	324.78
476.58	324.47
476.94	324.26
477.31	323.97
477.67	323.81
478.04	323.67
478.41	323.64
478.77	323.82
479.14	323.78
479.50	323.90
479.87	324.23
480.23	324.58
480.60	324.84
480.96	325.19
481.33	325.84
481.69	326.41
482.06	326.93
482.42	327.45
482.79	328.11
483.15	328.88
483.52	329.80
483.88	330.71
484.25	331.65
484.61	332.63
484.98	333.69
485.34	334.93
485.71	336.27
486.07	337.72
486.44	339.06
486.80	340.67
487.17	342.33
487.53	344.14
487.90	345.95
488.26	347.99
488.62	350.09
488.99	352.09
489.35	354.24
489.72	356.68
490.08	359.13
490.44	361.64
490.81	364.39
491.17	367.03
491.54	369.97
491.90	372.99
492.26	376.29
492.63	379.72
492.99	383.23
493.36	386.91
493.72	390.79
494.08	394.83
494.45	399.01
494.81	403.36
495.17	407.78
495.54	412.46
495.90	417.27
496.26	422.17
496.63	427.36
496.99	432.76
497.35	438.30
497.72	444.10
498.08	450.05
498.44	456.10
498.80	462.53
499.17	469.02
499.53	475.72
499.89	482.53
500.26	489.45
500.62	496.53
500.98	503.88
501.34	511.31
501.71	518.99
502.07	526.81
502.43	534.76
502.79	542.85
503.16	551.24
503.52	559.76
503.88	568.43
504.24	577.36
504.60	586.42
504.97	595.53
505.33	604.81
505.69	614.60
506.05	624.39
506.41	634.21
506.78	644.21
507.14	654.43
507.50	664.85
507.86	675.48
508.22	686.21
508.59	696.82
508.95	707.79
509.31	719.00
509.67	730.40
510.03	741.74
510.39	753.43
510.75	765.19
511.12	777.05
511.48	789.11
511.84	801.22
512.20	813.29
512.56	825.86
512.92	838.45
513.28	851.05
513.64	863.66
514.00	876.31
514.37	889.20
514.73	902.01
515.09	914.74
515.45	927.40
515.81	940.20
516.17	953.42
516.53	966.34
516.89	979.25
517.25	992.21
517.61	1005.47
517.97	1018.62
518.33	1031.51
518.69	1044.83
519.05	1058.29
519.41	1071.72
519.77	1085.51
520.13	1098.59
520.49	1111.60
520.85	1124.73
521.21	1137.88
521.57	1151.29
521.93	1164.08
522.29	1177.71
522.65	1191.14
523.01	1204.55
523.37	1217.58
523.73	1230.61
524.09	1243.62
524.45	1256.73
524.81	1269.90
525.17	1282.97
525.53	1295.79
525.89	1308.82
526.25	1321.58
526.61	1334.04
526.97	1346.83
527.33	1359.27
527.68	1372.35
528.04	1385.45
528.40	1398.06
528.76	1411.00
529.12	1423.55
529.48	1436.51
529.84	1448.36
530.20	1460.75
530.56	1473.01
530.91	1485.93
531.27	1498.40
531.63	1510.74
531.99	1523.26
532.35	1535.05
532.71	1546.92
533.07	1559.42
533.42	1571.31
533.78	1583.00
534.14	1594.75
534.50	1605.57
534.86	1616.83
535.21	1627.38
535.57	1638.56
535.93	1649.51
536.29	1660.12
536.65	1671.17
537.00	1681.60
537.36	1692.60
537.72	1703.13
538.08	1714.01
538.44	1724.39
538.79	1735.02
539.15	1745.60
539.51	1755.84
539.87	1766.82
540.22	1777.41
540.58	1788.04
540.94	1798.54
541.29	1808.47
541.65	1817.90
542.01	1828.15
542.37	1837.94
542.72	1847.74
543.08	1857.11
543.44	1867.29
543.79	1876.40
544.15	1885.39
544.51	1895.06
544.87	1904.39
545.22	1913.31
545.58	1921.94
545.94	1930.43
546.29	1938.51
546.65	1946.47
547.01	1954.19
547.36	1961.48
547.72	1968.83
548.07	1975.81
548.43	1983.07
548.79	1990.65
549.14	1998.39
549.50	2006.44
549.86	2013.65
550.21	2020.65
550.57	2028.05
550.92	2034.47
551.28	2041.58
551.64	2048.58
551.99	2055.89
552.35	2062.78
552.70	2069.24
553.06	2075.56
553.41	2081.60
553.77	2087.97
554.13	2094.10
554.48	2100.99
554.84	2107.70
555.19	2114.01
555.55	2120.48
555.90	2126.67
556.26	2133.21
556.61	2138.95
556.97	2143.52
557.32	2149.53
557.68	2155.75
558.03	2161.28
558.39	2166.44
558.74	2172.31
559.10	2177.79
559.45	2183.10
559.81	2188.68
560.16	2194.29
560.52	2200.12
560.87	2206.42
561.23	2212.29
561.58	2218.89
561.94	2224.15
562.29	2229.09
562.64	2235.37
563.00	2240.93
563.35	2246.59
563.71	2252.38
564.06	2258.11
564.42	2264.09
564.77	2269.06
565.12	2274.36
565.48	2279.59
565.83	2285.26
566.19	2290.78
566.54	2296.30
566.89	2300.91
567.25	2305.69
567.60	2311.45
567.96	2316.69
568.31	2321.52
568.66	2325.91
569.02	2329.92
569.37	2333.77
569.72	2338.23
570.08	2341.62
570.43	2344.86
570.78	2347.94
571.14	2350.59
571.49	2353.82
571.84	2357.46
572.20	2360.46
572.55	2363.52
572.90	2365.98
573.26	2369.03
573.61	2371.64
573.96	2373.89
574.31	2376.20
574.67	2378.08
575.02	2379.13
575.37	2380.68
575.72	2381.55
576.08	2383.23
576.43	2383.51
576.78	2384.19
577.13	2386.08
577.49	2387.45
577.84	2388.77
578.19	2390.46
578.54	2391.34
578.90	2392.52
579.25	2392.81
579.60	2393.17
579.95	2392.89
580.30	2393.16
580.66	2392.69
581.01	2391.35
581.36	2389.34
581.71	2388.15
582.06	2387.44
582.42	2386.87
582.77	2385.17
583.12	2383.74
583.47	2382.62
583.82	2382.37
584.17	2381.33
584.53	2379.40
584.88	2377.72
585.23	2376.22
585.58	2374.17
585.93	2372.43
586.28	2370.50
586.63	2368.34
586.98	2366.36
587.34	2364.69
587.69	2362.60
588.04	2360.81
588.39	2359.68
588.74	2357.56
589.09	2355.27
589.44	2352.40
589.79	2350.21
590.14	2348.42
590.49	2345.94
590.84	2342.36
591.19	2339.70
591.54	2336.85
591.89	2333.04
592.25	2330.10
592.60	2326.27
592.95	2322.44
593.30	2318.61
593.65	2314.48
594.00	2310.26
594.35	2307.59
594.70	2303.01
595.05	2298.75
595.40	2293.50
595.75	2288.12
596.10	2284.52
596.45	2279.90
596.80	2275.52
597.15	2270.46
597.50	2264.66
597.85	2259.88
598.19	2254.81
598.54	2249.08
598.89	2244.05
599.24	2239.64
599.59	2233.64
599.94	2227.98
600.29	2222.07
600.64	2216.15
600.99	2209.44
601.34	2204.04
601.69	2196.95
602.04	2190.91
602.39	2184.30
602.74	2178.23
603.08	2172.59
603.43	2166.28
603.78	2159.51
604.13	2152.41
604.48	2145.23
604.83	2139.19
605.18	2133.03
605.53	2126.30
605.87	2119.38
606.22	2112.74
606.57	2104.92
606.92	2097.06
607.27	2090.16
607.62	2083.73
607.96	2076.91
608.31	2070.63
608.66	2063.05
609.01	2055.64
609.36	2048.55
609.70	2041.09
610.05	2033.57
610.40	2025.48
610.75	2017.26
611.10	2009.60
611.44	2001.02
611.79	1992.32
612.14	1982.49
612.49	1972.05
612.83	1962.80
613.18	1953.61
613.53	1944.26
613.88	1934.79
614.22	1926.23
614.57	1916.34
614.92	1905.74
615.27	1895.64
615.61	1885.56
615.96	1875.94
616.31	1866.36
616.65	1856.95
617.00	1847.23
617.35	1837.49
617.70	1827.75
618.04	1817.82
618.39	1807.75
618.74	1798.10
619.08	1788.54
619.43	1779.95
619.78	1771.70
620.12	1763.05
620.47	1753.52
620.82	1743.21
621.16	1733.59
621.51	1723.63
621.85	1713.84
622.20	1703.45
622.55	1692.96
622.89	1683.13
623.24	1673.43
623.59	1663.73
623.93	1653.53
624.28	1643.65
624.62	1633.53
624.97	1623.23
625.32	1613.34
625.66	1604.51
626.01	1595.69
626.35	1586.38
626.70	1576.19
627.04	1566.12
627.39	1556.01
627.73	1546.69
628.08	1537.74
628.43	1528.18
628.77	1519.04
629.12	1510.03
629.46	1502.32
629.81	1493.86
630.15	1484.24
630.50	1474.32
630.84	1463.85
631.19	1453.98
631.53	1444.66
631.88	1434.48
632.22	1424.50
632.57	1415.22
632.91	1405.01
633.26	1395.01
633.60	1385.30
633.95	1376.05
634.29	1366.56
634.64	1357.27
634.98	1347.30
635.32	1338.09
635.67	1329.52
636.01	1320.16
636.36	1310.48
636.70	1300.85
637.05	1291.48
637.39	1282.50
637.73	1273.94
638.08	1266.29
638.42	1258.06
638.77	1249.22
639.11	1241.05
639.45	1233.15
639.80	1224.50
640.14	1215.70
640.49	1206.89
640.83	1198.13
641.17	1189.96
641.52	1181.71
641.86	1173.05
642.20	1165.13
642.55	1156.38
642.89	1147.46
643.23	1138.81
643.58	1130.67
643.92	1121.71
644.26	1112.92
644.61	1104.56
644.95	1095.79
645.29	1086.54
645.64	1077.51
645.98	1069.05
646.32	1061.17
646.66	1052.74
647.01	1044.42
647.35	1036.30
647.69	1028.05
648.04	1019.74
648.38	1010.86
648.72	1002.16
649.06	993.77
649.41	985.61
649.75	977.63
650.09	969.76
650.43	961.75
650.78	953.55
651.12	945.82
651.46	938.51
651.80	931.29
652.14	923.92
652.49	916.43
652.83	908.94
653.17	901.37
653.51	893.72
653.85	886.46
654.20	879.20
654.54	871.76
654.88	864.50
655.22	857.38
655.56	850.46
655.90	843.77
656.25	837.14
656.59	830.32
656.93	823.42
657.27	816.39
657.61	809.52
657.95	803.40
658.29	797.41
658.64	791.32
658.98	784.85
659.32	778.39
659.66	772.27
660.00	766.05
660.34	760.01
660.68	753.93
661.02	747.65
661.36	741.75
661.70	736.07
662.05	730.58
662.39	725.16
662.73	719.88
663.07	714.52
663.41	709.00
663.75	703.34
664.09	697.75
664.43	692.40
664.77	687.17
665.11	681.43
665.45	675.72
665.79	669.92
666.13	664.32
666.47	658.88
666.81	653.46
667.15	648.24
667.49	643.13
667.83	638.00
668.17	632.90
668.51	627.88
668.85	622.94
669.19	618.03
669.53	613.13
669.87	608.02
670.21	603.28
670.55	598.58
670.89	594.18
671.23	589.99
671.57	585.68
671.91	581.36
672.25	577.28
672.58	573.25
672.92	569.33
673.26	565.50
673.60	561.71
673.94	557.99
674.28	554.34
674.62	550.65
674.96	546.98
675.30	543.52
675.64	539.84
675.97	536.40
676.31	532.84
676.65	529.23
676.99	525.87
677.33	522.10
677.67	518.55
678.01	514.79
678.34	511.12
678.68	507.65
679.02	504.16
679.36	500.53
679.70	496.97
680.04	493.52
680.37	490.12
680.71	486.89
681.05	483.74
681.39	480.59
681.73	477.53
682.06	474.60
682.40	471.56
682.74	468.56
683.08	465.39
683.42	462.32
683.75	459.43
684.09	456.48
684.43	453.79
684.77	450.92
685.10	448.17
685.44	445.35
685.78	442.50
686.12	439.76
686.45	437.12
686.79	434.55
687.13	432.05
687.46	429.51
687.80	426.90
688.14	424.17
688.48	421.64
688.81	419.03
689.15	416.45
689.49	413.93
689.82	411.43
690.16	408.91
690.50	406.58
690.83	404.15
691.17	401.68
691.51	399.23
691.84	397.02
692.18	394.90
692.52	392.78
692.85	390.71
693.19	388.69
693.52	386.62
693.86	384.42
694.20	382.27
694.53	380.17
694.87	378.06
695.21	376.03
695.54	373.92
695.88	371.79
696.21	369.63
696.55	367.55
696.88	365.58
697.22	363.69
697.56	361.80
697.89	359.99
698.23	358.37
698.56	356.68
698.90	355.01
699.23	353.15
699.57	351.35
699.90	349.54
700.24	347.75
700.58	346.02
700.91	344.40
701.25	342.91
701.58	341.35
701.92	339.84
702.25	338.23
702.59	336.66
702.92	335.17
703.26	333.71
703.59	332.31
703.93	331.08
704.26	329.69
704.60	328.21
704.93	326.80
705.26	325.33
705.60	323.88
705.93	322.39
706.27	321.08
706.60	319.84
706.94	318.66
707.27	317.33
707.61	316.01
707.94	314.72
708.27	313.25
708.61	311.88
708.94	310.52
709.28	309.32
709.61	308.15
709.94	306.99
710.28	305.80
710.61	304.59
710.95	303.23
711.28	302.19
711.61	301.05
711.95	299.97
712.28	298.79
712.61	297.65
712.95	296.68
713.28	295.73
713.61	294.61
713.95	293.49
714.28	292.50
714.61	291.52
714.95	290.56
715.28	289.62
715.61	288.63
715.95	287.74
716.28	286.85
716.61	285.92
716.95	284.94
717.28	284.05
717.61	283.16
717.94	282.30
718.28	281.33
718.61	280.50
718.94	279.61
719.27	278.84
719.61	278.05
719.94	277.20
720.27	276.24
720.60	275.42
720.94	274.66
721.27	273.96
721.60	273.31
721.93	272.61
722.27	271.98
722.60	271.36
722.93	270.66
723.26	269.97
723.59	269.31
723.93	268.75
724.26	268.14
724.59	267.53
724.92	266.97
725.25	266.45
725.59	265.90
725.92	265.40
726.25	264.81
726.58	264.28
726.91	263.70
727.24	263.18
727.57	262.63
727.91	262.04
728.24	261.49
728.57	260.92
728.90	260.35
729.23	259.73
729.56	259.30
729.89	258.75
730.22	258.23
730.55	257.69
730.89	257.14
731.22	256.63
731.55	256.16
731.88	255.64
732.21	255.15
732.54	254.61
732.87	254.09
733.20	253.63
733.53	253.16
733.86	252.74
734.19	252.30
734.52	251.90
734.85	251.64
735.18	251.18
735.51	250.81
735.84	250.46
736.17	250.08
736.50	249.55
736.83	249.41
737.16	249.04
737.49	248.67
737.82	248.30
738.15	247.96
738.48	247.59
738.81	247.20
739.14	246.80
739.47	246.48
739.80	246.17
740.13	245.87
740.46	245.50
740.79	245.15
741.12	244.77
741.45	244.43
741.78	244.03
742.11	243.78
742.44	243.41
742.77	243.09
743.10	242.81
743.43	242.50
743.75	241.94
744.08	241.86
744.41	241.55
744.74	241.23
745.07	240.87
745.40	240.54
745.73	240.32
746.06	240.00
746.39	239.66
746.71	239.30
747.04	238.94
747.37	238.62
747.70	238.36
748.03	238.10
748.36	237.80
748.68	237.51
749.01	237.15
749.34	236.88
749.67	236.59
750.00	236.33
750.33	236.26
750.65	236.01
750.98	235.51
751.31	235.27
751.64	235.04
751.97	234.95
752.29	234.73
752.62	234.38
752.95	234.13
753.28	233.95
753.60	233.73
753.93	233.58
754.26	233.40
754.59	233.11
754.91	232.91
755.24	232.68
755.57	232.44
755.90	232.27
756.22	232.02
756.55	231.81
756.88	231.60
757.20	231.22
757.53	230.98
757.86	230.81
758.19	230.66
758.51	230.47
758.84	230.14
759.17	229.96
759.49	229.80
759.82	229.73
760.15	229.55
760.47	229.37
760.80	229.13
761.13	228.99
761.45	228.79
761.78	228.60
762.11	228.42
762.43	228.23
762.76	228.05
763.08	227.95
763.41	227.79
763.74	227.64
764.06	227.52
764.39	227.40
764.71	227.21
765.04	227.03
765.37	226.87
765.69	226.75
766.02	226.59
766.34	226.45
766.67	226.25
767.00	226.14
767.32	226.14
767.65	226.10
767.97	225.96
768.30	225.89
768.62	225.74
768.95	225.61
769.27	225.51
769.60	225.41
769.92	225.26
770.25	225.13
770.57	224.97
770.90	224.82
771.22	224.67
771.55	224.58
771.87	224.51
772.20	224.38
772.52	224.43
772.85	224.56
773.17	224.46
773.50	224.38
773.82	224.24
774.15	224.03
774.47	223.81
774.80	223.69
775.12	223.59
775.45	223.55
775.77	223.49
776.09	223.42
776.42	223.30
776.74	223.28
777.07	223.20
777.39	223.13
777.72	223.04
778.04	222.99
778.36	222.89
778.69	222.80
779.01	222.74
779.33	222.49
779.66	222.20
779.98	222.08
780.31	222.01
780.63	222.02
780.95	221.97
781.28	221.90
781.60	221.82
781.92	221.75
782.25	221.69
782.57	221.64
782.89	221.57
783.22	221.53
783.54	221.40
783.86	221.34
784.19	221.25
784.51	221.24
784.83	221.14
785.16	221.06
785.48	220.99
785.80	220.94
786.12	220.91
