SpectraSuite Data File
++++++++++++++++++++++++++++++++++++
Date: Tue Jan 29 15:58:51 EST 2013
User: group
Dark Spectrum Present: No
Reference Spectrum Present: No
Number of Sampled Component Spectra: 1
Spectrometers: USB2E7196
Integration Time (usec): 65000 (USB2E7196)
Spectra Averaged: 100 (USB2E7196)
Boxcar Smoothing: 10 (USB2E7196)
Correct for Electrical Dark: No (USB2E7196)
Strobe/Lamp Enabled: No (USB2E7196)
Correct for Detector Non-linearity: No (USB2E7196)
Correct for Stray Light: No (USB2E7196)
Number of Pixels in Processed Spectrum: 2048
>>>>>Begin Processed Spectral Data<<<<<
339.09	0.00
339.48	202.86
339.86	204.35
340.24	205.98
340.63	207.27
341.01	211.62
341.39	209.84
341.78	211.39
342.16	212.26
342.54	212.50
342.93	201.96
343.31	212.16
343.69	212.69
344.07	213.17
344.46	213.66
344.84	214.05
345.22	214.22
345.60	214.50
345.99	214.70
346.37	214.86
346.75	214.98
347.13	215.06
347.52	215.12
347.90	215.23
348.28	215.26
348.66	215.43
349.05	215.40
349.43	215.47
349.81	215.54
350.19	215.60
350.57	215.67
350.96	215.79
351.34	215.91
351.72	216.01
352.10	216.13
352.48	216.11
352.87	216.17
353.25	216.23
353.63	216.33
354.01	216.41
354.39	216.48
354.77	216.58
355.15	216.72
355.54	216.79
355.92	216.82
356.30	216.89
356.68	217.03
357.06	217.09
357.44	217.15
357.82	217.21
358.20	217.29
358.58	217.37
358.97	217.42
359.35	217.51
359.73	217.60
360.11	217.66
360.49	217.73
360.87	217.77
361.25	217.87
361.63	217.93
362.01	217.96
362.39	217.97
362.77	218.02
363.15	218.03
363.53	218.05
363.91	218.06
364.29	218.10
364.67	217.94
365.05	217.96
365.43	217.97
365.81	218.03
366.19	218.13
366.57	218.21
366.95	218.20
367.33	218.15
367.71	218.18
368.09	218.21
368.47	218.21
368.85	218.21
369.23	218.21
369.61	218.10
369.99	218.17
370.37	218.18
370.75	218.25
371.13	218.18
371.51	218.13
371.89	218.12
372.27	218.07
372.65	218.07
373.03	218.05
373.41	218.02
373.78	217.97
374.16	217.83
374.54	217.69
374.92	217.63
375.30	217.59
375.68	217.48
376.06	217.43
376.44	217.36
376.82	217.33
377.19	217.25
377.57	217.25
377.95	217.13
378.33	217.10
378.71	216.92
379.09	216.90
379.47	216.90
379.84	216.87
380.22	216.80
380.60	216.72
380.98	216.68
381.36	216.63
381.73	216.56
382.11	216.55
382.49	216.54
382.87	216.48
383.25	216.46
383.62	216.68
384.00	216.57
384.38	216.59
384.76	216.58
385.13	216.65
385.51	216.58
385.89	216.52
386.27	216.49
386.64	216.50
387.02	216.47
387.40	216.41
387.78	216.38
388.15	216.37
388.53	216.35
388.91	216.33
389.29	216.28
389.66	216.29
390.04	216.27
390.42	216.28
390.79	216.26
391.17	216.21
391.55	215.94
391.92	215.92
392.30	215.92
392.68	215.89
393.05	215.84
393.43	215.86
393.81	215.89
394.18	215.85
394.56	215.83
394.94	215.86
395.31	215.85
395.69	215.93
396.06	215.98
396.44	216.04
396.82	216.03
397.19	216.18
397.57	216.17
397.95	216.18
398.32	216.15
398.70	216.20
399.07	216.32
399.45	216.36
399.82	216.43
400.20	216.42
400.58	216.45
400.95	216.43
401.33	216.52
401.70	216.71
402.08	216.81
402.45	216.92
402.83	217.05
403.20	217.15
403.58	217.23
403.95	217.35
404.33	217.47
404.71	217.60
405.08	217.85
405.46	218.03
405.83	218.24
406.21	218.47
406.58	218.72
406.96	218.92
407.33	219.20
407.70	219.49
408.08	219.97
408.45	220.37
408.83	220.74
409.20	221.07
409.58	221.34
409.95	221.76
410.33	222.23
410.70	222.61
411.08	223.17
411.45	223.72
411.82	224.28
412.20	224.95
412.57	225.76
412.95	226.29
413.32	227.07
413.69	227.88
414.07	228.71
414.44	229.65
414.82	230.63
415.19	231.77
415.56	232.92
415.94	234.09
416.31	235.43
416.68	236.77
417.06	238.34
417.43	239.82
417.81	241.50
418.18	243.20
418.55	245.10
418.93	247.00
419.30	249.00
419.67	251.15
420.04	253.36
420.42	255.62
420.79	258.35
421.16	261.06
421.54	263.85
421.91	266.73
422.28	269.72
422.66	272.91
423.03	275.99
423.40	279.17
423.77	282.61
424.15	286.11
424.52	289.82
424.89	293.84
425.26	297.75
425.64	301.48
426.01	305.62
426.38	309.93
426.75	314.34
427.13	318.91
427.50	323.63
427.87	328.64
428.24	333.66
428.61	338.45
428.99	343.77
429.36	349.57
429.73	355.24
430.10	360.87
430.47	366.68
430.85	372.74
431.22	379.28
431.59	386.12
431.96	392.67
432.33	399.86
432.70	406.83
433.08	415.09
433.45	422.85
433.82	430.60
434.19	439.14
434.56	447.50
434.93	455.55
435.30	463.58
435.68	472.37
436.05	481.05
436.42	489.67
436.79	497.48
437.16	505.88
437.53	514.81
437.90	523.63
438.27	532.25
438.64	541.16
439.01	549.29
439.38	556.53
439.75	563.53
440.13	571.61
440.50	579.22
440.87	585.40
441.24	591.81
441.61	598.84
441.98	604.01
442.35	610.06
442.72	616.04
443.09	621.81
443.46	625.30
443.83	627.66
444.20	629.65
444.57	632.59
444.94	633.94
445.31	635.27
445.68	636.56
446.05	637.13
446.42	636.39
446.79	635.45
447.16	634.48
447.53	633.73
447.90	630.51
448.27	627.35
448.64	622.79
449.01	619.49
449.37	613.75
449.74	608.23
450.11	601.60
450.48	594.57
450.85	587.46
451.22	581.23
451.59	575.37
451.96	569.81
452.33	562.31
452.70	555.47
453.07	547.38
453.43	539.15
453.80	531.20
454.17	523.54
454.54	516.35
454.91	508.45
455.28	500.91
455.65	493.88
456.02	486.74
456.38	480.75
456.75	473.28
457.12	467.05
457.49	460.90
457.86	455.04
458.23	449.91
458.59	444.20
458.96	438.49
459.33	433.39
459.70	428.23
460.07	424.18
460.43	419.51
460.80	415.08
461.17	411.24
461.54	407.24
461.91	403.32
462.27	399.32
462.64	396.06
463.01	392.39
463.38	388.82
463.74	385.19
464.11	382.03
464.48	379.29
464.85	376.26
465.21	373.90
465.58	371.37
465.95	368.30
466.32	365.80
466.68	363.29
467.05	360.79
467.42	358.38
467.78	355.81
468.15	353.40
468.52	351.62
468.88	349.24
469.25	347.13
469.62	345.45
469.98	343.66
470.35	341.94
470.72	340.34
471.08	338.64
471.45	337.24
471.82	335.84
472.18	334.27
472.55	333.21
472.92	331.87
473.28	330.71
473.65	329.67
474.02	328.62
474.38	327.82
474.75	327.16
475.11	326.40
475.48	325.87
475.85	325.47
476.21	325.03
476.58	324.72
476.94	324.52
477.31	324.22
477.67	323.97
478.04	323.84
478.41	323.83
478.77	324.01
479.14	323.99
479.50	324.13
479.87	324.45
480.23	324.81
480.60	325.09
480.96	325.44
481.33	326.02
481.69	326.60
482.06	327.20
482.42	327.70
482.79	328.32
483.15	329.14
483.52	330.06
483.88	330.93
484.25	331.90
484.61	332.91
484.98	334.02
485.34	335.34
485.71	336.69
486.07	338.12
486.44	339.45
486.80	341.05
487.17	342.71
487.53	344.50
487.90	346.30
488.26	348.36
488.62	350.50
488.99	352.53
489.35	354.72
489.72	357.07
490.08	359.57
490.44	362.11
490.81	364.79
491.17	367.47
491.54	370.43
491.90	373.47
492.26	376.76
492.63	380.15
492.99	383.64
493.36	387.27
493.72	391.10
494.08	395.12
494.45	399.35
494.81	403.69
495.17	408.19
495.54	412.89
495.90	417.71
496.26	422.62
496.63	427.83
496.99	433.17
497.35	438.74
497.72	444.51
498.08	450.42
498.44	456.54
498.80	462.94
499.17	469.46
499.53	476.15
499.89	482.93
500.26	489.84
500.62	496.85
500.98	504.25
501.34	511.68
501.71	519.35
502.07	527.09
502.43	535.05
502.79	543.11
503.16	551.45
503.52	559.94
503.88	568.59
504.24	577.44
504.60	586.42
504.97	595.58
505.33	604.85
505.69	614.67
506.05	624.54
506.41	634.34
506.78	644.36
507.14	654.59
507.50	664.96
507.86	675.63
508.22	686.36
508.59	697.03
508.95	708.15
509.31	719.38
509.67	730.80
510.03	742.21
510.39	753.94
510.75	765.80
511.12	777.69
511.48	789.73
511.84	802.06
512.20	814.41
512.56	826.95
512.92	839.69
513.28	852.23
513.64	864.79
514.00	877.56
514.37	890.40
514.73	903.30
515.09	916.19
515.45	928.81
515.81	941.79
516.17	954.99
516.53	967.99
516.89	981.03
517.25	994.05
517.61	1007.37
517.97	1020.54
518.33	1033.50
518.69	1046.86
519.05	1060.50
519.41	1073.95
519.77	1087.64
520.13	1100.80
520.49	1113.89
520.85	1127.09
521.21	1140.26
521.57	1153.76
521.93	1166.65
522.29	1180.24
522.65	1193.78
523.01	1207.26
523.37	1220.18
523.73	1233.18
524.09	1246.09
524.45	1259.20
524.81	1272.43
525.17	1285.60
525.53	1298.56
525.89	1311.57
526.25	1324.40
526.61	1336.79
526.97	1349.55
527.33	1362.21
527.68	1375.36
528.04	1388.41
528.40	1401.22
528.76	1414.20
529.12	1426.80
529.48	1439.79
529.84	1451.74
530.20	1464.06
530.56	1476.46
530.91	1489.56
531.27	1502.11
531.63	1514.65
531.99	1527.11
532.35	1539.03
532.71	1551.05
533.07	1563.56
533.42	1575.39
533.78	1587.20
534.14	1599.08
534.50	1609.95
534.86	1621.10
535.21	1631.65
535.57	1642.69
535.93	1653.77
536.29	1664.60
536.65	1675.68
537.00	1686.29
537.36	1697.34
537.72	1708.12
538.08	1719.11
538.44	1729.58
538.79	1740.38
539.15	1750.86
539.51	1761.17
539.87	1772.21
540.22	1782.62
540.58	1793.06
540.94	1803.68
541.29	1813.52
541.65	1822.93
542.01	1833.23
542.37	1843.07
542.72	1852.99
543.08	1862.65
543.44	1872.69
543.79	1881.76
544.15	1890.90
544.51	1900.65
544.87	1910.24
545.22	1918.94
545.58	1927.56
545.94	1936.07
546.29	1944.32
546.65	1952.41
547.01	1960.37
547.36	1967.75
547.72	1975.37
548.07	1982.86
548.43	1990.23
548.79	1997.76
549.14	2005.64
549.50	2013.67
549.86	2021.13
550.21	2028.19
550.57	2035.52
550.92	2041.99
551.28	2049.22
551.64	2056.33
551.99	2063.58
552.35	2070.42
552.70	2077.16
553.06	2083.56
553.41	2089.71
553.77	2095.93
554.13	2102.12
554.48	2108.99
554.84	2115.83
555.19	2121.99
555.55	2128.43
555.90	2134.67
556.26	2141.44
556.61	2147.31
556.97	2152.10
557.32	2157.83
557.68	2164.30
558.03	2169.81
558.39	2175.02
558.74	2180.92
559.10	2186.40
559.45	2191.91
559.81	2197.53
560.16	2203.10
560.52	2208.94
560.87	2215.39
561.23	2221.52
561.58	2228.28
561.94	2233.46
562.29	2238.26
562.64	2244.57
563.00	2249.97
563.35	2255.61
563.71	2261.45
564.06	2267.02
564.42	2273.05
564.77	2278.25
565.12	2283.34
565.48	2288.70
565.83	2294.43
566.19	2299.96
566.54	2305.39
566.89	2309.96
567.25	2314.63
567.60	2320.26
567.96	2325.55
568.31	2330.06
568.66	2334.20
569.02	2337.97
569.37	2341.89
569.72	2346.36
570.08	2349.93
570.43	2353.16
570.78	2356.24
571.14	2359.00
571.49	2362.43
571.84	2366.05
572.20	2368.98
572.55	2372.22
572.90	2374.61
573.26	2377.62
573.61	2380.11
573.96	2382.50
574.31	2384.68
574.67	2386.58
575.02	2387.76
575.37	2389.25
575.72	2390.41
576.08	2392.03
576.43	2392.56
576.78	2393.48
577.13	2395.44
577.49	2396.74
577.84	2398.32
578.19	2400.08
578.54	2400.97
578.90	2401.99
579.25	2402.13
579.60	2402.50
579.95	2401.96
580.30	2402.44
580.66	2401.91
581.01	2400.54
581.36	2398.53
581.71	2397.45
582.06	2396.82
582.42	2396.14
582.77	2394.36
583.12	2392.88
583.47	2391.90
583.82	2391.55
584.17	2390.39
584.53	2388.38
584.88	2386.60
585.23	2384.80
585.58	2382.60
585.93	2380.63
586.28	2378.78
586.63	2376.70
586.98	2374.69
587.34	2372.95
587.69	2370.81
588.04	2369.07
588.39	2367.79
588.74	2365.45
589.09	2363.10
589.44	2360.21
589.79	2358.10
590.14	2356.53
590.49	2353.76
590.84	2350.15
591.19	2347.43
591.54	2344.40
591.89	2340.51
592.25	2337.50
592.60	2333.44
592.95	2329.50
593.30	2325.47
593.65	2321.04
594.00	2316.82
594.35	2313.88
594.70	2309.35
595.05	2304.77
595.40	2299.43
595.75	2294.06
596.10	2290.50
596.45	2285.72
596.80	2281.22
597.15	2275.88
597.50	2270.01
597.85	2265.39
598.19	2260.38
598.54	2254.65
598.89	2249.64
599.24	2245.29
599.59	2239.19
599.94	2233.77
600.29	2228.08
600.64	2222.29
600.99	2215.95
601.34	2210.66
601.69	2203.80
602.04	2197.72
602.39	2191.44
602.74	2185.45
603.08	2179.94
603.43	2173.65
603.78	2166.87
604.13	2159.82
604.48	2152.74
604.83	2146.75
605.18	2140.40
605.53	2133.44
605.87	2126.35
606.22	2119.64
606.57	2111.80
606.92	2104.09
607.27	2097.11
607.62	2090.51
607.96	2083.57
608.31	2076.90
608.66	2069.05
609.01	2061.49
609.36	2054.31
609.70	2046.58
610.05	2038.94
610.40	2030.65
610.75	2022.35
611.10	2014.97
611.44	2006.20
611.79	1997.65
612.14	1987.60
612.49	1977.30
612.83	1968.19
613.18	1959.09
613.53	1949.78
613.88	1940.26
614.22	1931.74
614.57	1921.83
614.92	1911.39
615.27	1901.41
615.61	1891.55
615.96	1881.98
616.31	1872.52
616.65	1863.19
617.00	1853.30
617.35	1843.66
617.70	1834.04
618.04	1823.91
618.39	1813.44
618.74	1803.91
619.08	1794.36
619.43	1785.68
619.78	1777.36
620.12	1768.63
620.47	1758.77
620.82	1748.41
621.16	1738.71
621.51	1728.67
621.85	1718.76
622.20	1708.21
622.55	1697.65
622.89	1687.68
623.24	1677.89
623.59	1668.03
623.93	1657.87
624.28	1648.28
624.62	1638.02
624.97	1627.64
625.32	1618.02
625.66	1609.19
626.01	1600.21
626.35	1590.51
626.70	1580.40
627.04	1570.17
627.39	1560.19
627.73	1550.99
628.08	1541.94
628.43	1532.33
628.77	1523.07
629.12	1514.22
629.46	1506.38
629.81	1497.73
630.15	1488.18
630.50	1478.26
630.84	1467.85
631.19	1457.97
631.53	1448.44
631.88	1438.37
632.22	1428.41
632.57	1419.03
632.91	1408.79
633.26	1399.01
633.60	1389.50
633.95	1380.18
634.29	1370.83
634.64	1361.31
634.98	1351.53
635.32	1342.20
635.67	1333.54
636.01	1324.25
636.36	1314.41
636.70	1304.86
637.05	1295.64
637.39	1286.62
637.73	1278.06
638.08	1270.45
638.42	1262.12
638.77	1253.31
639.11	1245.00
639.45	1237.00
639.80	1228.28
640.14	1219.58
640.49	1210.58
640.83	1201.87
641.17	1193.77
641.52	1185.43
641.86	1176.81
642.20	1168.80
642.55	1160.19
642.89	1151.32
643.23	1142.53
643.58	1134.45
643.92	1125.35
644.26	1116.69
644.61	1108.21
644.95	1099.36
645.29	1090.04
645.64	1080.87
645.98	1072.50
646.32	1064.56
646.66	1056.00
647.01	1047.55
647.35	1039.39
647.69	1030.93
648.04	1022.49
648.38	1013.51
648.72	1004.80
649.06	996.34
649.41	988.19
649.75	980.22
650.09	972.41
650.43	964.41
650.78	956.17
651.12	948.59
651.46	941.13
651.80	933.88
652.14	926.54
652.49	919.06
652.83	911.87
653.17	904.11
653.51	896.55
653.85	889.47
654.20	882.30
654.54	874.71
654.88	867.64
655.22	860.55
655.56	853.62
655.90	846.86
656.25	840.20
656.59	833.17
656.93	826.20
657.27	819.12
657.61	812.32
657.95	806.19
658.29	800.23
658.64	794.11
658.98	787.64
659.32	781.14
659.66	774.93
660.00	768.55
660.34	762.56
660.68	756.44
661.02	750.14
661.36	744.25
661.70	738.66
662.05	733.02
662.39	727.59
662.73	722.29
663.07	716.91
663.41	711.43
663.75	705.87
664.09	700.26
664.43	694.88
664.77	689.54
665.11	683.83
665.45	678.06
665.79	672.36
666.13	666.76
666.47	661.37
666.81	656.00
667.15	650.69
667.49	645.55
667.83	640.36
668.17	635.15
668.51	630.14
668.85	625.26
669.19	620.46
669.53	615.48
669.87	610.36
670.21	605.66
670.55	600.99
670.89	596.65
671.23	592.45
671.57	588.15
671.91	583.86
672.25	579.77
672.58	575.66
672.92	571.67
673.26	567.78
673.60	563.96
673.94	560.21
674.28	556.61
674.62	552.89
674.96	549.25
675.30	545.77
675.64	542.10
675.97	538.59
676.31	535.01
676.65	531.43
676.99	528.01
677.33	524.28
677.67	520.67
678.01	516.85
678.34	513.25
678.68	509.74
679.02	506.19
679.36	502.55
679.70	498.99
680.04	495.50
680.37	492.20
680.71	488.93
681.05	485.79
681.39	482.66
681.73	479.58
682.06	476.57
682.40	473.53
682.74	470.48
683.08	467.29
683.42	464.22
683.75	461.35
684.09	458.44
684.43	455.64
684.77	452.79
685.10	449.95
685.44	447.02
685.78	444.16
686.12	441.48
686.45	438.80
686.79	436.10
687.13	433.59
687.46	430.93
687.80	428.29
688.14	425.45
688.48	422.87
688.81	420.23
689.15	417.71
689.49	415.12
689.82	412.60
690.16	410.08
690.50	407.66
690.83	405.17
691.17	402.68
691.51	400.30
691.84	398.06
692.18	395.88
692.52	393.78
692.85	391.70
693.19	389.59
693.52	387.43
693.86	385.32
694.20	383.17
694.53	381.10
694.87	378.99
695.21	377.01
695.54	374.88
695.88	372.77
696.21	370.61
696.55	368.58
696.88	366.62
697.22	364.67
697.56	362.81
697.89	360.99
698.23	359.31
698.56	357.60
698.90	355.84
699.23	354.00
699.57	352.17
699.90	350.34
700.24	348.64
700.58	346.93
700.91	345.33
701.25	343.82
701.58	342.22
701.92	340.64
702.25	339.06
702.59	337.50
702.92	335.98
703.26	334.48
703.59	333.09
703.93	331.84
704.26	330.44
704.60	328.96
704.93	327.51
705.26	326.03
705.60	324.57
705.93	323.13
706.27	321.89
706.60	320.63
706.94	319.46
707.27	318.06
707.61	316.80
707.94	315.50
708.27	314.03
708.61	312.65
708.94	311.35
709.28	310.12
709.61	308.91
709.94	307.77
710.28	306.61
710.61	305.41
710.95	303.99
711.28	302.98
711.61	301.82
711.95	300.76
712.28	299.58
712.61	298.40
712.95	297.41
713.28	296.35
713.61	295.25
713.95	294.11
714.28	293.12
714.61	292.09
714.95	291.08
715.28	290.12
715.61	289.16
715.95	288.24
716.28	287.31
716.61	286.36
716.95	285.38
717.28	284.46
717.61	283.54
717.94	282.69
718.28	281.68
718.61	280.88
718.94	279.97
719.27	279.19
719.61	278.41
719.94	277.55
720.27	276.68
720.60	275.84
720.94	275.07
721.27	274.37
721.60	273.71
721.93	273.03
722.27	272.40
722.60	271.76
722.93	271.08
723.26	270.44
723.59	269.80
723.93	269.22
724.26	268.59
724.59	267.97
724.92	267.42
725.25	266.91
725.59	266.34
725.92	265.81
726.25	265.26
726.58	264.67
726.91	264.10
727.24	263.56
727.57	263.04
727.91	262.46
728.24	261.94
728.57	261.37
728.90	260.81
729.23	260.21
729.56	259.78
729.89	259.24
730.22	258.68
730.55	258.12
730.89	257.57
731.22	257.06
731.55	256.56
731.88	256.06
732.21	255.52
732.54	254.96
732.87	254.45
733.20	253.94
733.53	253.51
733.86	253.11
734.19	252.66
734.52	252.24
734.85	251.96
735.18	251.47
735.51	251.09
735.84	250.69
736.17	250.32
736.50	249.79
736.83	249.67
737.16	249.26
737.49	248.92
737.82	248.55
738.15	248.22
738.48	247.86
738.81	247.46
739.14	247.06
739.47	246.71
739.80	246.43
740.13	246.14
740.46	245.71
740.79	245.34
741.12	244.96
741.45	244.61
741.78	244.13
742.11	243.90
742.44	243.53
742.77	243.28
743.10	242.93
743.43	242.62
743.75	242.02
744.08	241.96
744.41	241.62
744.74	241.28
745.07	240.90
745.40	240.58
745.73	240.32
746.06	240.01
746.39	239.72
746.71	239.37
747.04	239.00
747.37	238.73
747.70	238.46
748.03	238.18
748.36	237.92
748.68	237.64
749.01	237.24
749.34	236.95
749.67	236.60
750.00	236.37
750.33	236.26
750.65	236.05
750.98	235.57
751.31	235.34
751.64	235.12
751.97	235.02
752.29	234.75
752.62	234.44
752.95	234.19
753.28	233.93
753.60	233.66
753.93	233.52
754.26	233.31
754.59	233.05
754.91	232.83
755.24	232.60
755.57	232.42
755.90	232.24
756.22	232.05
756.55	231.84
756.88	231.59
757.20	231.27
757.53	231.00
757.86	230.78
758.19	230.60
758.51	230.41
758.84	230.13
759.17	230.01
759.49	229.88
759.82	229.81
760.15	229.66
760.47	229.54
760.80	229.31
761.13	229.16
761.45	228.94
761.78	228.80
762.11	228.61
762.43	228.40
762.76	228.21
763.08	228.05
763.41	227.89
763.74	227.76
764.06	227.57
764.39	227.44
764.71	227.30
765.04	227.15
765.37	226.99
765.69	226.83
766.02	226.65
766.34	226.47
766.67	226.25
767.00	226.12
767.32	226.10
767.65	226.09
767.97	225.93
768.30	225.84
768.62	225.68
768.95	225.54
769.27	225.44
769.60	225.38
769.92	225.25
770.25	225.11
770.57	224.95
770.90	224.85
771.22	224.70
771.55	224.61
771.87	224.48
772.20	224.33
772.52	224.39
772.85	224.52
773.17	224.45
773.50	224.37
773.82	224.27
774.15	224.06
774.47	223.83
774.80	223.74
775.12	223.65
775.45	223.57
775.77	223.50
776.09	223.42
776.42	223.31
776.74	223.31
777.07	223.21
777.39	223.12
777.72	223.01
778.04	222.96
778.36	222.86
778.69	222.78
779.01	222.77
779.33	222.50
779.66	222.21
779.98	222.09
780.31	222.03
780.63	222.02
780.95	221.97
781.28	221.91
781.60	221.81
781.92	221.76
782.25	221.67
782.57	221.60
782.89	221.52
783.22	221.43
783.54	221.28
783.86	221.21
784.19	221.14
784.51	221.15
784.83	221.06
785.16	220.96
785.48	220.89
785.80	220.81
786.12	220.77
