SpectraSuite Data File
++++++++++++++++++++++++++++++++++++
Date: Tue Jan 29 16:05:14 EST 2013
User: group
Dark Spectrum Present: No
Reference Spectrum Present: No
Number of Sampled Component Spectra: 1
Spectrometers: USB2E7196
Integration Time (usec): 65000 (USB2E7196)
Spectra Averaged: 100 (USB2E7196)
Boxcar Smoothing: 10 (USB2E7196)
Correct for Electrical Dark: No (USB2E7196)
Strobe/Lamp Enabled: No (USB2E7196)
Correct for Detector Non-linearity: No (USB2E7196)
Correct for Stray Light: No (USB2E7196)
Number of Pixels in Processed Spectrum: 2048
>>>>>Begin Processed Spectral Data<<<<<
339.09	0.00
339.48	202.46
339.86	204.20
340.24	205.51
340.63	206.54
341.01	211.40
341.39	209.56
341.78	211.11
342.16	212.60
342.54	212.75
342.93	201.79
343.31	212.00
343.69	212.53
344.07	212.98
344.46	213.42
344.84	213.81
345.22	213.98
345.60	214.26
345.99	214.47
346.37	214.61
346.75	214.74
347.13	214.84
347.52	214.92
347.90	215.02
348.28	215.09
348.66	215.17
349.05	215.13
349.43	215.18
349.81	215.29
350.19	215.37
350.57	215.45
350.96	215.59
351.34	215.68
351.72	215.84
352.10	215.95
352.48	215.99
352.87	216.08
353.25	216.14
353.63	216.22
354.01	216.27
354.39	216.39
354.77	216.46
355.15	216.58
355.54	216.62
355.92	216.63
356.30	216.69
356.68	216.89
357.06	217.03
357.44	217.07
357.82	217.14
358.20	217.22
358.58	217.31
358.97	217.36
359.35	217.46
359.73	217.52
360.11	217.58
360.49	217.70
360.87	217.72
361.25	217.82
361.63	217.92
362.01	217.96
362.39	217.95
362.77	217.99
363.15	218.00
363.53	218.03
363.91	218.06
364.29	218.11
364.67	217.90
365.05	217.89
365.43	217.88
365.81	217.91
366.19	217.98
366.57	218.07
366.95	218.08
367.33	218.02
367.71	218.03
368.09	218.05
368.47	218.02
368.85	218.01
369.23	218.02
369.61	217.90
369.99	217.95
370.37	217.95
370.75	218.00
371.13	217.95
371.51	217.90
371.89	217.88
372.27	217.83
372.65	217.85
373.03	217.83
373.41	217.80
373.78	217.76
374.16	217.60
374.54	217.47
374.92	217.42
375.30	217.36
375.68	217.27
376.06	217.23
376.44	217.18
376.82	217.14
377.19	217.09
377.57	217.04
377.95	216.94
378.33	216.87
378.71	216.74
379.09	216.71
379.47	216.70
379.84	216.61
380.22	216.54
380.60	216.45
380.98	216.41
381.36	216.35
381.73	216.27
382.11	216.29
382.49	216.22
382.87	216.14
383.25	216.11
383.62	216.32
384.00	216.26
384.38	216.25
384.76	216.28
385.13	216.33
385.51	216.31
385.89	216.24
386.27	216.24
386.64	216.24
387.02	216.22
387.40	216.18
387.78	216.18
388.15	216.17
388.53	216.12
388.91	216.07
389.29	216.06
389.66	216.09
390.04	216.03
390.42	216.08
390.79	216.09
391.17	216.08
391.55	215.83
391.92	215.80
392.30	215.83
392.68	215.76
393.05	215.73
393.43	215.77
393.81	215.81
394.18	215.78
394.56	215.78
394.94	215.80
395.31	215.79
395.69	215.90
396.06	215.96
396.44	216.07
396.82	216.06
397.19	216.18
397.57	216.22
397.95	216.28
398.32	216.23
398.70	216.30
399.07	216.37
399.45	216.39
399.82	216.45
400.20	216.46
400.58	216.54
400.95	216.50
401.33	216.59
401.70	216.76
402.08	216.82
402.45	216.91
402.83	217.04
403.20	217.17
403.58	217.24
403.95	217.37
404.33	217.49
404.71	217.67
405.08	217.94
405.46	218.07
405.83	218.30
406.21	218.52
406.58	218.75
406.96	218.96
407.33	219.25
407.70	219.54
408.08	219.96
408.45	220.32
408.83	220.73
409.20	221.05
409.58	221.32
409.95	221.78
410.33	222.24
410.70	222.68
411.08	223.19
411.45	223.74
411.82	224.30
412.20	224.96
412.57	225.75
412.95	226.25
413.32	227.04
413.69	227.79
414.07	228.64
414.44	229.58
414.82	230.56
415.19	231.72
415.56	232.85
415.94	234.00
416.31	235.32
416.68	236.68
417.06	238.24
417.43	239.77
417.81	241.46
418.18	243.17
418.55	245.03
418.93	247.01
419.30	249.03
419.67	251.21
420.04	253.39
420.42	255.70
420.79	258.46
421.16	261.13
421.54	263.94
421.91	266.84
422.28	269.82
422.66	272.99
423.03	276.12
423.40	279.37
423.77	282.86
424.15	286.37
424.52	290.09
424.89	294.09
425.26	298.04
425.64	301.80
426.01	305.90
426.38	310.20
426.75	314.59
427.13	319.15
427.50	323.93
427.87	328.95
428.24	333.93
428.61	338.74
428.99	344.08
429.36	349.89
429.73	355.57
430.10	361.23
430.47	367.08
430.85	373.14
431.22	379.58
431.59	386.42
431.96	393.01
432.33	400.25
432.70	407.28
433.08	415.50
433.45	423.25
433.82	430.99
434.19	439.58
434.56	447.96
434.93	456.04
435.30	464.06
435.68	472.88
436.05	481.53
436.42	490.09
436.79	497.90
437.16	506.41
437.53	515.29
437.90	524.14
438.27	532.78
438.64	541.68
439.01	549.95
439.38	557.30
439.75	564.40
440.13	572.49
440.50	580.14
440.87	586.35
441.24	592.74
441.61	599.81
441.98	605.02
442.35	611.09
442.72	617.15
443.09	622.94
443.46	626.49
443.83	628.94
444.20	631.02
444.57	634.08
444.94	635.40
445.31	636.85
445.68	638.18
446.05	638.75
446.42	637.98
446.79	637.05
447.16	635.97
447.53	635.16
447.90	631.94
448.27	628.74
448.64	624.20
449.01	620.95
449.37	615.32
449.74	609.82
450.11	603.19
450.48	596.06
450.85	588.87
451.22	582.64
451.59	576.67
451.96	571.12
452.33	563.52
452.70	556.68
453.07	548.48
453.43	540.15
453.80	532.17
454.17	524.45
454.54	517.13
454.91	509.24
455.28	501.62
455.65	494.46
456.02	487.26
456.38	481.21
456.75	473.71
457.12	467.40
457.49	461.12
457.86	455.17
458.23	450.00
458.59	444.33
458.96	438.55
459.33	433.54
459.70	428.37
460.07	424.37
460.43	419.72
460.80	415.33
461.17	411.55
461.54	407.58
461.91	403.75
462.27	399.85
462.64	396.56
463.01	392.86
463.38	389.34
463.74	385.76
464.11	382.63
464.48	379.87
464.85	376.85
465.21	374.50
465.58	371.92
465.95	368.91
466.32	366.36
466.68	363.89
467.05	361.39
467.42	358.93
467.78	356.31
468.15	353.83
468.52	352.00
468.88	349.60
469.25	347.44
469.62	345.71
469.98	343.85
470.35	342.16
470.72	340.55
471.08	338.86
471.45	337.47
471.82	336.02
472.18	334.46
472.55	333.35
472.92	332.03
473.28	330.95
473.65	329.84
474.02	328.81
474.38	327.96
474.75	327.21
475.11	326.42
475.48	325.90
475.85	325.46
476.21	325.02
476.58	324.71
476.94	324.51
477.31	324.23
477.67	324.00
478.04	323.86
478.41	323.86
478.77	324.02
479.14	323.97
479.50	324.13
479.87	324.44
480.23	324.79
480.60	325.06
480.96	325.35
481.33	326.02
481.69	326.60
482.06	327.16
482.42	327.67
482.79	328.30
483.15	329.11
483.52	330.05
483.88	330.91
484.25	331.85
484.61	332.89
484.98	333.97
485.34	335.28
485.71	336.63
486.07	338.04
486.44	339.38
486.80	341.00
487.17	342.63
487.53	344.48
487.90	346.38
488.26	348.37
488.62	350.54
488.99	352.57
489.35	354.73
489.72	357.10
490.08	359.63
490.44	362.19
490.81	364.94
491.17	367.68
491.54	370.69
491.90	373.71
492.26	376.97
492.63	380.41
492.99	383.91
493.36	387.60
493.72	391.51
494.08	395.51
494.45	399.71
494.81	404.05
495.17	408.44
495.54	413.07
495.90	417.86
496.26	422.73
496.63	427.87
496.99	433.25
497.35	438.81
497.72	444.63
498.08	450.56
498.44	456.56
498.80	462.96
499.17	469.45
499.53	476.09
499.89	482.95
500.26	489.87
500.62	497.01
500.98	504.37
501.34	511.78
501.71	519.53
502.07	527.26
502.43	535.31
502.79	543.42
503.16	551.74
503.52	560.37
503.88	569.04
504.24	578.00
504.60	587.00
504.97	596.18
505.33	605.39
505.69	615.17
506.05	624.99
506.41	634.77
506.78	644.77
507.14	655.01
507.50	665.42
507.86	676.09
508.22	686.75
508.59	697.38
508.95	708.38
509.31	719.60
509.67	731.03
510.03	742.34
510.39	754.11
510.75	765.99
511.12	777.86
511.48	789.96
511.84	802.11
512.20	814.33
512.56	826.89
512.92	839.55
513.28	852.04
513.64	864.70
514.00	877.50
514.37	890.38
514.73	903.34
515.09	916.07
515.45	928.76
515.81	941.68
516.17	954.89
516.53	967.91
516.89	980.94
517.25	993.98
517.61	1007.45
517.97	1020.62
518.33	1033.53
518.69	1046.91
519.05	1060.42
519.41	1073.84
519.77	1087.55
520.13	1100.72
520.49	1113.72
520.85	1127.01
521.21	1140.21
521.57	1153.67
521.93	1166.58
522.29	1180.09
522.65	1193.64
523.01	1207.08
523.37	1220.11
523.73	1233.17
524.09	1246.20
524.45	1259.28
524.81	1272.55
525.17	1285.64
525.53	1298.58
525.89	1311.66
526.25	1324.44
526.61	1336.96
526.97	1349.78
527.33	1362.39
527.68	1375.63
528.04	1388.82
528.40	1401.62
528.76	1414.63
529.12	1427.23
529.48	1440.27
529.84	1452.35
530.20	1464.75
530.56	1477.11
530.91	1490.01
531.27	1502.57
531.63	1515.12
531.99	1527.55
532.35	1539.49
532.71	1551.54
533.07	1564.00
533.42	1575.88
533.78	1587.65
534.14	1599.38
534.50	1610.36
534.86	1621.82
535.21	1632.31
535.57	1643.49
535.93	1654.54
536.29	1665.42
536.65	1676.61
537.00	1687.18
537.36	1698.18
537.72	1708.99
538.08	1719.95
538.44	1730.63
538.79	1741.37
539.15	1751.83
539.51	1762.31
539.87	1773.27
540.22	1783.76
540.58	1794.42
540.94	1805.07
541.29	1815.13
541.65	1824.79
542.01	1835.14
542.37	1844.72
542.72	1854.67
543.08	1864.30
543.44	1874.48
543.79	1883.59
544.15	1892.59
544.51	1902.39
544.87	1912.00
545.22	1920.76
545.58	1929.49
545.94	1938.03
546.29	1946.35
546.65	1954.60
547.01	1962.53
547.36	1970.07
547.72	1977.64
548.07	1985.06
548.43	1992.46
548.79	2000.14
549.14	2007.94
549.50	2016.01
549.86	2023.67
550.21	2030.78
550.57	2038.16
550.92	2044.67
551.28	2051.91
551.64	2059.14
551.99	2066.44
552.35	2073.44
552.70	2080.18
553.06	2086.70
553.41	2092.84
553.77	2099.13
554.13	2105.24
554.48	2112.12
554.84	2118.89
555.19	2125.15
555.55	2131.54
555.90	2137.68
556.26	2144.18
556.61	2149.89
556.97	2154.68
557.32	2160.47
557.68	2166.77
558.03	2172.46
558.39	2177.59
558.74	2183.41
559.10	2188.71
559.45	2194.14
559.81	2199.64
560.16	2205.17
560.52	2211.00
560.87	2217.41
561.23	2223.38
561.58	2230.13
561.94	2235.29
562.29	2240.16
562.64	2246.27
563.00	2251.73
563.35	2257.36
563.71	2263.25
564.06	2269.20
564.42	2275.11
564.77	2280.32
565.12	2285.46
565.48	2290.64
565.83	2296.44
566.19	2302.07
566.54	2307.56
566.89	2312.25
567.25	2316.89
567.60	2322.67
567.96	2327.72
568.31	2332.11
568.66	2336.41
569.02	2340.29
569.37	2344.24
569.72	2348.65
570.08	2352.33
570.43	2355.47
570.78	2358.57
571.14	2361.18
571.49	2364.25
571.84	2368.01
572.20	2370.77
572.55	2374.14
572.90	2376.46
573.26	2379.49
573.61	2381.81
573.96	2384.26
574.31	2386.41
574.67	2388.41
575.02	2389.50
575.37	2391.05
575.72	2392.05
576.08	2393.60
576.43	2393.98
576.78	2394.81
577.13	2396.77
577.49	2398.06
577.84	2399.63
578.19	2401.33
578.54	2402.28
578.90	2403.58
579.25	2403.59
579.60	2403.95
579.95	2403.31
580.30	2403.80
580.66	2403.11
581.01	2401.87
581.36	2399.75
581.71	2398.58
582.06	2397.80
582.42	2397.05
582.77	2395.25
583.12	2394.03
583.47	2393.09
583.82	2392.68
584.17	2391.46
584.53	2389.38
584.88	2387.46
585.23	2385.54
585.58	2383.58
585.93	2381.46
586.28	2379.32
586.63	2377.21
586.98	2375.16
587.34	2373.40
587.69	2371.24
588.04	2369.48
588.39	2368.14
588.74	2365.76
589.09	2363.34
589.44	2360.38
589.79	2358.10
590.14	2356.44
590.49	2353.75
590.84	2350.07
591.19	2347.27
591.54	2344.17
591.89	2340.28
592.25	2337.28
592.60	2333.35
592.95	2329.28
593.30	2325.31
593.65	2321.06
594.00	2316.71
594.35	2313.65
594.70	2309.24
595.05	2304.75
595.40	2299.36
595.75	2293.93
596.10	2290.50
596.45	2285.60
596.80	2281.18
597.15	2275.96
597.50	2270.16
597.85	2265.22
598.19	2260.15
598.54	2254.25
598.89	2249.25
599.24	2244.73
599.59	2238.58
599.94	2233.04
600.29	2227.31
600.64	2221.62
600.99	2215.09
601.34	2209.71
601.69	2202.83
602.04	2196.48
602.39	2189.98
602.74	2184.10
603.08	2178.55
603.43	2172.13
603.78	2165.48
604.13	2158.32
604.48	2151.20
604.83	2145.12
605.18	2138.93
605.53	2131.94
605.87	2125.13
606.22	2118.44
606.57	2110.71
606.92	2102.96
607.27	2095.94
607.62	2089.32
607.96	2082.30
608.31	2075.72
608.66	2068.08
609.01	2060.69
609.36	2053.61
609.70	2045.90
610.05	2038.07
610.40	2029.83
610.75	2021.58
611.10	2014.10
611.44	2005.55
611.79	1996.95
612.14	1986.94
612.49	1976.51
612.83	1967.40
613.18	1958.40
613.53	1949.07
613.88	1939.56
614.22	1931.12
614.57	1921.29
614.92	1910.87
615.27	1900.88
615.61	1890.98
615.96	1881.37
616.31	1871.82
616.65	1862.54
617.00	1852.67
617.35	1843.12
617.70	1833.42
618.04	1823.32
618.39	1812.91
618.74	1803.12
619.08	1793.57
619.43	1784.82
619.78	1776.67
620.12	1767.86
620.47	1757.98
620.82	1747.65
621.16	1738.05
621.51	1727.98
621.85	1718.19
622.20	1707.68
622.55	1697.04
622.89	1687.06
623.24	1677.33
623.59	1667.55
623.93	1657.38
624.28	1647.79
624.62	1637.61
624.97	1627.26
625.32	1617.61
625.66	1608.96
626.01	1600.10
626.35	1590.60
626.70	1580.52
627.04	1570.26
627.39	1560.25
627.73	1550.95
628.08	1541.92
628.43	1532.11
628.77	1523.02
629.12	1514.08
629.46	1506.24
629.81	1497.80
630.15	1488.24
630.50	1478.39
630.84	1467.91
631.19	1458.00
631.53	1448.54
631.88	1438.42
632.22	1428.42
632.57	1419.04
632.91	1408.70
633.26	1398.85
633.60	1389.26
633.95	1379.93
634.29	1370.48
634.64	1361.21
634.98	1351.41
635.32	1342.12
635.67	1333.53
636.01	1324.14
636.36	1314.25
636.70	1304.68
637.05	1295.31
637.39	1286.34
637.73	1277.66
638.08	1270.12
638.42	1261.71
638.77	1252.87
639.11	1244.53
639.45	1236.70
639.80	1227.97
640.14	1219.31
640.49	1210.42
640.83	1201.68
641.17	1193.69
641.52	1185.42
641.86	1176.71
642.20	1168.70
642.55	1160.14
642.89	1151.30
643.23	1142.56
643.58	1134.56
643.92	1125.46
644.26	1116.84
644.61	1108.31
644.95	1099.52
645.29	1090.25
645.64	1081.22
645.98	1072.89
646.32	1065.01
646.66	1056.43
647.01	1048.12
647.35	1039.92
647.69	1031.59
648.04	1023.19
648.38	1014.21
648.72	1005.55
649.06	997.10
649.41	988.95
649.75	980.92
650.09	973.09
650.43	965.13
650.78	956.78
651.12	949.14
651.46	941.74
651.80	934.50
652.14	927.18
652.49	919.68
652.83	912.42
653.17	904.66
653.51	897.08
653.85	889.89
654.20	882.63
654.54	875.12
654.88	868.05
655.22	861.05
655.56	854.15
655.90	847.34
656.25	840.75
656.59	833.75
656.93	826.79
657.27	819.74
657.61	812.85
657.95	806.90
658.29	801.08
658.64	794.97
658.98	788.69
659.32	782.23
659.66	776.02
660.00	769.60
660.34	763.68
660.68	757.56
661.02	751.31
661.36	745.45
661.70	739.80
662.05	734.14
662.39	728.60
662.73	723.24
663.07	717.97
663.41	712.39
663.75	706.91
664.09	701.27
664.43	695.97
664.77	690.70
665.11	684.89
665.45	678.98
665.79	673.29
666.13	667.62
666.47	662.16
666.81	656.80
667.15	651.60
667.49	646.45
667.83	641.24
668.17	636.10
668.51	631.10
668.85	626.20
669.19	621.29
669.53	616.38
669.87	611.35
670.21	606.65
670.55	601.98
670.89	597.58
671.23	593.44
671.57	589.05
671.91	584.77
672.25	580.75
672.58	576.66
672.92	572.67
673.26	568.83
673.60	565.05
673.94	561.26
674.28	557.64
674.62	553.91
674.96	550.25
675.30	546.76
675.64	543.06
675.97	539.48
676.31	535.97
676.65	532.33
676.99	528.92
677.33	525.09
677.67	521.48
678.01	517.63
678.34	514.05
678.68	510.57
679.02	507.01
679.36	503.26
679.70	499.69
680.04	496.17
680.37	492.79
680.71	489.54
681.05	486.38
681.39	483.19
681.73	480.08
682.06	477.09
682.40	474.04
682.74	470.94
683.08	467.77
683.42	464.64
683.75	461.74
684.09	458.76
684.43	456.01
684.77	453.15
685.10	450.45
685.44	447.55
685.78	444.69
686.12	441.99
686.45	439.34
686.79	436.71
687.13	434.20
687.46	431.52
687.80	428.85
688.14	426.06
688.48	423.47
688.81	420.84
689.15	418.34
689.49	415.77
689.82	413.33
690.16	410.87
690.50	408.43
690.83	405.94
691.17	403.45
691.51	401.04
691.84	398.86
692.18	396.66
692.52	394.44
692.85	392.30
693.19	390.16
693.52	388.00
693.86	385.89
694.20	383.72
694.53	381.62
694.87	379.47
695.21	377.47
695.54	375.35
695.88	373.26
696.21	371.07
696.55	368.99
696.88	366.95
697.22	365.03
697.56	363.25
697.89	361.42
698.23	359.69
698.56	357.94
698.90	356.17
699.23	354.26
699.57	352.50
699.90	350.76
700.24	348.98
700.58	347.26
700.91	345.61
701.25	344.11
701.58	342.55
701.92	340.98
702.25	339.40
702.59	337.84
702.92	336.38
703.26	334.89
703.59	333.51
703.93	332.32
704.26	330.90
704.60	329.36
704.93	327.96
705.26	326.53
705.60	325.12
705.93	323.65
706.27	322.40
706.60	321.12
706.94	319.89
707.27	318.56
707.61	317.29
707.94	316.01
708.27	314.53
708.61	313.14
708.94	311.84
709.28	310.60
709.61	309.34
709.94	308.17
710.28	306.97
710.61	305.77
710.95	304.36
711.28	303.29
711.61	302.16
711.95	301.05
712.28	299.87
712.61	298.69
712.95	297.67
713.28	296.63
713.61	295.52
713.95	294.38
714.28	293.40
714.61	292.38
714.95	291.37
715.28	290.36
715.61	289.37
715.95	288.46
716.28	287.53
716.61	286.64
716.95	285.63
717.28	284.75
717.61	283.80
717.94	282.90
718.28	281.91
718.61	281.04
718.94	280.14
719.27	279.32
719.61	278.53
719.94	277.68
720.27	276.73
720.60	275.92
720.94	275.14
721.27	274.41
721.60	273.77
721.93	273.07
722.27	272.49
722.60	271.84
722.93	271.15
723.26	270.52
723.59	269.84
723.93	269.25
724.26	268.60
724.59	268.01
724.92	267.42
725.25	266.94
725.59	266.37
725.92	265.87
726.25	265.33
726.58	264.78
726.91	264.23
727.24	263.70
727.57	263.17
727.91	262.58
728.24	262.05
728.57	261.44
728.90	260.92
729.23	260.31
729.56	259.89
729.89	259.34
730.22	258.73
730.55	258.20
730.89	257.67
731.22	257.14
731.55	256.63
731.88	256.14
732.21	255.58
732.54	255.05
732.87	254.58
733.20	254.11
733.53	253.61
733.86	253.18
734.19	252.70
734.52	252.26
734.85	252.03
735.18	251.55
735.51	251.15
735.84	250.67
736.17	250.29
736.50	249.73
736.83	249.60
737.16	249.24
737.49	248.86
737.82	248.44
738.15	248.10
738.48	247.72
738.81	247.35
739.14	246.95
739.47	246.60
739.80	246.20
740.13	245.86
740.46	245.49
740.79	245.09
741.12	244.77
741.45	244.42
741.78	243.94
742.11	243.66
742.44	243.29
742.77	243.04
743.10	242.70
743.43	242.39
743.75	241.81
744.08	241.77
744.41	241.43
744.74	241.09
745.07	240.74
745.40	240.46
745.73	240.22
746.06	239.90
746.39	239.61
746.71	239.26
747.04	238.87
747.37	238.57
747.70	238.31
748.03	238.03
748.36	237.75
748.68	237.48
749.01	237.17
749.34	236.91
749.67	236.60
750.00	236.36
750.33	236.23
750.65	235.99
750.98	235.46
751.31	235.23
751.64	235.04
751.97	234.89
752.29	234.65
752.62	234.31
752.95	234.06
753.28	233.80
753.60	233.56
753.93	233.47
754.26	233.25
754.59	232.98
754.91	232.74
755.24	232.52
755.57	232.27
755.90	232.03
756.22	231.80
756.55	231.59
756.88	231.36
757.20	231.02
757.53	230.79
757.86	230.60
758.19	230.42
758.51	230.24
758.84	229.96
759.17	229.77
759.49	229.59
759.82	229.48
760.15	229.32
760.47	229.15
760.80	228.89
761.13	228.75
761.45	228.57
761.78	228.40
762.11	228.24
762.43	228.08
762.76	227.92
763.08	227.82
763.41	227.65
763.74	227.49
764.06	227.33
764.39	227.16
764.71	226.99
765.04	226.85
765.37	226.67
765.69	226.52
766.02	226.36
766.34	226.21
766.67	226.05
767.00	225.99
767.32	225.97
767.65	225.94
767.97	225.79
768.30	225.69
768.62	225.58
768.95	225.40
769.27	225.28
769.60	225.18
769.92	225.01
770.25	224.87
770.57	224.72
770.90	224.62
771.22	224.51
771.55	224.41
771.87	224.30
772.20	224.21
772.52	224.28
772.85	224.43
773.17	224.35
773.50	224.23
773.82	224.10
774.15	223.91
774.47	223.71
774.80	223.62
775.12	223.55
775.45	223.46
775.77	223.39
776.09	223.31
776.42	223.22
776.74	223.22
777.07	223.12
777.39	223.03
777.72	222.96
778.04	222.89
778.36	222.81
778.69	222.71
779.01	222.63
779.33	222.37
779.66	222.03
779.98	221.95
780.31	221.90
780.63	221.89
780.95	221.86
781.28	221.79
781.60	221.71
781.92	221.61
782.25	221.55
782.57	221.49
782.89	221.42
783.22	221.30
783.54	221.14
783.86	221.12
784.19	221.07
784.51	221.04
784.83	220.96
785.16	220.87
785.48	220.81
785.80	220.73
786.12	220.71
