SpectraSuite Data File
++++++++++++++++++++++++++++++++++++
Date: Tue Jan 29 16:48:33 EST 2013
User: group
Dark Spectrum Present: No
Reference Spectrum Present: No
Number of Sampled Component Spectra: 1
Spectrometers: USB2E7196
Integration Time (usec): 65000 (USB2E7196)
Spectra Averaged: 100 (USB2E7196)
Boxcar Smoothing: 10 (USB2E7196)
Correct for Electrical Dark: No (USB2E7196)
Strobe/Lamp Enabled: No (USB2E7196)
Correct for Detector Non-linearity: No (USB2E7196)
Correct for Stray Light: No (USB2E7196)
Number of Pixels in Processed Spectrum: 2048
>>>>>Begin Processed Spectral Data<<<<<
339.09	0.00
339.48	201.86
339.86	202.72
340.24	204.68
340.63	206.24
341.01	210.25
341.39	209.00
341.78	210.23
342.16	211.56
342.54	211.63
342.93	200.97
343.31	211.10
343.69	211.64
344.07	212.13
344.46	212.58
344.84	213.00
345.22	213.17
345.60	213.42
345.99	213.63
346.37	213.78
346.75	213.90
347.13	213.98
347.52	214.08
347.90	214.20
348.28	214.26
348.66	214.33
349.05	214.26
349.43	214.31
349.81	214.38
350.19	214.43
350.57	214.53
350.96	214.62
351.34	214.72
351.72	214.86
352.10	214.95
352.48	215.02
352.87	215.04
353.25	215.12
353.63	215.18
354.01	215.23
354.39	215.30
354.77	215.37
355.15	215.49
355.54	215.52
355.92	215.54
356.30	215.59
356.68	215.80
357.06	215.87
357.44	215.93
357.82	215.96
358.20	216.05
358.58	216.11
358.97	216.16
359.35	216.30
359.73	216.37
360.11	216.43
360.49	216.47
360.87	216.50
361.25	216.57
361.63	216.69
362.01	216.76
362.39	216.76
362.77	216.81
363.15	216.82
363.53	216.86
363.91	216.86
364.29	216.88
364.67	216.68
365.05	216.70
365.43	216.74
365.81	216.78
366.19	216.87
366.57	217.00
366.95	217.00
367.33	216.95
367.71	216.95
368.09	216.99
368.47	216.98
368.85	216.98
369.23	217.03
369.61	216.97
369.99	217.00
370.37	217.04
370.75	217.12
371.13	217.06
371.51	217.01
371.89	217.03
372.27	217.03
372.65	217.00
373.03	217.00
373.41	216.97
373.78	216.93
374.16	216.81
374.54	216.68
374.92	216.63
375.30	216.58
375.68	216.49
376.06	216.43
376.44	216.40
376.82	216.35
377.19	216.26
377.57	216.15
377.95	216.06
378.33	215.97
378.71	215.80
379.09	215.79
379.47	215.76
379.84	215.65
380.22	215.57
380.60	215.53
380.98	215.48
381.36	215.41
381.73	215.35
382.11	215.36
382.49	215.31
382.87	215.22
383.25	215.19
383.62	215.37
384.00	215.31
384.38	215.27
384.76	215.30
385.13	215.37
385.51	215.37
385.89	215.30
386.27	215.30
386.64	215.29
387.02	215.24
387.40	215.21
387.78	215.25
388.15	215.24
388.53	215.21
388.91	215.18
389.29	215.16
389.66	215.15
390.04	215.10
390.42	215.12
390.79	215.13
391.17	215.10
391.55	214.88
391.92	214.90
392.30	214.91
392.68	214.87
393.05	214.85
393.43	214.83
393.81	214.83
394.18	214.79
394.56	214.82
394.94	214.86
395.31	214.85
395.69	214.90
396.06	214.94
396.44	214.99
396.82	215.00
397.19	215.14
397.57	215.13
397.95	215.18
398.32	215.16
398.70	215.21
399.07	215.28
399.45	215.30
399.82	215.33
400.20	215.35
400.58	215.43
400.95	215.36
401.33	215.51
401.70	215.73
402.08	215.85
402.45	215.95
402.83	216.09
403.20	216.20
403.58	216.24
403.95	216.42
404.33	216.56
404.71	216.70
405.08	216.94
405.46	217.15
405.83	217.32
406.21	217.51
406.58	217.76
406.96	217.99
407.33	218.23
407.70	218.57
408.08	219.02
408.45	219.36
408.83	219.77
409.20	220.08
409.58	220.37
409.95	220.84
410.33	221.30
410.70	221.73
411.08	222.28
411.45	222.91
411.82	223.49
412.20	224.17
412.57	225.00
412.95	225.59
413.32	226.42
413.69	227.27
414.07	228.20
414.44	229.18
414.82	230.20
415.19	231.41
415.56	232.58
415.94	233.76
416.31	235.16
416.68	236.58
417.06	238.20
417.43	239.75
417.81	241.43
418.18	243.25
418.55	245.22
418.93	247.29
419.30	249.35
419.67	251.55
420.04	253.90
420.42	256.27
420.79	259.09
421.16	261.90
421.54	264.80
421.91	267.80
422.28	270.92
422.66	274.22
423.03	277.48
423.40	280.86
423.77	284.44
424.15	288.12
424.52	292.01
424.89	296.24
425.26	300.35
425.64	304.24
426.01	308.50
426.38	312.99
426.75	317.51
427.13	322.33
427.50	327.32
427.87	332.48
428.24	337.70
428.61	342.70
428.99	348.22
429.36	354.30
429.73	360.23
430.10	366.12
430.47	372.26
430.85	378.58
431.22	385.29
431.59	392.48
431.96	399.27
432.33	406.81
432.70	414.04
433.08	422.58
433.45	430.68
433.82	438.77
434.19	447.73
434.56	456.48
434.93	464.78
435.30	473.09
435.68	482.32
436.05	491.37
436.42	500.27
436.79	508.44
437.16	517.11
437.53	526.40
437.90	535.59
438.27	544.57
438.64	553.78
439.01	562.37
439.38	569.95
439.75	577.36
440.13	585.79
440.50	593.78
440.87	600.24
441.24	606.97
441.61	614.25
441.98	619.66
442.35	626.03
442.72	632.45
443.09	638.60
443.46	642.28
443.83	644.81
444.20	647.15
444.57	650.33
444.94	651.93
445.31	653.39
445.68	654.81
446.05	655.47
446.42	654.81
446.79	653.87
447.16	652.84
447.53	652.13
447.90	648.82
448.27	645.61
448.64	640.98
449.01	637.67
449.37	631.81
449.74	626.09
450.11	619.13
450.48	611.70
450.85	604.21
451.22	597.71
451.59	591.59
451.96	585.69
452.33	577.82
452.70	570.69
453.07	562.20
453.43	553.55
453.80	545.18
454.17	537.05
454.54	529.48
454.91	521.23
455.28	513.17
455.65	505.69
456.02	498.07
456.38	491.74
456.75	483.78
457.12	477.21
457.49	470.65
457.86	464.44
458.23	459.03
458.59	453.05
458.96	447.05
459.33	441.64
459.70	436.22
460.07	431.92
460.43	426.99
460.80	422.41
461.17	418.37
461.54	414.13
461.91	410.16
462.27	405.99
462.64	402.56
463.01	398.76
463.38	395.04
463.74	391.33
464.11	388.00
464.48	385.13
464.85	382.04
465.21	379.65
465.58	377.04
465.95	373.86
466.32	371.23
466.68	368.62
467.05	366.06
467.42	363.51
467.78	360.78
468.15	358.20
468.52	356.26
468.88	353.76
469.25	351.54
469.62	349.72
469.98	347.74
470.35	345.93
470.72	344.22
471.08	342.38
471.45	340.89
471.82	339.34
472.18	337.65
472.55	336.34
472.92	334.90
473.28	333.65
473.65	332.48
474.02	331.35
474.38	330.42
474.75	329.58
475.11	328.75
475.48	328.12
475.85	327.59
476.21	327.05
476.58	326.71
476.94	326.46
477.31	326.13
477.67	325.87
478.04	325.68
478.41	325.63
478.77	325.80
479.14	325.73
479.50	325.88
479.87	326.23
480.23	326.58
480.60	326.84
480.96	327.09
481.33	327.70
481.69	328.22
482.06	328.74
482.42	329.27
482.79	329.85
483.15	330.67
483.52	331.64
483.88	332.52
484.25	333.42
484.61	334.45
484.98	335.48
485.34	336.79
485.71	338.14
486.07	339.58
486.44	340.88
486.80	342.46
487.17	344.18
487.53	345.99
487.90	347.90
488.26	349.92
488.62	352.11
488.99	354.17
489.35	356.39
489.72	358.81
490.08	361.33
490.44	363.91
490.81	366.61
491.17	369.29
491.54	372.29
491.90	375.31
492.26	378.55
492.63	381.94
492.99	385.46
493.36	389.08
493.72	392.95
494.08	396.98
494.45	401.20
494.81	405.49
495.17	409.92
495.54	414.60
495.90	419.41
496.26	424.29
496.63	429.48
496.99	434.86
497.35	440.36
497.72	446.11
498.08	452.02
498.44	458.11
498.80	464.60
499.17	471.08
499.53	477.80
499.89	484.70
500.26	491.65
500.62	498.73
500.98	506.16
501.34	513.68
501.71	521.44
502.07	529.25
502.43	537.25
502.79	545.38
503.16	553.78
503.52	562.36
503.88	571.05
504.24	579.95
504.60	588.97
504.97	598.26
505.33	607.55
505.69	617.46
506.05	627.29
506.41	637.13
506.78	647.18
507.14	657.47
507.50	667.87
507.86	678.53
508.22	689.22
508.59	699.81
508.95	710.84
509.31	722.07
509.67	733.52
510.03	744.92
510.39	756.57
510.75	768.27
511.12	780.10
511.48	792.20
511.84	804.39
512.20	816.74
512.56	829.22
512.92	842.07
513.28	854.58
513.64	867.43
514.00	880.30
514.37	893.27
514.73	906.33
515.09	919.44
515.45	932.47
515.81	945.63
516.17	959.11
516.53	972.36
516.89	985.39
517.25	998.63
517.61	1012.21
517.97	1025.70
518.33	1038.97
518.69	1052.55
519.05	1066.32
519.41	1080.19
519.77	1094.07
520.13	1107.53
520.49	1120.67
520.85	1134.20
521.21	1147.55
521.57	1161.23
521.93	1174.33
522.29	1188.09
522.65	1201.72
523.01	1215.15
523.37	1228.32
523.73	1241.69
524.09	1254.90
524.45	1268.41
524.81	1281.87
525.17	1295.35
525.53	1308.59
525.89	1321.88
526.25	1335.21
526.61	1348.03
526.97	1361.17
527.33	1374.15
527.68	1387.67
528.04	1401.25
528.40	1414.31
528.76	1427.65
529.12	1440.62
529.48	1454.02
529.84	1466.43
530.20	1479.15
530.56	1491.90
530.91	1505.19
531.27	1518.08
531.63	1530.87
531.99	1543.65
532.35	1555.95
532.71	1568.38
533.07	1581.32
533.42	1593.70
533.78	1605.73
534.14	1617.97
534.50	1629.17
534.86	1640.87
535.21	1651.80
535.57	1663.45
535.93	1674.95
536.29	1686.23
536.65	1697.77
537.00	1708.88
537.36	1720.41
537.72	1731.52
538.08	1743.05
538.44	1754.14
538.79	1765.28
539.15	1776.26
539.51	1787.23
539.87	1798.66
540.22	1809.57
540.58	1820.70
540.94	1831.72
541.29	1842.21
541.65	1852.00
542.01	1862.55
542.37	1872.73
542.72	1882.92
543.08	1892.56
543.44	1903.06
543.79	1912.37
544.15	1921.87
544.51	1931.88
544.87	1941.81
545.22	1951.19
545.58	1960.19
545.94	1969.14
546.29	1977.64
546.65	1986.12
547.01	1994.42
547.36	2002.11
547.72	2009.80
548.07	2017.32
548.43	2025.01
548.79	2032.94
549.14	2041.14
549.50	2049.74
549.86	2057.68
550.21	2065.27
550.57	2073.09
550.92	2079.82
551.28	2087.25
551.64	2094.51
551.99	2101.89
552.35	2108.88
552.70	2115.70
553.06	2122.32
553.41	2128.59
553.77	2135.22
554.13	2141.71
554.48	2148.71
554.84	2155.98
555.19	2162.55
555.55	2168.99
555.90	2175.32
556.26	2182.22
556.61	2188.41
556.97	2193.21
557.32	2198.95
557.68	2205.45
558.03	2211.31
558.39	2216.78
558.74	2222.83
559.10	2228.31
559.45	2233.87
559.81	2239.58
560.16	2245.08
560.52	2251.08
560.87	2257.39
561.23	2263.17
561.58	2269.73
561.94	2274.82
562.29	2279.28
562.64	2285.39
563.00	2291.01
563.35	2296.52
563.71	2301.95
564.06	2307.57
564.42	2313.56
564.77	2318.55
565.12	2323.52
565.48	2328.42
565.83	2333.76
566.19	2338.99
566.54	2344.21
566.89	2348.81
567.25	2353.27
567.60	2358.85
567.96	2363.83
568.31	2368.35
568.66	2372.49
569.02	2376.30
569.37	2379.99
569.72	2384.29
570.08	2387.63
570.43	2390.58
570.78	2393.54
571.14	2395.96
571.49	2398.90
571.84	2402.15
572.20	2404.98
572.55	2407.82
572.90	2410.08
573.26	2412.83
573.61	2415.33
573.96	2417.47
574.31	2419.45
574.67	2421.19
575.02	2421.97
575.37	2423.42
575.72	2423.94
576.08	2425.41
576.43	2425.43
576.78	2425.82
577.13	2427.19
577.49	2428.26
577.84	2429.13
578.19	2430.37
578.54	2430.89
578.90	2431.37
579.25	2431.06
579.60	2430.78
579.95	2429.88
580.30	2429.76
580.66	2428.84
581.01	2427.03
581.36	2424.47
581.71	2422.83
582.06	2421.59
582.42	2420.50
582.77	2417.79
583.12	2416.03
583.47	2414.38
583.82	2413.55
584.17	2412.12
584.53	2409.98
584.88	2407.62
585.23	2405.63
585.58	2403.06
585.93	2400.93
586.28	2398.73
586.63	2396.26
586.98	2393.87
587.34	2391.84
587.69	2389.13
588.04	2386.94
588.39	2385.36
588.74	2382.74
589.09	2379.75
589.44	2376.28
589.79	2373.52
590.14	2371.60
590.49	2368.66
590.84	2364.70
591.19	2361.30
591.54	2357.86
591.89	2353.54
592.25	2350.08
592.60	2345.66
592.95	2341.57
593.30	2337.23
593.65	2332.59
594.00	2327.90
594.35	2324.77
594.70	2319.94
595.05	2315.46
595.40	2309.88
595.75	2303.83
596.10	2300.23
596.45	2295.37
596.80	2290.57
597.15	2285.33
597.50	2279.28
597.85	2274.31
598.19	2269.03
598.54	2263.26
598.89	2257.96
599.24	2253.39
599.59	2247.20
599.94	2241.47
600.29	2235.30
600.64	2229.34
600.99	2222.48
601.34	2217.08
601.69	2210.03
602.04	2203.64
602.39	2196.91
602.74	2190.80
603.08	2185.45
603.43	2178.86
603.78	2171.96
604.13	2164.92
604.48	2157.62
604.83	2151.41
605.18	2145.26
605.53	2138.27
605.87	2131.27
606.22	2124.46
606.57	2116.77
606.92	2108.95
607.27	2102.04
607.62	2095.44
607.96	2088.54
608.31	2082.16
608.66	2074.31
609.01	2066.78
609.36	2059.57
609.70	2051.86
610.05	2044.11
610.40	2035.65
610.75	2027.28
611.10	2019.59
611.44	2010.92
611.79	2002.26
612.14	1992.32
612.49	1981.47
612.83	1972.29
613.18	1962.98
613.53	1953.71
613.88	1943.98
614.22	1935.25
614.57	1925.19
614.92	1914.60
615.27	1904.34
615.61	1894.21
615.96	1884.56
616.31	1874.89
616.65	1865.63
617.00	1856.03
617.35	1846.41
617.70	1836.82
618.04	1826.91
618.39	1816.83
618.74	1807.25
619.08	1797.62
619.43	1789.03
619.78	1780.97
620.12	1772.32
620.47	1762.73
620.82	1752.49
621.16	1742.77
621.51	1732.94
621.85	1723.33
622.20	1713.10
622.55	1702.59
622.89	1692.72
623.24	1683.13
623.59	1673.46
623.93	1663.35
624.28	1653.58
624.62	1643.54
624.97	1633.25
625.32	1623.45
625.66	1614.56
626.01	1605.91
626.35	1596.68
626.70	1586.66
627.04	1576.60
627.39	1566.61
627.73	1557.52
628.08	1548.68
628.43	1539.22
628.77	1530.10
629.12	1521.25
629.46	1513.52
629.81	1505.34
630.15	1495.98
630.50	1486.28
630.84	1475.98
631.19	1466.28
631.53	1457.07
631.88	1446.99
632.22	1437.21
632.57	1427.98
632.91	1418.02
633.26	1408.08
633.60	1398.55
633.95	1389.36
634.29	1379.97
634.64	1370.79
634.98	1360.92
635.32	1351.80
635.67	1343.43
636.01	1334.30
636.36	1324.67
636.70	1315.28
637.05	1305.98
637.39	1297.15
637.73	1288.58
638.08	1281.10
638.42	1272.92
638.77	1264.20
639.11	1256.03
639.45	1248.33
639.80	1239.84
640.14	1231.27
640.49	1222.58
640.83	1213.86
641.17	1205.71
641.52	1197.68
641.86	1189.18
642.20	1181.38
642.55	1172.74
642.89	1163.94
643.23	1155.40
643.58	1147.39
643.92	1138.43
644.26	1129.78
644.61	1121.35
644.95	1112.74
645.29	1103.55
645.64	1094.51
645.98	1086.06
646.32	1078.23
646.66	1069.67
647.01	1061.46
647.35	1053.33
647.69	1045.07
648.04	1036.82
648.38	1028.20
648.72	1019.48
649.06	1011.09
649.41	1002.93
649.75	995.03
650.09	987.29
650.43	979.31
650.78	971.02
651.12	963.32
651.46	955.82
651.80	948.70
652.14	941.34
652.49	933.91
652.83	926.60
653.17	918.94
653.51	911.33
653.85	904.12
654.20	896.88
654.54	889.48
654.88	882.25
655.22	875.17
655.56	868.06
655.90	861.23
656.25	854.60
656.59	847.76
656.93	840.77
657.27	833.56
657.61	826.54
657.95	820.44
658.29	814.50
658.64	808.57
658.98	802.05
659.32	795.55
659.66	789.28
660.00	783.03
660.34	777.03
660.68	770.95
661.02	764.61
661.36	758.56
661.70	752.78
662.05	747.21
662.39	741.63
662.73	736.32
663.07	730.99
663.41	725.37
663.75	719.59
664.09	713.97
664.43	708.59
664.77	703.29
665.11	697.51
665.45	691.62
665.79	685.76
666.13	680.13
666.47	674.65
666.81	669.22
667.15	663.77
667.49	658.56
667.83	653.33
668.17	648.17
668.51	643.16
668.85	638.20
669.19	633.35
669.53	628.36
669.87	623.23
670.21	618.41
670.55	613.65
670.89	609.18
671.23	604.80
671.57	600.38
671.91	596.10
672.25	591.92
672.58	587.77
672.92	583.68
673.26	579.76
673.60	575.83
673.94	571.96
674.28	568.32
674.62	564.57
674.96	560.75
675.30	557.21
675.64	553.50
675.97	549.95
676.31	546.25
676.65	542.64
676.99	539.17
677.33	535.32
677.67	531.74
678.01	528.00
678.34	524.32
678.68	520.74
679.02	517.12
679.36	513.38
679.70	509.73
680.04	506.21
680.37	502.68
680.71	499.36
681.05	496.14
681.39	492.91
681.73	489.67
682.06	486.67
682.40	483.57
682.74	480.36
683.08	477.09
683.42	473.84
683.75	470.79
684.09	467.77
684.43	464.96
684.77	462.00
685.10	459.09
685.44	456.16
685.78	453.24
686.12	450.46
686.45	447.71
686.79	444.99
687.13	442.42
687.46	439.80
687.80	437.09
688.14	434.29
688.48	431.59
688.81	428.88
689.15	426.30
689.49	423.64
689.82	421.07
690.16	418.45
690.50	415.98
690.83	413.47
691.17	410.86
691.51	408.33
691.84	405.98
692.18	403.73
692.52	401.52
692.85	399.37
693.19	397.17
693.52	395.03
693.86	392.80
694.20	390.49
694.53	388.27
694.87	386.04
695.21	383.87
695.54	381.69
695.88	379.56
696.21	377.28
696.55	375.16
696.88	373.09
697.22	371.11
697.56	369.19
697.89	367.26
698.23	365.45
698.56	363.68
698.90	361.93
699.23	360.03
699.57	358.12
699.90	356.23
700.24	354.38
700.58	352.59
700.91	350.90
701.25	349.37
701.58	347.74
701.92	346.13
702.25	344.47
702.59	342.83
702.92	341.23
703.26	339.63
703.59	338.07
703.93	336.77
704.26	335.28
704.60	333.76
704.93	332.26
705.26	330.77
705.60	329.27
705.93	327.72
706.27	326.37
706.60	325.12
706.94	323.88
707.27	322.49
707.61	321.12
707.94	319.76
708.27	318.20
708.61	316.77
708.94	315.36
709.28	314.03
709.61	312.74
709.94	311.51
710.28	310.30
710.61	309.12
710.95	307.69
711.28	306.59
711.61	305.37
711.95	304.25
712.28	303.04
712.61	301.84
712.95	300.77
713.28	299.72
713.61	298.56
713.95	297.39
714.28	296.36
714.61	295.30
714.95	294.29
715.28	293.24
715.61	292.21
715.95	291.28
716.28	290.35
716.61	289.40
716.95	288.36
717.28	287.45
717.61	286.46
717.94	285.56
718.28	284.50
718.61	283.60
718.94	282.67
719.27	281.80
719.61	280.97
719.94	280.07
720.27	279.06
720.60	278.13
720.94	277.30
721.27	276.50
721.60	275.78
721.93	275.05
722.27	274.43
722.60	273.76
722.93	273.04
723.26	272.36
723.59	271.62
723.93	271.01
724.26	270.36
724.59	269.71
724.92	269.12
725.25	268.55
725.59	267.97
725.92	267.45
726.25	266.83
726.58	266.23
726.91	265.60
727.24	265.04
727.57	264.46
727.91	263.82
728.24	263.25
728.57	262.63
728.90	262.02
729.23	261.35
729.56	260.89
729.89	260.32
730.22	259.76
730.55	259.20
730.89	258.65
731.22	258.07
731.55	257.53
731.88	256.96
732.21	256.44
732.54	255.88
732.87	255.32
733.20	254.84
733.53	254.34
733.86	253.91
734.19	253.39
734.52	253.00
734.85	252.73
735.18	252.28
735.51	251.89
735.84	251.48
736.17	251.08
736.50	250.55
736.83	250.40
737.16	249.99
737.49	249.62
737.82	249.19
738.15	248.82
738.48	248.45
738.81	248.04
739.14	247.60
739.47	247.23
739.80	246.89
740.13	246.55
740.46	246.17
740.79	245.75
741.12	245.39
741.45	245.02
741.78	244.55
742.11	244.26
742.44	243.87
742.77	243.54
743.10	243.21
743.43	242.86
743.75	242.21
744.08	242.12
744.41	241.79
744.74	241.41
745.07	241.00
745.40	240.68
745.73	240.43
746.06	240.13
746.39	239.81
746.71	239.40
747.04	239.04
747.37	238.68
747.70	238.39
748.03	238.07
748.36	237.79
748.68	237.48
749.01	237.11
749.34	236.81
749.67	236.53
750.00	236.25
750.33	236.12
750.65	235.93
750.98	235.42
751.31	235.14
751.64	234.93
751.97	234.84
752.29	234.60
752.62	234.23
752.95	233.98
753.28	233.71
753.60	233.49
753.93	233.30
754.26	233.12
754.59	232.86
754.91	232.66
755.24	232.41
755.57	232.17
755.90	231.93
756.22	231.70
756.55	231.44
756.88	231.20
757.20	230.86
757.53	230.58
757.86	230.36
758.19	230.15
758.51	229.94
758.84	229.63
759.17	229.42
759.49	229.26
759.82	229.15
760.15	229.00
760.47	228.81
760.80	228.55
761.13	228.38
761.45	228.17
761.78	227.94
762.11	227.78
762.43	227.58
762.76	227.41
763.08	227.27
763.41	227.14
763.74	226.98
764.06	226.81
764.39	226.64
764.71	226.52
765.04	226.38
765.37	226.21
765.69	226.05
766.02	225.91
766.34	225.75
766.67	225.54
767.00	225.43
767.32	225.46
767.65	225.47
767.97	225.32
768.30	225.20
768.62	225.09
768.95	224.91
769.27	224.78
769.60	224.69
769.92	224.54
770.25	224.39
770.57	224.21
770.90	224.09
771.22	223.96
771.55	223.82
771.87	223.67
772.20	223.55
772.52	223.62
772.85	223.75
773.17	223.64
773.50	223.54
773.82	223.40
774.15	223.14
774.47	222.93
774.80	222.82
775.12	222.76
775.45	222.66
775.77	222.61
776.09	222.55
776.42	222.44
776.74	222.42
777.07	222.31
777.39	222.25
777.72	222.15
778.04	222.09
778.36	222.01
778.69	221.96
779.01	221.89
779.33	221.62
779.66	221.29
779.98	221.22
780.31	221.12
780.63	221.14
780.95	221.09
781.28	221.01
781.60	220.90
781.92	220.79
782.25	220.72
782.57	220.62
782.89	220.57
783.22	220.51
783.54	220.39
783.86	220.34
784.19	220.28
784.51	220.29
784.83	220.22
785.16	220.11
785.48	220.07
785.80	220.02
786.12	220.01
