SpectraSuite Data File
++++++++++++++++++++++++++++++++++++
Date: Tue Jan 29 16:07:15 EST 2013
User: group
Dark Spectrum Present: No
Reference Spectrum Present: No
Number of Sampled Component Spectra: 1
Spectrometers: USB2E7196
Integration Time (usec): 65000 (USB2E7196)
Spectra Averaged: 100 (USB2E7196)
Boxcar Smoothing: 10 (USB2E7196)
Correct for Electrical Dark: No (USB2E7196)
Strobe/Lamp Enabled: No (USB2E7196)
Correct for Detector Non-linearity: No (USB2E7196)
Correct for Stray Light: No (USB2E7196)
Number of Pixels in Processed Spectrum: 2048
>>>>>Begin Processed Spectral Data<<<<<
339.09	0.00
339.48	202.51
339.86	204.72
340.24	205.53
340.63	207.25
341.01	211.12
341.39	210.34
341.78	211.58
342.16	212.74
342.54	212.63
342.93	202.11
343.31	212.31
343.69	212.86
344.07	213.32
344.46	213.79
344.84	214.17
345.22	214.36
345.60	214.62
345.99	214.78
346.37	214.90
346.75	215.01
347.13	215.03
347.52	215.09
347.90	215.20
348.28	215.22
348.66	215.32
349.05	215.28
349.43	215.33
349.81	215.39
350.19	215.45
350.57	215.49
350.96	215.57
351.34	215.65
351.72	215.73
352.10	215.84
352.48	215.88
352.87	215.94
353.25	215.98
353.63	216.00
354.01	216.09
354.39	216.13
354.77	216.20
355.15	216.33
355.54	216.36
355.92	216.33
356.30	216.37
356.68	216.52
357.06	216.64
357.44	216.68
357.82	216.72
358.20	216.76
358.58	216.83
358.97	216.86
359.35	216.97
359.73	217.10
360.11	217.13
360.49	217.18
360.87	217.20
361.25	217.31
361.63	217.43
362.01	217.47
362.39	217.52
362.77	217.59
363.15	217.61
363.53	217.68
363.91	217.75
364.29	217.82
364.67	217.65
365.05	217.66
365.43	217.72
365.81	217.78
366.19	217.90
366.57	217.99
366.95	218.01
367.33	217.98
367.71	217.95
368.09	218.00
368.47	218.00
368.85	218.00
369.23	217.99
369.61	217.92
369.99	217.97
370.37	217.99
370.75	218.06
371.13	218.04
371.51	217.95
371.89	217.92
372.27	217.93
372.65	217.96
373.03	217.90
373.41	217.88
373.78	217.81
374.16	217.64
374.54	217.54
374.92	217.47
375.30	217.43
375.68	217.33
376.06	217.30
376.44	217.25
376.82	217.23
377.19	217.19
377.57	217.16
377.95	217.03
378.33	216.96
378.71	216.80
379.09	216.76
379.47	216.78
379.84	216.74
380.22	216.65
380.60	216.57
380.98	216.52
381.36	216.48
381.73	216.43
382.11	216.46
382.49	216.44
382.87	216.42
383.25	216.40
383.62	216.61
384.00	216.51
384.38	216.49
384.76	216.47
385.13	216.52
385.51	216.48
385.89	216.44
386.27	216.42
386.64	216.43
387.02	216.43
387.40	216.37
387.78	216.34
388.15	216.34
388.53	216.29
388.91	216.28
389.29	216.23
389.66	216.24
390.04	216.18
390.42	216.17
390.79	216.14
391.17	216.11
391.55	215.86
391.92	215.87
392.30	215.91
392.68	215.90
393.05	215.83
393.43	215.85
393.81	215.88
394.18	215.83
394.56	215.86
394.94	215.90
395.31	215.89
395.69	215.97
396.06	215.99
396.44	216.02
396.82	216.00
397.19	216.13
397.57	216.13
397.95	216.18
398.32	216.17
398.70	216.22
399.07	216.30
399.45	216.34
399.82	216.39
400.20	216.42
400.58	216.48
400.95	216.50
401.33	216.61
401.70	216.81
402.08	216.92
402.45	216.95
402.83	217.06
403.20	217.16
403.58	217.21
403.95	217.36
404.33	217.51
404.71	217.68
405.08	217.92
405.46	218.08
405.83	218.27
406.21	218.47
406.58	218.68
406.96	218.87
407.33	219.14
407.70	219.43
408.08	219.85
408.45	220.18
408.83	220.56
409.20	220.90
409.58	221.16
409.95	221.62
410.33	222.12
410.70	222.51
411.08	223.06
411.45	223.62
411.82	224.17
412.20	224.86
412.57	225.63
412.95	226.18
413.32	226.97
413.69	227.76
414.07	228.65
414.44	229.62
414.82	230.60
415.19	231.76
415.56	232.90
415.94	234.04
416.31	235.40
416.68	236.72
417.06	238.27
417.43	239.77
417.81	241.42
418.18	243.14
418.55	245.03
418.93	246.98
419.30	249.05
419.67	251.21
420.04	253.39
420.42	255.70
420.79	258.42
421.16	261.13
421.54	263.94
421.91	266.84
422.28	269.82
422.66	273.01
423.03	276.13
423.40	279.35
423.77	282.84
424.15	286.32
424.52	290.04
424.89	294.04
425.26	297.98
425.64	301.78
426.01	305.90
426.38	310.19
426.75	314.59
427.13	319.13
427.50	323.88
427.87	328.96
428.24	334.01
428.61	338.89
428.99	344.20
429.36	349.96
429.73	355.61
430.10	361.27
430.47	367.11
430.85	373.19
431.22	379.69
431.59	386.53
431.96	393.13
432.33	400.38
432.70	407.37
433.08	415.64
433.45	423.40
433.82	431.19
434.19	439.79
434.56	448.24
434.93	456.30
435.30	464.36
435.68	473.11
436.05	481.74
436.42	490.25
436.79	498.15
437.16	506.68
437.53	515.66
437.90	524.52
438.27	533.19
438.64	542.16
439.01	550.41
439.38	557.75
439.75	564.86
440.13	572.96
440.50	580.67
440.87	586.88
441.24	593.26
441.61	600.29
441.98	605.53
442.35	611.63
442.72	617.66
443.09	623.45
443.46	627.03
443.83	629.50
444.20	631.63
444.57	634.60
444.94	635.91
445.31	637.26
445.68	638.55
446.05	639.09
446.42	638.26
446.79	637.21
447.16	636.13
447.53	635.37
447.90	632.16
448.27	628.90
448.64	624.30
449.01	621.11
449.37	615.41
449.74	609.91
450.11	603.20
450.48	596.08
450.85	588.88
451.22	582.63
451.59	576.69
451.96	571.03
452.33	563.43
452.70	556.60
453.07	548.47
453.43	540.23
453.80	532.29
454.17	524.60
454.54	517.41
454.91	509.53
455.28	501.86
455.65	494.76
456.02	487.58
456.38	481.57
456.75	473.97
457.12	467.67
457.49	461.39
457.86	455.41
458.23	450.25
458.59	444.57
458.96	438.83
459.33	433.71
459.70	428.60
460.07	424.55
460.43	419.82
460.80	415.41
461.17	411.53
461.54	407.49
461.91	403.65
462.27	399.69
462.64	396.40
463.01	392.72
463.38	389.17
463.74	385.58
464.11	382.45
464.48	379.71
464.85	376.74
465.21	374.37
465.58	371.85
465.95	368.85
466.32	366.34
466.68	363.81
467.05	361.34
467.42	358.88
467.78	356.33
468.15	353.93
468.52	352.08
468.88	349.71
469.25	347.54
469.62	345.82
469.98	343.96
470.35	342.20
470.72	340.59
471.08	338.84
471.45	337.39
471.82	335.89
472.18	334.29
472.55	333.11
472.92	331.81
473.28	330.68
473.65	329.62
474.02	328.58
474.38	327.73
474.75	327.03
475.11	326.27
475.48	325.74
475.85	325.34
476.21	324.91
476.58	324.55
476.94	324.33
477.31	324.06
477.67	323.86
478.04	323.75
478.41	323.73
478.77	323.92
479.14	323.97
479.50	324.14
479.87	324.45
480.23	324.83
480.60	325.12
480.96	325.37
481.33	325.96
481.69	326.49
482.06	327.05
482.42	327.54
482.79	328.10
483.15	328.88
483.52	329.82
483.88	330.73
484.25	331.72
484.61	332.80
484.98	333.86
485.34	335.14
485.71	336.49
486.07	337.95
486.44	339.29
486.80	340.86
487.17	342.50
487.53	344.33
487.90	346.18
488.26	348.20
488.62	350.38
488.99	352.40
489.35	354.57
489.72	356.93
490.08	359.39
490.44	361.98
490.81	364.65
491.17	367.38
491.54	370.32
491.90	373.33
492.26	376.54
492.63	379.94
492.99	383.43
493.36	387.10
493.72	390.93
494.08	394.88
494.45	399.09
494.81	403.47
495.17	407.88
495.54	412.57
495.90	417.35
496.26	422.33
496.63	427.55
496.99	432.87
497.35	438.46
497.72	444.32
498.08	450.24
498.44	456.30
498.80	462.66
499.17	469.14
499.53	475.80
499.89	482.65
500.26	489.62
500.62	496.70
500.98	504.08
501.34	511.51
501.71	519.28
502.07	527.07
502.43	535.06
502.79	543.21
503.16	551.55
503.52	560.05
503.88	568.68
504.24	577.58
504.60	586.70
504.97	595.86
505.33	605.07
505.69	614.96
506.05	624.79
506.41	634.57
506.78	644.61
507.14	654.85
507.50	665.30
507.86	675.95
508.22	686.58
508.59	697.20
508.95	708.21
509.31	719.41
509.67	730.77
510.03	742.11
510.39	753.81
510.75	765.67
511.12	777.66
511.48	789.74
511.84	801.91
512.20	814.17
512.56	826.75
512.92	839.53
513.28	851.94
513.64	864.60
514.00	877.37
514.37	890.17
514.73	903.22
515.09	916.07
515.45	928.72
515.81	941.70
516.17	954.97
516.53	968.12
516.89	981.08
517.25	994.10
517.61	1007.40
517.97	1020.68
518.33	1033.56
518.69	1046.82
519.05	1060.39
519.41	1073.81
519.77	1087.51
520.13	1100.54
520.49	1113.45
520.85	1126.63
521.21	1139.68
521.57	1153.20
521.93	1166.15
522.29	1179.66
522.65	1193.07
523.01	1206.49
523.37	1219.46
523.73	1232.51
524.09	1245.47
524.45	1258.61
524.81	1271.85
525.17	1285.00
525.53	1297.79
525.89	1310.85
526.25	1323.78
526.61	1336.27
526.97	1349.17
527.33	1361.70
527.68	1374.92
528.04	1388.20
528.40	1401.09
528.76	1414.24
529.12	1426.75
529.48	1439.72
529.84	1451.62
530.20	1464.13
530.56	1476.54
530.91	1489.55
531.27	1502.11
531.63	1514.62
531.99	1527.08
532.35	1539.05
532.71	1551.21
533.07	1563.83
533.42	1575.79
533.78	1587.63
534.14	1599.34
534.50	1610.26
534.86	1621.64
535.21	1632.27
535.57	1643.39
535.93	1654.50
536.29	1665.36
536.65	1676.43
537.00	1687.09
537.36	1698.21
537.72	1708.88
538.08	1719.86
538.44	1730.45
538.79	1741.18
539.15	1751.66
539.51	1762.13
539.87	1773.11
540.22	1783.66
540.58	1794.11
540.94	1804.67
541.29	1814.58
541.65	1824.08
542.01	1834.25
542.37	1843.90
542.72	1853.71
543.08	1863.31
543.44	1873.28
543.79	1882.36
544.15	1891.60
544.51	1901.41
544.87	1910.96
545.22	1919.75
545.58	1928.45
545.94	1936.96
546.29	1945.33
546.65	1953.46
547.01	1961.39
547.36	1968.81
547.72	1976.15
548.07	1983.68
548.43	1991.13
548.79	1998.71
549.14	2006.62
549.50	2014.88
549.86	2022.76
550.21	2029.90
550.57	2037.25
550.92	2043.84
551.28	2050.95
551.64	2058.14
551.99	2065.40
552.35	2072.46
552.70	2079.11
553.06	2085.57
553.41	2091.79
553.77	2098.07
554.13	2104.30
554.48	2111.12
554.84	2118.04
555.19	2124.42
555.55	2130.81
555.90	2136.98
556.26	2143.65
556.61	2149.46
556.97	2154.19
557.32	2159.78
557.68	2166.08
558.03	2171.78
558.39	2176.91
558.74	2182.86
559.10	2188.27
559.45	2193.76
559.81	2199.18
560.16	2204.79
560.52	2210.67
560.87	2216.96
561.23	2222.90
561.58	2229.57
561.94	2234.75
562.29	2239.64
562.64	2245.92
563.00	2251.48
563.35	2257.20
563.71	2262.97
564.06	2268.68
564.42	2274.63
564.77	2279.87
565.12	2285.13
565.48	2290.32
565.83	2296.04
566.19	2301.55
566.54	2306.97
566.89	2311.75
567.25	2316.43
567.60	2322.10
567.96	2327.37
568.31	2332.04
568.66	2336.24
569.02	2340.10
569.37	2343.96
569.72	2348.35
570.08	2351.80
570.43	2354.96
570.78	2358.01
571.14	2360.71
571.49	2363.99
571.84	2367.63
572.20	2370.47
572.55	2373.71
572.90	2375.96
573.26	2378.97
573.61	2381.61
573.96	2383.84
574.31	2385.77
574.67	2387.78
575.02	2388.86
575.37	2390.35
575.72	2391.39
576.08	2393.08
576.43	2393.39
576.78	2394.36
577.13	2396.15
577.49	2397.48
577.84	2399.00
578.19	2400.57
578.54	2401.43
578.90	2402.49
579.25	2402.47
579.60	2402.64
579.95	2402.02
580.30	2402.46
580.66	2401.97
581.01	2400.19
581.36	2398.23
581.71	2397.14
582.06	2396.34
582.42	2395.71
582.77	2393.77
583.12	2392.22
583.47	2391.19
583.82	2390.82
584.17	2389.53
584.53	2387.48
584.88	2385.64
585.23	2383.76
585.58	2381.65
585.93	2379.42
586.28	2377.43
586.63	2375.35
586.98	2373.36
587.34	2371.70
587.69	2369.54
588.04	2367.74
588.39	2366.76
588.74	2364.43
589.09	2361.97
589.44	2359.03
589.79	2356.66
590.14	2354.86
590.49	2352.28
590.84	2348.64
591.19	2345.88
591.54	2342.79
591.89	2339.05
592.25	2336.04
592.60	2332.00
592.95	2328.12
593.30	2324.37
593.65	2320.06
594.00	2315.78
594.35	2312.78
594.70	2308.13
595.05	2303.68
595.40	2298.28
595.75	2292.80
596.10	2289.23
596.45	2284.45
596.80	2279.89
597.15	2274.71
597.50	2268.74
597.85	2263.79
598.19	2258.64
598.54	2252.84
598.89	2247.89
599.24	2243.47
599.59	2237.36
599.94	2231.83
600.29	2225.98
600.64	2220.17
600.99	2213.64
601.34	2208.27
601.69	2201.41
602.04	2195.15
602.39	2188.76
602.74	2182.72
603.08	2177.30
603.43	2170.70
603.78	2164.11
604.13	2157.10
604.48	2150.09
604.83	2144.25
605.18	2138.10
605.53	2131.18
605.87	2124.24
606.22	2117.46
606.57	2109.61
606.92	2101.81
607.27	2094.90
607.62	2088.33
607.96	2081.41
608.31	2074.88
608.66	2067.24
609.01	2059.78
609.36	2052.91
609.70	2045.02
610.05	2037.47
610.40	2029.17
610.75	2021.14
611.10	2013.51
611.44	2004.85
611.79	1996.15
612.14	1986.21
612.49	1975.72
612.83	1966.63
613.18	1957.50
613.53	1948.27
613.88	1938.68
614.22	1930.15
614.57	1920.26
614.92	1909.76
615.27	1899.63
615.61	1889.74
615.96	1879.91
616.31	1870.34
616.65	1860.89
617.00	1851.16
617.35	1841.44
617.70	1831.72
618.04	1821.65
618.39	1811.13
618.74	1801.42
619.08	1791.83
619.43	1783.16
619.78	1774.97
620.12	1766.27
620.47	1756.49
620.82	1746.25
621.16	1736.48
621.51	1726.39
621.85	1716.45
622.20	1705.99
622.55	1695.29
622.89	1685.46
623.24	1675.92
623.59	1666.14
623.93	1655.99
624.28	1646.33
624.62	1636.19
624.97	1625.93
625.32	1616.37
625.66	1607.61
626.01	1598.79
626.35	1589.36
626.70	1579.11
627.04	1568.88
627.39	1558.76
627.73	1549.49
628.08	1540.28
628.43	1530.70
628.77	1521.55
629.12	1512.69
629.46	1504.83
629.81	1496.60
630.15	1486.89
630.50	1476.94
630.84	1466.46
631.19	1456.57
631.53	1447.02
631.88	1436.84
632.22	1426.71
632.57	1417.19
632.91	1407.01
633.26	1397.17
633.60	1387.60
633.95	1378.43
634.29	1369.04
634.64	1359.66
634.98	1349.73
635.32	1340.54
635.67	1331.94
636.01	1322.72
636.36	1312.88
636.70	1303.32
637.05	1293.92
637.39	1284.96
637.73	1276.38
638.08	1268.83
638.42	1260.50
638.77	1251.83
639.11	1243.65
639.45	1235.86
639.80	1227.21
640.14	1218.61
640.49	1209.78
640.83	1200.95
641.17	1192.78
641.52	1184.48
641.86	1175.83
642.20	1168.03
642.55	1159.46
642.89	1150.68
643.23	1142.01
643.58	1133.94
643.92	1124.89
644.26	1116.30
644.61	1107.93
644.95	1099.23
645.29	1090.04
645.64	1080.93
645.98	1072.54
646.32	1064.55
646.66	1056.09
647.01	1047.72
647.35	1039.67
647.69	1031.18
648.04	1022.90
648.38	1014.03
648.72	1005.39
649.06	997.08
649.41	988.92
649.75	980.89
650.09	973.07
650.43	964.99
650.78	956.78
651.12	949.20
651.46	941.81
651.80	934.46
652.14	927.09
652.49	919.54
652.83	912.30
653.17	904.58
653.51	896.93
653.85	889.67
654.20	882.45
654.54	874.81
654.88	867.75
655.22	860.65
655.56	853.74
655.90	846.98
656.25	840.27
656.59	833.23
656.93	826.31
657.27	819.20
657.61	812.40
657.95	806.33
658.29	800.48
658.64	794.35
658.98	788.00
659.32	781.49
659.66	775.27
660.00	768.99
660.34	763.08
660.68	757.13
661.02	750.88
661.36	745.05
661.70	739.38
662.05	733.80
662.39	728.32
662.73	722.95
663.07	717.66
663.41	712.16
663.75	706.60
664.09	701.08
664.43	695.70
664.77	690.32
665.11	684.63
665.45	678.74
665.79	672.97
666.13	667.36
666.47	661.93
666.81	656.63
667.15	651.37
667.49	646.23
667.83	640.97
668.17	635.78
668.51	630.70
668.85	625.89
669.19	620.98
669.53	616.06
669.87	611.05
670.21	606.32
670.55	601.67
670.89	597.35
671.23	593.09
671.57	588.76
671.91	584.53
672.25	580.42
672.58	576.34
672.92	572.36
673.26	568.45
673.60	564.68
673.94	560.90
674.28	557.34
674.62	553.54
674.96	549.88
675.30	546.42
675.64	542.85
675.97	539.33
676.31	535.76
676.65	532.22
676.99	528.78
677.33	525.00
677.67	521.42
678.01	517.58
678.34	513.93
678.68	510.46
679.02	506.88
679.36	503.25
679.70	499.67
680.04	496.21
680.37	492.87
680.71	489.61
681.05	486.44
681.39	483.17
681.73	480.08
682.06	477.10
682.40	474.04
682.74	470.88
683.08	467.65
683.42	464.57
683.75	461.63
684.09	458.64
684.43	455.88
684.77	452.98
685.10	450.22
685.44	447.34
685.78	444.50
686.12	441.83
686.45	439.12
686.79	436.48
687.13	433.93
687.46	431.34
687.80	428.73
688.14	425.97
688.48	423.47
688.81	420.82
689.15	418.29
689.49	415.70
689.82	413.22
690.16	410.73
690.50	408.30
690.83	405.85
691.17	403.40
691.51	400.99
691.84	398.82
692.18	396.62
692.52	394.50
692.85	392.45
693.19	390.34
693.52	388.19
693.86	386.07
694.20	383.95
694.53	381.86
694.87	379.71
695.21	377.63
695.54	375.51
695.88	373.44
696.21	371.30
696.55	369.28
696.88	367.23
697.22	365.31
697.56	363.48
697.89	361.64
698.23	359.92
698.56	358.18
698.90	356.38
699.23	354.47
699.57	352.62
699.90	350.79
700.24	349.04
700.58	347.31
700.91	345.69
701.25	344.17
701.58	342.61
701.92	340.97
702.25	339.41
702.59	337.80
702.92	336.31
703.26	334.78
703.59	333.38
703.93	332.17
704.26	330.75
704.60	329.26
704.93	327.81
705.26	326.36
705.60	324.92
705.93	323.49
706.27	322.24
706.60	321.02
706.94	319.82
707.27	318.45
707.61	317.16
707.94	315.82
708.27	314.30
708.61	312.84
708.94	311.55
709.28	310.35
709.61	309.17
709.94	307.97
710.28	306.82
710.61	305.61
710.95	304.23
711.28	303.18
711.61	302.02
711.95	300.92
712.28	299.76
712.61	298.59
712.95	297.56
713.28	296.53
713.61	295.41
713.95	294.24
714.28	293.25
714.61	292.25
714.95	291.24
715.28	290.30
715.61	289.35
715.95	288.45
716.28	287.46
716.61	286.47
716.95	285.49
717.28	284.54
717.61	283.63
717.94	282.76
718.28	281.72
718.61	280.86
718.94	279.95
719.27	279.13
719.61	278.35
719.94	277.50
720.27	276.56
720.60	275.73
720.94	274.96
721.27	274.25
721.60	273.61
721.93	272.92
722.27	272.29
722.60	271.60
722.93	270.86
723.26	270.26
723.59	269.60
723.93	269.02
724.26	268.43
724.59	267.81
724.92	267.25
725.25	266.78
725.59	266.25
725.92	265.73
726.25	265.15
726.58	264.55
726.91	263.97
727.24	263.47
727.57	262.92
727.91	262.38
728.24	261.86
728.57	261.28
728.90	260.81
729.23	260.19
729.56	259.82
729.89	259.34
730.22	258.81
730.55	258.32
730.89	257.80
731.22	257.25
731.55	256.76
731.88	256.26
732.21	255.71
732.54	255.16
732.87	254.69
733.20	254.25
733.53	253.79
733.86	253.36
734.19	252.92
734.52	252.51
734.85	252.21
735.18	251.70
735.51	251.27
735.84	250.80
736.17	250.46
736.50	249.92
736.83	249.77
737.16	249.34
737.49	248.96
737.82	248.58
738.15	248.24
738.48	247.87
738.81	247.47
739.14	247.04
739.47	246.70
739.80	246.32
740.13	245.95
740.46	245.59
740.79	245.20
741.12	244.86
741.45	244.51
741.78	244.06
742.11	243.79
742.44	243.43
742.77	243.17
743.10	242.83
743.43	242.50
743.75	241.93
744.08	241.89
744.41	241.53
744.74	241.18
745.07	240.81
745.40	240.48
745.73	240.28
746.06	239.97
746.39	239.65
746.71	239.33
747.04	239.00
747.37	238.68
747.70	238.42
748.03	238.14
748.36	237.86
748.68	237.54
749.01	237.22
749.34	236.96
749.67	236.65
750.00	236.38
750.33	236.27
750.65	236.04
750.98	235.56
751.31	235.33
751.64	235.11
751.97	235.01
752.29	234.78
752.62	234.43
752.95	234.20
753.28	233.95
753.60	233.72
753.93	233.57
754.26	233.38
754.59	233.10
754.91	232.83
755.24	232.59
755.57	232.40
755.90	232.15
756.22	231.93
756.55	231.67
756.88	231.42
757.20	231.09
757.53	230.82
757.86	230.60
758.19	230.42
758.51	230.22
758.84	229.88
759.17	229.70
759.49	229.55
759.82	229.46
760.15	229.30
760.47	229.10
760.80	228.86
761.13	228.70
761.45	228.51
761.78	228.32
762.11	228.18
762.43	228.02
762.76	227.87
763.08	227.75
763.41	227.63
763.74	227.50
764.06	227.34
764.39	227.21
764.71	227.04
765.04	226.87
765.37	226.71
765.69	226.60
766.02	226.46
766.34	226.29
766.67	226.07
767.00	225.98
767.32	225.96
767.65	225.93
767.97	225.80
768.30	225.69
768.62	225.60
768.95	225.46
769.27	225.32
769.60	225.25
769.92	225.07
770.25	224.89
770.57	224.76
770.90	224.64
771.22	224.48
771.55	224.37
771.87	224.26
772.20	224.15
772.52	224.23
772.85	224.35
773.17	224.26
773.50	224.15
773.82	224.01
774.15	223.81
774.47	223.60
774.80	223.50
775.12	223.39
775.45	223.31
775.77	223.24
776.09	223.19
776.42	223.07
776.74	223.06
777.07	222.97
777.39	222.85
777.72	222.75
778.04	222.74
778.36	222.66
778.69	222.59
779.01	222.50
779.33	222.21
779.66	221.90
779.98	221.79
780.31	221.72
780.63	221.74
780.95	221.73
781.28	221.64
781.60	221.54
781.92	221.48
782.25	221.41
782.57	221.31
782.89	221.19
783.22	221.16
783.54	221.05
783.86	221.03
784.19	220.97
784.51	220.99
784.83	220.89
785.16	220.82
785.48	220.75
785.80	220.71
786.12	220.68
