SpectraSuite Data File
++++++++++++++++++++++++++++++++++++
Date: Tue Jan 29 16:33:28 EST 2013
User: group
Dark Spectrum Present: No
Reference Spectrum Present: No
Number of Sampled Component Spectra: 1
Spectrometers: USB2E7196
Integration Time (usec): 65000 (USB2E7196)
Spectra Averaged: 100 (USB2E7196)
Boxcar Smoothing: 10 (USB2E7196)
Correct for Electrical Dark: No (USB2E7196)
Strobe/Lamp Enabled: No (USB2E7196)
Correct for Detector Non-linearity: No (USB2E7196)
Correct for Stray Light: No (USB2E7196)
Number of Pixels in Processed Spectrum: 2048
>>>>>Begin Processed Spectral Data<<<<<
339.09	0.00
339.48	201.86
339.86	203.06
340.24	204.17
340.63	206.13
341.01	210.77
341.39	208.86
341.78	210.18
342.16	211.67
342.54	211.80
342.93	201.06
343.31	211.24
343.69	211.78
344.07	212.26
344.46	212.77
344.84	213.17
345.22	213.32
345.60	213.59
345.99	213.83
346.37	213.98
346.75	214.10
347.13	214.19
347.52	214.28
347.90	214.40
348.28	214.45
348.66	214.54
349.05	214.51
349.43	214.62
349.81	214.71
350.19	214.74
350.57	214.82
350.96	214.93
351.34	215.01
351.72	215.10
352.10	215.21
352.48	215.26
352.87	215.28
353.25	215.38
353.63	215.44
354.01	215.47
354.39	215.54
354.77	215.61
355.15	215.75
355.54	215.75
355.92	215.76
356.30	215.81
356.68	216.00
357.06	216.10
357.44	216.11
357.82	216.16
358.20	216.27
358.58	216.37
358.97	216.44
359.35	216.51
359.73	216.64
360.11	216.70
360.49	216.72
360.87	216.79
361.25	216.87
361.63	216.99
362.01	217.01
362.39	217.04
362.77	217.12
363.15	217.12
363.53	217.13
363.91	217.16
364.29	217.17
364.67	216.96
365.05	216.94
365.43	216.95
365.81	216.98
366.19	217.04
366.57	217.09
366.95	217.04
367.33	216.99
367.71	216.98
368.09	216.97
368.47	217.00
368.85	217.00
369.23	217.00
369.61	216.91
369.99	216.95
370.37	216.93
370.75	216.98
371.13	216.89
371.51	216.87
371.89	216.86
372.27	216.85
372.65	216.85
373.03	216.87
373.41	216.81
373.78	216.77
374.16	216.65
374.54	216.56
374.92	216.53
375.30	216.49
375.68	216.40
376.06	216.38
376.44	216.31
376.82	216.26
377.19	216.21
377.57	216.16
377.95	216.08
378.33	216.03
378.71	215.88
379.09	215.90
379.47	215.90
379.84	215.81
380.22	215.75
380.60	215.71
380.98	215.66
381.36	215.59
381.73	215.52
382.11	215.50
382.49	215.48
382.87	215.43
383.25	215.43
383.62	215.63
384.00	215.53
384.38	215.52
384.76	215.54
385.13	215.57
385.51	215.55
385.89	215.50
386.27	215.51
386.64	215.53
387.02	215.45
387.40	215.37
387.78	215.38
388.15	215.39
388.53	215.32
388.91	215.28
389.29	215.29
389.66	215.29
390.04	215.22
390.42	215.23
390.79	215.24
391.17	215.21
391.55	214.96
391.92	214.97
392.30	214.95
392.68	214.90
393.05	214.88
393.43	214.87
393.81	214.90
394.18	214.83
394.56	214.86
394.94	214.93
395.31	214.96
395.69	215.04
396.06	215.07
396.44	215.15
396.82	215.15
397.19	215.27
397.57	215.29
397.95	215.36
398.32	215.34
398.70	215.38
399.07	215.48
399.45	215.53
399.82	215.59
400.20	215.66
400.58	215.74
400.95	215.72
401.33	215.83
401.70	216.05
402.08	216.18
402.45	216.20
402.83	216.32
403.20	216.47
403.58	216.55
403.95	216.73
404.33	216.90
404.71	217.07
405.08	217.32
405.46	217.51
405.83	217.71
406.21	217.91
406.58	218.13
406.96	218.33
407.33	218.62
407.70	218.91
408.08	219.33
408.45	219.69
408.83	220.06
409.20	220.42
409.58	220.67
409.95	221.11
410.33	221.62
410.70	222.04
411.08	222.59
411.45	223.18
411.82	223.77
412.20	224.41
412.57	225.26
412.95	225.84
413.32	226.67
413.69	227.50
414.07	228.42
414.44	229.44
414.82	230.49
415.19	231.68
415.56	232.89
415.94	234.11
416.31	235.52
416.68	236.95
417.06	238.53
417.43	240.09
417.81	241.80
418.18	243.59
418.55	245.54
418.93	247.56
419.30	249.64
419.67	251.82
420.04	254.09
420.42	256.44
420.79	259.26
421.16	262.08
421.54	265.02
421.91	268.01
422.28	271.09
422.66	274.39
423.03	277.62
423.40	280.98
423.77	284.58
424.15	288.22
424.52	292.07
424.89	296.27
425.26	300.37
425.64	304.33
426.01	308.64
426.38	313.10
426.75	317.63
427.13	322.37
427.50	327.34
427.87	332.55
428.24	337.81
428.61	342.81
428.99	348.30
429.36	354.33
429.73	360.18
430.10	366.06
430.47	372.10
430.85	378.41
431.22	385.14
431.59	392.22
431.96	399.05
432.33	406.58
432.70	413.81
433.08	422.33
433.45	430.40
433.82	438.46
434.19	447.38
434.56	456.11
434.93	464.44
435.30	472.80
435.68	481.95
436.05	490.94
436.42	499.86
436.79	508.04
437.16	516.76
437.53	526.04
437.90	535.19
438.27	544.19
438.64	553.41
439.01	561.95
439.38	569.52
439.75	576.87
440.13	585.29
440.50	593.25
440.87	599.63
441.24	606.26
441.61	613.50
441.98	618.85
442.35	625.28
442.72	631.62
443.09	637.66
443.46	641.41
443.83	643.97
444.20	646.11
444.57	649.26
444.94	650.71
445.31	652.22
445.68	653.63
446.05	654.26
446.42	653.57
446.79	652.61
447.16	651.54
447.53	650.76
447.90	647.39
448.27	644.10
448.64	639.46
449.01	636.16
449.37	630.34
449.74	624.71
450.11	617.74
450.48	610.33
450.85	602.86
451.22	596.35
451.59	590.16
451.96	584.33
452.33	576.44
452.70	569.37
453.07	560.86
453.43	552.26
453.80	543.93
454.17	535.87
454.54	528.32
454.91	520.09
455.28	512.12
455.65	504.73
456.02	497.25
456.38	490.95
456.75	483.05
457.12	476.44
457.49	469.95
457.86	463.76
458.23	458.37
458.59	452.40
458.96	446.43
459.33	441.11
459.70	435.79
460.07	431.52
460.43	426.59
460.80	422.02
461.17	417.99
461.54	413.75
461.91	409.71
462.27	405.58
462.64	402.20
463.01	398.36
463.38	394.67
463.74	391.00
464.11	387.72
464.48	384.87
464.85	381.72
465.21	379.22
465.58	376.56
465.95	373.42
466.32	370.81
466.68	368.19
467.05	365.57
467.42	362.99
467.78	360.32
468.15	357.78
468.52	355.85
468.88	353.36
469.25	351.16
469.62	349.33
469.98	347.39
470.35	345.63
470.72	343.96
471.08	342.13
471.45	340.58
471.82	339.06
472.18	337.43
472.55	336.27
472.92	334.87
473.28	333.67
473.65	332.56
474.02	331.44
474.38	330.47
474.75	329.71
475.11	328.86
475.48	328.26
475.85	327.73
476.21	327.21
476.58	326.90
476.94	326.67
477.31	326.37
477.67	326.11
478.04	325.91
478.41	325.91
478.77	326.12
479.14	326.08
479.50	326.22
479.87	326.52
480.23	326.84
480.60	327.09
480.96	327.36
481.33	327.94
481.69	328.52
482.06	329.12
482.42	329.60
482.79	330.23
483.15	331.02
483.52	332.07
483.88	332.93
484.25	333.81
484.61	334.80
484.98	335.85
485.34	337.17
485.71	338.51
486.07	339.93
486.44	341.22
486.80	342.80
487.17	344.45
487.53	346.23
487.90	348.10
488.26	350.14
488.62	352.26
488.99	354.27
489.35	356.41
489.72	358.77
490.08	361.35
490.44	363.91
490.81	366.59
491.17	369.26
491.54	372.29
491.90	375.34
492.26	378.61
492.63	382.06
492.99	385.56
493.36	389.29
493.72	393.18
494.08	397.23
494.45	401.46
494.81	405.89
495.17	410.40
495.54	415.12
495.90	419.94
496.26	424.88
496.63	430.12
496.99	435.55
497.35	441.12
497.72	446.91
498.08	452.83
498.44	459.00
498.80	465.46
499.17	472.01
499.53	478.74
499.89	485.67
500.26	492.63
500.62	499.70
500.98	507.13
501.34	514.61
501.71	522.40
502.07	530.25
502.43	538.27
502.79	546.42
503.16	554.83
503.52	563.49
503.88	572.29
504.24	581.33
504.60	590.43
504.97	599.67
505.33	608.99
505.69	618.94
506.05	628.82
506.41	638.73
506.78	648.80
507.14	659.15
507.50	669.60
507.86	680.35
508.22	691.21
508.59	701.87
508.95	713.00
509.31	724.29
509.67	735.80
510.03	747.26
510.39	759.00
510.75	770.94
511.12	782.93
511.48	795.12
511.84	807.45
512.20	819.89
512.56	832.71
512.92	845.63
513.28	858.41
513.64	871.24
514.00	884.13
514.37	897.15
514.73	910.21
515.09	923.37
515.45	936.31
515.81	949.41
516.17	962.94
516.53	976.27
516.89	989.45
517.25	1002.74
517.61	1016.35
517.97	1029.84
518.33	1042.98
518.69	1056.66
519.05	1070.55
519.41	1084.34
519.77	1098.28
520.13	1111.62
520.49	1124.85
520.85	1138.31
521.21	1151.71
521.57	1165.53
521.93	1178.77
522.29	1192.72
522.65	1206.42
523.01	1220.29
523.37	1233.75
523.73	1247.14
524.09	1260.37
524.45	1273.94
524.81	1287.65
525.17	1301.02
525.53	1314.37
525.89	1327.87
526.25	1341.12
526.61	1354.03
526.97	1367.11
527.33	1380.17
527.68	1393.84
528.04	1407.52
528.40	1420.72
528.76	1434.28
529.12	1447.36
529.48	1460.80
529.84	1473.14
530.20	1486.07
530.56	1498.71
530.91	1512.09
531.27	1525.10
531.63	1538.06
531.99	1550.89
532.35	1563.15
532.71	1575.78
533.07	1588.84
533.42	1601.29
533.78	1613.45
534.14	1625.64
534.50	1637.06
534.86	1648.77
535.21	1659.76
535.57	1671.39
535.93	1682.83
536.29	1694.06
536.65	1705.66
537.00	1716.73
537.36	1728.20
537.72	1739.35
538.08	1750.91
538.44	1761.94
538.79	1773.10
539.15	1784.11
539.51	1794.94
539.87	1806.47
540.22	1817.38
540.58	1828.39
540.94	1839.36
541.29	1849.73
541.65	1859.54
542.01	1870.22
542.37	1880.56
542.72	1890.80
543.08	1900.70
543.44	1911.33
543.79	1920.73
544.15	1930.18
544.51	1940.28
544.87	1950.31
545.22	1959.51
545.58	1968.46
545.94	1977.31
546.29	1985.96
546.65	1994.34
547.01	2002.77
547.36	2010.45
547.72	2018.23
548.07	2025.84
548.43	2033.62
548.79	2041.64
549.14	2049.83
549.50	2058.29
549.86	2066.14
550.21	2073.57
550.57	2081.34
550.92	2088.19
551.28	2095.65
551.64	2103.01
551.99	2110.61
552.35	2117.83
552.70	2124.91
553.06	2131.59
553.41	2138.04
553.77	2144.56
554.13	2151.04
554.48	2158.07
554.84	2165.28
555.19	2171.97
555.55	2178.45
555.90	2184.86
556.26	2191.80
556.61	2198.01
556.97	2202.93
557.32	2208.71
557.68	2215.34
558.03	2221.09
558.39	2226.46
558.74	2232.61
559.10	2238.17
559.45	2243.63
559.81	2249.15
560.16	2254.63
560.52	2260.62
560.87	2267.03
561.23	2272.93
561.58	2279.76
561.94	2285.09
562.29	2289.65
562.64	2295.63
563.00	2301.38
563.35	2306.93
563.71	2312.57
564.06	2318.20
564.42	2324.15
564.77	2329.11
565.12	2334.12
565.48	2339.20
565.83	2344.65
566.19	2349.93
566.54	2355.42
566.89	2360.10
567.25	2364.68
567.60	2370.47
567.96	2375.53
568.31	2379.92
568.66	2384.24
569.02	2388.01
569.37	2391.69
569.72	2396.19
570.08	2399.67
570.43	2402.80
570.78	2406.02
571.14	2408.42
571.49	2411.49
571.84	2415.09
572.20	2418.08
572.55	2421.25
572.90	2423.64
573.26	2426.38
573.61	2428.94
573.96	2430.87
574.31	2432.88
574.67	2434.78
575.02	2435.44
575.37	2436.81
575.72	2437.66
576.08	2439.01
576.43	2439.12
576.78	2439.51
577.13	2441.07
577.49	2442.24
577.84	2443.18
578.19	2444.20
578.54	2444.89
578.90	2445.54
579.25	2445.30
579.60	2445.11
579.95	2444.17
580.30	2444.10
580.66	2443.42
581.01	2441.76
581.36	2439.44
581.71	2437.94
582.06	2436.73
582.42	2435.91
582.77	2433.62
583.12	2431.81
583.47	2430.49
583.82	2429.77
584.17	2428.43
584.53	2426.17
584.88	2424.01
585.23	2422.20
585.58	2420.02
585.93	2417.81
586.28	2415.64
586.63	2413.06
586.98	2410.81
587.34	2408.76
587.69	2406.26
588.04	2404.14
588.39	2402.62
588.74	2400.11
589.09	2397.28
589.44	2393.97
589.79	2391.39
590.14	2389.52
590.49	2386.77
590.84	2382.82
591.19	2379.76
591.54	2376.47
591.89	2372.43
592.25	2369.06
592.60	2364.50
592.95	2360.18
593.30	2355.97
593.65	2351.55
594.00	2347.18
594.35	2344.28
594.70	2339.58
595.05	2335.00
595.40	2329.46
595.75	2323.59
596.10	2319.86
596.45	2315.06
596.80	2310.57
597.15	2305.21
597.50	2299.13
597.85	2294.05
598.19	2288.78
598.54	2282.87
598.89	2277.61
599.24	2273.00
599.59	2266.91
599.94	2261.24
600.29	2255.35
600.64	2249.35
600.99	2242.40
601.34	2236.84
601.69	2229.70
602.04	2223.28
602.39	2216.49
602.74	2210.25
603.08	2204.70
603.43	2198.13
603.78	2191.16
604.13	2184.06
604.48	2176.65
604.83	2170.49
605.18	2164.05
605.53	2156.95
605.87	2149.83
606.22	2143.01
606.57	2134.87
606.92	2126.86
607.27	2119.85
607.62	2113.05
607.96	2106.05
608.31	2099.65
608.66	2091.81
609.01	2084.03
609.36	2076.85
609.70	2069.21
610.05	2061.40
610.40	2053.06
610.75	2044.66
611.10	2036.93
611.44	2027.90
611.79	2019.17
612.14	2009.09
612.49	1998.56
612.83	1989.29
613.18	1980.00
613.53	1970.62
613.88	1961.04
614.22	1952.31
614.57	1942.40
614.92	1931.77
615.27	1921.45
615.61	1911.25
615.96	1901.54
616.31	1891.87
616.65	1882.50
617.00	1872.68
617.35	1863.04
617.70	1853.28
618.04	1843.17
618.39	1832.92
618.74	1823.32
619.08	1813.59
619.43	1804.91
619.78	1796.60
620.12	1788.07
620.47	1778.55
620.82	1768.16
621.16	1758.46
621.51	1748.54
621.85	1738.58
622.20	1728.22
622.55	1717.71
622.89	1707.68
623.24	1697.99
623.59	1688.27
623.93	1677.91
624.28	1668.15
624.62	1658.10
624.97	1647.75
625.32	1638.04
625.66	1629.16
626.01	1620.33
626.35	1610.95
626.70	1600.87
627.04	1590.79
627.39	1580.58
627.73	1571.17
628.08	1562.24
628.43	1552.57
628.77	1543.30
629.12	1534.48
629.46	1526.61
629.81	1518.28
630.15	1508.82
630.50	1498.89
630.84	1488.31
631.19	1478.57
631.53	1469.24
631.88	1459.07
632.22	1448.94
632.57	1439.46
632.91	1429.30
633.26	1419.43
633.60	1409.86
633.95	1400.55
634.29	1390.96
634.64	1381.50
634.98	1371.49
635.32	1362.16
635.67	1353.74
636.01	1344.43
636.36	1334.67
636.70	1325.13
637.05	1315.70
637.39	1306.71
637.73	1298.10
638.08	1290.56
638.42	1282.30
638.77	1273.40
639.11	1264.98
639.45	1257.21
639.80	1248.70
640.14	1239.99
640.49	1231.06
640.83	1222.27
641.17	1213.99
641.52	1205.80
641.86	1197.25
642.20	1189.37
642.55	1180.67
642.89	1171.65
643.23	1163.04
643.58	1154.94
643.92	1145.91
644.26	1137.17
644.61	1128.78
644.95	1119.92
645.29	1110.68
645.64	1101.44
645.98	1092.93
646.32	1085.00
646.66	1076.35
647.01	1068.02
647.35	1059.82
647.69	1051.45
648.04	1043.08
648.38	1034.20
648.72	1025.57
649.06	1017.08
649.41	1008.81
649.75	1000.82
650.09	993.02
650.43	984.98
650.78	976.52
651.12	968.73
651.46	961.20
651.80	953.92
652.14	946.55
652.49	938.97
652.83	931.61
653.17	923.89
653.51	916.16
653.85	908.96
654.20	901.57
654.54	894.04
654.88	886.76
655.22	879.56
655.56	872.52
655.90	865.55
656.25	858.79
656.59	851.86
656.93	844.86
657.27	837.66
657.61	830.45
657.95	824.32
658.29	818.33
658.64	812.22
658.98	805.70
659.32	799.13
659.66	792.90
660.00	786.52
660.34	780.41
660.68	774.33
661.02	767.99
661.36	761.94
661.70	756.07
662.05	750.42
662.39	744.80
662.73	739.36
663.07	733.90
663.41	728.21
663.75	722.43
664.09	716.65
664.43	711.08
664.77	705.86
665.11	699.96
665.45	694.00
665.79	688.06
666.13	682.25
666.47	676.70
666.81	671.18
667.15	665.77
667.49	660.51
667.83	655.18
668.17	649.81
668.51	644.63
668.85	639.67
669.19	634.69
669.53	629.69
669.87	624.52
670.21	619.78
670.55	615.07
670.89	610.64
671.23	606.28
671.57	601.90
671.91	597.50
672.25	593.31
672.58	589.08
672.92	584.98
673.26	580.98
673.60	577.11
673.94	573.21
674.28	569.48
674.62	565.74
674.96	561.97
675.30	558.45
675.64	554.80
675.97	551.17
676.31	547.52
676.65	543.82
676.99	540.36
677.33	536.46
677.67	532.82
678.01	528.89
678.34	525.25
678.68	521.69
679.02	518.05
679.36	514.34
679.70	510.66
680.04	507.14
680.37	503.67
680.71	500.25
681.05	497.00
681.39	493.74
681.73	490.50
682.06	487.36
682.40	484.16
682.74	480.90
683.08	477.67
683.42	474.35
683.75	471.32
684.09	468.21
684.43	465.33
684.77	462.30
685.10	459.40
685.44	456.44
685.78	453.48
686.12	450.67
686.45	447.88
686.79	445.27
687.13	442.67
687.46	440.01
687.80	437.34
688.14	434.48
688.48	431.79
688.81	429.10
689.15	426.52
689.49	423.90
689.82	421.33
690.16	418.69
690.50	416.30
690.83	413.76
691.17	411.22
691.51	408.73
691.84	406.44
692.18	404.20
692.52	401.93
692.85	399.77
693.19	397.61
693.52	395.42
693.86	393.13
694.20	390.88
694.53	388.73
694.87	386.49
695.21	384.35
695.54	382.18
695.88	379.98
696.21	377.75
696.55	375.64
696.88	373.54
697.22	371.53
697.56	369.53
697.89	367.64
698.23	365.85
698.56	364.10
698.90	362.25
699.23	360.34
699.57	358.41
699.90	356.47
700.24	354.61
700.58	352.84
700.91	351.15
701.25	349.62
701.58	347.95
701.92	346.34
702.25	344.68
702.59	343.07
702.92	341.48
703.26	339.87
703.59	338.34
703.93	337.06
704.26	335.62
704.60	334.12
704.93	332.55
705.26	331.02
705.60	329.46
705.93	327.93
706.27	326.58
706.60	325.32
706.94	324.07
707.27	322.67
707.61	321.29
707.94	319.93
708.27	318.37
708.61	316.87
708.94	315.46
709.28	314.17
709.61	312.86
709.94	311.64
710.28	310.40
710.61	309.21
710.95	307.74
711.28	306.64
711.61	305.48
711.95	304.36
712.28	303.18
712.61	301.95
712.95	300.91
713.28	299.84
713.61	298.71
713.95	297.55
714.28	296.50
714.61	295.41
714.95	294.35
715.28	293.32
715.61	292.32
715.95	291.38
716.28	290.40
716.61	289.39
716.95	288.35
717.28	287.40
717.61	286.44
717.94	285.57
718.28	284.53
718.61	283.59
718.94	282.68
719.27	281.81
719.61	280.96
719.94	280.07
720.27	279.05
720.60	278.17
720.94	277.35
721.27	276.58
721.60	275.92
721.93	275.21
722.27	274.54
722.60	273.87
722.93	273.09
723.26	272.44
723.59	271.74
723.93	271.13
724.26	270.48
724.59	269.76
724.92	269.14
725.25	268.53
725.59	267.97
725.92	267.45
726.25	266.86
726.58	266.29
726.91	265.73
727.24	265.20
727.57	264.62
727.91	263.99
728.24	263.46
728.57	262.84
728.90	262.25
729.23	261.61
729.56	261.19
729.89	260.67
730.22	260.06
730.55	259.52
730.89	258.99
731.22	258.47
731.55	257.97
731.88	257.46
732.21	256.94
732.54	256.40
732.87	255.83
733.20	255.37
733.53	254.87
733.86	254.40
734.19	253.90
734.52	253.50
734.85	253.22
735.18	252.69
735.51	252.31
735.84	251.90
736.17	251.50
736.50	250.91
736.83	250.75
737.16	250.35
737.49	249.97
737.82	249.52
738.15	249.17
738.48	248.77
738.81	248.36
739.14	247.92
739.47	247.52
739.80	247.18
740.13	246.77
740.46	246.38
740.79	245.94
741.12	245.58
741.45	245.19
741.78	244.76
742.11	244.49
742.44	244.11
742.77	243.79
743.10	243.43
743.43	243.08
743.75	242.51
744.08	242.45
744.41	242.06
744.74	241.73
745.07	241.33
745.40	241.05
745.73	240.78
746.06	240.48
746.39	240.18
746.71	239.83
747.04	239.50
747.37	239.23
747.70	238.98
748.03	238.70
748.36	238.41
748.68	238.10
749.01	237.73
749.34	237.39
749.67	237.08
750.00	236.84
750.33	236.73
750.65	236.49
750.98	235.96
751.31	235.74
751.64	235.53
751.97	235.42
752.29	235.13
752.62	234.78
752.95	234.50
753.28	234.25
753.60	234.02
753.93	233.83
754.26	233.60
754.59	233.28
754.91	233.00
755.24	232.76
755.57	232.51
755.90	232.29
756.22	232.06
756.55	231.84
756.88	231.60
757.20	231.24
757.53	230.99
757.86	230.77
758.19	230.57
758.51	230.35
758.84	230.03
759.17	229.83
759.49	229.67
759.82	229.57
760.15	229.43
760.47	229.21
760.80	228.94
761.13	228.74
761.45	228.57
761.78	228.40
762.11	228.21
762.43	228.03
762.76	227.86
763.08	227.72
763.41	227.54
763.74	227.37
764.06	227.22
764.39	227.04
764.71	226.90
765.04	226.75
765.37	226.58
765.69	226.42
766.02	226.27
766.34	226.08
766.67	225.89
767.00	225.74
767.32	225.72
767.65	225.73
767.97	225.60
768.30	225.50
768.62	225.39
768.95	225.22
769.27	225.08
769.60	224.98
769.92	224.80
770.25	224.63
770.57	224.47
770.90	224.34
771.22	224.17
771.55	224.09
771.87	223.95
772.20	223.84
772.52	223.91
772.85	224.07
773.17	223.96
773.50	223.83
773.82	223.72
774.15	223.53
774.47	223.30
774.80	223.18
775.12	223.08
775.45	222.95
775.77	222.88
776.09	222.81
776.42	222.70
776.74	222.67
777.07	222.62
777.39	222.54
777.72	222.40
778.04	222.40
778.36	222.25
778.69	222.17
779.01	222.09
779.33	221.83
779.66	221.49
779.98	221.45
780.31	221.41
780.63	221.39
780.95	221.35
781.28	221.29
781.60	221.23
781.92	221.15
782.25	221.11
782.57	221.04
782.89	220.93
783.22	220.88
783.54	220.77
783.86	220.72
784.19	220.64
784.51	220.68
784.83	220.56
785.16	220.49
785.48	220.42
785.80	220.33
786.12	220.27
