SpectraSuite Data File
++++++++++++++++++++++++++++++++++++
Date: Tue Jan 29 16:58:01 EST 2013
User: group
Dark Spectrum Present: No
Reference Spectrum Present: No
Number of Sampled Component Spectra: 1
Spectrometers: USB2E7196
Integration Time (usec): 65000 (USB2E7196)
Spectra Averaged: 100 (USB2E7196)
Boxcar Smoothing: 10 (USB2E7196)
Correct for Electrical Dark: No (USB2E7196)
Strobe/Lamp Enabled: No (USB2E7196)
Correct for Detector Non-linearity: No (USB2E7196)
Correct for Stray Light: No (USB2E7196)
Number of Pixels in Processed Spectrum: 2048
>>>>>Begin Processed Spectral Data<<<<<
339.09	0.00
339.48	201.61
339.86	203.06
340.24	204.41
340.63	205.83
341.01	209.90
341.39	208.26
341.78	209.76
342.16	210.83
342.54	211.41
342.93	200.61
343.31	210.74
343.69	211.29
344.07	211.76
344.46	212.21
344.84	212.61
345.22	212.78
345.60	213.02
345.99	213.22
346.37	213.35
346.75	213.46
347.13	213.52
347.52	213.56
347.90	213.70
348.28	213.72
348.66	213.79
349.05	213.77
349.43	213.83
349.81	213.89
350.19	213.92
350.57	213.98
350.96	214.09
351.34	214.18
351.72	214.25
352.10	214.34
352.48	214.38
352.87	214.41
353.25	214.48
353.63	214.56
354.01	214.64
354.39	214.72
354.77	214.79
355.15	214.91
355.54	214.96
355.92	214.93
356.30	214.99
356.68	215.20
357.06	215.29
357.44	215.33
357.82	215.41
358.20	215.49
358.58	215.54
358.97	215.59
359.35	215.72
359.73	215.85
360.11	215.92
360.49	216.00
360.87	216.05
361.25	216.15
361.63	216.28
362.01	216.33
362.39	216.42
362.77	216.48
363.15	216.52
363.53	216.59
363.91	216.63
364.29	216.68
364.67	216.53
365.05	216.53
365.43	216.61
365.81	216.64
366.19	216.77
366.57	216.90
366.95	216.90
367.33	216.86
367.71	216.87
368.09	216.92
368.47	216.93
368.85	216.93
369.23	216.97
369.61	216.91
369.99	216.96
370.37	216.94
370.75	217.03
371.13	216.99
371.51	216.97
371.89	216.99
372.27	217.01
372.65	216.99
373.03	217.00
373.41	216.97
373.78	216.95
374.16	216.76
374.54	216.70
374.92	216.66
375.30	216.62
375.68	216.53
376.06	216.51
376.44	216.41
376.82	216.41
377.19	216.36
377.57	216.29
377.95	216.20
378.33	216.15
378.71	215.98
379.09	216.00
379.47	215.98
379.84	215.88
380.22	215.81
380.60	215.72
380.98	215.68
381.36	215.60
381.73	215.51
382.11	215.52
382.49	215.44
382.87	215.39
383.25	215.36
383.62	215.56
384.00	215.46
384.38	215.50
384.76	215.48
385.13	215.49
385.51	215.47
385.89	215.38
386.27	215.35
386.64	215.37
387.02	215.27
387.40	215.25
387.78	215.25
388.15	215.23
388.53	215.21
388.91	215.17
389.29	215.12
389.66	215.12
390.04	215.08
390.42	215.10
390.79	215.08
391.17	215.07
391.55	214.80
391.92	214.78
392.30	214.78
392.68	214.72
393.05	214.71
393.43	214.73
393.81	214.71
394.18	214.67
394.56	214.65
394.94	214.75
395.31	214.74
395.69	214.81
396.06	214.84
396.44	214.88
396.82	214.88
397.19	215.06
397.57	215.09
397.95	215.16
398.32	215.12
398.70	215.21
399.07	215.28
399.45	215.30
399.82	215.32
400.20	215.34
400.58	215.39
400.95	215.38
401.33	215.45
401.70	215.69
402.08	215.79
402.45	215.87
402.83	215.95
403.20	216.04
403.58	216.14
403.95	216.29
404.33	216.44
404.71	216.59
405.08	216.81
405.46	216.97
405.83	217.18
406.21	217.40
406.58	217.60
406.96	217.83
407.33	218.12
407.70	218.44
408.08	218.91
408.45	219.25
408.83	219.62
409.20	219.97
409.58	220.26
409.95	220.72
410.33	221.21
410.70	221.66
411.08	222.22
411.45	222.76
411.82	223.32
412.20	224.02
412.57	224.86
412.95	225.39
413.32	226.22
413.69	227.01
414.07	227.90
414.44	228.89
414.82	229.92
415.19	231.13
415.56	232.31
415.94	233.47
416.31	234.85
416.68	236.27
417.06	237.88
417.43	239.49
417.81	241.23
418.18	243.04
418.55	244.97
418.93	247.01
419.30	249.14
419.67	251.43
420.04	253.74
420.42	256.12
420.79	259.01
421.16	261.80
421.54	264.74
421.91	267.77
422.28	270.90
422.66	274.22
423.03	277.52
423.40	280.90
423.77	284.57
424.15	288.31
424.52	292.20
424.89	296.42
425.26	300.46
425.64	304.37
426.01	308.68
426.38	313.21
426.75	317.77
427.13	322.56
427.50	327.54
427.87	332.76
428.24	337.99
428.61	342.96
428.99	348.53
429.36	354.62
429.73	360.54
430.10	366.44
430.47	372.53
430.85	378.80
431.22	385.59
431.59	392.75
431.96	399.58
432.33	407.08
432.70	414.33
433.08	422.93
433.45	431.06
433.82	439.10
434.19	448.02
434.56	456.80
434.93	465.13
435.30	473.42
435.68	482.55
436.05	491.60
436.42	500.58
436.79	508.76
437.16	517.58
437.53	526.91
437.90	536.12
438.27	545.19
438.64	554.50
439.01	563.11
439.38	570.70
439.75	578.09
440.13	586.59
440.50	594.61
440.87	601.04
441.24	607.69
441.61	615.09
441.98	620.52
442.35	626.87
442.72	633.31
443.09	639.42
443.46	643.19
443.83	645.79
444.20	647.98
444.57	651.19
444.94	652.63
445.31	654.11
445.68	655.56
446.05	656.12
446.42	655.33
446.79	654.36
447.16	653.32
447.53	652.56
447.90	649.18
448.27	645.95
448.64	641.31
449.01	638.01
449.37	632.11
449.74	626.40
450.11	619.50
450.48	612.04
450.85	604.64
451.22	598.24
451.59	592.01
451.96	586.26
452.33	578.36
452.70	571.21
453.07	562.66
453.43	553.94
453.80	545.57
454.17	537.52
454.54	529.89
454.91	521.61
455.28	513.59
455.65	506.14
456.02	498.53
456.38	492.12
456.75	484.15
457.12	477.48
457.49	470.96
457.86	464.68
458.23	459.23
458.59	453.17
458.96	447.08
459.33	441.71
459.70	436.20
460.07	431.89
460.43	426.96
460.80	422.31
461.17	418.33
461.54	414.08
461.91	410.06
462.27	405.92
462.64	402.49
463.01	398.62
463.38	394.91
463.74	391.18
464.11	387.94
464.48	385.12
464.85	382.08
465.21	379.61
465.58	376.96
465.95	373.84
466.32	371.22
466.68	368.63
467.05	366.01
467.42	363.47
467.78	360.77
468.15	358.22
468.52	356.30
468.88	353.78
469.25	351.58
469.62	349.73
469.98	347.75
470.35	345.90
470.72	344.24
471.08	342.41
471.45	340.87
471.82	339.30
472.18	337.58
472.55	336.29
472.92	334.89
473.28	333.63
473.65	332.41
474.02	331.30
474.38	330.34
474.75	329.56
475.11	328.73
475.48	328.07
475.85	327.57
476.21	327.08
476.58	326.70
476.94	326.50
477.31	326.19
477.67	325.94
478.04	325.75
478.41	325.70
478.77	325.84
479.14	325.77
479.50	325.92
479.87	326.22
480.23	326.51
480.60	326.69
480.96	326.95
481.33	327.53
481.69	328.03
482.06	328.51
482.42	328.97
482.79	329.53
483.15	330.34
483.52	331.30
483.88	332.17
484.25	333.06
484.61	334.02
484.98	335.06
485.34	336.35
485.71	337.71
486.07	339.11
486.44	340.44
486.80	342.09
487.17	343.77
487.53	345.61
487.90	347.53
488.26	349.56
488.62	351.72
488.99	353.82
489.35	356.03
489.72	358.43
490.08	360.96
490.44	363.54
490.81	366.25
491.17	368.90
491.54	371.81
491.90	374.87
492.26	378.10
492.63	381.51
492.99	384.95
493.36	388.63
493.72	392.48
494.08	396.50
494.45	400.68
494.81	405.00
495.17	409.34
495.54	414.01
495.90	418.84
496.26	423.78
496.63	428.96
496.99	434.37
497.35	439.90
497.72	445.75
498.08	451.68
498.44	457.76
498.80	464.18
499.17	470.66
499.53	477.34
499.89	484.28
500.26	491.24
500.62	498.30
500.98	505.67
501.34	513.16
501.71	520.89
502.07	528.67
502.43	536.64
502.79	544.80
503.16	553.15
503.52	561.69
503.88	570.34
504.24	579.24
504.60	588.26
504.97	597.52
505.33	606.73
505.69	616.61
506.05	626.43
506.41	636.30
506.78	646.38
507.14	656.64
507.50	667.02
507.86	677.67
508.22	688.38
508.59	698.91
508.95	709.94
509.31	721.11
509.67	732.52
510.03	743.82
510.39	755.42
510.75	767.13
511.12	778.98
511.48	791.05
511.84	803.29
512.20	815.54
512.56	828.07
512.92	840.84
513.28	853.42
513.64	866.18
514.00	879.01
514.37	891.89
514.73	904.96
515.09	917.87
515.45	930.74
515.81	943.86
516.17	957.21
516.53	970.41
516.89	983.42
517.25	996.58
517.61	1010.13
517.97	1023.64
518.33	1036.78
518.69	1050.33
519.05	1064.09
519.41	1077.72
519.77	1091.68
520.13	1104.96
520.49	1118.09
520.85	1131.44
521.21	1144.78
521.57	1158.30
521.93	1171.37
522.29	1185.00
522.65	1198.65
523.01	1212.20
523.37	1225.30
523.73	1238.69
524.09	1251.89
524.45	1265.40
524.81	1278.90
525.17	1292.24
525.53	1305.42
525.89	1318.86
526.25	1332.03
526.61	1344.80
526.97	1357.91
527.33	1370.90
527.68	1384.58
528.04	1398.12
528.40	1411.17
528.76	1424.50
529.12	1437.45
529.48	1450.87
529.84	1463.25
530.20	1475.92
530.56	1488.59
530.91	1501.92
531.27	1514.78
531.63	1527.45
531.99	1540.31
532.35	1552.45
532.71	1564.99
533.07	1577.93
533.42	1590.14
533.78	1602.37
534.14	1614.60
534.50	1625.90
534.86	1637.44
535.21	1648.13
535.57	1659.77
535.93	1671.07
536.29	1682.12
536.65	1693.75
537.00	1704.74
537.36	1716.13
537.72	1727.21
538.08	1738.66
538.44	1749.54
538.79	1760.69
539.15	1771.65
539.51	1782.42
539.87	1793.89
540.22	1804.71
540.58	1815.72
540.94	1826.65
541.29	1836.86
541.65	1846.55
542.01	1856.96
542.37	1867.08
542.72	1877.30
543.08	1886.80
543.44	1897.36
543.79	1906.66
544.15	1916.09
544.51	1925.98
544.87	1935.98
545.22	1945.37
545.58	1954.22
545.94	1963.26
546.29	1971.90
546.65	1980.47
547.01	1988.79
547.36	1996.54
547.72	2004.30
548.07	2011.77
548.43	2019.67
548.79	2027.63
549.14	2035.90
549.50	2044.52
549.86	2052.55
550.21	2060.12
550.57	2068.23
550.92	2075.06
551.28	2082.72
551.64	2089.96
551.99	2097.54
552.35	2104.73
552.70	2111.56
553.06	2118.45
553.41	2124.95
553.77	2131.46
554.13	2137.69
554.48	2144.63
554.84	2151.83
555.19	2158.55
555.55	2165.06
555.90	2171.23
556.26	2178.03
556.61	2184.26
556.97	2189.13
557.32	2194.70
557.68	2200.91
558.03	2206.61
558.39	2212.07
558.74	2218.09
559.10	2223.53
559.45	2229.17
559.81	2234.82
560.16	2240.40
560.52	2246.15
560.87	2252.32
561.23	2257.94
561.58	2264.70
561.94	2270.00
562.29	2274.43
562.64	2280.17
563.00	2285.79
563.35	2291.30
563.71	2296.72
564.06	2302.31
564.42	2308.07
564.77	2313.15
565.12	2318.51
565.48	2323.36
565.83	2328.69
566.19	2333.78
566.54	2338.99
566.89	2343.30
567.25	2347.56
567.60	2353.12
567.96	2357.97
568.31	2362.37
568.66	2366.74
569.02	2370.49
569.37	2374.12
569.72	2378.40
570.08	2381.82
570.43	2384.85
570.78	2387.91
571.14	2390.26
571.49	2393.28
571.84	2396.73
572.20	2399.53
572.55	2402.27
572.90	2404.60
573.26	2407.13
573.61	2409.78
573.96	2411.95
574.31	2413.83
574.67	2415.61
575.02	2416.10
575.37	2417.59
575.72	2418.06
576.08	2419.39
576.43	2419.33
576.78	2419.33
577.13	2420.57
577.49	2421.64
577.84	2422.42
578.19	2423.35
578.54	2423.96
578.90	2424.02
579.25	2423.78
579.60	2423.36
579.95	2422.35
580.30	2421.90
580.66	2421.20
581.01	2419.23
581.36	2416.51
581.71	2414.94
582.06	2413.57
582.42	2412.45
582.77	2409.82
583.12	2407.97
583.47	2406.06
583.82	2405.24
584.17	2403.94
584.53	2401.71
584.88	2399.28
585.23	2397.17
585.58	2394.72
585.93	2392.69
586.28	2390.53
586.63	2387.66
586.98	2385.32
587.34	2383.31
587.69	2380.72
588.04	2378.29
588.39	2376.53
588.74	2374.04
589.09	2371.12
589.44	2367.54
589.79	2364.77
590.14	2362.60
590.49	2359.71
590.84	2355.84
591.19	2352.41
591.54	2349.07
591.89	2345.23
592.25	2341.87
592.60	2337.54
592.95	2333.42
593.30	2329.13
593.65	2324.73
594.00	2320.29
594.35	2317.33
594.70	2312.63
595.05	2308.21
595.40	2302.71
595.75	2296.81
596.10	2292.96
596.45	2288.11
596.80	2283.58
597.15	2278.52
597.50	2272.72
597.85	2267.72
598.19	2262.53
598.54	2256.92
598.89	2251.52
599.24	2246.53
599.59	2240.40
599.94	2234.43
600.29	2228.28
600.64	2222.17
600.99	2215.13
601.34	2209.54
601.69	2202.35
602.04	2195.79
602.39	2188.95
602.74	2182.69
603.08	2177.20
603.43	2170.78
603.78	2163.95
604.13	2156.96
604.48	2149.68
604.83	2143.52
605.18	2137.33
605.53	2130.59
605.87	2123.50
606.22	2116.76
606.57	2108.90
606.92	2100.78
607.27	2093.72
607.62	2087.01
607.96	2080.13
608.31	2073.76
608.66	2065.97
609.01	2058.35
609.36	2051.14
609.70	2043.45
610.05	2035.66
610.40	2027.31
610.75	2018.84
611.10	2010.96
611.44	2001.95
611.79	1993.14
612.14	1983.18
612.49	1972.42
612.83	1962.74
613.18	1953.32
613.53	1944.02
613.88	1934.58
614.22	1926.10
614.57	1916.41
614.92	1905.95
615.27	1895.59
615.61	1885.41
615.96	1875.84
616.31	1866.34
616.65	1856.97
617.00	1847.53
617.35	1838.13
617.70	1828.36
618.04	1818.67
618.39	1808.77
618.74	1799.31
619.08	1789.69
619.43	1781.14
619.78	1772.92
620.12	1764.66
620.47	1755.31
620.82	1745.04
621.16	1735.34
621.51	1725.70
621.85	1716.20
622.20	1706.25
622.55	1695.89
622.89	1686.19
623.24	1676.68
623.59	1666.97
623.93	1657.04
624.28	1647.16
624.62	1637.14
624.97	1627.20
625.32	1617.37
625.66	1608.38
626.01	1599.73
626.35	1590.79
626.70	1580.85
627.04	1571.02
627.39	1560.83
627.73	1551.79
628.08	1543.17
628.43	1533.84
628.77	1524.71
629.12	1515.71
629.46	1507.89
629.81	1499.76
630.15	1490.41
630.50	1480.67
630.84	1470.30
631.19	1460.51
631.53	1451.54
631.88	1441.68
632.22	1431.83
632.57	1422.71
632.91	1413.00
633.26	1403.17
633.60	1393.65
633.95	1384.52
634.29	1375.27
634.64	1366.23
634.98	1356.38
635.32	1347.16
635.67	1338.87
636.01	1329.61
636.36	1320.26
636.70	1310.75
637.05	1301.39
637.39	1292.74
637.73	1284.33
638.08	1276.85
638.42	1268.91
638.77	1260.30
639.11	1252.10
639.45	1244.49
639.80	1236.08
640.14	1227.46
640.49	1218.95
640.83	1210.19
641.17	1202.08
641.52	1194.05
641.86	1185.66
642.20	1177.88
642.55	1169.26
642.89	1160.41
643.23	1152.04
643.58	1143.91
643.92	1135.25
644.26	1126.70
644.61	1118.19
644.95	1109.47
645.29	1100.44
645.64	1091.35
645.98	1082.86
646.32	1074.99
646.66	1066.56
647.01	1058.31
647.35	1050.25
647.69	1041.96
648.04	1033.96
648.38	1025.26
648.72	1016.59
649.06	1008.15
649.41	1000.02
649.75	992.26
650.09	984.47
650.43	976.46
650.78	968.25
651.12	960.42
651.46	953.04
651.80	945.86
652.14	938.65
652.49	931.27
652.83	924.09
653.17	916.53
653.51	909.02
653.85	901.81
654.20	894.66
654.54	887.34
654.88	880.20
655.22	872.96
655.56	865.98
655.90	859.34
656.25	852.72
656.59	845.99
656.93	839.06
657.27	832.03
657.61	825.01
657.95	818.97
658.29	813.06
658.64	807.11
658.98	800.79
659.32	794.36
659.66	788.17
660.00	781.89
660.34	775.82
660.68	769.87
661.02	763.56
661.36	757.50
661.70	751.75
662.05	746.10
662.39	740.64
662.73	735.27
663.07	729.75
663.41	724.16
663.75	718.39
664.09	712.67
664.43	707.16
664.77	701.95
665.11	696.17
665.45	690.39
665.79	684.49
666.13	678.87
666.47	673.42
666.81	667.99
667.15	662.55
667.49	657.36
667.83	652.02
668.17	646.81
668.51	641.73
668.85	636.79
669.19	631.94
669.53	626.88
669.87	621.71
670.21	617.00
670.55	612.37
670.89	607.96
671.23	603.66
671.57	599.35
671.91	595.03
672.25	590.81
672.58	586.69
672.92	582.71
673.26	578.70
673.60	574.72
673.94	570.89
674.28	567.27
674.62	563.48
674.96	559.76
675.30	556.26
675.64	552.66
675.97	549.01
676.31	545.37
676.65	541.78
676.99	538.47
677.33	534.61
677.67	530.91
678.01	527.09
678.34	523.50
678.68	519.97
679.02	516.44
679.36	512.79
679.70	509.04
680.04	505.47
680.37	502.04
680.71	498.73
681.05	495.54
681.39	492.27
681.73	489.12
682.06	486.12
682.40	482.95
682.74	479.74
683.08	476.53
683.42	473.26
683.75	470.17
684.09	467.06
684.43	464.22
684.77	461.33
685.10	458.40
685.44	455.44
685.78	452.53
686.12	449.70
686.45	446.90
686.79	444.26
687.13	441.69
687.46	439.11
687.80	436.42
688.14	433.57
688.48	430.95
688.81	428.21
689.15	425.56
689.49	422.98
689.82	420.45
690.16	417.84
690.50	415.40
690.83	412.95
691.17	410.38
691.51	407.91
691.84	405.57
692.18	403.27
692.52	401.06
692.85	398.87
693.19	396.73
693.52	394.56
693.86	392.36
694.20	390.15
694.53	387.95
694.87	385.73
695.21	383.61
695.54	381.44
695.88	379.32
696.21	377.12
696.55	374.98
696.88	372.90
697.22	370.91
697.56	369.00
697.89	367.08
698.23	365.30
698.56	363.44
698.90	361.69
699.23	359.89
699.57	358.01
699.90	356.14
700.24	354.26
700.58	352.52
700.91	350.83
701.25	349.24
701.58	347.67
701.92	346.05
702.25	344.43
702.59	342.75
702.92	341.13
703.26	339.56
703.59	338.02
703.93	336.72
704.26	335.28
704.60	333.75
704.93	332.27
705.26	330.77
705.60	329.31
705.93	327.72
706.27	326.32
706.60	324.99
706.94	323.78
707.27	322.40
707.61	321.01
707.94	319.61
708.27	318.05
708.61	316.50
708.94	315.10
709.28	313.77
709.61	312.50
709.94	311.26
710.28	310.04
710.61	308.82
710.95	307.38
711.28	306.27
711.61	305.10
711.95	303.98
712.28	302.78
712.61	301.58
712.95	300.52
713.28	299.47
713.61	298.33
713.95	297.10
714.28	296.03
714.61	294.97
714.95	293.94
715.28	292.91
715.61	291.89
715.95	290.93
716.28	289.98
716.61	289.04
716.95	288.02
717.28	287.06
717.61	286.11
717.94	285.19
718.28	284.14
718.61	283.24
718.94	282.32
719.27	281.44
719.61	280.61
719.94	279.76
720.27	278.80
720.60	277.90
720.94	277.12
721.27	276.36
721.60	275.65
721.93	274.90
722.27	274.28
722.60	273.62
722.93	272.88
723.26	272.16
723.59	271.40
723.93	270.79
724.26	270.12
724.59	269.45
724.92	268.85
725.25	268.31
725.59	267.72
725.92	267.18
726.25	266.59
726.58	266.04
726.91	265.42
727.24	264.88
727.57	264.32
727.91	263.73
728.24	263.20
728.57	262.62
728.90	262.10
729.23	261.43
729.56	260.96
729.89	260.44
730.22	259.90
730.55	259.40
730.89	258.87
731.22	258.30
731.55	257.79
731.88	257.28
732.21	256.71
732.54	256.16
732.87	255.62
733.20	255.14
733.53	254.62
733.86	254.16
734.19	253.65
734.52	253.20
734.85	252.86
735.18	252.37
735.51	251.99
735.84	251.53
736.17	251.15
736.50	250.61
736.83	250.43
737.16	250.03
737.49	249.63
737.82	249.19
738.15	248.82
738.48	248.42
738.81	248.00
739.14	247.55
739.47	247.15
739.80	246.77
740.13	246.44
740.46	246.02
740.79	245.60
741.12	245.25
741.45	244.90
741.78	244.50
742.11	244.19
742.44	243.79
742.77	243.51
743.10	243.14
743.43	242.79
743.75	242.19
744.08	242.10
744.41	241.74
744.74	241.40
745.07	241.02
745.40	240.72
745.73	240.48
746.06	240.18
746.39	239.89
746.71	239.53
747.04	239.14
747.37	238.86
747.70	238.60
748.03	238.27
748.36	237.97
748.68	237.60
749.01	237.27
749.34	236.97
749.67	236.65
750.00	236.39
750.33	236.28
750.65	236.03
750.98	235.50
751.31	235.25
751.64	235.03
751.97	234.91
752.29	234.62
752.62	234.29
752.95	234.01
753.28	233.76
753.60	233.52
753.93	233.35
754.26	233.11
754.59	232.86
754.91	232.64
755.24	232.41
755.57	232.21
755.90	231.96
756.22	231.71
756.55	231.48
756.88	231.21
757.20	230.83
757.53	230.58
757.86	230.37
758.19	230.16
758.51	229.93
758.84	229.59
759.17	229.39
759.49	229.18
759.82	229.11
760.15	228.93
760.47	228.78
760.80	228.51
761.13	228.34
761.45	228.14
761.78	227.94
762.11	227.75
762.43	227.53
762.76	227.36
763.08	227.22
763.41	227.05
763.74	226.92
764.06	226.78
764.39	226.64
764.71	226.44
765.04	226.28
765.37	226.13
765.69	226.01
766.02	225.87
766.34	225.76
766.67	225.56
767.00	225.45
767.32	225.42
767.65	225.43
767.97	225.28
768.30	225.13
768.62	225.02
768.95	224.86
769.27	224.74
769.60	224.66
769.92	224.47
770.25	224.32
770.57	224.16
770.90	224.03
771.22	223.89
771.55	223.81
771.87	223.73
772.20	223.63
772.52	223.68
772.85	223.81
773.17	223.67
773.50	223.54
773.82	223.39
774.15	223.15
774.47	222.93
774.80	222.83
775.12	222.73
775.45	222.64
775.77	222.57
776.09	222.50
776.42	222.40
776.74	222.36
777.07	222.26
777.39	222.16
777.72	222.06
778.04	221.97
778.36	221.88
778.69	221.76
779.01	221.66
779.33	221.40
779.66	221.11
779.98	221.01
780.31	220.94
780.63	220.96
780.95	220.92
781.28	220.83
781.60	220.73
781.92	220.67
782.25	220.58
782.57	220.50
782.89	220.35
783.22	220.26
783.54	220.17
783.86	220.11
784.19	220.03
784.51	220.03
784.83	219.98
785.16	219.93
785.48	219.87
785.80	219.81
786.12	219.76
