SpectraSuite Data File
++++++++++++++++++++++++++++++++++++
Date: Tue Jan 29 16:51:40 EST 2013
User: group
Dark Spectrum Present: No
Reference Spectrum Present: No
Number of Sampled Component Spectra: 1
Spectrometers: USB2E7196
Integration Time (usec): 65000 (USB2E7196)
Spectra Averaged: 100 (USB2E7196)
Boxcar Smoothing: 10 (USB2E7196)
Correct for Electrical Dark: No (USB2E7196)
Strobe/Lamp Enabled: No (USB2E7196)
Correct for Detector Non-linearity: No (USB2E7196)
Correct for Stray Light: No (USB2E7196)
Number of Pixels in Processed Spectrum: 2048
>>>>>Begin Processed Spectral Data<<<<<
339.09	0.00
339.48	201.29
339.86	203.04
340.24	203.66
340.63	205.38
341.01	209.98
341.39	208.08
341.78	210.09
342.16	211.80
342.54	211.51
342.93	200.60
343.31	210.72
343.69	211.27
344.07	211.73
344.46	212.21
344.84	212.63
345.22	212.81
345.60	213.10
345.99	213.30
346.37	213.41
346.75	213.55
347.13	213.61
347.52	213.69
347.90	213.80
348.28	213.89
348.66	214.01
349.05	213.98
349.43	214.05
349.81	214.11
350.19	214.15
350.57	214.24
350.96	214.36
351.34	214.51
351.72	214.63
352.10	214.74
352.48	214.81
352.87	214.86
353.25	214.93
353.63	214.99
354.01	215.05
354.39	215.15
354.77	215.21
355.15	215.37
355.54	215.40
355.92	215.40
356.30	215.46
356.68	215.67
357.06	215.77
357.44	215.81
357.82	215.87
358.20	215.95
358.58	216.01
358.97	216.08
359.35	216.17
359.73	216.21
360.11	216.29
360.49	216.34
360.87	216.42
361.25	216.54
361.63	216.66
362.01	216.72
362.39	216.72
362.77	216.76
363.15	216.76
363.53	216.79
363.91	216.85
364.29	216.84
364.67	216.65
365.05	216.68
365.43	216.73
365.81	216.77
366.19	216.87
366.57	216.99
366.95	216.98
367.33	216.93
367.71	216.99
368.09	217.00
368.47	216.98
368.85	216.93
369.23	216.93
369.61	216.84
369.99	216.86
370.37	216.90
370.75	216.98
371.13	216.93
371.51	216.88
371.89	216.88
372.27	216.89
372.65	216.90
373.03	216.89
373.41	216.82
373.78	216.76
374.16	216.62
374.54	216.50
374.92	216.41
375.30	216.40
375.68	216.28
376.06	216.25
376.44	216.23
376.82	216.19
377.19	216.11
377.57	216.04
377.95	215.98
378.33	215.90
378.71	215.71
379.09	215.71
379.47	215.68
379.84	215.61
380.22	215.56
380.60	215.48
380.98	215.42
381.36	215.38
381.73	215.34
382.11	215.33
382.49	215.28
382.87	215.21
383.25	215.15
383.62	215.36
384.00	215.28
384.38	215.23
384.76	215.26
385.13	215.30
385.51	215.26
385.89	215.16
386.27	215.16
386.64	215.18
387.02	215.10
387.40	215.11
387.78	215.06
388.15	215.04
388.53	215.00
388.91	214.96
389.29	214.94
389.66	214.93
390.04	214.88
390.42	214.92
390.79	214.94
391.17	214.93
391.55	214.70
391.92	214.71
392.30	214.73
392.68	214.70
393.05	214.70
393.43	214.72
393.81	214.74
394.18	214.69
394.56	214.69
394.94	214.76
395.31	214.73
395.69	214.81
396.06	214.87
396.44	214.91
396.82	214.90
397.19	215.03
397.57	215.06
397.95	215.13
398.32	215.11
398.70	215.16
399.07	215.23
399.45	215.27
399.82	215.32
400.20	215.37
400.58	215.42
400.95	215.37
401.33	215.46
401.70	215.70
402.08	215.80
402.45	215.91
402.83	216.01
403.20	216.11
403.58	216.20
403.95	216.33
404.33	216.48
404.71	216.67
405.08	216.92
405.46	217.06
405.83	217.27
406.21	217.47
406.58	217.74
406.96	217.97
407.33	218.24
407.70	218.53
408.08	218.97
408.45	219.31
408.83	219.74
409.20	220.10
409.58	220.35
409.95	220.82
410.33	221.31
410.70	221.73
411.08	222.29
411.45	222.86
411.82	223.45
412.20	224.16
412.57	224.98
412.95	225.55
413.32	226.40
413.69	227.27
414.07	228.16
414.44	229.10
414.82	230.14
415.19	231.30
415.56	232.49
415.94	233.67
416.31	235.10
416.68	236.51
417.06	238.09
417.43	239.65
417.81	241.40
418.18	243.19
418.55	245.16
418.93	247.21
419.30	249.34
419.67	251.60
420.04	253.91
420.42	256.31
420.79	259.13
421.16	261.96
421.54	264.81
421.91	267.84
422.28	270.98
422.66	274.26
423.03	277.60
423.40	280.99
423.77	284.60
424.15	288.28
424.52	292.17
424.89	296.36
425.26	300.48
425.64	304.39
426.01	308.65
426.38	313.16
426.75	317.71
427.13	322.46
427.50	327.42
427.87	332.62
428.24	337.84
428.61	342.84
428.99	348.38
429.36	354.44
429.73	360.34
430.10	366.25
430.47	372.39
430.85	378.68
431.22	385.39
431.59	392.51
431.96	399.36
432.33	406.85
432.70	414.18
433.08	422.74
433.45	430.84
433.82	438.97
434.19	447.89
434.56	456.68
434.93	465.06
435.30	473.42
435.68	482.58
436.05	491.58
436.42	500.58
436.79	508.75
437.16	517.57
437.53	526.88
437.90	536.12
438.27	545.16
438.64	554.39
439.01	562.96
439.38	570.61
439.75	577.96
440.13	586.44
440.50	594.47
440.87	600.97
441.24	607.64
441.61	614.97
441.98	620.38
442.35	626.76
442.72	633.10
443.09	639.16
443.46	642.93
443.83	645.54
444.20	647.71
444.57	650.97
444.94	652.48
445.31	653.97
445.68	655.31
446.05	655.91
446.42	655.14
446.79	654.23
447.16	653.19
447.53	652.48
447.90	649.13
448.27	645.83
448.64	641.17
449.01	637.83
449.37	631.98
449.74	626.31
450.11	619.36
450.48	611.98
450.85	604.53
451.22	598.05
451.59	591.83
451.96	585.99
452.33	578.03
452.70	570.90
453.07	562.32
453.43	553.73
453.80	545.36
454.17	537.40
454.54	529.77
454.91	521.53
455.28	513.43
455.65	505.98
456.02	498.40
456.38	491.99
456.75	484.11
457.12	477.43
457.49	470.86
457.86	464.65
458.23	459.19
458.59	453.21
458.96	447.15
459.33	441.81
459.70	436.40
460.07	432.09
460.43	427.12
460.80	422.51
461.17	418.46
461.54	414.25
461.91	410.17
462.27	406.03
462.64	402.63
463.01	398.92
463.38	395.20
463.74	391.50
464.11	388.26
464.48	385.42
464.85	382.29
465.21	379.82
465.58	377.15
465.95	374.03
466.32	371.37
466.68	368.75
467.05	366.17
467.42	363.60
467.78	360.89
468.15	358.34
468.52	356.45
468.88	353.88
469.25	351.66
469.62	349.86
469.98	347.92
470.35	346.03
470.72	344.28
471.08	342.46
471.45	340.93
471.82	339.30
472.18	337.59
472.55	336.38
472.92	335.03
473.28	333.76
473.65	332.56
474.02	331.44
474.38	330.55
474.75	329.79
475.11	328.92
475.48	328.33
475.85	327.84
476.21	327.33
476.58	327.00
476.94	326.71
477.31	326.34
477.67	326.06
478.04	325.89
478.41	325.80
478.77	325.96
479.14	325.89
479.50	326.03
479.87	326.37
480.23	326.69
480.60	326.86
480.96	327.14
481.33	327.76
481.69	328.33
482.06	328.84
482.42	329.31
482.79	329.91
483.15	330.71
483.52	331.64
483.88	332.52
484.25	333.44
484.61	334.44
484.98	335.51
485.34	336.81
485.71	338.16
486.07	339.60
486.44	340.86
486.80	342.48
487.17	344.14
487.53	345.95
487.90	347.81
488.26	349.88
488.62	352.09
488.99	354.08
489.35	356.22
489.72	358.60
490.08	361.10
490.44	363.75
490.81	366.49
491.17	369.18
491.54	372.16
491.90	375.18
492.26	378.44
492.63	381.84
492.99	385.28
493.36	389.01
493.72	392.89
494.08	396.91
494.45	401.10
494.81	405.46
495.17	409.83
495.54	414.51
495.90	419.22
496.26	424.08
496.63	429.28
496.99	434.68
497.35	440.19
497.72	446.01
498.08	451.84
498.44	457.83
498.80	464.27
499.17	470.77
499.53	477.50
499.89	484.33
500.26	491.35
500.62	498.46
500.98	505.83
501.34	513.31
501.71	521.14
502.07	528.95
502.43	536.97
502.79	545.10
503.16	553.49
503.52	562.13
503.88	570.76
504.24	579.64
504.60	588.69
504.97	597.95
505.33	607.23
505.69	617.11
506.05	627.00
506.41	636.83
506.78	646.84
507.14	657.04
507.50	667.49
507.86	678.11
508.22	688.85
508.59	699.48
508.95	710.51
509.31	721.66
509.67	733.08
510.03	744.38
510.39	756.13
510.75	767.91
511.12	779.75
511.48	791.88
511.84	804.15
512.20	816.48
512.56	829.07
512.92	841.86
513.28	854.46
513.64	867.20
514.00	880.03
514.37	892.99
514.73	906.15
515.09	919.14
515.45	932.04
515.81	945.15
516.17	958.49
516.53	971.73
516.89	984.91
517.25	998.08
517.61	1011.73
517.97	1025.05
518.33	1038.19
518.69	1051.82
519.05	1065.58
519.41	1079.36
519.77	1093.26
520.13	1106.68
520.49	1119.78
520.85	1133.25
521.21	1146.53
521.57	1160.21
521.93	1173.28
522.29	1186.96
522.65	1200.67
523.01	1214.31
523.37	1227.47
523.73	1240.89
524.09	1254.06
524.45	1267.47
524.81	1280.98
525.17	1294.37
525.53	1307.64
525.89	1320.98
526.25	1334.13
526.61	1346.98
526.97	1360.07
527.33	1373.04
527.68	1386.45
528.04	1400.09
528.40	1413.20
528.76	1426.65
529.12	1439.50
529.48	1452.88
529.84	1465.19
530.20	1477.89
530.56	1490.61
530.91	1503.78
531.27	1516.65
531.63	1529.32
531.99	1542.05
532.35	1554.29
532.71	1566.77
533.07	1579.74
533.42	1592.12
533.78	1604.35
534.14	1616.45
534.50	1627.76
534.86	1639.38
535.21	1650.41
535.57	1661.91
535.93	1673.21
536.29	1684.39
536.65	1696.09
537.00	1707.08
537.36	1718.57
537.72	1729.72
538.08	1741.12
538.44	1752.25
538.79	1763.45
539.15	1774.50
539.51	1785.49
539.87	1796.94
540.22	1807.70
540.58	1818.86
540.94	1829.76
541.29	1840.07
541.65	1849.99
542.01	1860.48
542.37	1870.74
542.72	1880.92
543.08	1890.70
543.44	1901.30
543.79	1910.61
544.15	1920.14
544.51	1930.25
544.87	1940.19
545.22	1949.35
545.58	1958.42
545.94	1967.34
546.29	1975.90
546.65	1984.44
547.01	1992.71
547.36	2000.43
547.72	2008.20
548.07	2015.66
548.43	2023.46
548.79	2031.40
549.14	2039.65
549.50	2048.25
549.86	2056.18
550.21	2063.72
550.57	2071.40
550.92	2078.27
551.28	2085.89
551.64	2093.07
551.99	2100.48
552.35	2107.66
552.70	2114.75
553.06	2121.35
553.41	2127.77
553.77	2134.29
554.13	2140.70
554.48	2147.76
554.84	2154.94
555.19	2161.64
555.55	2168.08
555.90	2174.40
556.26	2181.12
556.61	2187.31
556.97	2192.10
557.32	2197.79
557.68	2204.16
558.03	2210.10
558.39	2215.42
558.74	2221.26
559.10	2226.85
559.45	2232.49
559.81	2238.13
560.16	2243.57
560.52	2249.32
560.87	2255.64
561.23	2261.48
561.58	2268.09
561.94	2273.24
562.29	2277.68
562.64	2283.61
563.00	2289.13
563.35	2294.69
563.71	2300.40
564.06	2306.03
564.42	2311.94
564.77	2316.93
565.12	2322.06
565.48	2326.97
565.83	2332.43
566.19	2337.71
566.54	2342.82
566.89	2347.27
567.25	2351.61
567.60	2357.15
567.96	2362.25
568.31	2366.64
568.66	2370.84
569.02	2374.57
569.37	2378.19
569.72	2382.59
570.08	2385.90
570.43	2389.18
570.78	2392.14
571.14	2394.51
571.49	2397.35
571.84	2400.72
572.20	2403.57
572.55	2406.36
572.90	2408.48
573.26	2411.01
573.61	2413.51
573.96	2415.68
574.31	2417.59
574.67	2419.39
575.02	2420.01
575.37	2421.46
575.72	2422.02
576.08	2423.34
576.43	2423.39
576.78	2423.65
577.13	2425.14
577.49	2426.25
577.84	2426.82
578.19	2427.93
578.54	2428.33
578.90	2428.74
579.25	2428.46
579.60	2428.07
579.95	2427.12
580.30	2426.95
580.66	2426.20
581.01	2424.38
581.36	2421.71
581.71	2420.08
582.06	2418.74
582.42	2417.80
582.77	2415.23
583.12	2413.51
583.47	2411.88
583.82	2410.96
584.17	2409.55
584.53	2407.14
584.88	2404.78
585.23	2402.87
585.58	2400.44
585.93	2398.40
586.28	2396.01
586.63	2393.38
586.98	2391.10
587.34	2388.94
587.69	2386.40
588.04	2383.98
588.39	2382.31
588.74	2379.71
589.09	2376.75
589.44	2373.34
589.79	2370.62
590.14	2368.43
590.49	2365.40
590.84	2361.33
591.19	2358.06
591.54	2354.63
591.89	2350.58
592.25	2347.20
592.60	2342.76
592.95	2338.47
593.30	2334.10
593.65	2329.74
594.00	2325.23
594.35	2322.02
594.70	2317.37
595.05	2312.83
595.40	2307.51
595.75	2301.57
596.10	2297.97
596.45	2293.21
596.80	2288.56
597.15	2283.19
597.50	2277.24
597.85	2272.23
598.19	2267.08
598.54	2261.28
598.89	2255.95
599.24	2251.33
599.59	2245.22
599.94	2239.40
600.29	2233.37
600.64	2227.36
600.99	2220.40
601.34	2214.78
601.69	2207.77
602.04	2201.35
602.39	2194.67
602.74	2188.39
603.08	2182.91
603.43	2176.18
603.78	2169.24
604.13	2162.12
604.48	2154.89
604.83	2148.79
605.18	2142.52
605.53	2135.56
605.87	2128.43
606.22	2121.76
606.57	2113.71
606.92	2105.68
607.27	2098.71
607.62	2092.06
607.96	2085.17
608.31	2078.84
608.66	2071.13
609.01	2063.40
609.36	2056.35
609.70	2048.65
610.05	2040.85
610.40	2032.54
610.75	2024.31
611.10	2016.60
611.44	2007.79
611.79	1999.21
612.14	1989.25
612.49	1978.56
612.83	1969.20
613.18	1959.88
613.53	1950.57
613.88	1941.01
614.22	1932.49
614.57	1922.59
614.92	1912.00
615.27	1901.78
615.61	1891.58
615.96	1881.96
616.31	1872.55
616.65	1863.00
617.00	1853.36
617.35	1843.80
617.70	1834.20
618.04	1824.35
618.39	1814.27
618.74	1804.72
619.08	1794.99
619.43	1786.28
619.78	1778.19
620.12	1769.63
620.47	1760.33
620.82	1750.00
621.16	1740.44
621.51	1730.70
621.85	1721.05
622.20	1710.93
622.55	1700.49
622.89	1690.61
623.24	1681.02
623.59	1671.28
623.93	1661.29
624.28	1651.58
624.62	1641.67
624.97	1631.42
625.32	1621.66
625.66	1612.86
626.01	1604.25
626.35	1595.06
626.70	1585.14
627.04	1575.12
627.39	1565.11
627.73	1555.88
628.08	1547.08
628.43	1537.57
628.77	1528.31
629.12	1519.56
629.46	1511.81
629.81	1503.51
630.15	1494.24
630.50	1484.46
630.84	1474.10
631.19	1464.44
631.53	1455.25
631.88	1445.26
632.22	1435.38
632.57	1426.04
632.91	1416.03
633.26	1406.18
633.60	1396.70
633.95	1387.58
634.29	1378.18
634.64	1369.10
634.98	1359.33
635.32	1350.19
635.67	1341.85
636.01	1332.67
636.36	1323.08
636.70	1313.59
637.05	1304.34
637.39	1295.60
637.73	1287.11
638.08	1279.65
638.42	1271.51
638.77	1262.83
639.11	1254.54
639.45	1246.88
639.80	1238.62
640.14	1230.07
640.49	1221.32
640.83	1212.64
641.17	1204.49
641.52	1196.45
641.86	1187.85
642.20	1180.03
642.55	1171.42
642.89	1162.61
643.23	1154.06
643.58	1145.99
643.92	1137.06
644.26	1128.46
644.61	1119.99
644.95	1111.30
645.29	1102.22
645.64	1093.22
645.98	1084.67
646.32	1076.85
646.66	1068.38
647.01	1060.01
647.35	1051.93
647.69	1043.67
648.04	1035.44
648.38	1026.70
648.72	1018.11
649.06	1009.77
649.41	1001.63
649.75	993.84
650.09	986.03
650.43	978.09
650.78	969.81
651.12	962.12
651.46	954.73
651.80	947.51
652.14	940.28
652.49	932.77
652.83	925.46
653.17	917.85
653.51	910.32
653.85	903.13
654.20	895.95
654.54	888.55
654.88	881.42
655.22	874.22
655.56	867.29
655.90	860.45
656.25	853.84
656.59	847.07
656.93	840.10
657.27	833.03
657.61	826.07
657.95	819.98
658.29	814.10
658.64	808.02
658.98	801.60
659.32	795.04
659.66	788.92
660.00	782.52
660.34	776.47
660.68	770.37
661.02	764.01
661.36	758.06
661.70	752.22
662.05	746.56
662.39	741.18
662.73	735.73
663.07	730.40
663.41	724.77
663.75	718.90
664.09	713.22
664.43	707.75
664.77	702.47
665.11	696.71
665.45	690.87
665.79	685.05
666.13	679.42
666.47	673.99
666.81	668.51
667.15	663.13
667.49	657.96
667.83	652.71
668.17	647.57
668.51	642.49
668.85	637.62
669.19	632.73
669.53	627.64
669.87	622.49
670.21	617.66
670.55	612.98
670.89	608.64
671.23	604.28
671.57	599.92
671.91	595.55
672.25	591.40
672.58	587.35
672.92	583.30
673.26	579.39
673.60	575.48
673.94	571.62
674.28	568.04
674.62	564.30
674.96	560.54
675.30	556.98
675.64	553.30
675.97	549.63
676.31	546.06
676.65	542.46
676.99	539.11
677.33	535.26
677.67	531.61
678.01	527.75
678.34	524.11
678.68	520.56
679.02	517.01
679.36	513.34
679.70	509.57
680.04	505.97
680.37	502.47
680.71	499.10
681.05	495.86
681.39	492.56
681.73	489.34
682.06	486.32
682.40	483.16
682.74	479.93
683.08	476.74
683.42	473.45
683.75	470.41
684.09	467.39
684.43	464.63
684.77	461.66
685.10	458.79
685.44	455.85
685.78	452.90
686.12	450.08
686.45	447.31
686.79	444.61
687.13	442.05
687.46	439.40
687.80	436.71
688.14	433.90
688.48	431.26
688.81	428.57
689.15	425.94
689.49	423.39
689.82	420.81
690.16	418.21
690.50	415.75
690.83	413.28
691.17	410.64
691.51	408.12
691.84	405.85
692.18	403.58
692.52	401.34
692.85	399.21
693.19	397.10
693.52	394.91
693.86	392.67
694.20	390.43
694.53	388.29
694.87	386.09
695.21	383.92
695.54	381.76
695.88	379.57
696.21	377.32
696.55	375.13
696.88	373.07
697.22	371.07
697.56	369.14
697.89	367.20
698.23	365.47
698.56	363.65
698.90	361.84
699.23	359.95
699.57	358.05
699.90	356.14
700.24	354.20
700.58	352.45
700.91	350.78
701.25	349.22
701.58	347.55
701.92	345.90
702.25	344.27
702.59	342.61
702.92	341.04
703.26	339.50
703.59	337.98
703.93	336.70
704.26	335.22
704.60	333.69
704.93	332.16
705.26	330.64
705.60	329.14
705.93	327.58
706.27	326.23
706.60	324.98
706.94	323.77
707.27	322.39
707.61	321.00
707.94	319.63
708.27	318.09
708.61	316.67
708.94	315.27
709.28	313.96
709.61	312.74
709.94	311.51
710.28	310.25
710.61	309.06
710.95	307.65
711.28	306.54
711.61	305.38
711.95	304.22
712.28	303.00
712.61	301.80
712.95	300.74
713.28	299.67
713.61	298.50
713.95	297.34
714.28	296.34
714.61	295.25
714.95	294.20
715.28	293.16
715.61	292.06
715.95	291.11
716.28	290.14
716.61	289.09
716.95	288.06
717.28	287.15
717.61	286.17
717.94	285.21
718.28	284.17
718.61	283.29
718.94	282.43
719.27	281.56
719.61	280.71
719.94	279.85
720.27	278.88
720.60	277.98
720.94	277.14
721.27	276.35
721.60	275.67
721.93	274.95
722.27	274.31
722.60	273.68
722.93	272.94
723.26	272.27
723.59	271.59
723.93	270.96
724.26	270.32
724.59	269.68
724.92	269.05
725.25	268.50
725.59	267.87
725.92	267.29
726.25	266.71
726.58	266.13
726.91	265.49
727.24	264.94
727.57	264.35
727.91	263.72
728.24	263.15
728.57	262.55
728.90	261.99
729.23	261.30
729.56	260.84
729.89	260.31
730.22	259.74
730.55	259.19
730.89	258.64
731.22	258.09
731.55	257.56
731.88	257.05
732.21	256.48
732.54	255.93
732.87	255.39
733.20	254.93
733.53	254.46
733.86	254.00
734.19	253.49
734.52	253.07
734.85	252.78
735.18	252.29
735.51	251.89
735.84	251.49
736.17	251.15
736.50	250.60
736.83	250.46
737.16	250.05
737.49	249.70
737.82	249.27
738.15	248.89
738.48	248.48
738.81	248.09
739.14	247.66
739.47	247.31
739.80	246.92
740.13	246.55
740.46	246.14
740.79	245.75
741.12	245.40
741.45	245.00
741.78	244.53
742.11	244.24
742.44	243.87
742.77	243.53
743.10	243.15
743.43	242.85
743.75	242.23
744.08	242.14
744.41	241.76
744.74	241.41
745.07	241.01
745.40	240.74
745.73	240.45
746.06	240.16
746.39	239.83
746.71	239.46
747.04	239.06
747.37	238.72
747.70	238.44
748.03	238.14
748.36	237.86
748.68	237.55
749.01	237.18
749.34	236.89
749.67	236.60
750.00	236.32
750.33	236.17
750.65	235.91
750.98	235.39
751.31	235.15
751.64	234.97
751.97	234.88
752.29	234.57
752.62	234.22
752.95	233.95
753.28	233.69
753.60	233.50
753.93	233.37
754.26	233.17
754.59	232.89
754.91	232.65
755.24	232.38
755.57	232.17
755.90	231.97
756.22	231.70
756.55	231.44
756.88	231.19
757.20	230.81
757.53	230.58
757.86	230.37
758.19	230.17
758.51	229.97
758.84	229.64
759.17	229.43
759.49	229.29
759.82	229.19
760.15	229.02
760.47	228.83
760.80	228.55
761.13	228.39
761.45	228.19
761.78	228.00
762.11	227.85
762.43	227.66
762.76	227.48
763.08	227.33
763.41	227.16
763.74	227.03
764.06	226.88
764.39	226.69
764.71	226.52
765.04	226.36
765.37	226.18
765.69	226.03
766.02	225.93
766.34	225.76
766.67	225.57
767.00	225.45
767.32	225.41
767.65	225.39
767.97	225.26
768.30	225.14
768.62	225.01
768.95	224.87
769.27	224.74
769.60	224.63
769.92	224.49
770.25	224.33
770.57	224.20
770.90	224.06
771.22	223.92
771.55	223.79
771.87	223.69
772.20	223.53
772.52	223.56
772.85	223.67
773.17	223.58
773.50	223.44
773.82	223.28
774.15	223.09
774.47	222.88
774.80	222.73
775.12	222.62
775.45	222.50
775.77	222.39
776.09	222.31
776.42	222.25
776.74	222.21
777.07	222.14
777.39	222.03
777.72	221.93
778.04	221.92
778.36	221.84
778.69	221.72
779.01	221.69
779.33	221.46
779.66	221.14
779.98	221.03
780.31	220.99
780.63	221.04
780.95	221.00
781.28	220.92
781.60	220.84
781.92	220.79
782.25	220.74
782.57	220.71
782.89	220.64
783.22	220.54
783.54	220.43
783.86	220.34
784.19	220.27
784.51	220.29
784.83	220.17
785.16	220.10
785.48	220.06
785.80	219.96
786.12	219.92
