SpectraSuite Data File
++++++++++++++++++++++++++++++++++++
Date: Tue Jan 29 16:52:40 EST 2013
User: group
Dark Spectrum Present: No
Reference Spectrum Present: No
Number of Sampled Component Spectra: 1
Spectrometers: USB2E7196
Integration Time (usec): 65000 (USB2E7196)
Spectra Averaged: 100 (USB2E7196)
Boxcar Smoothing: 10 (USB2E7196)
Correct for Electrical Dark: No (USB2E7196)
Strobe/Lamp Enabled: No (USB2E7196)
Correct for Detector Non-linearity: No (USB2E7196)
Correct for Stray Light: No (USB2E7196)
Number of Pixels in Processed Spectrum: 2048
>>>>>Begin Processed Spectral Data<<<<<
339.09	0.00
339.48	201.20
339.86	202.80
340.24	204.72
340.63	206.18
341.01	210.23
341.39	208.00
341.78	209.98
342.16	211.38
342.54	210.74
342.93	200.57
343.31	210.71
343.69	211.24
344.07	211.66
344.46	212.10
344.84	212.48
345.22	212.67
345.60	212.94
345.99	213.12
346.37	213.22
346.75	213.35
347.13	213.46
347.52	213.53
347.90	213.68
348.28	213.68
348.66	213.79
349.05	213.76
349.43	213.81
349.81	213.89
350.19	213.96
350.57	214.02
350.96	214.14
351.34	214.24
351.72	214.36
352.10	214.48
352.48	214.51
352.87	214.55
353.25	214.59
353.63	214.63
354.01	214.70
354.39	214.81
354.77	214.92
355.15	215.01
355.54	215.05
355.92	215.04
356.30	215.14
356.68	215.32
357.06	215.42
357.44	215.45
357.82	215.51
358.20	215.60
358.58	215.65
358.97	215.71
359.35	215.82
359.73	215.93
360.11	216.02
360.49	216.13
360.87	216.20
361.25	216.28
361.63	216.41
362.01	216.51
362.39	216.54
362.77	216.60
363.15	216.66
363.53	216.71
363.91	216.75
364.29	216.79
364.67	216.61
365.05	216.64
365.43	216.70
365.81	216.75
366.19	216.85
366.57	216.98
366.95	216.97
367.33	216.92
367.71	216.92
368.09	216.96
368.47	216.96
368.85	216.95
369.23	216.99
369.61	216.92
369.99	216.96
370.37	216.97
370.75	217.02
371.13	216.95
371.51	216.91
371.89	216.94
372.27	216.91
372.65	216.90
373.03	216.89
373.41	216.86
373.78	216.80
374.16	216.64
374.54	216.53
374.92	216.47
375.30	216.46
375.68	216.35
376.06	216.32
376.44	216.25
376.82	216.24
377.19	216.20
377.57	216.15
377.95	216.03
378.33	215.97
378.71	215.81
379.09	215.78
379.47	215.77
379.84	215.68
380.22	215.64
380.60	215.56
380.98	215.48
381.36	215.42
381.73	215.38
382.11	215.38
382.49	215.32
382.87	215.25
383.25	215.19
383.62	215.40
384.00	215.31
384.38	215.28
384.76	215.29
385.13	215.31
385.51	215.28
385.89	215.24
386.27	215.21
386.64	215.23
387.02	215.22
387.40	215.16
387.78	215.13
388.15	215.11
388.53	215.10
388.91	215.07
389.29	215.05
389.66	215.06
390.04	215.03
390.42	215.08
390.79	215.11
391.17	215.12
391.55	214.87
391.92	214.86
392.30	214.85
392.68	214.78
393.05	214.76
393.43	214.76
393.81	214.75
394.18	214.72
394.56	214.71
394.94	214.70
395.31	214.69
395.69	214.77
396.06	214.80
396.44	214.83
396.82	214.84
397.19	214.93
397.57	214.93
397.95	215.01
398.32	214.94
398.70	214.95
399.07	215.06
399.45	215.09
399.82	215.15
400.20	215.24
400.58	215.28
400.95	215.28
401.33	215.37
401.70	215.62
402.08	215.71
402.45	215.81
402.83	215.95
403.20	216.07
403.58	216.13
403.95	216.29
404.33	216.44
404.71	216.57
405.08	216.84
405.46	217.05
405.83	217.24
406.21	217.48
406.58	217.75
406.96	217.92
407.33	218.23
407.70	218.54
408.08	218.97
408.45	219.35
408.83	219.71
409.20	220.07
409.58	220.34
409.95	220.82
410.33	221.27
410.70	221.72
411.08	222.28
411.45	222.87
411.82	223.44
412.20	224.16
412.57	225.01
412.95	225.60
413.32	226.39
413.69	227.24
414.07	228.12
414.44	229.10
414.82	230.12
415.19	231.27
415.56	232.42
415.94	233.60
416.31	235.00
416.68	236.41
417.06	238.03
417.43	239.59
417.81	241.36
418.18	243.18
418.55	245.15
418.93	247.19
419.30	249.29
419.67	251.52
420.04	253.80
420.42	256.19
420.79	259.03
421.16	261.83
421.54	264.76
421.91	267.79
422.28	270.90
422.66	274.23
423.03	277.53
423.40	280.94
423.77	284.56
424.15	288.22
424.52	292.11
424.89	296.31
425.26	300.39
425.64	304.28
426.01	308.60
426.38	313.07
426.75	317.66
427.13	322.42
427.50	327.46
427.87	332.67
428.24	337.87
428.61	342.85
428.99	348.36
429.36	354.41
429.73	360.33
430.10	366.23
430.47	372.34
430.85	378.66
431.22	385.40
431.59	392.58
431.96	399.47
432.33	406.96
432.70	414.21
433.08	422.78
433.45	430.82
433.82	438.83
434.19	447.71
434.56	456.44
434.93	464.81
435.30	473.11
435.68	482.29
436.05	491.34
436.42	500.37
436.79	508.61
437.16	517.39
437.53	526.68
437.90	535.91
438.27	544.88
438.64	554.10
439.01	562.63
439.38	570.21
439.75	577.60
440.13	586.04
440.50	594.07
440.87	600.57
441.24	607.32
441.61	614.75
441.98	620.23
442.35	626.62
442.72	633.00
443.09	639.09
443.46	642.87
443.83	645.41
444.20	647.57
444.57	650.72
444.94	652.22
445.31	653.73
445.68	655.09
446.05	655.80
446.42	655.05
446.79	654.17
447.16	653.16
447.53	652.35
447.90	649.06
448.27	645.79
448.64	641.11
449.01	637.84
449.37	631.85
449.74	626.11
450.11	619.19
450.48	611.83
450.85	604.40
451.22	597.91
451.59	591.81
451.96	585.94
452.33	578.08
452.70	570.89
453.07	562.39
453.43	553.77
453.80	545.42
454.17	537.40
454.54	529.78
454.91	521.54
455.28	513.53
455.65	506.05
456.02	498.45
456.38	492.03
456.75	484.03
457.12	477.43
457.49	470.89
457.86	464.64
458.23	459.15
458.59	453.14
458.96	447.06
459.33	441.64
459.70	436.19
460.07	431.87
460.43	426.91
460.80	422.25
461.17	418.18
461.54	413.94
461.91	409.86
462.27	405.74
462.64	402.27
463.01	398.40
463.38	394.70
463.74	391.02
464.11	387.78
464.48	384.91
464.85	381.84
465.21	379.41
465.58	376.78
465.95	373.63
466.32	371.02
466.68	368.40
467.05	365.82
467.42	363.30
467.78	360.59
468.15	358.04
468.52	356.15
468.88	353.66
469.25	351.45
469.62	349.64
469.98	347.64
470.35	345.79
470.72	344.09
471.08	342.33
471.45	340.77
471.82	339.24
472.18	337.53
472.55	336.32
472.92	334.90
473.28	333.68
473.65	332.48
474.02	331.31
474.38	330.42
474.75	329.64
475.11	328.80
475.48	328.20
475.85	327.73
476.21	327.21
476.58	326.85
476.94	326.58
477.31	326.27
477.67	326.00
478.04	325.84
478.41	325.83
478.77	325.92
479.14	325.86
479.50	325.98
479.87	326.32
480.23	326.60
480.60	326.82
480.96	327.04
481.33	327.64
481.69	328.21
482.06	328.73
482.42	329.22
482.79	329.79
483.15	330.61
483.52	331.56
483.88	332.45
484.25	333.37
484.61	334.38
484.98	335.38
485.34	336.69
485.71	338.05
486.07	339.42
486.44	340.79
486.80	342.42
487.17	344.08
487.53	345.86
487.90	347.69
488.26	349.74
488.62	351.91
488.99	353.98
489.35	356.10
489.72	358.48
490.08	360.97
490.44	363.59
490.81	366.28
491.17	369.00
491.54	371.95
491.90	374.96
492.26	378.22
492.63	381.66
492.99	385.19
493.36	388.90
493.72	392.81
494.08	396.79
494.45	401.00
494.81	405.37
495.17	409.83
495.54	414.56
495.90	419.35
496.26	424.27
496.63	429.44
496.99	434.80
497.35	440.36
497.72	446.16
498.08	452.02
498.44	458.07
498.80	464.50
499.17	470.98
499.53	477.71
499.89	484.55
500.26	491.51
500.62	498.57
500.98	505.90
501.34	513.29
501.71	521.08
502.07	528.83
502.43	536.75
502.79	544.89
503.16	553.34
503.52	561.88
503.88	570.58
504.24	579.50
504.60	588.58
504.97	597.80
505.33	607.01
505.69	616.90
506.05	626.79
506.41	636.58
506.78	646.63
507.14	656.78
507.50	667.26
507.86	677.83
508.22	688.45
508.59	699.16
508.95	710.20
509.31	721.36
509.67	732.82
510.03	744.16
510.39	755.79
510.75	767.46
511.12	779.30
511.48	791.30
511.84	803.53
512.20	815.80
512.56	828.47
512.92	841.32
513.28	853.98
513.64	866.81
514.00	879.55
514.37	892.48
514.73	905.67
515.09	918.63
515.45	931.65
515.81	944.80
516.17	958.17
516.53	971.38
516.89	984.42
517.25	997.51
517.61	1011.09
517.97	1024.54
518.33	1037.68
518.69	1051.27
519.05	1065.06
519.41	1078.76
519.77	1092.72
520.13	1106.00
520.49	1119.09
520.85	1132.36
521.21	1145.51
521.57	1159.27
521.93	1172.35
522.29	1186.07
522.65	1199.69
523.01	1213.35
523.37	1226.57
523.73	1239.88
524.09	1253.21
524.45	1266.76
524.81	1280.42
525.17	1293.83
525.53	1307.04
525.89	1320.49
526.25	1333.70
526.61	1346.58
526.97	1359.78
527.33	1372.80
527.68	1386.35
528.04	1399.92
528.40	1413.14
528.76	1426.68
529.12	1439.64
529.48	1452.98
529.84	1465.35
530.20	1478.18
530.56	1490.73
530.91	1503.99
531.27	1516.97
531.63	1529.61
531.99	1542.38
532.35	1554.70
532.71	1567.21
533.07	1580.24
533.42	1592.40
533.78	1604.50
534.14	1616.63
534.50	1627.84
534.86	1639.35
535.21	1650.25
535.57	1661.84
535.93	1673.16
536.29	1684.22
536.65	1695.74
537.00	1706.79
537.36	1718.26
537.72	1729.33
538.08	1740.83
538.44	1751.84
538.79	1762.98
539.15	1774.09
539.51	1784.96
539.87	1796.24
540.22	1807.07
540.58	1818.04
540.94	1829.05
541.29	1839.41
541.65	1849.30
542.01	1859.86
542.37	1870.02
542.72	1880.27
543.08	1890.03
543.44	1900.74
543.79	1910.01
544.15	1919.50
544.51	1929.48
544.87	1939.32
545.22	1948.51
545.58	1957.50
545.94	1966.41
546.29	1975.04
546.65	1983.53
547.01	1991.76
547.36	1999.54
547.72	2007.40
548.07	2014.87
548.43	2022.74
548.79	2030.74
549.14	2038.85
549.50	2047.42
549.86	2055.38
550.21	2062.75
550.57	2070.63
550.92	2077.32
551.28	2084.94
551.64	2092.12
551.99	2099.64
552.35	2106.95
552.70	2113.98
553.06	2120.60
553.41	2126.96
553.77	2133.35
554.13	2139.55
554.48	2146.63
554.84	2153.68
555.19	2160.22
555.55	2166.78
555.90	2172.97
556.26	2179.88
556.61	2186.10
556.97	2190.97
557.32	2196.69
557.68	2203.01
558.03	2208.72
558.39	2214.15
558.74	2220.12
559.10	2225.81
559.45	2231.42
559.81	2236.84
560.16	2242.17
560.52	2247.96
560.87	2254.34
561.23	2260.17
561.58	2266.95
561.94	2272.16
562.29	2276.90
562.64	2282.77
563.00	2288.48
563.35	2294.03
563.71	2299.43
564.06	2304.92
564.42	2310.70
564.77	2315.71
565.12	2321.06
565.48	2326.10
565.83	2331.37
566.19	2336.55
566.54	2341.68
566.89	2346.14
567.25	2350.67
567.60	2356.37
567.96	2361.45
568.31	2365.87
568.66	2370.15
569.02	2373.90
569.37	2377.51
569.72	2381.80
570.08	2385.15
570.43	2388.04
570.78	2391.04
571.14	2393.46
571.49	2396.48
571.84	2399.92
572.20	2402.81
572.55	2405.55
572.90	2407.68
573.26	2410.30
573.61	2412.81
573.96	2414.91
574.31	2416.79
574.67	2418.58
575.02	2419.12
575.37	2420.45
575.72	2420.98
576.08	2422.16
576.43	2422.18
576.78	2422.28
577.13	2423.62
577.49	2424.83
577.84	2425.59
578.19	2426.55
578.54	2427.05
578.90	2427.53
579.25	2427.04
579.60	2426.62
579.95	2425.62
580.30	2425.30
580.66	2424.44
581.01	2422.64
581.36	2419.89
581.71	2418.41
582.06	2416.99
582.42	2415.98
582.77	2413.45
583.12	2411.58
583.47	2409.99
583.82	2409.11
584.17	2407.80
584.53	2405.39
584.88	2402.97
585.23	2400.88
585.58	2398.55
585.93	2396.42
586.28	2394.04
586.63	2391.51
586.98	2389.26
587.34	2387.17
587.69	2384.77
588.04	2382.40
588.39	2380.71
588.74	2378.18
589.09	2375.11
589.44	2371.71
589.79	2368.93
590.14	2366.92
590.49	2364.04
590.84	2360.04
591.19	2356.66
591.54	2353.22
591.89	2349.13
592.25	2345.65
592.60	2341.50
592.95	2337.15
593.30	2332.81
593.65	2328.29
594.00	2323.77
594.35	2320.61
594.70	2315.93
595.05	2311.30
595.40	2305.90
595.75	2299.96
596.10	2296.19
596.45	2291.33
596.80	2286.74
597.15	2281.66
597.50	2275.62
597.85	2270.57
598.19	2265.36
598.54	2259.62
598.89	2254.42
599.24	2249.81
599.59	2243.76
599.94	2237.71
600.29	2231.96
600.64	2225.94
600.99	2219.12
601.34	2213.64
601.69	2206.53
602.04	2200.04
602.39	2193.19
602.74	2187.04
603.08	2181.64
603.43	2175.29
603.78	2168.46
604.13	2161.32
604.48	2153.95
604.83	2147.88
605.18	2141.66
605.53	2134.78
605.87	2127.71
606.22	2120.81
606.57	2112.86
606.92	2104.84
607.27	2098.06
607.62	2091.19
607.96	2084.26
608.31	2077.85
608.66	2070.08
609.01	2062.47
609.36	2055.33
609.70	2047.74
610.05	2039.95
610.40	2031.56
610.75	2023.12
611.10	2015.36
611.44	2006.48
611.79	1997.80
612.14	1987.78
612.49	1977.07
612.83	1967.62
613.18	1958.36
613.53	1949.05
613.88	1939.49
614.22	1930.89
614.57	1920.96
614.92	1910.41
615.27	1900.12
615.61	1889.94
615.96	1880.30
616.31	1870.81
616.65	1861.41
617.00	1851.84
617.35	1842.29
617.70	1832.65
618.04	1822.76
618.39	1812.77
618.74	1803.10
619.08	1793.55
619.43	1784.97
619.78	1776.89
620.12	1768.40
620.47	1758.97
620.82	1748.83
621.16	1739.18
621.51	1729.45
621.85	1719.80
622.20	1709.72
622.55	1699.23
622.89	1689.41
623.24	1679.85
623.59	1670.13
623.93	1660.19
624.28	1650.29
624.62	1640.31
624.97	1630.17
625.32	1620.46
625.66	1611.55
626.01	1603.01
626.35	1593.78
626.70	1583.79
627.04	1573.85
627.39	1563.81
627.73	1554.66
628.08	1545.80
628.43	1536.33
628.77	1527.15
629.12	1518.37
629.46	1510.58
629.81	1502.48
630.15	1493.19
630.50	1483.49
630.84	1473.08
631.19	1463.23
631.53	1454.30
631.88	1444.19
632.22	1434.28
632.57	1425.05
632.91	1415.18
633.26	1405.45
633.60	1395.93
633.95	1386.83
634.29	1377.40
634.64	1368.22
634.98	1358.32
635.32	1349.18
635.67	1340.89
636.01	1331.71
636.36	1322.05
636.70	1312.81
637.05	1303.59
637.39	1294.83
637.73	1286.29
638.08	1278.90
638.42	1270.97
638.77	1262.28
639.11	1254.25
639.45	1246.59
639.80	1238.23
640.14	1229.58
640.49	1220.77
640.83	1212.02
641.17	1203.86
641.52	1195.85
641.86	1187.35
642.20	1179.58
642.55	1171.08
642.89	1162.25
643.23	1153.74
643.58	1145.75
643.92	1136.68
644.26	1127.90
644.61	1119.48
644.95	1110.74
645.29	1101.70
645.64	1092.55
645.98	1084.09
646.32	1076.18
646.66	1067.77
647.01	1059.46
647.35	1051.40
647.69	1043.20
648.04	1035.10
648.38	1026.39
648.72	1017.74
649.06	1009.36
649.41	1001.27
649.75	993.43
650.09	985.59
650.43	977.70
650.78	969.35
651.12	961.68
651.46	954.38
651.80	947.19
652.14	940.00
652.49	932.43
652.83	925.14
653.17	917.49
653.51	909.90
653.85	902.70
654.20	895.59
654.54	888.16
654.88	880.95
655.22	873.76
655.56	866.84
655.90	860.03
656.25	853.47
656.59	846.64
656.93	839.70
657.27	832.65
657.61	825.60
657.95	819.54
658.29	813.60
658.64	807.57
658.98	801.11
659.32	794.64
659.66	788.51
660.00	782.19
660.34	776.09
660.68	769.95
661.02	763.56
661.36	757.50
661.70	751.79
662.05	746.19
662.39	740.74
662.73	735.33
663.07	730.01
663.41	724.47
663.75	718.75
664.09	713.04
664.43	707.55
664.77	702.31
665.11	696.52
665.45	690.67
665.79	684.91
666.13	679.28
666.47	673.75
666.81	668.24
667.15	662.81
667.49	657.67
667.83	652.52
668.17	647.27
668.51	642.17
668.85	637.24
669.19	632.31
669.53	627.26
669.87	622.11
670.21	617.30
670.55	612.50
670.89	608.05
671.23	603.77
671.57	599.42
671.91	595.12
672.25	590.94
672.58	586.81
672.92	582.65
673.26	578.68
673.60	574.83
673.94	571.08
674.28	567.54
674.62	563.82
674.96	560.02
675.30	556.63
675.64	552.97
675.97	549.29
676.31	545.70
676.65	542.16
676.99	538.79
677.33	534.92
677.67	531.29
678.01	527.38
678.34	523.67
678.68	520.17
679.02	516.49
679.36	512.90
679.70	509.29
680.04	505.76
680.37	502.32
680.71	498.93
681.05	495.73
681.39	492.42
681.73	489.21
682.06	486.19
682.40	483.07
682.74	479.85
683.08	476.67
683.42	473.43
683.75	470.33
684.09	467.23
684.43	464.42
684.77	461.50
685.10	458.66
685.44	455.75
685.78	452.80
686.12	450.05
686.45	447.23
686.79	444.52
687.13	441.91
687.46	439.25
687.80	436.58
688.14	433.67
688.48	431.01
688.81	428.29
689.15	425.68
689.49	423.02
689.82	420.51
690.16	417.88
690.50	415.43
690.83	412.92
691.17	410.38
691.51	407.87
691.84	405.52
692.18	403.27
692.52	401.05
692.85	398.92
693.19	396.77
693.52	394.61
693.86	392.37
694.20	390.16
694.53	388.00
694.87	385.78
695.21	383.65
695.54	381.48
695.88	379.29
696.21	377.05
696.55	374.92
696.88	372.83
697.22	370.84
697.56	368.94
697.89	367.01
698.23	365.24
698.56	363.44
698.90	361.71
699.23	359.78
699.57	357.87
699.90	355.93
700.24	354.09
700.58	352.32
700.91	350.61
701.25	349.06
701.58	347.46
701.92	345.87
702.25	344.23
702.59	342.61
702.92	341.08
703.26	339.52
703.59	338.01
703.93	336.70
704.26	335.25
704.60	333.73
704.93	332.22
705.26	330.71
705.60	329.19
705.93	327.61
706.27	326.30
706.60	324.99
706.94	323.78
707.27	322.36
707.61	320.97
707.94	319.61
708.27	318.06
708.61	316.57
708.94	315.18
709.28	313.89
709.61	312.61
709.94	311.38
710.28	310.18
710.61	309.00
710.95	307.56
711.28	306.45
711.61	305.25
711.95	304.11
712.28	302.86
712.61	301.66
712.95	300.59
713.28	299.46
713.61	298.33
713.95	297.14
714.28	296.11
714.61	295.08
714.95	294.08
715.28	293.02
715.61	291.99
715.95	291.04
716.28	290.03
716.61	289.05
716.95	288.04
717.28	287.09
717.61	286.09
717.94	285.18
718.28	284.15
718.61	283.24
718.94	282.35
719.27	281.51
719.61	280.71
719.94	279.84
720.27	278.91
720.60	278.05
720.94	277.25
721.27	276.48
721.60	275.78
721.93	275.02
722.27	274.37
722.60	273.69
722.93	272.92
723.26	272.31
723.59	271.63
723.93	270.99
724.26	270.29
724.59	269.59
724.92	268.99
725.25	268.49
725.59	267.92
725.92	267.40
726.25	266.84
726.58	266.25
726.91	265.66
727.24	265.10
727.57	264.52
727.91	263.89
728.24	263.35
728.57	262.73
728.90	262.17
729.23	261.54
729.56	261.09
729.89	260.57
730.22	259.95
730.55	259.40
730.89	258.89
731.22	258.38
731.55	257.89
731.88	257.34
732.21	256.69
732.54	256.10
732.87	255.56
733.20	255.03
733.53	254.56
733.86	254.09
734.19	253.63
734.52	253.15
734.85	252.83
735.18	252.32
735.51	251.95
735.84	251.53
736.17	251.17
736.50	250.62
736.83	250.45
737.16	250.06
737.49	249.67
737.82	249.21
738.15	248.84
738.48	248.44
738.81	248.03
739.14	247.63
739.47	247.29
739.80	246.91
740.13	246.58
740.46	246.17
740.79	245.79
741.12	245.40
741.45	245.03
741.78	244.59
742.11	244.32
742.44	243.94
742.77	243.62
743.10	243.24
743.43	242.90
743.75	242.33
744.08	242.29
744.41	241.93
744.74	241.61
745.07	241.20
745.40	240.92
745.73	240.69
746.06	240.38
746.39	240.08
746.71	239.73
747.04	239.35
747.37	239.01
747.70	238.72
748.03	238.44
748.36	238.19
748.68	237.87
749.01	237.51
749.34	237.19
749.67	236.89
750.00	236.63
750.33	236.51
750.65	236.20
750.98	235.65
751.31	235.40
751.64	235.14
751.97	235.05
752.29	234.78
752.62	234.39
752.95	234.12
753.28	233.82
753.60	233.57
753.93	233.38
754.26	233.18
754.59	232.90
754.91	232.61
755.24	232.34
755.57	232.09
755.90	231.87
756.22	231.62
756.55	231.34
756.88	231.08
757.20	230.71
757.53	230.47
757.86	230.23
758.19	230.02
758.51	229.80
758.84	229.45
759.17	229.23
759.49	229.10
759.82	229.03
760.15	228.88
760.47	228.71
760.80	228.46
761.13	228.29
761.45	228.11
761.78	227.94
762.11	227.77
762.43	227.59
762.76	227.41
763.08	227.27
763.41	227.13
763.74	226.98
764.06	226.82
764.39	226.68
764.71	226.54
765.04	226.36
765.37	226.20
765.69	226.04
766.02	225.90
766.34	225.70
766.67	225.49
767.00	225.36
767.32	225.29
767.65	225.27
767.97	225.10
768.30	224.98
768.62	224.85
768.95	224.69
769.27	224.58
769.60	224.47
769.92	224.32
770.25	224.15
770.57	223.98
770.90	223.85
771.22	223.68
771.55	223.55
771.87	223.42
772.20	223.30
772.52	223.39
772.85	223.50
773.17	223.40
773.50	223.28
773.82	223.14
774.15	222.92
774.47	222.73
774.80	222.64
775.12	222.55
775.45	222.44
775.77	222.36
776.09	222.25
776.42	222.15
776.74	222.10
777.07	222.01
777.39	221.94
777.72	221.84
778.04	221.83
778.36	221.75
778.69	221.72
779.01	221.63
779.33	221.37
779.66	221.05
779.98	220.97
780.31	220.90
780.63	220.92
780.95	220.94
781.28	220.84
781.60	220.74
781.92	220.67
782.25	220.59
782.57	220.52
782.89	220.47
783.22	220.38
783.54	220.28
783.86	220.23
784.19	220.17
784.51	220.20
784.83	220.05
785.16	220.01
785.48	219.93
785.80	219.88
786.12	219.84
