SpectraSuite Data File
++++++++++++++++++++++++++++++++++++
Date: Tue Jan 29 16:49:40 EST 2013
User: group
Dark Spectrum Present: No
Reference Spectrum Present: No
Number of Sampled Component Spectra: 1
Spectrometers: USB2E7196
Integration Time (usec): 65000 (USB2E7196)
Spectra Averaged: 100 (USB2E7196)
Boxcar Smoothing: 10 (USB2E7196)
Correct for Electrical Dark: No (USB2E7196)
Strobe/Lamp Enabled: No (USB2E7196)
Correct for Detector Non-linearity: No (USB2E7196)
Correct for Stray Light: No (USB2E7196)
Number of Pixels in Processed Spectrum: 2048
>>>>>Begin Processed Spectral Data<<<<<
339.09	0.00
339.48	201.17
339.86	203.24
340.24	204.26
340.63	206.20
341.01	210.17
341.39	208.78
341.78	210.25
342.16	211.07
342.54	211.65
342.93	200.83
343.31	210.99
343.69	211.55
344.07	211.98
344.46	212.43
344.84	212.81
345.22	213.01
345.60	213.27
345.99	213.46
346.37	213.57
346.75	213.65
347.13	213.75
347.52	213.86
347.90	214.00
348.28	213.99
348.66	214.08
349.05	214.02
349.43	214.09
349.81	214.18
350.19	214.24
350.57	214.30
350.96	214.40
351.34	214.50
351.72	214.62
352.10	214.73
352.48	214.78
352.87	214.81
353.25	214.85
353.63	214.89
354.01	214.96
354.39	215.11
354.77	215.20
355.15	215.27
355.54	215.26
355.92	215.25
356.30	215.33
356.68	215.54
357.06	215.64
357.44	215.67
357.82	215.71
358.20	215.78
358.58	215.86
358.97	215.94
359.35	216.03
359.73	216.11
360.11	216.17
360.49	216.25
360.87	216.32
361.25	216.38
361.63	216.51
362.01	216.56
362.39	216.58
362.77	216.62
363.15	216.68
363.53	216.74
363.91	216.77
364.29	216.80
364.67	216.64
365.05	216.68
365.43	216.72
365.81	216.78
366.19	216.88
366.57	216.96
366.95	216.94
367.33	216.89
367.71	216.87
368.09	216.91
368.47	216.90
368.85	216.94
369.23	216.96
369.61	216.90
369.99	216.91
370.37	216.90
370.75	217.03
371.13	216.96
371.51	216.92
371.89	216.93
372.27	216.89
372.65	216.86
373.03	216.84
373.41	216.77
373.78	216.69
374.16	216.53
374.54	216.45
374.92	216.43
375.30	216.42
375.68	216.34
376.06	216.32
376.44	216.26
376.82	216.20
377.19	216.19
377.57	216.11
377.95	216.03
378.33	215.98
378.71	215.79
379.09	215.78
379.47	215.75
379.84	215.69
380.22	215.67
380.60	215.60
380.98	215.53
381.36	215.52
381.73	215.48
382.11	215.48
382.49	215.43
382.87	215.35
383.25	215.30
383.62	215.54
384.00	215.44
384.38	215.43
384.76	215.43
385.13	215.45
385.51	215.44
385.89	215.37
386.27	215.36
386.64	215.38
387.02	215.31
387.40	215.29
387.78	215.24
388.15	215.23
388.53	215.21
388.91	215.21
389.29	215.16
389.66	215.16
390.04	215.13
390.42	215.12
390.79	215.09
391.17	215.06
391.55	214.83
391.92	214.85
392.30	214.85
392.68	214.78
393.05	214.74
393.43	214.71
393.81	214.75
394.18	214.70
394.56	214.67
394.94	214.73
395.31	214.68
395.69	214.77
396.06	214.80
396.44	214.82
396.82	214.81
397.19	214.95
397.57	214.97
397.95	215.02
398.32	214.97
398.70	215.05
399.07	215.13
399.45	215.14
399.82	215.16
400.20	215.22
400.58	215.29
400.95	215.27
401.33	215.41
401.70	215.64
402.08	215.76
402.45	215.85
402.83	215.97
403.20	216.08
403.58	216.19
403.95	216.35
404.33	216.50
404.71	216.66
405.08	216.91
405.46	217.09
405.83	217.27
406.21	217.51
406.58	217.76
406.96	218.01
407.33	218.28
407.70	218.58
408.08	219.01
408.45	219.38
408.83	219.80
409.20	220.12
409.58	220.36
409.95	220.83
410.33	221.35
410.70	221.78
411.08	222.38
411.45	222.91
411.82	223.46
412.20	224.18
412.57	225.02
412.95	225.59
413.32	226.44
413.69	227.28
414.07	228.20
414.44	229.20
414.82	230.22
415.19	231.41
415.56	232.58
415.94	233.79
416.31	235.22
416.68	236.63
417.06	238.26
417.43	239.87
417.81	241.60
418.18	243.38
418.55	245.34
418.93	247.39
419.30	249.52
419.67	251.80
420.04	254.10
420.42	256.48
420.79	259.32
421.16	262.10
421.54	265.00
421.91	267.99
422.28	271.09
422.66	274.40
423.03	277.65
423.40	281.06
423.77	284.67
424.15	288.35
424.52	292.17
424.89	296.34
425.26	300.46
425.64	304.39
426.01	308.66
426.38	313.17
426.75	317.75
427.13	322.47
427.50	327.45
427.87	332.66
428.24	337.89
428.61	342.92
428.99	348.53
429.36	354.59
429.73	360.51
430.10	366.36
430.47	372.49
430.85	378.89
431.22	385.68
431.59	392.83
431.96	399.70
432.33	407.21
432.70	414.54
433.08	423.07
433.45	431.15
433.82	439.24
434.19	448.18
434.56	456.89
434.93	465.29
435.30	473.60
435.68	482.79
436.05	491.85
436.42	500.79
436.79	508.92
437.16	517.73
437.53	527.06
437.90	536.32
438.27	545.28
438.64	554.51
439.01	563.05
439.38	570.65
439.75	578.05
440.13	586.60
440.50	594.54
440.87	601.00
441.24	607.69
441.61	615.07
441.98	620.45
442.35	626.82
442.72	633.24
443.09	639.40
443.46	643.17
443.83	645.69
444.20	647.88
444.57	651.11
444.94	652.57
445.31	654.05
445.68	655.45
446.05	656.13
446.42	655.36
446.79	654.46
447.16	653.47
447.53	652.71
447.90	649.35
448.27	646.05
448.64	641.38
449.01	638.08
449.37	632.23
449.74	626.59
450.11	619.74
450.48	612.24
450.85	604.69
451.22	598.20
451.59	592.02
451.96	586.20
452.33	578.30
452.70	571.20
453.07	562.65
453.43	553.99
453.80	545.65
454.17	537.62
454.54	529.97
454.91	521.68
455.28	513.59
455.65	506.12
456.02	498.59
456.38	492.20
456.75	484.25
457.12	477.49
457.49	470.87
457.86	464.63
458.23	459.22
458.59	453.26
458.96	447.19
459.33	441.83
459.70	436.37
460.07	432.02
460.43	427.05
460.80	422.45
461.17	418.43
461.54	414.14
461.91	410.06
462.27	405.95
462.64	402.48
463.01	398.67
463.38	394.96
463.74	391.28
464.11	388.05
464.48	385.25
464.85	382.20
465.21	379.76
465.58	377.08
465.95	373.99
466.32	371.37
466.68	368.74
467.05	366.18
467.42	363.65
467.78	360.98
468.15	358.42
468.52	356.49
468.88	353.96
469.25	351.73
469.62	349.91
469.98	347.91
470.35	346.07
470.72	344.41
471.08	342.60
471.45	341.02
471.82	339.46
472.18	337.72
472.55	336.49
472.92	335.10
473.28	333.88
473.65	332.67
474.02	331.51
474.38	330.62
474.75	329.83
475.11	328.97
475.48	328.35
475.85	327.87
476.21	327.37
476.58	327.03
476.94	326.82
477.31	326.53
477.67	326.24
478.04	326.09
478.41	326.00
478.77	326.15
479.14	326.13
479.50	326.25
479.87	326.52
480.23	326.85
480.60	327.10
480.96	327.36
481.33	327.93
481.69	328.51
482.06	329.04
482.42	329.53
482.79	330.17
483.15	330.96
483.52	331.92
483.88	332.82
484.25	333.76
484.61	334.77
484.98	335.83
485.34	337.12
485.71	338.43
486.07	339.85
486.44	341.15
486.80	342.75
487.17	344.42
487.53	346.23
487.90	348.10
488.26	350.11
488.62	352.24
488.99	354.33
489.35	356.50
489.72	358.87
490.08	361.39
490.44	363.88
490.81	366.56
491.17	369.21
491.54	372.17
491.90	375.23
492.26	378.49
492.63	381.87
492.99	385.42
493.36	389.12
493.72	393.02
494.08	397.02
494.45	401.19
494.81	405.53
495.17	410.00
495.54	414.63
495.90	419.47
496.26	424.42
496.63	429.60
496.99	435.03
497.35	440.55
497.72	446.32
498.08	452.27
498.44	458.36
498.80	464.81
499.17	471.31
499.53	478.00
499.89	484.89
500.26	491.83
500.62	498.94
500.98	506.31
501.34	513.72
501.71	521.52
502.07	529.36
502.43	537.38
502.79	545.54
503.16	554.01
503.52	562.50
503.88	571.20
504.24	580.11
504.60	589.12
504.97	598.40
505.33	607.67
505.69	617.54
506.05	627.44
506.41	637.34
506.78	647.36
507.14	657.56
507.50	667.95
507.86	678.68
508.22	689.39
508.59	700.07
508.95	711.15
509.31	722.36
509.67	733.81
510.03	745.12
510.39	756.78
510.75	768.51
511.12	780.46
511.48	792.38
511.84	804.70
512.20	817.03
512.56	829.57
512.92	842.43
513.28	855.05
513.64	867.79
514.00	880.50
514.37	893.55
514.73	906.69
515.09	919.67
515.45	932.62
515.81	945.66
516.17	959.11
516.53	972.36
516.89	985.44
517.25	998.60
517.61	1012.29
517.97	1025.77
518.33	1038.92
518.69	1052.47
519.05	1066.38
519.41	1080.03
519.77	1094.02
520.13	1107.37
520.49	1120.54
520.85	1134.01
521.21	1147.42
521.57	1161.15
521.93	1174.18
522.29	1187.92
522.65	1201.54
523.01	1215.12
523.37	1228.38
523.73	1241.68
524.09	1254.92
524.45	1268.46
524.81	1282.08
525.17	1295.39
525.53	1308.60
525.89	1321.95
526.25	1335.16
526.61	1348.07
526.97	1361.24
527.33	1374.22
527.68	1387.77
528.04	1401.41
528.40	1414.53
528.76	1427.92
529.12	1440.90
529.48	1454.25
529.84	1466.59
530.20	1479.37
530.56	1492.00
530.91	1505.35
531.27	1518.28
531.63	1530.99
531.99	1543.80
532.35	1556.03
532.71	1568.39
533.07	1581.24
533.42	1593.60
533.78	1605.71
534.14	1617.82
534.50	1629.09
534.86	1640.63
535.21	1651.50
535.57	1662.97
535.93	1674.29
536.29	1685.42
536.65	1696.99
537.00	1708.08
537.36	1719.56
537.72	1730.67
538.08	1742.19
538.44	1753.11
538.79	1764.29
539.15	1775.41
539.51	1786.35
539.87	1797.83
540.22	1808.88
540.58	1819.91
540.94	1830.98
541.29	1841.50
541.65	1851.38
542.01	1861.94
542.37	1872.10
542.72	1882.31
543.08	1892.18
543.44	1902.80
543.79	1912.15
544.15	1921.71
544.51	1931.59
544.87	1941.55
545.22	1950.86
545.58	1959.75
545.94	1968.76
546.29	1977.28
546.65	1985.70
547.01	1993.82
547.36	2001.41
547.72	2009.09
548.07	2016.76
548.43	2024.55
548.79	2032.32
549.14	2040.42
549.50	2049.03
549.86	2056.93
550.21	2064.41
550.57	2072.22
550.92	2079.03
551.28	2086.60
551.64	2093.82
551.99	2101.42
552.35	2108.57
552.70	2115.44
553.06	2122.14
553.41	2128.51
553.77	2135.00
554.13	2141.30
554.48	2148.33
554.84	2155.68
555.19	2162.34
555.55	2168.82
555.90	2175.10
556.26	2182.13
556.61	2188.38
556.97	2193.10
557.32	2199.04
557.68	2205.49
558.03	2211.11
558.39	2216.47
558.74	2222.36
559.10	2227.86
559.45	2233.50
559.81	2239.01
560.16	2244.65
560.52	2250.50
560.87	2256.78
561.23	2262.68
561.58	2269.39
561.94	2274.67
562.29	2278.98
562.64	2284.96
563.00	2290.52
563.35	2295.91
563.71	2301.38
564.06	2306.91
564.42	2312.76
564.77	2317.58
565.12	2322.82
565.48	2327.88
565.83	2333.22
566.19	2338.62
566.54	2343.85
566.89	2348.35
567.25	2352.77
567.60	2358.38
567.96	2363.31
568.31	2367.74
568.66	2372.05
569.02	2375.76
569.37	2379.38
569.72	2384.00
570.08	2387.17
570.43	2390.22
570.78	2393.24
571.14	2395.62
571.49	2398.65
571.84	2402.13
572.20	2405.01
572.55	2407.85
572.90	2410.05
573.26	2412.69
573.61	2415.02
573.96	2417.17
574.31	2419.10
574.67	2421.03
575.02	2421.59
575.37	2423.20
575.72	2423.88
576.08	2425.04
576.43	2425.13
576.78	2425.51
577.13	2426.88
577.49	2428.16
577.84	2429.10
578.19	2430.28
578.54	2430.78
578.90	2431.17
579.25	2430.81
579.60	2430.58
579.95	2429.54
580.30	2429.43
580.66	2428.64
581.01	2426.89
581.36	2424.24
581.71	2422.70
582.06	2421.40
582.42	2420.38
582.77	2417.70
583.12	2415.83
583.47	2414.28
583.82	2413.39
584.17	2411.85
584.53	2409.51
584.88	2407.19
585.23	2405.06
585.58	2402.65
585.93	2400.66
586.28	2398.50
586.63	2395.97
586.98	2393.56
587.34	2391.54
587.69	2388.89
588.04	2386.63
588.39	2384.97
588.74	2382.41
589.09	2379.46
589.44	2376.00
589.79	2373.38
590.14	2371.27
590.49	2368.39
590.84	2364.49
591.19	2361.25
591.54	2358.00
591.89	2353.80
592.25	2350.49
592.60	2346.22
592.95	2341.87
593.30	2337.41
593.65	2332.84
594.00	2328.37
594.35	2325.28
594.70	2320.53
595.05	2315.97
595.40	2310.45
595.75	2304.63
596.10	2300.82
596.45	2295.87
596.80	2291.17
597.15	2285.82
597.50	2279.86
597.85	2274.76
598.19	2269.43
598.54	2263.62
598.89	2258.12
599.24	2253.56
599.59	2247.23
599.94	2241.19
600.29	2235.13
600.64	2229.15
600.99	2222.23
601.34	2216.48
601.69	2209.35
602.04	2202.91
602.39	2196.02
602.74	2189.90
603.08	2184.34
603.43	2177.83
603.78	2170.91
604.13	2163.83
604.48	2156.56
604.83	2150.44
605.18	2144.28
605.53	2137.45
605.87	2130.41
606.22	2123.74
606.57	2115.79
606.92	2107.78
607.27	2100.96
607.62	2094.50
607.96	2087.45
608.31	2081.08
608.66	2073.44
609.01	2065.89
609.36	2058.75
609.70	2051.19
610.05	2043.32
610.40	2034.96
610.75	2026.70
611.10	2019.05
611.44	2010.32
611.79	2001.72
612.14	1991.87
612.49	1981.14
612.83	1971.63
613.18	1962.27
613.53	1952.91
613.88	1943.30
614.22	1934.85
614.57	1924.99
614.92	1914.34
615.27	1904.13
615.61	1893.97
615.96	1884.28
616.31	1874.69
616.65	1865.33
617.00	1855.72
617.35	1846.10
617.70	1836.44
618.04	1826.48
618.39	1816.36
618.74	1806.57
619.08	1796.79
619.43	1788.09
619.78	1779.91
620.12	1771.59
620.47	1762.15
620.82	1751.80
621.16	1742.10
621.51	1732.25
621.85	1722.53
622.20	1712.28
622.55	1701.82
622.89	1691.93
623.24	1682.25
623.59	1672.57
623.93	1662.57
624.28	1652.79
624.62	1642.88
624.97	1632.71
625.32	1622.90
625.66	1614.04
626.01	1605.51
626.35	1596.32
626.70	1586.37
627.04	1576.41
627.39	1566.22
627.73	1557.19
628.08	1548.54
628.43	1539.09
628.77	1529.91
629.12	1520.94
629.46	1513.16
629.81	1504.95
630.15	1495.69
630.50	1486.02
630.84	1475.73
631.19	1465.89
631.53	1456.78
631.88	1446.70
632.22	1436.74
632.57	1427.58
632.91	1417.60
633.26	1407.75
633.60	1398.32
633.95	1389.16
634.29	1379.75
634.64	1370.53
634.98	1360.49
635.32	1351.22
635.67	1342.82
636.01	1333.60
636.36	1324.13
636.70	1314.73
637.05	1305.47
637.39	1296.53
637.73	1288.00
638.08	1280.47
638.42	1272.38
638.77	1263.66
639.11	1255.57
639.45	1247.92
639.80	1239.51
640.14	1230.84
640.49	1222.09
640.83	1213.34
641.17	1205.18
641.52	1197.18
641.86	1188.76
642.20	1181.04
642.55	1172.49
642.89	1163.66
643.23	1155.13
643.58	1147.05
643.92	1138.06
644.26	1129.39
644.61	1121.08
644.95	1112.42
645.29	1103.37
645.64	1094.27
645.98	1085.87
646.32	1078.03
646.66	1069.55
647.01	1061.34
647.35	1053.32
647.69	1045.11
648.04	1036.98
648.38	1028.21
648.72	1019.44
649.06	1011.02
649.41	1002.84
649.75	994.96
650.09	987.19
650.43	979.27
650.78	971.02
651.12	963.44
651.46	956.06
651.80	948.93
652.14	941.73
652.49	934.19
652.83	926.87
653.17	919.18
653.51	911.44
653.85	904.22
654.20	896.97
654.54	889.63
654.88	882.38
655.22	875.12
655.56	868.15
655.90	861.37
656.25	854.68
656.59	847.87
656.93	840.92
657.27	833.79
657.61	826.70
657.95	820.57
658.29	814.61
658.64	808.60
658.98	802.02
659.32	795.46
659.66	789.19
660.00	782.92
660.34	776.83
660.68	770.76
661.02	764.46
661.36	758.43
661.70	752.57
662.05	747.05
662.39	741.59
662.73	736.23
663.07	730.83
663.41	725.24
663.75	719.52
664.09	713.82
664.43	708.41
664.77	703.17
665.11	697.35
665.45	691.43
665.79	685.55
666.13	679.93
666.47	674.39
666.81	668.89
667.15	663.46
667.49	658.28
667.83	653.07
668.17	647.88
668.51	642.79
668.85	637.88
669.19	632.89
669.53	627.83
669.87	622.67
670.21	617.94
670.55	613.25
670.89	608.79
671.23	604.41
671.57	599.99
671.91	595.71
672.25	591.58
672.58	587.51
672.92	583.47
673.26	579.51
673.60	575.68
673.94	571.98
674.28	568.41
674.62	564.68
674.96	560.91
675.30	557.33
675.64	553.62
675.97	549.98
676.31	546.39
676.65	542.84
676.99	539.45
677.33	535.61
677.67	532.00
678.01	528.12
678.34	524.47
678.68	521.00
679.02	517.43
679.36	513.75
679.70	510.01
680.04	506.42
680.37	502.96
680.71	499.55
681.05	496.26
681.39	492.95
681.73	489.76
682.06	486.71
682.40	483.59
682.74	480.42
683.08	477.19
683.42	473.94
683.75	470.85
684.09	467.74
684.43	464.91
684.77	461.91
685.10	459.04
685.44	456.11
685.78	453.11
686.12	450.25
686.45	447.48
686.79	444.78
687.13	442.18
687.46	439.54
687.80	436.91
688.14	434.07
688.48	431.40
688.81	428.67
689.15	426.05
689.49	423.41
689.82	420.87
690.16	418.20
690.50	415.77
690.83	413.25
691.17	410.71
691.51	408.12
691.84	405.82
692.18	403.60
692.52	401.34
692.85	399.22
693.19	397.08
693.52	394.88
693.86	392.65
694.20	390.44
694.53	388.24
694.87	385.97
695.21	383.79
695.54	381.60
695.88	379.43
696.21	377.21
696.55	375.03
696.88	372.95
697.22	370.94
697.56	368.96
697.89	367.04
698.23	365.18
698.56	363.40
698.90	361.61
699.23	359.64
699.57	357.76
699.90	355.81
700.24	353.94
700.58	352.15
700.91	350.51
701.25	348.94
701.58	347.31
701.92	345.68
702.25	344.05
702.59	342.39
702.92	340.86
703.26	339.27
703.59	337.83
703.93	336.51
704.26	335.09
704.60	333.60
704.93	332.14
705.26	330.65
705.60	329.18
705.93	327.63
706.27	326.31
706.60	325.07
706.94	323.86
707.27	322.49
707.61	321.16
707.94	319.79
708.27	318.28
708.61	316.83
708.94	315.46
709.28	314.20
709.61	312.93
709.94	311.69
710.28	310.42
710.61	309.21
710.95	307.76
711.28	306.68
711.61	305.46
711.95	304.30
712.28	303.07
712.61	301.87
712.95	300.77
713.28	299.71
713.61	298.54
713.95	297.35
714.28	296.33
714.61	295.27
714.95	294.21
715.28	293.13
715.61	292.12
715.95	291.12
716.28	290.12
716.61	289.20
716.95	288.15
717.28	287.26
717.61	286.23
717.94	285.29
718.28	284.24
718.61	283.35
718.94	282.43
719.27	281.58
719.61	280.76
719.94	279.93
720.27	278.95
720.60	278.06
720.94	277.22
721.27	276.41
721.60	275.73
721.93	275.02
722.27	274.40
722.60	273.70
722.93	273.00
723.26	272.32
723.59	271.63
723.93	270.99
724.26	270.31
724.59	269.67
724.92	269.06
725.25	268.55
725.59	267.92
725.92	267.39
726.25	266.83
726.58	266.24
726.91	265.59
727.24	265.04
727.57	264.42
727.91	263.81
728.24	263.28
728.57	262.62
728.90	262.06
729.23	261.44
729.56	260.98
729.89	260.43
730.22	259.87
730.55	259.27
730.89	258.73
731.22	258.17
731.55	257.68
731.88	257.16
732.21	256.57
732.54	256.06
732.87	255.49
733.20	255.00
733.53	254.50
733.86	254.09
734.19	253.60
734.52	253.25
734.85	252.95
735.18	252.45
735.51	252.08
735.84	251.61
736.17	251.19
736.50	250.66
736.83	250.49
737.16	250.06
737.49	249.69
737.82	249.28
738.15	248.96
738.48	248.56
738.81	248.16
739.14	247.69
739.47	247.29
739.80	246.92
740.13	246.58
740.46	246.18
740.79	245.75
741.12	245.36
741.45	244.96
741.78	244.52
742.11	244.24
742.44	243.85
742.77	243.56
743.10	243.21
743.43	242.85
743.75	242.26
744.08	242.19
744.41	241.80
744.74	241.50
745.07	241.09
745.40	240.75
745.73	240.49
746.06	240.19
746.39	239.91
746.71	239.54
747.04	239.13
747.37	238.78
747.70	238.54
748.03	238.23
748.36	237.96
748.68	237.66
749.01	237.28
749.34	236.98
749.67	236.67
750.00	236.43
750.33	236.29
750.65	236.01
750.98	235.50
751.31	235.27
751.64	234.99
751.97	234.86
752.29	234.59
752.62	234.24
752.95	234.00
753.28	233.71
753.60	233.51
753.93	233.34
754.26	233.12
754.59	232.79
754.91	232.58
755.24	232.31
755.57	232.06
755.90	231.82
756.22	231.59
756.55	231.34
756.88	231.06
757.20	230.71
757.53	230.52
757.86	230.29
758.19	230.04
758.51	229.82
758.84	229.51
759.17	229.32
759.49	229.18
759.82	229.09
760.15	228.92
760.47	228.72
760.80	228.48
761.13	228.33
761.45	228.15
761.78	227.94
762.11	227.76
762.43	227.58
762.76	227.40
763.08	227.22
763.41	227.08
763.74	226.96
764.06	226.85
764.39	226.66
764.71	226.50
765.04	226.39
765.37	226.23
765.69	226.09
766.02	225.94
766.34	225.80
766.67	225.57
767.00	225.49
767.32	225.47
767.65	225.45
767.97	225.29
768.30	225.21
768.62	225.10
768.95	224.96
769.27	224.83
769.60	224.74
769.92	224.59
770.25	224.43
770.57	224.24
770.90	224.06
771.22	223.93
771.55	223.81
771.87	223.70
772.20	223.57
772.52	223.64
772.85	223.81
773.17	223.69
773.50	223.59
773.82	223.42
774.15	223.21
774.47	223.01
774.80	222.87
775.12	222.73
775.45	222.63
775.77	222.55
776.09	222.51
776.42	222.43
776.74	222.40
777.07	222.27
777.39	222.20
777.72	222.11
778.04	222.07
778.36	221.96
778.69	221.88
779.01	221.81
779.33	221.50
779.66	221.16
779.98	221.04
780.31	220.94
780.63	220.97
780.95	220.91
781.28	220.78
781.60	220.71
781.92	220.67
782.25	220.60
782.57	220.57
782.89	220.46
783.22	220.40
783.54	220.29
783.86	220.27
784.19	220.16
784.51	220.16
784.83	220.03
785.16	219.96
785.48	219.87
785.80	219.84
786.12	219.79
