SpectraSuite Data File
++++++++++++++++++++++++++++++++++++
Date: Tue Jan 29 16:57:21 EST 2013
User: group
Dark Spectrum Present: No
Reference Spectrum Present: No
Number of Sampled Component Spectra: 1
Spectrometers: USB2E7196
Integration Time (usec): 65000 (USB2E7196)
Spectra Averaged: 100 (USB2E7196)
Boxcar Smoothing: 10 (USB2E7196)
Correct for Electrical Dark: No (USB2E7196)
Strobe/Lamp Enabled: No (USB2E7196)
Correct for Detector Non-linearity: No (USB2E7196)
Correct for Stray Light: No (USB2E7196)
Number of Pixels in Processed Spectrum: 2048
>>>>>Begin Processed Spectral Data<<<<<
339.09	0.00
339.48	201.15
339.86	202.94
340.24	204.27
340.63	205.50
341.01	210.48
341.39	208.33
341.78	209.84
342.16	210.71
342.54	211.28
342.93	200.68
343.31	210.82
343.69	211.40
344.07	211.86
344.46	212.32
344.84	212.73
345.22	212.89
345.60	213.19
345.99	213.41
346.37	213.62
346.75	213.75
347.13	213.84
347.52	213.96
347.90	214.09
348.28	214.16
348.66	214.24
349.05	214.20
349.43	214.27
349.81	214.34
350.19	214.41
350.57	214.47
350.96	214.52
351.34	214.66
351.72	214.75
352.10	214.87
352.48	214.93
352.87	214.99
353.25	215.06
353.63	215.09
354.01	215.14
354.39	215.16
354.77	215.21
355.15	215.36
355.54	215.40
355.92	215.42
356.30	215.50
356.68	215.69
357.06	215.77
357.44	215.80
357.82	215.87
358.20	215.92
358.58	216.01
358.97	216.08
359.35	216.19
359.73	216.29
360.11	216.33
360.49	216.38
360.87	216.43
361.25	216.50
361.63	216.63
362.01	216.67
362.39	216.72
362.77	216.80
363.15	216.80
363.53	216.81
363.91	216.85
364.29	216.83
364.67	216.68
365.05	216.72
365.43	216.76
365.81	216.76
366.19	216.87
366.57	216.91
366.95	216.89
367.33	216.80
367.71	216.79
368.09	216.81
368.47	216.81
368.85	216.80
369.23	216.84
369.61	216.73
369.99	216.78
370.37	216.78
370.75	216.87
371.13	216.78
371.51	216.71
371.89	216.70
372.27	216.67
372.65	216.66
373.03	216.59
373.41	216.56
373.78	216.54
374.16	216.37
374.54	216.30
374.92	216.23
375.30	216.22
375.68	216.13
376.06	216.07
376.44	216.00
376.82	215.97
377.19	215.90
377.57	215.86
377.95	215.75
378.33	215.67
378.71	215.47
379.09	215.46
379.47	215.47
379.84	215.39
380.22	215.37
380.60	215.27
380.98	215.23
381.36	215.16
381.73	215.12
382.11	215.13
382.49	215.11
382.87	215.07
383.25	215.02
383.62	215.24
384.00	215.20
384.38	215.21
384.76	215.19
385.13	215.24
385.51	215.22
385.89	215.20
386.27	215.18
386.64	215.22
387.02	215.16
387.40	215.15
387.78	215.14
388.15	215.11
388.53	215.11
388.91	215.10
389.29	215.09
389.66	215.09
390.04	215.08
390.42	215.11
390.79	215.12
391.17	215.11
391.55	214.88
391.92	214.86
392.30	214.88
392.68	214.84
393.05	214.81
393.43	214.80
393.81	214.81
394.18	214.80
394.56	214.77
394.94	214.86
395.31	214.83
395.69	214.91
396.06	214.93
396.44	214.97
396.82	214.96
397.19	215.07
397.57	215.03
397.95	215.07
398.32	215.01
398.70	215.06
399.07	215.13
399.45	215.16
399.82	215.21
400.20	215.22
400.58	215.31
400.95	215.27
401.33	215.39
401.70	215.55
402.08	215.64
402.45	215.73
402.83	215.84
403.20	215.95
403.58	216.01
403.95	216.16
404.33	216.28
404.71	216.44
405.08	216.70
405.46	216.90
405.83	217.10
406.21	217.31
406.58	217.54
406.96	217.76
407.33	218.01
407.70	218.32
408.08	218.76
408.45	219.13
408.83	219.53
409.20	219.88
409.58	220.18
409.95	220.65
410.33	221.14
410.70	221.55
411.08	222.14
411.45	222.75
411.82	223.31
412.20	224.03
412.57	224.87
412.95	225.45
413.32	226.29
413.69	227.13
414.07	228.07
414.44	229.04
414.82	230.04
415.19	231.20
415.56	232.39
415.94	233.60
416.31	234.99
416.68	236.41
417.06	238.03
417.43	239.60
417.81	241.33
418.18	243.14
418.55	245.12
418.93	247.15
419.30	249.28
419.67	251.51
420.04	253.84
420.42	256.25
420.79	259.05
421.16	261.85
421.54	264.72
421.91	267.70
422.28	270.82
422.66	274.17
423.03	277.47
423.40	280.86
423.77	284.45
424.15	288.12
424.52	291.98
424.89	296.16
425.26	300.26
425.64	304.18
426.01	308.47
426.38	312.98
426.75	317.54
427.13	322.31
427.50	327.33
427.87	332.55
428.24	337.74
428.61	342.83
428.99	348.40
429.36	354.46
429.73	360.44
430.10	366.38
430.47	372.51
430.85	378.89
431.22	385.59
431.59	392.77
431.96	399.71
432.33	407.27
432.70	414.59
433.08	423.16
433.45	431.30
433.82	439.35
434.19	448.29
434.56	457.04
434.93	465.43
435.30	473.71
435.68	482.88
436.05	491.98
436.42	500.91
436.79	509.04
437.16	517.82
437.53	527.15
437.90	536.32
438.27	545.35
438.64	554.59
439.01	563.20
439.38	570.83
439.75	578.19
440.13	586.67
440.50	594.67
440.87	601.16
441.24	607.85
441.61	615.25
441.98	620.63
442.35	626.92
442.72	633.28
443.09	639.42
443.46	643.14
443.83	645.66
444.20	647.83
444.57	651.09
444.94	652.63
445.31	654.09
445.68	655.52
446.05	656.15
446.42	655.40
446.79	654.51
447.16	653.43
447.53	652.65
447.90	649.40
448.27	646.11
448.64	641.50
449.01	638.17
449.37	632.31
449.74	626.58
450.11	619.72
450.48	612.28
450.85	604.86
451.22	598.40
451.59	592.23
451.96	586.41
452.33	578.45
452.70	571.29
453.07	562.74
453.43	554.05
453.80	545.65
454.17	537.58
454.54	529.97
454.91	521.71
455.28	513.69
455.65	506.12
456.02	498.53
456.38	492.08
456.75	484.11
457.12	477.41
457.49	470.88
457.86	464.65
458.23	459.22
458.59	453.21
458.96	447.15
459.33	441.75
459.70	436.35
460.07	432.06
460.43	427.12
460.80	422.50
461.17	418.52
461.54	414.32
461.91	410.27
462.27	406.12
462.64	402.68
463.01	398.87
463.38	395.16
463.74	391.44
464.11	388.16
464.48	385.32
464.85	382.21
465.21	379.85
465.58	377.22
465.95	374.05
466.32	371.43
466.68	368.82
467.05	366.22
467.42	363.64
467.78	360.96
468.15	358.40
468.52	356.48
468.88	353.91
469.25	351.67
469.62	349.89
469.98	347.88
470.35	346.04
470.72	344.29
471.08	342.45
471.45	340.96
471.82	339.43
472.18	337.77
472.55	336.57
472.92	335.12
473.28	333.88
473.65	332.70
474.02	331.51
474.38	330.60
474.75	329.80
475.11	328.97
475.48	328.31
475.85	327.83
476.21	327.32
476.58	326.97
476.94	326.72
477.31	326.35
477.67	326.10
478.04	325.96
478.41	325.91
478.77	326.05
479.14	325.99
479.50	326.09
479.87	326.34
480.23	326.61
480.60	326.82
480.96	327.08
481.33	327.68
481.69	328.25
482.06	328.78
482.42	329.29
482.79	329.91
483.15	330.73
483.52	331.65
483.88	332.51
484.25	333.42
484.61	334.41
484.98	335.47
485.34	336.78
485.71	338.12
486.07	339.55
486.44	340.86
486.80	342.43
487.17	344.08
487.53	345.92
487.90	347.81
488.26	349.86
488.62	352.00
488.99	354.04
489.35	356.21
489.72	358.61
490.08	361.17
490.44	363.68
490.81	366.40
491.17	369.14
491.54	372.12
491.90	375.19
492.26	378.46
492.63	381.85
492.99	385.33
493.36	389.03
493.72	392.90
494.08	396.97
494.45	401.18
494.81	405.56
495.17	410.01
495.54	414.70
495.90	419.51
496.26	424.45
496.63	429.65
496.99	435.04
497.35	440.55
497.72	446.33
498.08	452.30
498.44	458.37
498.80	464.79
499.17	471.29
499.53	478.03
499.89	484.90
500.26	491.82
500.62	498.87
500.98	506.22
501.34	513.66
501.71	521.40
502.07	529.22
502.43	537.23
502.79	545.32
503.16	553.64
503.52	562.23
503.88	570.92
504.24	579.86
504.60	588.92
504.97	598.20
505.33	607.39
505.69	617.20
506.05	627.00
506.41	636.80
506.78	646.83
507.14	656.91
507.50	667.33
507.86	678.03
508.22	688.78
508.59	699.36
508.95	710.35
509.31	721.46
509.67	732.83
510.03	744.12
510.39	755.81
510.75	767.57
511.12	779.31
511.48	791.32
511.84	803.49
512.20	815.68
512.56	828.10
512.92	840.92
513.28	853.50
513.64	866.15
514.00	878.96
514.37	891.89
514.73	905.03
515.09	918.00
515.45	930.90
515.81	943.87
516.17	957.41
516.53	970.69
516.89	983.77
517.25	996.93
517.61	1010.45
517.97	1023.83
518.33	1036.97
518.69	1050.54
519.05	1064.23
519.41	1077.90
519.77	1091.82
520.13	1105.21
520.49	1118.33
520.85	1131.63
521.21	1145.08
521.57	1158.70
521.93	1171.71
522.29	1185.34
522.65	1198.90
523.01	1212.50
523.37	1225.82
523.73	1238.98
524.09	1252.17
524.45	1265.62
524.81	1279.11
525.17	1292.60
525.53	1305.77
525.89	1319.21
526.25	1332.37
526.61	1345.36
526.97	1358.51
527.33	1371.51
527.68	1385.05
528.04	1398.63
528.40	1411.88
528.76	1425.31
529.12	1438.29
529.48	1451.76
529.84	1464.12
530.20	1476.91
530.56	1489.52
530.91	1502.70
531.27	1515.62
531.63	1528.25
531.99	1541.10
532.35	1553.42
532.71	1565.78
533.07	1578.75
533.42	1591.07
533.78	1603.25
534.14	1615.21
534.50	1626.49
534.86	1638.10
535.21	1648.84
535.57	1660.50
535.93	1671.73
536.29	1682.76
536.65	1694.20
537.00	1705.19
537.36	1716.69
537.72	1727.60
538.08	1739.03
538.44	1750.11
538.79	1761.37
539.15	1772.48
539.51	1783.34
539.87	1794.77
540.22	1805.65
540.58	1816.61
540.94	1827.46
541.29	1837.91
541.65	1847.86
542.01	1858.34
542.37	1868.48
542.72	1878.87
543.08	1888.53
543.44	1899.14
543.79	1908.42
544.15	1917.92
544.51	1927.88
544.87	1937.91
545.22	1947.42
545.58	1956.39
545.94	1965.34
546.29	1973.84
546.65	1982.36
547.01	1990.63
547.36	1998.19
547.72	2005.96
548.07	2013.52
548.43	2021.35
548.79	2029.08
549.14	2037.24
549.50	2045.92
549.86	2053.85
550.21	2061.23
550.57	2069.02
550.92	2075.94
551.28	2083.53
551.64	2090.82
551.99	2098.34
552.35	2105.38
552.70	2112.37
553.06	2119.01
553.41	2125.38
553.77	2131.83
554.13	2138.28
554.48	2145.26
554.84	2152.40
555.19	2158.95
555.55	2165.39
555.90	2171.57
556.26	2178.50
556.61	2184.86
556.97	2189.62
557.32	2195.27
557.68	2201.75
558.03	2207.53
558.39	2212.81
558.74	2218.77
559.10	2224.14
559.45	2229.65
559.81	2235.29
560.16	2240.55
560.52	2246.36
560.87	2252.55
561.23	2258.31
561.58	2264.71
561.94	2269.94
562.29	2274.54
562.64	2280.47
563.00	2286.21
563.35	2291.80
563.71	2297.15
564.06	2302.41
564.42	2308.19
564.77	2313.21
565.12	2318.39
565.48	2323.10
565.83	2328.41
566.19	2333.49
566.54	2338.77
566.89	2343.09
567.25	2347.38
567.60	2353.03
567.96	2357.95
568.31	2362.37
568.66	2366.72
569.02	2370.51
569.37	2374.14
569.72	2378.44
570.08	2381.75
570.43	2384.91
570.78	2387.83
571.14	2390.35
571.49	2393.43
571.84	2396.84
572.20	2399.70
572.55	2402.35
572.90	2404.85
573.26	2407.48
573.61	2410.19
573.96	2412.35
574.31	2414.43
574.67	2416.33
575.02	2416.95
575.37	2418.39
575.72	2418.81
576.08	2420.01
576.43	2419.93
576.78	2420.13
577.13	2421.42
577.49	2422.54
577.84	2423.02
578.19	2423.96
578.54	2424.31
578.90	2424.50
579.25	2424.11
579.60	2423.72
579.95	2422.84
580.30	2422.43
580.66	2421.69
581.01	2419.70
581.36	2416.92
581.71	2415.30
582.06	2413.70
582.42	2412.59
582.77	2410.08
583.12	2408.32
583.47	2406.55
583.82	2405.74
584.17	2404.29
584.53	2402.02
584.88	2399.72
585.23	2397.70
585.58	2395.35
585.93	2393.30
586.28	2391.08
586.63	2388.46
586.98	2386.12
587.34	2384.04
587.69	2381.32
588.04	2378.75
588.39	2377.14
588.74	2374.66
589.09	2371.65
589.44	2368.30
589.79	2365.48
590.14	2363.30
590.49	2360.36
590.84	2356.37
591.19	2353.02
591.54	2349.66
591.89	2345.47
592.25	2342.00
592.60	2337.65
592.95	2333.36
593.30	2329.12
593.65	2324.73
594.00	2320.17
594.35	2317.19
594.70	2312.38
595.05	2307.97
595.40	2302.59
595.75	2296.63
596.10	2292.86
596.45	2288.02
596.80	2283.46
597.15	2278.24
597.50	2272.28
597.85	2267.28
598.19	2262.16
598.54	2256.41
598.89	2251.00
599.24	2246.34
599.59	2240.13
599.94	2234.11
600.29	2228.09
600.64	2221.93
600.99	2214.91
601.34	2209.28
601.69	2202.11
602.04	2195.75
602.39	2189.00
602.74	2182.91
603.08	2177.45
603.43	2171.09
603.78	2164.22
604.13	2157.13
604.48	2149.78
604.83	2143.75
605.18	2137.63
605.53	2130.90
605.87	2123.84
606.22	2117.23
606.57	2109.42
606.92	2101.46
607.27	2094.65
607.62	2088.22
607.96	2081.39
608.31	2075.23
608.66	2067.60
609.01	2060.02
609.36	2052.91
609.70	2045.43
610.05	2037.62
610.40	2029.38
610.75	2020.75
611.10	2012.81
611.44	2003.77
611.79	1995.34
612.14	1985.35
612.49	1974.53
612.83	1964.95
613.18	1955.54
613.53	1946.11
613.88	1936.51
614.22	1927.92
614.57	1918.09
614.92	1907.50
615.27	1897.10
615.61	1886.66
615.96	1877.03
616.31	1867.47
616.65	1857.91
617.00	1848.30
617.35	1838.76
617.70	1828.95
618.04	1819.25
618.39	1809.38
618.74	1800.06
619.08	1790.33
619.43	1781.68
619.78	1773.58
620.12	1765.09
620.47	1755.91
620.82	1745.75
621.16	1736.18
621.51	1726.52
621.85	1716.95
622.20	1706.69
622.55	1696.48
622.89	1686.72
623.24	1677.24
623.59	1667.55
623.93	1657.66
624.28	1647.74
624.62	1637.79
624.97	1627.70
625.32	1617.88
625.66	1609.06
626.01	1600.35
626.35	1591.19
626.70	1581.33
627.04	1571.51
627.39	1561.56
627.73	1552.33
628.08	1543.45
628.43	1534.06
628.77	1525.02
629.12	1516.13
629.46	1508.43
629.81	1500.19
630.15	1491.11
630.50	1481.28
630.84	1470.90
631.19	1461.04
631.53	1452.08
631.88	1442.10
632.22	1432.33
632.57	1423.15
632.91	1413.27
633.26	1403.59
633.60	1394.25
633.95	1385.14
634.29	1375.78
634.64	1366.62
634.98	1356.68
635.32	1347.69
635.67	1339.30
636.01	1329.95
636.36	1320.37
636.70	1311.06
637.05	1301.84
637.39	1292.91
637.73	1284.52
638.08	1277.03
638.42	1269.23
638.77	1260.51
639.11	1252.45
639.45	1244.73
639.80	1236.46
640.14	1227.84
640.49	1219.05
640.83	1210.20
641.17	1202.12
641.52	1194.01
641.86	1185.59
642.20	1177.92
642.55	1169.22
642.89	1160.49
643.23	1152.03
643.58	1144.04
643.92	1135.06
644.26	1126.40
644.61	1118.13
644.95	1109.35
645.29	1100.30
645.64	1091.16
645.98	1082.64
646.32	1074.68
646.66	1066.32
647.01	1058.06
647.35	1050.02
647.69	1041.97
648.04	1033.96
648.38	1025.23
648.72	1016.61
649.06	1008.24
649.41	1000.14
649.75	992.33
650.09	984.57
650.43	976.60
650.78	968.43
651.12	960.83
651.46	953.44
651.80	946.25
652.14	939.06
652.49	931.68
652.83	924.46
653.17	916.88
653.51	909.39
653.85	902.16
654.20	895.01
654.54	887.74
654.88	880.49
655.22	873.31
655.56	866.32
655.90	859.56
656.25	852.93
656.59	846.15
656.93	839.34
657.27	832.22
657.61	825.30
657.95	819.16
658.29	813.18
658.64	807.17
658.98	800.81
659.32	794.38
659.66	788.20
660.00	781.98
660.34	775.93
660.68	769.97
661.02	763.62
661.36	757.63
661.70	751.80
662.05	746.21
662.39	740.70
662.73	735.32
663.07	729.96
663.41	724.34
663.75	718.56
664.09	712.82
664.43	707.36
664.77	702.04
665.11	696.29
665.45	690.48
665.79	684.66
666.13	679.00
666.47	673.56
666.81	668.14
667.15	662.67
667.49	657.52
667.83	652.16
668.17	647.03
668.51	641.95
668.85	637.02
669.19	632.16
669.53	627.17
669.87	622.11
670.21	617.39
670.55	612.71
670.89	608.27
671.23	603.89
671.57	599.54
671.91	595.31
672.25	591.13
672.58	587.04
672.92	583.02
673.26	579.05
673.60	575.12
673.94	571.31
674.28	567.71
674.62	563.98
674.96	560.22
675.30	556.67
675.64	552.99
675.97	549.34
676.31	545.68
676.65	542.05
676.99	538.57
677.33	534.72
677.67	531.08
678.01	527.29
678.34	523.72
678.68	520.30
679.02	516.70
679.36	513.05
679.70	509.33
680.04	505.77
680.37	502.32
680.71	498.98
681.05	495.72
681.39	492.43
681.73	489.21
682.06	486.22
682.40	483.12
682.74	479.91
683.08	476.72
683.42	473.48
683.75	470.43
684.09	467.35
684.43	464.52
684.77	461.64
685.10	458.77
685.44	455.84
685.78	452.80
686.12	449.98
686.45	447.24
686.79	444.62
687.13	442.11
687.46	439.51
687.80	436.85
688.14	434.01
688.48	431.32
688.81	428.60
689.15	426.00
689.49	423.36
689.82	420.85
690.16	418.18
690.50	415.72
690.83	413.27
691.17	410.76
691.51	408.21
691.84	405.87
692.18	403.59
692.52	401.37
692.85	399.21
693.19	397.04
693.52	394.83
693.86	392.54
694.20	390.23
694.53	388.03
694.87	385.76
695.21	383.62
695.54	381.47
695.88	379.34
696.21	377.10
696.55	374.94
696.88	372.84
697.22	370.89
697.56	369.00
697.89	367.06
698.23	365.28
698.56	363.51
698.90	361.70
699.23	359.77
699.57	357.90
699.90	356.04
700.24	354.21
700.58	352.48
700.91	350.78
701.25	349.19
701.58	347.51
701.92	345.94
702.25	344.28
702.59	342.62
702.92	340.97
703.26	339.43
703.59	337.96
703.93	336.62
704.26	335.16
704.60	333.64
704.93	332.15
705.26	330.62
705.60	329.10
705.93	327.59
706.27	326.27
706.60	324.94
706.94	323.68
707.27	322.29
707.61	320.89
707.94	319.56
708.27	318.04
708.61	316.63
708.94	315.27
709.28	313.97
709.61	312.73
709.94	311.52
710.28	310.28
710.61	309.09
710.95	307.66
711.28	306.56
711.61	305.33
711.95	304.18
712.28	302.97
712.61	301.77
712.95	300.67
713.28	299.62
713.61	298.46
713.95	297.29
714.28	296.28
714.61	295.21
714.95	294.16
715.28	293.12
715.61	292.07
715.95	291.08
716.28	290.13
716.61	289.17
716.95	288.18
717.28	287.23
717.61	286.23
717.94	285.29
718.28	284.25
718.61	283.37
718.94	282.46
719.27	281.62
719.61	280.82
719.94	279.97
720.27	278.99
720.60	278.11
720.94	277.29
721.27	276.48
721.60	275.76
721.93	275.03
722.27	274.36
722.60	273.67
722.93	272.91
723.26	272.23
723.59	271.49
723.93	270.82
724.26	270.14
724.59	269.46
724.92	268.86
725.25	268.30
725.59	267.66
725.92	267.12
726.25	266.50
726.58	265.90
726.91	265.25
727.24	264.71
727.57	264.15
727.91	263.49
728.24	262.95
728.57	262.37
728.90	261.80
729.23	261.17
729.56	260.70
729.89	260.14
730.22	259.57
730.55	259.02
730.89	258.51
731.22	258.01
731.55	257.52
731.88	257.03
732.21	256.50
732.54	256.00
732.87	255.46
733.20	254.98
733.53	254.49
733.86	254.04
734.19	253.53
734.52	253.09
734.85	252.81
735.18	252.35
735.51	251.94
735.84	251.54
736.17	251.16
736.50	250.68
736.83	250.52
737.16	250.12
737.49	249.74
737.82	249.30
738.15	248.90
738.48	248.51
738.81	248.08
739.14	247.63
739.47	247.27
739.80	246.85
740.13	246.49
740.46	246.10
740.79	245.74
741.12	245.36
741.45	244.97
741.78	244.52
742.11	244.23
742.44	243.86
742.77	243.56
743.10	243.21
743.43	242.86
743.75	242.31
744.08	242.26
744.41	241.86
744.74	241.55
745.07	241.20
745.40	240.87
745.73	240.64
746.06	240.33
746.39	239.98
746.71	239.66
747.04	239.34
747.37	239.01
747.70	238.70
748.03	238.41
748.36	238.13
748.68	237.81
749.01	237.42
749.34	237.16
749.67	236.85
750.00	236.56
750.33	236.41
750.65	236.14
750.98	235.58
751.31	235.37
751.64	235.08
751.97	234.93
752.29	234.68
752.62	234.30
752.95	234.04
753.28	233.77
753.60	233.55
753.93	233.33
754.26	233.09
754.59	232.81
754.91	232.54
755.24	232.31
755.57	232.06
755.90	231.84
756.22	231.55
756.55	231.32
756.88	231.08
757.20	230.75
757.53	230.49
757.86	230.27
758.19	230.10
758.51	229.92
758.84	229.60
759.17	229.40
759.49	229.25
759.82	229.16
760.15	228.97
760.47	228.80
760.80	228.54
761.13	228.41
761.45	228.22
761.78	228.10
762.11	227.91
762.43	227.75
762.76	227.56
763.08	227.44
763.41	227.28
763.74	227.15
764.06	226.98
764.39	226.80
764.71	226.65
765.04	226.45
765.37	226.31
765.69	226.16
766.02	226.00
766.34	225.82
766.67	225.63
767.00	225.58
767.32	225.54
767.65	225.54
767.97	225.38
768.30	225.28
768.62	225.10
768.95	224.98
769.27	224.87
769.60	224.78
769.92	224.59
770.25	224.43
770.57	224.26
770.90	224.15
771.22	223.98
771.55	223.86
771.87	223.75
772.20	223.59
772.52	223.64
772.85	223.79
773.17	223.71
773.50	223.54
773.82	223.38
774.15	223.14
774.47	222.88
774.80	222.78
775.12	222.66
775.45	222.56
775.77	222.48
776.09	222.38
776.42	222.29
776.74	222.30
777.07	222.19
777.39	222.13
777.72	222.01
778.04	222.00
778.36	221.91
778.69	221.83
779.01	221.77
779.33	221.51
779.66	221.19
779.98	221.06
780.31	220.99
780.63	221.02
780.95	220.99
781.28	220.95
781.60	220.86
781.92	220.82
782.25	220.78
782.57	220.68
782.89	220.60
783.22	220.51
783.54	220.40
783.86	220.35
784.19	220.25
784.51	220.24
784.83	220.16
785.16	220.08
785.48	220.00
785.80	219.92
786.12	219.90
