SpectraSuite Data File
++++++++++++++++++++++++++++++++++++
Date: Tue Jan 29 15:56:51 EST 2013
User: group
Dark Spectrum Present: No
Reference Spectrum Present: No
Number of Sampled Component Spectra: 1
Spectrometers: USB2E7196
Integration Time (usec): 65000 (USB2E7196)
Spectra Averaged: 100 (USB2E7196)
Boxcar Smoothing: 10 (USB2E7196)
Correct for Electrical Dark: No (USB2E7196)
Strobe/Lamp Enabled: No (USB2E7196)
Correct for Detector Non-linearity: No (USB2E7196)
Correct for Stray Light: No (USB2E7196)
Number of Pixels in Processed Spectrum: 2048
>>>>>Begin Processed Spectral Data<<<<<
339.09	0.00
339.48	204.02
339.86	204.52
340.24	206.05
340.63	208.00
341.01	212.41
341.39	210.22
341.78	212.01
342.16	213.75
342.54	213.57
342.93	202.53
343.31	212.74
343.69	213.23
344.07	213.67
344.46	214.11
344.84	214.48
345.22	214.65
345.60	214.91
345.99	215.08
346.37	215.18
346.75	215.27
347.13	215.31
347.52	215.34
347.90	215.48
348.28	215.50
348.66	215.57
349.05	215.52
349.43	215.59
349.81	215.63
350.19	215.70
350.57	215.75
350.96	215.83
351.34	215.93
351.72	216.02
352.10	216.16
352.48	216.20
352.87	216.25
353.25	216.26
353.63	216.30
354.01	216.33
354.39	216.41
354.77	216.43
355.15	216.55
355.54	216.58
355.92	216.59
356.30	216.65
356.68	216.83
357.06	216.90
357.44	216.91
357.82	216.96
358.20	217.06
358.58	217.16
358.97	217.16
359.35	217.24
359.73	217.34
360.11	217.36
360.49	217.43
360.87	217.46
361.25	217.55
361.63	217.66
362.01	217.73
362.39	217.74
362.77	217.82
363.15	217.88
363.53	217.94
363.91	217.94
364.29	217.96
364.67	217.79
365.05	217.83
365.43	217.87
365.81	217.91
366.19	217.99
366.57	218.06
366.95	218.11
367.33	218.09
367.71	218.08
368.09	218.14
368.47	218.13
368.85	218.12
369.23	218.17
369.61	218.10
369.99	218.11
370.37	218.13
370.75	218.21
371.13	218.13
371.51	218.09
371.89	218.12
372.27	218.10
372.65	218.09
373.03	218.08
373.41	218.05
373.78	217.99
374.16	217.84
374.54	217.73
374.92	217.69
375.30	217.63
375.68	217.56
376.06	217.51
376.44	217.49
376.82	217.47
377.19	217.43
377.57	217.39
377.95	217.33
378.33	217.29
378.71	217.13
379.09	217.16
379.47	217.13
379.84	217.05
380.22	216.98
380.60	216.91
380.98	216.83
381.36	216.77
381.73	216.70
382.11	216.73
382.49	216.74
382.87	216.66
383.25	216.64
383.62	216.84
384.00	216.75
384.38	216.71
384.76	216.71
385.13	216.74
385.51	216.68
385.89	216.64
386.27	216.59
386.64	216.60
387.02	216.55
387.40	216.49
387.78	216.49
388.15	216.52
388.53	216.47
388.91	216.45
389.29	216.44
389.66	216.46
390.04	216.38
390.42	216.39
390.79	216.39
391.17	216.36
391.55	216.09
391.92	216.10
392.30	216.08
392.68	216.02
393.05	215.96
393.43	215.98
393.81	215.98
394.18	215.98
394.56	215.98
394.94	215.98
395.31	215.97
395.69	216.04
396.06	216.04
396.44	216.09
396.82	216.12
397.19	216.24
397.57	216.25
397.95	216.30
398.32	216.24
398.70	216.29
399.07	216.39
399.45	216.46
399.82	216.48
400.20	216.53
400.58	216.57
400.95	216.57
401.33	216.67
401.70	216.88
402.08	216.97
402.45	217.03
402.83	217.20
403.20	217.31
403.58	217.34
403.95	217.51
404.33	217.66
404.71	217.77
405.08	218.01
405.46	218.17
405.83	218.37
406.21	218.57
406.58	218.79
406.96	219.00
407.33	219.27
407.70	219.58
408.08	220.04
408.45	220.39
408.83	220.77
409.20	221.09
409.58	221.37
409.95	221.79
410.33	222.27
410.70	222.65
411.08	223.17
411.45	223.75
411.82	224.28
412.20	224.96
412.57	225.79
412.95	226.32
413.32	227.13
413.69	227.91
414.07	228.78
414.44	229.73
414.82	230.71
415.19	231.85
415.56	233.00
415.94	234.10
416.31	235.47
416.68	236.83
417.06	238.41
417.43	239.88
417.81	241.54
418.18	243.25
418.55	245.13
418.93	247.05
419.30	249.05
419.67	251.19
420.04	253.33
420.42	255.61
420.79	258.33
421.16	261.06
421.54	263.85
421.91	266.72
422.28	269.68
422.66	272.83
423.03	275.95
423.40	279.16
423.77	282.67
424.15	286.16
424.52	289.82
424.89	293.79
425.26	297.69
425.64	301.41
426.01	305.54
426.38	309.81
426.75	314.22
427.13	318.79
427.50	323.60
427.87	328.59
428.24	333.58
428.61	338.37
428.99	343.61
429.36	349.42
429.73	355.10
430.10	360.77
430.47	366.58
430.85	372.64
431.22	379.10
431.59	385.88
431.96	392.48
432.33	399.70
432.70	406.65
433.08	414.88
433.45	422.64
433.82	430.35
434.19	438.89
434.56	447.26
434.93	455.29
435.30	463.24
435.68	471.98
436.05	480.57
436.42	489.16
436.79	497.01
437.16	505.38
437.53	514.33
437.90	523.15
438.27	531.80
438.64	540.71
439.01	548.90
439.38	556.21
439.75	563.28
440.13	571.40
440.50	579.08
440.87	585.17
441.24	591.53
441.61	598.57
441.98	603.74
442.35	609.81
442.72	615.86
443.09	621.59
443.46	625.24
443.83	627.71
444.20	629.76
444.57	632.74
444.94	634.17
445.31	635.49
445.68	636.76
446.05	637.27
446.42	636.41
446.79	635.48
447.16	634.39
447.53	633.55
447.90	630.28
448.27	627.07
448.64	622.64
449.01	619.41
449.37	613.71
449.74	608.24
450.11	601.55
450.48	594.38
450.85	587.22
451.22	580.97
451.59	575.05
451.96	569.45
452.33	561.89
452.70	555.06
453.07	546.93
453.43	538.68
453.80	530.76
454.17	523.13
454.54	515.90
454.91	508.08
455.28	500.44
455.65	493.36
456.02	486.22
456.38	480.23
456.75	472.76
457.12	466.50
457.49	460.31
457.86	454.40
458.23	449.36
458.59	443.76
458.96	438.05
459.33	433.00
459.70	427.89
460.07	423.85
460.43	419.16
460.80	414.73
461.17	410.92
461.54	406.92
461.91	403.07
462.27	399.11
462.64	395.81
463.01	392.21
463.38	388.69
463.74	385.11
464.11	381.92
464.48	379.20
464.85	376.23
465.21	373.83
465.58	371.33
465.95	368.30
466.32	365.79
466.68	363.27
467.05	360.77
467.42	358.32
467.78	355.76
468.15	353.31
468.52	351.54
468.88	349.14
469.25	347.01
469.62	345.33
469.98	343.51
470.35	341.80
470.72	340.22
471.08	338.51
471.45	337.10
471.82	335.67
472.18	334.07
472.55	332.92
472.92	331.68
473.28	330.53
473.65	329.46
474.02	328.43
474.38	327.59
474.75	326.92
475.11	326.14
475.48	325.60
475.85	325.19
476.21	324.73
476.58	324.41
476.94	324.17
477.31	323.89
477.67	323.67
478.04	323.57
478.41	323.54
478.77	323.74
479.14	323.72
479.50	323.89
479.87	324.22
480.23	324.57
480.60	324.87
480.96	325.23
481.33	325.85
481.69	326.46
482.06	327.03
482.42	327.54
482.79	328.21
483.15	329.06
483.52	330.03
483.88	330.97
484.25	331.93
484.61	333.03
484.98	334.04
485.34	335.39
485.71	336.77
486.07	338.19
486.44	339.51
486.80	341.08
487.17	342.74
487.53	344.56
487.90	346.44
488.26	348.43
488.62	350.53
488.99	352.56
489.35	354.71
489.72	357.09
490.08	359.57
490.44	362.12
490.81	364.79
491.17	367.50
491.54	370.46
491.90	373.49
492.26	376.70
492.63	380.14
492.99	383.59
493.36	387.24
493.72	391.10
494.08	395.14
494.45	399.40
494.81	403.75
495.17	408.23
495.54	412.95
495.90	417.79
496.26	422.79
496.63	427.97
496.99	433.34
497.35	438.88
497.72	444.73
498.08	450.63
498.44	456.68
498.80	463.10
499.17	469.52
499.53	476.26
499.89	483.13
500.26	490.11
500.62	497.16
500.98	504.50
501.34	511.97
501.71	519.65
502.07	527.43
502.43	535.46
502.79	543.54
503.16	551.88
503.52	560.43
503.88	568.99
504.24	577.88
504.60	586.87
504.97	596.08
505.33	605.35
505.69	615.13
506.05	625.02
506.41	634.78
506.78	644.82
507.14	654.97
507.50	665.41
507.86	676.03
508.22	686.77
508.59	697.47
508.95	708.41
509.31	719.67
509.67	731.04
510.03	742.39
510.39	754.18
510.75	765.92
511.12	777.70
511.48	789.78
511.84	802.02
512.20	814.32
512.56	826.93
512.92	839.59
513.28	852.18
513.64	864.80
514.00	877.49
514.37	890.40
514.73	903.36
515.09	916.21
515.45	928.91
515.81	941.76
516.17	954.95
516.53	968.10
516.89	981.00
517.25	994.08
517.61	1007.38
517.97	1020.47
518.33	1033.41
518.69	1046.88
519.05	1060.45
519.41	1073.89
519.77	1087.61
520.13	1100.66
520.49	1113.66
520.85	1126.80
521.21	1139.91
521.57	1153.45
521.93	1166.33
522.29	1179.92
522.65	1193.39
523.01	1206.88
523.37	1219.85
523.73	1232.85
524.09	1245.76
524.45	1258.90
524.81	1272.07
525.17	1285.19
525.53	1298.08
525.89	1311.19
526.25	1323.91
526.61	1336.41
526.97	1349.19
527.33	1361.66
527.68	1374.82
528.04	1387.87
528.40	1400.66
528.76	1413.66
529.12	1426.20
529.48	1439.15
529.84	1450.97
530.20	1463.25
530.56	1475.55
530.91	1488.49
531.27	1501.02
531.63	1513.48
531.99	1525.90
532.35	1537.88
532.71	1549.97
533.07	1562.39
533.42	1574.36
533.78	1586.24
534.14	1597.94
534.50	1608.95
534.86	1620.33
535.21	1630.88
535.57	1642.10
535.93	1653.15
536.29	1663.96
536.65	1675.06
537.00	1685.60
537.36	1696.74
537.72	1707.29
538.08	1718.23
538.44	1728.72
538.79	1739.36
539.15	1749.80
539.51	1760.12
539.87	1771.04
540.22	1781.39
540.58	1791.97
540.94	1802.28
541.29	1812.04
541.65	1821.48
542.01	1831.66
542.37	1841.25
542.72	1851.10
543.08	1860.40
543.44	1870.47
543.79	1879.50
544.15	1888.68
544.51	1898.49
544.87	1907.94
545.22	1916.92
545.58	1925.56
545.94	1934.09
546.29	1942.39
546.65	1950.47
547.01	1958.52
547.36	1965.95
547.72	1973.46
548.07	1980.82
548.43	1988.43
548.79	1996.15
549.14	2004.11
549.50	2012.09
549.86	2019.69
550.21	2026.84
550.57	2034.32
550.92	2040.85
551.28	2047.99
551.64	2054.98
551.99	2062.17
552.35	2069.16
552.70	2075.74
553.06	2082.11
553.41	2088.35
553.77	2094.58
554.13	2100.79
554.48	2107.58
554.84	2114.36
555.19	2120.59
555.55	2126.98
555.90	2133.13
556.26	2139.66
556.61	2145.43
556.97	2150.15
557.32	2155.92
557.68	2162.07
558.03	2167.64
558.39	2172.75
558.74	2178.56
559.10	2184.16
559.45	2189.53
559.81	2195.00
560.16	2200.54
560.52	2206.37
560.87	2212.70
561.23	2218.67
561.58	2225.29
561.94	2230.39
562.29	2235.38
562.64	2241.63
563.00	2247.27
563.35	2252.91
563.71	2258.62
564.06	2264.31
564.42	2270.35
564.77	2275.36
565.12	2280.66
565.48	2286.04
565.83	2291.71
566.19	2297.26
566.54	2302.66
566.89	2307.45
567.25	2312.08
567.60	2317.86
567.96	2323.09
568.31	2327.70
568.66	2332.07
569.02	2335.93
569.37	2339.93
569.72	2344.16
570.08	2347.71
570.43	2350.72
570.78	2353.77
571.14	2356.68
571.49	2359.84
571.84	2363.47
572.20	2366.53
572.55	2369.67
572.90	2371.92
573.26	2375.03
573.61	2377.72
573.96	2379.88
574.31	2381.95
574.67	2384.00
575.02	2385.08
575.37	2386.64
575.72	2387.59
576.08	2389.08
576.43	2389.56
576.78	2390.42
577.13	2392.24
577.49	2393.57
577.84	2394.91
578.19	2396.70
578.54	2397.55
578.90	2398.88
579.25	2398.98
579.60	2399.38
579.95	2399.03
580.30	2399.62
580.66	2398.95
581.01	2397.45
581.36	2395.72
581.71	2394.71
582.06	2393.94
582.42	2393.34
582.77	2391.50
583.12	2390.36
583.47	2389.48
583.82	2389.27
584.17	2388.22
584.53	2386.32
584.88	2384.55
585.23	2382.96
585.58	2380.68
585.93	2378.75
586.28	2376.74
586.63	2374.74
586.98	2372.80
587.34	2371.08
587.69	2368.95
588.04	2367.37
588.39	2366.16
588.74	2363.73
589.09	2361.37
589.44	2358.49
589.79	2356.26
590.14	2354.69
590.49	2351.87
590.84	2348.44
591.19	2345.64
591.54	2342.58
591.89	2338.93
592.25	2336.06
592.60	2332.11
592.95	2328.34
593.30	2324.48
593.65	2320.11
594.00	2315.89
594.35	2312.92
594.70	2308.47
595.05	2303.85
595.40	2298.56
595.75	2293.28
596.10	2289.87
596.45	2285.05
596.80	2280.56
597.15	2275.46
597.50	2269.59
597.85	2264.82
598.19	2259.60
598.54	2253.93
598.89	2248.92
599.24	2244.48
599.59	2238.41
599.94	2233.10
600.29	2227.28
600.64	2221.29
600.99	2214.94
601.34	2209.56
601.69	2202.55
602.04	2196.33
602.39	2190.17
602.74	2184.30
603.08	2178.79
603.43	2172.34
603.78	2165.56
604.13	2158.53
604.48	2151.39
604.83	2145.45
605.18	2139.14
605.53	2132.33
605.87	2125.24
606.22	2118.50
606.57	2110.64
606.92	2102.79
607.27	2095.81
607.62	2089.23
607.96	2082.51
608.31	2075.90
608.66	2068.25
609.01	2060.81
609.36	2053.72
609.70	2045.95
610.05	2038.27
610.40	2030.02
610.75	2021.90
611.10	2014.42
611.44	2005.89
611.79	1997.36
612.14	1987.36
612.49	1976.95
612.83	1967.78
613.18	1958.71
613.53	1949.55
613.88	1940.11
614.22	1931.53
614.57	1921.60
614.92	1911.20
615.27	1900.97
615.61	1891.12
615.96	1881.37
616.31	1871.87
616.65	1862.56
617.00	1852.62
617.35	1842.86
617.70	1833.05
618.04	1822.85
618.39	1812.52
618.74	1802.78
619.08	1793.04
619.43	1784.36
619.78	1776.12
620.12	1767.38
620.47	1757.58
620.82	1747.19
621.16	1737.36
621.51	1727.36
621.85	1717.46
622.20	1706.93
622.55	1696.33
622.89	1686.43
623.24	1676.75
623.59	1667.03
623.93	1656.78
624.28	1647.24
624.62	1636.96
624.97	1626.66
625.32	1617.04
625.66	1608.27
626.01	1599.39
626.35	1590.04
626.70	1579.93
627.04	1569.87
627.39	1559.80
627.73	1550.60
628.08	1541.45
628.43	1531.83
628.77	1522.62
629.12	1513.72
629.46	1505.97
629.81	1497.60
630.15	1487.84
630.50	1477.96
630.84	1467.36
631.19	1457.50
631.53	1447.91
631.88	1437.80
632.22	1427.84
632.57	1418.42
632.91	1408.18
633.26	1398.31
633.60	1388.69
633.95	1379.37
634.29	1369.84
634.64	1360.37
634.98	1350.46
635.32	1341.31
635.67	1332.76
636.01	1323.44
636.36	1313.51
636.70	1303.83
637.05	1294.38
637.39	1285.41
637.73	1276.76
638.08	1269.29
638.42	1260.95
638.77	1252.17
639.11	1243.95
639.45	1236.06
639.80	1227.33
640.14	1218.57
640.49	1209.67
640.83	1200.88
641.17	1192.69
641.52	1184.48
641.86	1175.92
642.20	1168.03
642.55	1159.28
642.89	1150.40
643.23	1141.69
643.58	1133.69
643.92	1124.61
644.26	1116.00
644.61	1107.61
644.95	1098.87
645.29	1089.50
645.64	1080.27
645.98	1071.91
646.32	1063.95
646.66	1055.43
647.01	1047.08
647.35	1038.92
647.69	1030.55
648.04	1022.13
648.38	1013.26
648.72	1004.50
649.06	995.91
649.41	987.76
649.75	979.79
650.09	971.90
650.43	963.85
650.78	955.58
651.12	948.04
651.46	940.74
651.80	933.44
652.14	926.02
652.49	918.51
652.83	911.31
653.17	903.62
653.51	896.03
653.85	888.81
654.20	881.49
654.54	874.03
654.88	866.86
655.22	859.73
655.56	852.73
655.90	845.90
656.25	839.43
656.59	832.38
656.93	825.36
657.27	818.24
657.61	811.42
657.95	805.40
658.29	799.45
658.64	793.24
658.98	786.87
659.32	780.38
659.66	774.20
660.00	767.81
660.34	761.78
660.68	755.69
661.02	749.45
661.36	743.64
661.70	737.92
662.05	732.29
662.39	726.86
662.73	721.56
663.07	716.18
663.41	710.59
663.75	704.98
664.09	699.42
664.43	694.10
664.77	688.75
665.11	682.96
665.45	677.15
665.79	671.35
666.13	665.69
666.47	660.28
666.81	654.95
667.15	649.68
667.49	644.52
667.83	639.32
668.17	634.14
668.51	629.03
668.85	624.17
669.19	619.36
669.53	614.40
669.87	609.26
670.21	604.63
670.55	599.94
670.89	595.65
671.23	591.43
671.57	587.12
671.91	582.88
672.25	578.83
672.58	574.70
672.92	570.66
673.26	566.84
673.60	563.03
673.94	559.20
674.28	555.61
674.62	551.90
674.96	548.24
675.30	544.79
675.64	541.26
675.97	537.76
676.31	534.19
676.65	530.63
676.99	527.35
677.33	523.61
677.67	519.99
678.01	516.15
678.34	512.52
678.68	509.07
679.02	505.57
679.36	501.85
679.70	498.27
680.04	494.88
680.37	491.49
680.71	488.23
681.05	485.13
681.39	482.00
681.73	478.88
682.06	475.89
682.40	472.81
682.74	469.67
683.08	466.52
683.42	463.37
683.75	460.46
684.09	457.44
684.43	454.70
684.77	451.87
685.10	449.09
685.44	446.27
685.78	443.35
686.12	440.68
686.45	438.01
686.79	435.41
687.13	432.90
687.46	430.28
687.80	427.67
688.14	424.91
688.48	422.33
688.81	419.80
689.15	417.31
689.49	414.75
689.82	412.29
690.16	409.76
690.50	407.37
690.83	404.96
691.17	402.53
691.51	400.06
691.84	397.88
692.18	395.80
692.52	393.62
692.85	391.55
693.19	389.41
693.52	387.34
693.86	385.20
694.20	383.06
694.53	381.00
694.87	378.84
695.21	376.77
695.54	374.62
695.88	372.51
696.21	370.35
696.55	368.32
696.88	366.34
697.22	364.42
697.56	362.60
697.89	360.76
698.23	359.09
698.56	357.38
698.90	355.64
699.23	353.71
699.57	351.85
699.90	350.12
700.24	348.36
700.58	346.63
700.91	345.01
701.25	343.52
701.58	341.97
701.92	340.46
702.25	338.92
702.59	337.34
702.92	335.84
703.26	334.33
703.59	332.92
703.93	331.67
704.26	330.27
704.60	328.79
704.93	327.38
705.26	325.88
705.60	324.49
705.93	323.04
706.27	321.82
706.60	320.64
706.94	319.37
707.27	317.99
707.61	316.70
707.94	315.41
708.27	313.90
708.61	312.50
708.94	311.19
709.28	309.91
709.61	308.74
709.94	307.60
710.28	306.42
710.61	305.20
710.95	303.79
711.28	302.75
711.61	301.62
711.95	300.50
712.28	299.36
712.61	298.21
712.95	297.21
713.28	296.19
713.61	295.07
713.95	293.98
714.28	293.00
714.61	292.02
714.95	290.99
715.28	290.03
715.61	289.06
715.95	288.13
716.28	287.26
716.61	286.33
716.95	285.37
717.28	284.47
717.61	283.58
717.94	282.75
718.28	281.76
718.61	280.91
718.94	280.04
719.27	279.19
719.61	278.36
719.94	277.50
720.27	276.55
720.60	275.73
720.94	274.98
721.27	274.29
721.60	273.63
721.93	272.96
722.27	272.34
722.60	271.73
722.93	271.05
723.26	270.38
723.59	269.73
723.93	269.13
724.26	268.53
724.59	267.93
724.92	267.38
725.25	266.87
725.59	266.31
725.92	265.77
726.25	265.22
726.58	264.70
726.91	264.12
727.24	263.62
727.57	263.07
727.91	262.49
728.24	261.94
728.57	261.38
728.90	260.85
729.23	260.27
729.56	259.79
729.89	259.28
730.22	258.71
730.55	258.20
730.89	257.64
731.22	257.12
731.55	256.61
731.88	256.10
732.21	255.55
732.54	255.04
732.87	254.57
733.20	254.08
733.53	253.65
733.86	253.23
734.19	252.78
734.52	252.39
734.85	252.10
735.18	251.64
735.51	251.26
735.84	250.85
736.17	250.50
736.50	250.00
736.83	249.83
737.16	249.46
737.49	249.09
737.82	248.72
738.15	248.39
738.48	248.05
738.81	247.69
739.14	247.28
739.47	246.90
739.80	246.58
740.13	246.24
740.46	245.85
740.79	245.47
741.12	245.14
741.45	244.75
741.78	244.34
742.11	244.08
742.44	243.70
742.77	243.41
743.10	243.04
743.43	242.70
743.75	242.17
744.08	242.14
744.41	241.79
744.74	241.47
745.07	241.09
745.40	240.77
745.73	240.49
746.06	240.23
746.39	239.95
746.71	239.58
747.04	239.29
747.37	238.96
747.70	238.71
748.03	238.37
748.36	238.14
748.68	237.88
749.01	237.54
749.34	237.28
749.67	237.01
750.00	236.77
750.33	236.68
750.65	236.39
750.98	235.88
751.31	235.63
751.64	235.39
751.97	235.29
752.29	235.03
752.62	234.71
752.95	234.45
753.28	234.19
753.60	233.94
753.93	233.74
754.26	233.52
754.59	233.23
754.91	233.05
755.24	232.81
755.57	232.52
755.90	232.30
756.22	232.09
756.55	231.85
756.88	231.61
757.20	231.26
757.53	231.04
757.86	230.84
758.19	230.68
758.51	230.46
758.84	230.15
759.17	229.96
759.49	229.78
759.82	229.71
760.15	229.55
760.47	229.38
760.80	229.15
761.13	229.04
761.45	228.84
761.78	228.66
762.11	228.50
762.43	228.34
762.76	228.18
763.08	228.00
763.41	227.84
763.74	227.69
764.06	227.56
764.39	227.40
764.71	227.25
765.04	227.09
765.37	226.96
765.69	226.80
766.02	226.68
766.34	226.55
766.67	226.34
767.00	226.24
767.32	226.25
767.65	226.27
767.97	226.10
768.30	226.01
768.62	225.85
768.95	225.73
769.27	225.62
769.60	225.54
769.92	225.41
770.25	225.25
770.57	225.10
770.90	224.95
771.22	224.83
771.55	224.71
771.87	224.59
772.20	224.46
772.52	224.53
772.85	224.64
773.17	224.57
773.50	224.45
773.82	224.32
774.15	224.11
774.47	223.85
774.80	223.78
775.12	223.67
775.45	223.61
775.77	223.49
776.09	223.39
776.42	223.26
776.74	223.25
777.07	223.18
777.39	223.11
777.72	223.00
778.04	222.92
778.36	222.86
778.69	222.76
779.01	222.72
779.33	222.45
779.66	222.15
779.98	222.06
780.31	221.98
780.63	221.98
780.95	221.94
781.28	221.91
781.60	221.82
781.92	221.77
782.25	221.71
782.57	221.64
782.89	221.59
783.22	221.51
783.54	221.40
783.86	221.36
784.19	221.28
784.51	221.28
784.83	221.19
785.16	221.12
785.48	221.05
785.80	220.97
786.12	220.94
