SpectraSuite Data File
++++++++++++++++++++++++++++++++++++
Date: Tue Jan 29 16:56:41 EST 2013
User: group
Dark Spectrum Present: No
Reference Spectrum Present: No
Number of Sampled Component Spectra: 1
Spectrometers: USB2E7196
Integration Time (usec): 65000 (USB2E7196)
Spectra Averaged: 100 (USB2E7196)
Boxcar Smoothing: 10 (USB2E7196)
Correct for Electrical Dark: No (USB2E7196)
Strobe/Lamp Enabled: No (USB2E7196)
Correct for Detector Non-linearity: No (USB2E7196)
Correct for Stray Light: No (USB2E7196)
Number of Pixels in Processed Spectrum: 2048
>>>>>Begin Processed Spectral Data<<<<<
339.09	0.00
339.48	201.62
339.86	202.89
340.24	204.62
340.63	205.86
341.01	210.17
341.39	208.54
341.78	210.22
342.16	212.11
342.54	211.43
342.93	200.86
343.31	211.02
343.69	211.57
344.07	212.05
344.46	212.46
344.84	212.90
345.22	213.11
345.60	213.38
345.99	213.58
346.37	213.69
346.75	213.82
347.13	213.90
347.52	213.96
347.90	214.11
348.28	214.15
348.66	214.21
349.05	214.16
349.43	214.22
349.81	214.26
350.19	214.31
350.57	214.38
350.96	214.43
351.34	214.51
351.72	214.59
352.10	214.69
352.48	214.78
352.87	214.79
353.25	214.82
353.63	214.85
354.01	214.88
354.39	214.94
354.77	214.97
355.15	215.12
355.54	215.15
355.92	215.13
356.30	215.20
356.68	215.39
357.06	215.49
357.44	215.53
357.82	215.60
358.20	215.66
358.58	215.76
358.97	215.81
359.35	215.93
359.73	216.04
360.11	216.08
360.49	216.15
360.87	216.18
361.25	216.24
361.63	216.36
362.01	216.46
362.39	216.51
362.77	216.57
363.15	216.56
363.53	216.62
363.91	216.65
364.29	216.69
364.67	216.54
365.05	216.55
365.43	216.57
365.81	216.60
366.19	216.71
366.57	216.78
366.95	216.80
367.33	216.74
367.71	216.72
368.09	216.76
368.47	216.74
368.85	216.75
369.23	216.80
369.61	216.72
369.99	216.74
370.37	216.72
370.75	216.81
371.13	216.74
371.51	216.65
371.89	216.63
372.27	216.62
372.65	216.55
373.03	216.50
373.41	216.47
373.78	216.40
374.16	216.24
374.54	216.14
374.92	216.14
375.30	216.08
375.68	216.02
376.06	215.94
376.44	215.91
376.82	215.86
377.19	215.78
377.57	215.72
377.95	215.61
378.33	215.55
378.71	215.38
379.09	215.41
379.47	215.43
379.84	215.38
380.22	215.31
380.60	215.25
380.98	215.23
381.36	215.20
381.73	215.17
382.11	215.18
382.49	215.11
382.87	215.03
383.25	214.99
383.62	215.21
384.00	215.17
384.38	215.15
384.76	215.20
385.13	215.26
385.51	215.23
385.89	215.21
386.27	215.18
386.64	215.22
387.02	215.14
387.40	215.08
387.78	215.08
388.15	215.06
388.53	215.04
388.91	215.01
389.29	214.98
389.66	214.97
390.04	214.95
390.42	214.97
390.79	214.97
391.17	214.98
391.55	214.70
391.92	214.67
392.30	214.64
392.68	214.56
393.05	214.52
393.43	214.52
393.81	214.53
394.18	214.51
394.56	214.50
394.94	214.57
395.31	214.58
395.69	214.67
396.06	214.71
396.44	214.77
396.82	214.77
397.19	214.92
397.57	214.92
397.95	214.98
398.32	214.96
398.70	215.03
399.07	215.11
399.45	215.18
399.82	215.23
400.20	215.29
400.58	215.34
400.95	215.33
401.33	215.46
401.70	215.69
402.08	215.80
402.45	215.87
402.83	215.98
403.20	216.12
403.58	216.22
403.95	216.39
404.33	216.57
404.71	216.73
405.08	216.95
405.46	217.10
405.83	217.27
406.21	217.47
406.58	217.69
406.96	217.93
407.33	218.20
407.70	218.52
408.08	218.98
408.45	219.35
408.83	219.75
409.20	220.09
409.58	220.32
409.95	220.76
410.33	221.27
410.70	221.73
411.08	222.25
411.45	222.79
411.82	223.34
412.20	224.02
412.57	224.83
412.95	225.38
413.32	226.24
413.69	227.11
414.07	228.04
414.44	229.05
414.82	230.08
415.19	231.28
415.56	232.46
415.94	233.64
416.31	235.06
416.68	236.46
417.06	238.12
417.43	239.72
417.81	241.44
418.18	243.17
418.55	245.10
418.93	247.18
419.30	249.31
419.67	251.57
420.04	253.82
420.42	256.23
420.79	259.11
421.16	261.93
421.54	264.83
421.91	267.84
422.28	270.96
422.66	274.25
423.03	277.54
423.40	280.91
423.77	284.57
424.15	288.25
424.52	292.12
424.89	296.28
425.26	300.36
425.64	304.30
426.01	308.66
426.38	313.15
426.75	317.71
427.13	322.42
427.50	327.42
427.87	332.70
428.24	337.91
428.61	342.93
428.99	348.44
429.36	354.46
429.73	360.36
430.10	366.25
430.47	372.35
430.85	378.73
431.22	385.50
431.59	392.67
431.96	399.55
432.33	407.03
432.70	414.27
433.08	422.85
433.45	431.03
433.82	439.13
434.19	448.15
434.56	456.86
434.93	465.25
435.30	473.57
435.68	482.68
436.05	491.75
436.42	500.73
436.79	508.99
437.16	517.80
437.53	527.16
437.90	536.42
438.27	545.47
438.64	554.67
439.01	563.23
439.38	570.80
439.75	578.22
440.13	586.74
440.50	594.76
440.87	601.28
441.24	607.91
441.61	615.25
441.98	620.64
442.35	627.11
442.72	633.51
443.09	639.65
443.46	643.46
443.83	645.98
444.20	648.15
444.57	651.32
444.94	652.86
445.31	654.32
445.68	655.72
446.05	656.31
446.42	655.55
446.79	654.64
447.16	653.64
447.53	652.84
447.90	649.53
448.27	646.20
448.64	641.50
449.01	638.18
449.37	632.31
449.74	626.63
450.11	619.66
450.48	612.22
450.85	604.73
451.22	598.26
451.59	592.10
451.96	586.29
452.33	578.40
452.70	571.24
453.07	562.72
453.43	554.01
453.80	545.71
454.17	537.64
454.54	530.04
454.91	521.74
455.28	513.64
455.65	506.19
456.02	498.71
456.38	492.29
456.75	484.32
457.12	477.62
457.49	470.96
457.86	464.70
458.23	459.27
458.59	453.28
458.96	447.19
459.33	441.83
459.70	436.40
460.07	432.04
460.43	427.07
460.80	422.42
461.17	418.40
461.54	414.16
461.91	410.13
462.27	405.97
462.64	402.50
463.01	398.79
463.38	395.07
463.74	391.37
464.11	388.13
464.48	385.30
464.85	382.23
465.21	379.85
465.58	377.18
465.95	374.01
466.32	371.38
466.68	368.75
467.05	366.15
467.42	363.57
467.78	360.88
468.15	358.36
468.52	356.44
468.88	353.90
469.25	351.62
469.62	349.80
469.98	347.85
470.35	346.03
470.72	344.26
471.08	342.38
471.45	340.80
471.82	339.21
472.18	337.56
472.55	336.32
472.92	334.88
473.28	333.66
473.65	332.47
474.02	331.33
474.38	330.42
474.75	329.68
475.11	328.86
475.48	328.26
475.85	327.74
476.21	327.24
476.58	326.86
476.94	326.62
477.31	326.26
477.67	325.96
478.04	325.77
478.41	325.73
478.77	325.90
479.14	325.83
479.50	325.96
479.87	326.22
480.23	326.55
480.60	326.77
480.96	327.04
481.33	327.63
481.69	328.20
482.06	328.69
482.42	329.14
482.79	329.72
483.15	330.49
483.52	331.45
483.88	332.35
484.25	333.30
484.61	334.30
484.98	335.33
485.34	336.65
485.71	338.08
486.07	339.51
486.44	340.85
486.80	342.47
487.17	344.20
487.53	346.05
487.90	347.90
488.26	349.93
488.62	352.07
488.99	354.11
489.35	356.27
489.72	358.63
490.08	361.15
490.44	363.71
490.81	366.40
491.17	369.08
491.54	372.02
491.90	374.99
492.26	378.26
492.63	381.66
492.99	385.18
493.36	388.78
493.72	392.63
494.08	396.56
494.45	400.78
494.81	405.11
495.17	409.50
495.54	414.17
495.90	418.95
496.26	423.86
496.63	429.02
496.99	434.40
497.35	440.00
497.72	445.81
498.08	451.71
498.44	457.82
498.80	464.28
499.17	470.79
499.53	477.51
499.89	484.42
500.26	491.45
500.62	498.48
500.98	505.87
501.34	513.29
501.71	521.09
502.07	528.82
502.43	536.75
502.79	544.88
503.16	553.25
503.52	561.88
503.88	570.56
504.24	579.47
504.60	588.52
504.97	597.73
505.33	606.91
505.69	616.77
506.05	626.50
506.41	636.30
506.78	646.26
507.14	656.51
507.50	666.88
507.86	677.50
508.22	688.23
508.59	698.85
508.95	709.90
509.31	721.04
509.67	732.47
510.03	743.85
510.39	755.47
510.75	767.27
511.12	779.14
511.48	791.20
511.84	803.40
512.20	815.65
512.56	828.25
512.92	841.05
513.28	853.62
513.64	866.33
514.00	879.21
514.37	892.14
514.73	905.15
515.09	918.21
515.45	931.05
515.81	944.12
516.17	957.54
516.53	970.81
516.89	983.89
517.25	997.15
517.61	1010.69
517.97	1024.08
518.33	1037.14
518.69	1050.60
519.05	1064.37
519.41	1078.05
519.77	1091.97
520.13	1105.29
520.49	1118.46
520.85	1131.97
521.21	1145.31
521.57	1158.85
521.93	1171.95
522.29	1185.73
522.65	1199.25
523.01	1213.05
523.37	1226.29
523.73	1239.60
524.09	1252.74
524.45	1266.24
524.81	1279.72
525.17	1293.13
525.53	1306.30
525.89	1319.72
526.25	1333.01
526.61	1345.89
526.97	1359.09
527.33	1372.10
527.68	1385.71
528.04	1399.29
528.40	1412.35
528.76	1425.96
529.12	1439.04
529.48	1452.46
529.84	1464.75
530.20	1477.65
530.56	1490.12
530.91	1503.22
531.27	1516.03
531.63	1528.84
531.99	1541.60
532.35	1553.84
532.71	1566.25
533.07	1579.31
533.42	1591.76
533.78	1603.94
534.14	1615.97
534.50	1627.19
534.86	1638.77
535.21	1649.55
535.57	1661.13
535.93	1672.36
536.29	1683.34
536.65	1694.80
537.00	1705.79
537.36	1717.32
537.72	1728.39
538.08	1739.86
538.44	1751.04
538.79	1762.31
539.15	1773.25
539.51	1784.21
539.87	1795.54
540.22	1806.42
540.58	1817.48
540.94	1828.15
541.29	1838.49
541.65	1848.45
542.01	1858.87
542.37	1869.01
542.72	1879.22
543.08	1888.94
543.44	1899.65
543.79	1909.01
544.15	1918.50
544.51	1928.55
544.87	1938.44
545.22	1947.80
545.58	1956.81
545.94	1965.68
546.29	1974.20
546.65	1982.74
547.01	1991.02
547.36	1998.72
547.72	2006.60
548.07	2013.93
548.43	2021.81
548.79	2029.52
549.14	2037.63
549.50	2046.37
549.86	2054.46
550.21	2061.99
550.57	2069.91
550.92	2076.66
551.28	2084.23
551.64	2091.47
551.99	2098.96
552.35	2106.21
552.70	2112.99
553.06	2119.62
553.41	2126.05
553.77	2132.49
554.13	2138.82
554.48	2145.79
554.84	2152.96
555.19	2159.55
555.55	2166.15
555.90	2172.44
556.26	2179.36
556.61	2185.60
556.97	2190.35
557.32	2195.83
557.68	2202.16
558.03	2207.88
558.39	2213.37
558.74	2219.31
559.10	2224.86
559.45	2230.35
559.81	2235.89
560.16	2241.21
560.52	2247.00
560.87	2253.30
561.23	2259.26
561.58	2265.88
561.94	2271.19
562.29	2275.92
562.64	2281.73
563.00	2287.29
563.35	2292.89
563.71	2298.33
564.06	2304.00
564.42	2309.91
564.77	2314.95
565.12	2320.27
565.48	2325.05
565.83	2330.30
566.19	2335.37
566.54	2340.45
566.89	2344.88
567.25	2349.16
567.60	2354.94
567.96	2359.92
568.31	2364.24
568.66	2368.31
569.02	2372.02
569.37	2375.59
569.72	2379.76
570.08	2383.14
570.43	2386.31
570.78	2389.33
571.14	2391.76
571.49	2394.66
571.84	2397.95
572.20	2400.90
572.55	2403.61
572.90	2405.99
573.26	2408.58
573.61	2411.24
573.96	2413.31
574.31	2415.38
574.67	2417.30
575.02	2417.69
575.37	2419.22
575.72	2419.68
576.08	2421.13
576.43	2421.13
576.78	2421.44
577.13	2422.64
577.49	2423.76
577.84	2424.50
578.19	2425.34
578.54	2425.87
578.90	2426.06
579.25	2425.75
579.60	2425.43
579.95	2424.54
580.30	2424.27
580.66	2423.50
581.01	2421.59
581.36	2418.99
581.71	2417.30
582.06	2415.88
582.42	2414.85
582.77	2412.11
583.12	2410.21
583.47	2408.31
583.82	2407.60
584.17	2405.94
584.53	2403.94
584.88	2401.56
585.23	2399.33
585.58	2396.94
585.93	2394.83
586.28	2392.53
586.63	2389.72
586.98	2387.30
587.34	2385.14
587.69	2382.34
588.04	2380.02
588.39	2378.45
588.74	2375.91
589.09	2372.89
589.44	2369.33
589.79	2366.68
590.14	2364.53
590.49	2361.73
590.84	2357.89
591.19	2354.35
591.54	2351.12
591.89	2346.90
592.25	2343.47
592.60	2339.22
592.95	2334.93
593.30	2330.66
593.65	2326.30
594.00	2322.02
594.35	2318.91
594.70	2314.18
595.05	2309.82
595.40	2304.29
595.75	2298.21
596.10	2294.47
596.45	2289.69
596.80	2285.02
597.15	2279.90
597.50	2273.91
597.85	2268.93
598.19	2263.72
598.54	2257.93
598.89	2252.60
599.24	2247.87
599.59	2241.64
599.94	2235.70
600.29	2229.71
600.64	2223.62
600.99	2216.55
601.34	2210.88
601.69	2203.79
602.04	2197.36
602.39	2190.49
602.74	2184.29
603.08	2178.86
603.43	2172.35
603.78	2165.50
604.13	2158.48
604.48	2151.09
604.83	2145.03
605.18	2138.74
605.53	2131.89
605.87	2125.05
606.22	2118.29
606.57	2110.41
606.92	2102.47
607.27	2095.53
607.62	2089.09
607.96	2082.19
608.31	2075.98
608.66	2068.40
609.01	2060.77
609.36	2053.60
609.70	2046.10
610.05	2038.35
610.40	2030.07
610.75	2021.74
611.10	2013.92
611.44	2004.92
611.79	1996.27
612.14	1986.37
612.49	1975.67
612.83	1966.15
613.18	1956.76
613.53	1947.34
613.88	1937.82
614.22	1929.27
614.57	1919.49
614.92	1908.81
615.27	1898.42
615.61	1888.15
615.96	1878.43
616.31	1868.91
616.65	1859.53
617.00	1850.03
617.35	1840.53
617.70	1830.80
618.04	1821.01
618.39	1810.96
618.74	1801.58
619.08	1791.96
619.43	1783.35
619.78	1775.16
620.12	1766.87
620.47	1757.62
620.82	1747.40
621.16	1737.75
621.51	1728.05
621.85	1718.44
622.20	1708.41
622.55	1698.18
622.89	1688.36
623.24	1678.82
623.59	1669.14
623.93	1659.04
624.28	1649.05
624.62	1639.00
624.97	1628.87
625.32	1618.98
625.66	1610.20
626.01	1601.62
626.35	1592.48
626.70	1582.66
627.04	1572.90
627.39	1562.73
627.73	1553.50
628.08	1544.79
628.43	1535.36
628.77	1526.18
629.12	1517.34
629.46	1509.46
629.81	1501.25
630.15	1492.03
630.50	1482.23
630.84	1471.88
631.19	1462.14
631.53	1453.20
631.88	1443.18
632.22	1433.27
632.57	1424.03
632.91	1414.06
633.26	1404.26
633.60	1394.82
633.95	1385.73
634.29	1376.23
634.64	1367.04
634.98	1357.08
635.32	1347.96
635.67	1339.65
636.01	1330.41
636.36	1320.90
636.70	1311.50
637.05	1302.13
637.39	1293.33
637.73	1284.87
638.08	1277.39
638.42	1269.42
638.77	1260.68
639.11	1252.58
639.45	1245.01
639.80	1236.69
640.14	1228.03
640.49	1219.27
640.83	1210.50
641.17	1202.35
641.52	1194.48
641.86	1186.07
642.20	1178.38
642.55	1169.75
642.89	1160.89
643.23	1152.46
643.58	1144.35
643.92	1135.52
644.26	1127.00
644.61	1118.66
644.95	1110.02
645.29	1101.02
645.64	1091.89
645.98	1083.38
646.32	1075.54
646.66	1067.05
647.01	1058.83
647.35	1050.87
647.69	1042.70
648.04	1034.65
648.38	1025.82
648.72	1017.17
649.06	1008.77
649.41	1000.59
649.75	992.81
650.09	985.07
650.43	977.20
650.78	968.93
651.12	961.24
651.46	953.86
651.80	946.66
652.14	939.48
652.49	932.05
652.83	924.87
653.17	917.31
653.51	909.72
653.85	902.59
654.20	895.47
654.54	888.12
654.88	880.98
655.22	873.78
655.56	866.83
655.90	859.99
656.25	853.33
656.59	846.57
656.93	839.52
657.27	832.43
657.61	825.34
657.95	819.30
658.29	813.32
658.64	807.27
658.98	800.81
659.32	794.29
659.66	788.03
660.00	781.74
660.34	775.71
660.68	769.71
661.02	763.38
661.36	757.39
661.70	751.65
662.05	746.05
662.39	740.61
662.73	735.25
663.07	729.89
663.41	724.29
663.75	718.46
664.09	712.80
664.43	707.35
664.77	702.17
665.11	696.35
665.45	690.57
665.79	684.77
666.13	679.17
666.47	673.67
666.81	668.19
667.15	662.77
667.49	657.57
667.83	652.33
668.17	647.09
668.51	641.98
668.85	637.02
669.19	632.13
669.53	627.07
669.87	621.91
670.21	617.10
670.55	612.48
670.89	608.13
671.23	603.84
671.57	599.44
671.91	595.10
672.25	590.92
672.58	586.79
672.92	582.72
673.26	578.79
673.60	574.90
673.94	571.15
674.28	567.57
674.62	563.87
674.96	560.09
675.30	556.57
675.64	552.84
675.97	549.21
676.31	545.57
676.65	541.93
676.99	538.64
677.33	534.85
677.67	531.21
678.01	527.43
678.34	523.78
678.68	520.33
679.02	516.79
679.36	513.16
679.70	509.44
680.04	505.85
680.37	502.33
680.71	498.99
681.05	495.80
681.39	492.46
681.73	489.26
682.06	486.25
682.40	483.22
682.74	480.06
683.08	476.88
683.42	473.68
683.75	470.63
684.09	467.44
684.43	464.63
684.77	461.70
685.10	458.74
685.44	455.81
685.78	452.82
686.12	449.94
686.45	447.18
686.79	444.55
687.13	442.05
687.46	439.50
687.80	436.82
688.14	433.96
688.48	431.32
688.81	428.64
689.15	426.00
689.49	423.37
689.82	420.82
690.16	418.18
690.50	415.67
690.83	413.21
691.17	410.64
691.51	408.11
691.84	405.81
692.18	403.57
692.52	401.32
692.85	399.16
693.19	397.02
693.52	394.88
693.86	392.61
694.20	390.37
694.53	388.14
694.87	385.94
695.21	383.74
695.54	381.58
695.88	379.37
696.21	377.14
696.55	374.97
696.88	372.88
697.22	370.87
697.56	368.93
697.89	366.97
698.23	365.25
698.56	363.41
698.90	361.62
699.23	359.74
699.57	357.89
699.90	355.97
700.24	354.12
700.58	352.30
700.91	350.62
701.25	349.02
701.58	347.41
701.92	345.78
702.25	344.19
702.59	342.52
702.92	340.99
703.26	339.42
703.59	337.86
703.93	336.58
704.26	335.13
704.60	333.60
704.93	332.17
705.26	330.65
705.60	329.20
705.93	327.61
706.27	326.21
706.60	324.93
706.94	323.70
707.27	322.33
707.61	320.95
707.94	319.60
708.27	318.08
708.61	316.62
708.94	315.24
709.28	313.93
709.61	312.65
709.94	311.41
710.28	310.20
710.61	309.00
710.95	307.56
711.28	306.50
711.61	305.33
711.95	304.17
712.28	302.96
712.61	301.73
712.95	300.65
713.28	299.61
713.61	298.40
713.95	297.23
714.28	296.22
714.61	295.21
714.95	294.12
715.28	293.10
715.61	292.06
715.95	291.09
716.28	290.09
716.61	289.13
716.95	288.10
717.28	287.12
717.61	286.12
717.94	285.19
718.28	284.08
718.61	283.20
718.94	282.24
719.27	281.35
719.61	280.55
719.94	279.74
720.27	278.77
720.60	277.94
720.94	277.11
721.27	276.30
721.60	275.53
721.93	274.82
722.27	274.15
722.60	273.47
722.93	272.74
723.26	272.11
723.59	271.37
723.93	270.73
724.26	270.10
724.59	269.44
724.92	268.85
725.25	268.33
725.59	267.72
725.92	267.22
726.25	266.63
726.58	266.03
726.91	265.40
727.24	264.85
727.57	264.28
727.91	263.66
728.24	263.10
728.57	262.49
728.90	261.95
729.23	261.32
729.56	260.85
729.89	260.29
730.22	259.64
730.55	259.11
730.89	258.56
731.22	258.01
731.55	257.54
731.88	256.98
732.21	256.41
732.54	255.84
732.87	255.33
733.20	254.84
733.53	254.35
733.86	253.88
734.19	253.38
734.52	252.93
734.85	252.62
735.18	252.13
735.51	251.79
735.84	251.33
736.17	250.97
736.50	250.42
736.83	250.26
737.16	249.89
737.49	249.50
737.82	249.09
738.15	248.70
738.48	248.28
738.81	247.92
739.14	247.52
739.47	247.14
739.80	246.74
740.13	246.37
740.46	245.98
740.79	245.57
741.12	245.21
741.45	244.80
741.78	244.37
742.11	244.09
742.44	243.68
742.77	243.40
743.10	243.01
743.43	242.71
743.75	242.16
744.08	242.06
744.41	241.69
744.74	241.32
745.07	240.92
745.40	240.62
745.73	240.33
746.06	240.04
746.39	239.73
746.71	239.39
747.04	239.05
747.37	238.74
747.70	238.47
748.03	238.20
748.36	237.95
748.68	237.63
749.01	237.27
749.34	236.97
749.67	236.64
750.00	236.36
750.33	236.20
750.65	235.92
750.98	235.40
751.31	235.15
751.64	234.92
751.97	234.80
752.29	234.53
752.62	234.18
752.95	233.91
753.28	233.62
753.60	233.38
753.93	233.21
754.26	232.97
754.59	232.68
754.91	232.39
755.24	232.12
755.57	231.85
755.90	231.65
756.22	231.40
756.55	231.17
756.88	230.93
757.20	230.58
757.53	230.33
757.86	230.14
758.19	229.94
758.51	229.73
758.84	229.42
759.17	229.21
759.49	229.07
759.82	228.97
760.15	228.84
760.47	228.64
760.80	228.40
761.13	228.25
761.45	228.02
761.78	227.83
762.11	227.67
762.43	227.51
762.76	227.28
763.08	227.15
763.41	227.00
763.74	226.87
764.06	226.69
764.39	226.50
764.71	226.32
765.04	226.14
765.37	225.99
765.69	225.86
766.02	225.73
766.34	225.57
766.67	225.36
767.00	225.27
767.32	225.23
767.65	225.21
767.97	225.04
768.30	224.97
768.62	224.86
768.95	224.70
769.27	224.57
769.60	224.48
769.92	224.30
770.25	224.12
770.57	223.96
770.90	223.83
771.22	223.72
771.55	223.63
771.87	223.52
772.20	223.41
772.52	223.46
772.85	223.60
773.17	223.49
773.50	223.35
773.82	223.19
774.15	222.98
774.47	222.74
774.80	222.64
775.12	222.56
775.45	222.46
775.77	222.36
776.09	222.27
776.42	222.20
776.74	222.21
777.07	222.13
777.39	222.06
777.72	221.96
778.04	221.88
778.36	221.78
778.69	221.73
779.01	221.65
779.33	221.40
779.66	221.08
779.98	220.97
780.31	220.91
780.63	220.93
780.95	220.89
781.28	220.82
781.60	220.72
781.92	220.62
782.25	220.57
782.57	220.52
782.89	220.45
783.22	220.36
783.54	220.23
783.86	220.18
784.19	220.08
784.51	220.07
784.83	220.01
785.16	219.93
785.48	219.88
785.80	219.85
786.12	219.77
