SpectraSuite Data File
++++++++++++++++++++++++++++++++++++
Date: Tue Jan 29 16:47:52 EST 2013
User: group
Dark Spectrum Present: No
Reference Spectrum Present: No
Number of Sampled Component Spectra: 1
Spectrometers: USB2E7196
Integration Time (usec): 65000 (USB2E7196)
Spectra Averaged: 100 (USB2E7196)
Boxcar Smoothing: 10 (USB2E7196)
Correct for Electrical Dark: No (USB2E7196)
Strobe/Lamp Enabled: No (USB2E7196)
Correct for Detector Non-linearity: No (USB2E7196)
Correct for Stray Light: No (USB2E7196)
Number of Pixels in Processed Spectrum: 2048
>>>>>Begin Processed Spectral Data<<<<<
339.09	0.00
339.48	201.68
339.86	203.75
340.24	204.72
340.63	206.06
341.01	210.96
341.39	209.40
341.78	210.90
342.16	211.94
342.54	212.12
342.93	201.21
343.31	211.36
343.69	211.92
344.07	212.38
344.46	212.82
344.84	213.23
345.22	213.39
345.60	213.62
345.99	213.79
346.37	213.92
346.75	214.05
347.13	214.11
347.52	214.19
347.90	214.29
348.28	214.31
348.66	214.43
349.05	214.38
349.43	214.42
349.81	214.48
350.19	214.53
350.57	214.60
350.96	214.70
351.34	214.80
351.72	214.89
352.10	215.00
352.48	215.08
352.87	215.11
353.25	215.16
353.63	215.22
354.01	215.26
354.39	215.34
354.77	215.36
355.15	215.48
355.54	215.50
355.92	215.48
356.30	215.57
356.68	215.73
357.06	215.84
357.44	215.85
357.82	215.90
358.20	215.97
358.58	216.00
358.97	216.06
359.35	216.16
359.73	216.26
360.11	216.28
360.49	216.34
360.87	216.36
361.25	216.43
361.63	216.56
362.01	216.64
362.39	216.64
362.77	216.72
363.15	216.71
363.53	216.76
363.91	216.79
364.29	216.78
364.67	216.61
365.05	216.57
365.43	216.62
365.81	216.64
366.19	216.72
366.57	216.81
366.95	216.79
367.33	216.73
367.71	216.68
368.09	216.71
368.47	216.73
368.85	216.71
369.23	216.72
369.61	216.60
369.99	216.62
370.37	216.63
370.75	216.69
371.13	216.67
371.51	216.63
371.89	216.62
372.27	216.64
372.65	216.61
373.03	216.57
373.41	216.55
373.78	216.51
374.16	216.37
374.54	216.26
374.92	216.18
375.30	216.13
375.68	216.06
376.06	216.02
376.44	215.91
376.82	215.89
377.19	215.85
377.57	215.80
377.95	215.69
378.33	215.63
378.71	215.46
379.09	215.44
379.47	215.42
379.84	215.39
380.22	215.33
380.60	215.29
380.98	215.24
381.36	215.21
381.73	215.17
382.11	215.17
382.49	215.12
382.87	215.08
383.25	215.05
383.62	215.24
384.00	215.17
384.38	215.15
384.76	215.19
385.13	215.22
385.51	215.20
385.89	215.17
386.27	215.17
386.64	215.17
387.02	215.10
387.40	215.04
387.78	215.01
388.15	215.00
388.53	214.96
388.91	214.96
389.29	214.91
389.66	214.88
390.04	214.87
390.42	214.89
390.79	214.94
391.17	214.92
391.55	214.69
391.92	214.70
392.30	214.76
392.68	214.70
393.05	214.68
393.43	214.68
393.81	214.69
394.18	214.67
394.56	214.69
394.94	214.77
395.31	214.78
395.69	214.86
396.06	214.87
396.44	214.90
396.82	214.93
397.19	215.04
397.57	215.08
397.95	215.11
398.32	215.10
398.70	215.12
399.07	215.19
399.45	215.24
399.82	215.29
400.20	215.33
400.58	215.38
400.95	215.37
401.33	215.49
401.70	215.73
402.08	215.82
402.45	215.89
402.83	216.06
403.20	216.14
403.58	216.22
403.95	216.36
404.33	216.54
404.71	216.67
405.08	216.93
405.46	217.12
405.83	217.35
406.21	217.55
406.58	217.79
406.96	218.03
407.33	218.30
407.70	218.64
408.08	219.07
408.45	219.42
408.83	219.81
409.20	220.16
409.58	220.40
409.95	220.86
410.33	221.34
410.70	221.75
411.08	222.32
411.45	222.91
411.82	223.50
412.20	224.20
412.57	225.04
412.95	225.61
413.32	226.44
413.69	227.24
414.07	228.15
414.44	229.13
414.82	230.15
415.19	231.35
415.56	232.50
415.94	233.72
416.31	235.16
416.68	236.59
417.06	238.19
417.43	239.75
417.81	241.46
418.18	243.27
418.55	245.22
418.93	247.29
419.30	249.41
419.67	251.67
420.04	253.97
420.42	256.38
420.79	259.21
421.16	262.04
421.54	264.97
421.91	267.97
422.28	271.10
422.66	274.42
423.03	277.71
423.40	281.10
423.77	284.69
424.15	288.35
424.52	292.19
424.89	296.42
425.26	300.52
425.64	304.43
426.01	308.72
426.38	313.20
426.75	317.76
427.13	322.52
427.50	327.54
427.87	332.81
428.24	338.02
428.61	343.02
428.99	348.56
429.36	354.62
429.73	360.54
430.10	366.41
430.47	372.53
430.85	378.83
431.22	385.58
431.59	392.74
431.96	399.64
432.33	407.18
432.70	414.44
433.08	423.08
433.45	431.21
433.82	439.24
434.19	448.13
434.56	456.87
434.93	465.28
435.30	473.56
435.68	482.68
436.05	491.67
436.42	500.67
436.79	508.91
437.16	517.72
437.53	527.08
437.90	536.29
438.27	545.30
438.64	554.55
439.01	563.15
439.38	570.77
439.75	578.11
440.13	586.56
440.50	594.52
440.87	600.91
441.24	607.62
441.61	615.04
441.98	620.53
442.35	626.90
442.72	633.22
443.09	639.35
443.46	643.12
443.83	645.76
444.20	647.99
444.57	651.16
444.94	652.60
445.31	654.09
445.68	655.55
446.05	656.18
446.42	655.45
446.79	654.50
447.16	653.45
447.53	652.70
447.90	649.43
448.27	646.23
448.64	641.60
449.01	638.24
449.37	632.28
449.74	626.62
450.11	619.72
450.48	612.33
450.85	604.84
451.22	598.34
451.59	592.18
451.96	586.32
452.33	578.44
452.70	571.33
453.07	562.80
453.43	554.13
453.80	545.76
454.17	537.66
454.54	530.03
454.91	521.77
455.28	513.73
455.65	506.26
456.02	498.69
456.38	492.34
456.75	484.43
457.12	477.81
457.49	471.19
457.86	464.98
458.23	459.58
458.59	453.59
458.96	447.56
459.33	442.22
459.70	436.79
460.07	432.44
460.43	427.54
460.80	422.89
461.17	418.86
461.54	414.64
461.91	410.59
462.27	406.49
462.64	403.04
463.01	399.22
463.38	395.46
463.74	391.73
464.11	388.44
464.48	385.57
464.85	382.51
465.21	380.10
465.58	377.45
465.95	374.22
466.32	371.56
466.68	368.92
467.05	366.24
467.42	363.66
467.78	360.96
468.15	358.36
468.52	356.47
468.88	353.96
469.25	351.70
469.62	349.96
469.98	347.99
470.35	346.15
470.72	344.41
471.08	342.61
471.45	341.06
471.82	339.51
472.18	337.81
472.55	336.61
472.92	335.16
473.28	333.91
473.65	332.75
474.02	331.63
474.38	330.73
474.75	329.97
475.11	329.15
475.48	328.58
475.85	328.07
476.21	327.56
476.58	327.20
476.94	326.97
477.31	326.64
477.67	326.37
478.04	326.21
478.41	326.13
478.77	326.26
479.14	326.22
479.50	326.33
479.87	326.61
480.23	326.89
480.60	327.13
480.96	327.38
481.33	327.97
481.69	328.55
482.06	329.08
482.42	329.56
482.79	330.15
483.15	330.89
483.52	331.84
483.88	332.69
484.25	333.62
484.61	334.64
484.98	335.69
485.34	336.99
485.71	338.38
486.07	339.86
486.44	341.20
486.80	342.83
487.17	344.51
487.53	346.37
487.90	348.19
488.26	350.18
488.62	352.40
488.99	354.48
489.35	356.63
489.72	359.02
490.08	361.50
490.44	364.06
490.81	366.76
491.17	369.49
491.54	372.50
491.90	375.51
492.26	378.77
492.63	382.17
492.99	385.63
493.36	389.28
493.72	393.17
494.08	397.19
494.45	401.34
494.81	405.72
495.17	410.16
495.54	414.96
495.90	419.83
496.26	424.69
496.63	429.82
496.99	435.23
497.35	440.72
497.72	446.50
498.08	452.40
498.44	458.55
498.80	464.95
499.17	471.43
499.53	478.12
499.89	485.00
500.26	491.97
500.62	499.06
500.98	506.44
501.34	513.88
501.71	521.67
502.07	529.46
502.43	537.44
502.79	545.59
503.16	553.89
503.52	562.47
503.88	571.22
504.24	580.16
504.60	589.22
504.97	598.51
505.33	607.83
505.69	617.76
506.05	627.60
506.41	637.53
506.78	647.60
507.14	657.88
507.50	668.26
507.86	678.95
508.22	689.71
508.59	700.33
508.95	711.36
509.31	722.53
509.67	734.05
510.03	745.44
510.39	757.12
510.75	768.92
511.12	780.84
511.48	792.91
511.84	805.24
512.20	817.59
512.56	830.30
512.92	843.14
513.28	855.77
513.64	868.52
514.00	881.27
514.37	894.24
514.73	907.37
515.09	920.44
515.45	933.41
515.81	946.44
516.17	959.89
516.53	973.16
516.89	986.29
517.25	999.40
517.61	1012.95
517.97	1026.39
518.33	1039.56
518.69	1053.09
519.05	1066.84
519.41	1080.46
519.77	1094.37
520.13	1107.63
520.49	1120.76
520.85	1134.17
521.21	1147.54
521.57	1161.33
521.93	1174.51
522.29	1188.31
522.65	1201.96
523.01	1215.59
523.37	1228.88
523.73	1242.25
524.09	1255.53
524.45	1269.07
524.81	1282.69
525.17	1296.09
525.53	1309.24
525.89	1322.61
526.25	1335.88
526.61	1348.79
526.97	1362.01
527.33	1374.99
527.68	1388.53
528.04	1402.14
528.40	1415.25
528.76	1428.72
529.12	1441.67
529.48	1454.92
529.84	1467.17
530.20	1480.02
530.56	1492.76
530.91	1506.14
531.27	1519.06
531.63	1531.79
531.99	1544.50
532.35	1556.72
532.71	1569.20
533.07	1582.33
533.42	1594.62
533.78	1606.82
534.14	1619.02
534.50	1630.26
534.86	1642.08
535.21	1653.07
535.57	1664.70
535.93	1676.07
536.29	1687.22
536.65	1698.72
537.00	1709.81
537.36	1721.34
537.72	1732.44
538.08	1743.93
538.44	1754.85
538.79	1766.03
539.15	1777.09
539.51	1788.01
539.87	1799.52
540.22	1810.42
540.58	1821.40
540.94	1832.64
541.29	1843.05
541.65	1852.96
542.01	1863.54
542.37	1873.42
542.72	1883.50
543.08	1893.34
543.44	1903.98
543.79	1913.30
544.15	1922.81
544.51	1932.81
544.87	1942.67
545.22	1952.00
545.58	1960.93
545.94	1969.96
546.29	1978.60
546.65	1986.87
547.01	1995.22
547.36	2002.80
547.72	2010.59
548.07	2018.16
548.43	2025.73
548.79	2033.66
549.14	2041.68
549.50	2050.32
549.86	2058.54
550.21	2066.08
550.57	2073.81
550.92	2080.49
551.28	2088.17
551.64	2095.38
551.99	2102.99
552.35	2110.18
552.70	2117.05
553.06	2123.64
553.41	2129.88
553.77	2136.27
554.13	2142.88
554.48	2149.93
554.84	2157.21
555.19	2163.86
555.55	2170.30
555.90	2176.60
556.26	2183.32
556.61	2189.40
556.97	2194.11
557.32	2199.68
557.68	2206.07
558.03	2211.78
558.39	2217.34
558.74	2223.10
559.10	2228.63
559.45	2234.22
559.81	2239.86
560.16	2245.36
560.52	2251.22
560.87	2257.63
561.23	2263.46
561.58	2270.08
561.94	2275.24
562.29	2279.85
562.64	2285.78
563.00	2291.45
563.35	2296.90
563.71	2302.49
564.06	2308.20
564.42	2314.07
564.77	2319.08
565.12	2324.35
565.48	2329.46
565.83	2334.77
566.19	2340.10
566.54	2345.44
566.89	2349.99
567.25	2354.43
567.60	2360.06
567.96	2365.10
568.31	2369.58
568.66	2373.93
569.02	2377.72
569.37	2381.25
569.72	2385.63
570.08	2389.02
570.43	2392.07
570.78	2395.13
571.14	2397.61
571.49	2400.61
571.84	2403.98
572.20	2406.89
572.55	2409.83
572.90	2411.98
573.26	2414.58
573.61	2417.08
573.96	2419.03
574.31	2420.97
574.67	2422.67
575.02	2423.20
575.37	2424.66
575.72	2425.21
576.08	2426.44
576.43	2426.46
576.78	2426.96
577.13	2428.23
577.49	2429.40
577.84	2430.18
578.19	2431.46
578.54	2431.91
578.90	2432.49
579.25	2432.30
579.60	2431.81
579.95	2430.72
580.30	2430.63
580.66	2429.84
581.01	2428.00
581.36	2425.40
581.71	2423.78
582.06	2422.48
582.42	2421.46
582.77	2418.97
583.12	2417.22
583.47	2415.65
583.82	2414.80
584.17	2413.23
584.53	2411.04
584.88	2408.73
585.23	2406.71
585.58	2404.19
585.93	2402.13
586.28	2399.80
586.63	2397.13
586.98	2394.94
587.34	2392.87
587.69	2390.09
588.04	2387.86
588.39	2386.17
588.74	2383.71
589.09	2380.72
589.44	2377.44
589.79	2374.83
590.14	2372.53
590.49	2369.49
590.84	2365.57
591.19	2362.17
591.54	2358.92
591.89	2354.87
592.25	2351.40
592.60	2347.19
592.95	2342.86
593.30	2338.43
593.65	2333.87
594.00	2329.36
594.35	2326.30
594.70	2321.52
595.05	2317.04
595.40	2311.51
595.75	2305.59
596.10	2301.79
596.45	2297.06
596.80	2292.38
597.15	2287.11
597.50	2281.33
597.85	2276.41
598.19	2271.31
598.54	2265.58
598.89	2260.15
599.24	2255.42
599.59	2249.23
599.94	2243.19
600.29	2237.27
600.64	2231.21
600.99	2224.28
601.34	2218.69
601.69	2211.59
602.04	2205.13
602.39	2198.44
602.74	2192.21
603.08	2186.84
603.43	2180.40
603.78	2173.47
604.13	2166.37
604.48	2159.04
604.83	2152.79
605.18	2146.50
605.53	2139.55
605.87	2132.54
606.22	2125.76
606.57	2117.76
606.92	2109.75
607.27	2102.79
607.62	2096.08
607.96	2089.12
608.31	2082.76
608.66	2075.00
609.01	2067.36
609.36	2060.38
609.70	2052.74
610.05	2044.98
610.40	2036.61
610.75	2028.26
611.10	2020.50
611.44	2011.59
611.79	2003.00
612.14	1993.06
612.49	1982.35
612.83	1972.86
613.18	1963.52
613.53	1954.25
613.88	1944.68
614.22	1936.11
614.57	1926.37
614.92	1915.86
615.27	1905.73
615.61	1895.64
615.96	1886.04
616.31	1876.42
616.65	1866.88
617.00	1857.24
617.35	1847.64
617.70	1837.99
618.04	1827.99
618.39	1817.87
618.74	1808.19
619.08	1798.43
619.43	1789.86
619.78	1781.73
620.12	1773.08
620.47	1763.71
620.82	1753.49
621.16	1743.84
621.51	1734.10
621.85	1724.23
622.20	1713.96
622.55	1703.44
622.89	1693.43
623.24	1683.81
623.59	1674.08
623.93	1664.08
624.28	1654.24
624.62	1644.29
624.97	1634.03
625.32	1624.30
625.66	1615.42
626.01	1606.89
626.35	1597.75
626.70	1587.69
627.04	1577.74
627.39	1567.84
627.73	1558.66
628.08	1549.76
628.43	1540.42
628.77	1531.20
629.12	1522.45
629.46	1514.73
629.81	1506.58
630.15	1497.34
630.50	1487.76
630.84	1477.38
631.19	1467.60
631.53	1458.50
631.88	1448.44
632.22	1438.58
632.57	1429.34
632.91	1419.32
633.26	1409.48
633.60	1400.02
633.95	1390.88
634.29	1381.42
634.64	1372.04
634.98	1362.02
635.32	1352.87
635.67	1344.38
636.01	1335.21
636.36	1325.54
636.70	1316.11
637.05	1306.71
637.39	1297.88
637.73	1289.27
638.08	1281.78
638.42	1273.70
638.77	1264.97
639.11	1256.76
639.45	1249.02
639.80	1240.57
640.14	1231.92
640.49	1223.19
640.83	1214.34
641.17	1206.24
641.52	1198.25
641.86	1189.90
642.20	1182.22
642.55	1173.63
642.89	1164.70
643.23	1156.03
643.58	1147.96
643.92	1138.96
644.26	1130.33
644.61	1121.89
644.95	1113.16
645.29	1103.97
645.64	1094.84
645.98	1086.29
646.32	1078.40
646.66	1069.99
647.01	1061.71
647.35	1053.76
647.69	1045.41
648.04	1037.22
648.38	1028.43
648.72	1019.66
649.06	1011.23
649.41	1003.05
649.75	995.11
650.09	987.38
650.43	979.46
650.78	971.21
651.12	963.53
651.46	956.16
651.80	948.99
652.14	941.71
652.49	934.31
652.83	926.99
653.17	919.36
653.51	911.79
653.85	904.47
654.20	897.29
654.54	889.79
654.88	882.62
655.22	875.48
655.56	868.42
655.90	861.59
656.25	854.90
656.59	848.03
656.93	841.02
657.27	833.92
657.61	826.93
657.95	820.83
658.29	814.92
658.64	808.84
658.98	802.32
659.32	795.87
659.66	789.67
660.00	783.39
660.34	777.39
660.68	771.32
661.02	764.93
661.36	758.94
661.70	753.12
662.05	747.53
662.39	741.97
662.73	736.63
663.07	731.29
663.41	725.72
663.75	719.96
664.09	714.36
664.43	708.93
664.77	703.68
665.11	697.89
665.45	692.01
665.79	686.20
666.13	680.53
666.47	674.98
666.81	669.51
667.15	664.06
667.49	658.89
667.83	653.61
668.17	648.43
668.51	643.35
668.85	638.47
669.19	633.56
669.53	628.49
669.87	623.35
670.21	618.58
670.55	613.80
670.89	609.31
671.23	604.94
671.57	600.48
671.91	596.13
672.25	591.99
672.58	587.77
672.92	583.69
673.26	579.75
673.60	575.83
673.94	572.04
674.28	568.49
674.62	564.70
674.96	561.00
675.30	557.47
675.64	553.74
675.97	550.05
676.31	546.42
676.65	542.84
676.99	539.42
677.33	535.51
677.67	531.86
678.01	528.03
678.34	524.38
678.68	520.89
679.02	517.29
679.36	513.60
679.70	509.96
680.04	506.38
680.37	502.91
680.71	499.58
681.05	496.35
681.39	493.00
681.73	489.76
682.06	486.63
682.40	483.56
682.74	480.33
683.08	477.08
683.42	473.84
683.75	470.83
684.09	467.73
684.43	464.96
684.77	462.08
685.10	459.21
685.44	456.30
685.78	453.31
686.12	450.49
686.45	447.69
686.79	445.05
687.13	442.47
687.46	439.80
687.80	437.07
688.14	434.18
688.48	431.52
688.81	428.87
689.15	426.26
689.49	423.62
689.82	421.07
690.16	418.46
690.50	415.99
690.83	413.49
691.17	410.90
691.51	408.37
691.84	406.05
692.18	403.77
692.52	401.54
692.85	399.41
693.19	397.18
693.52	395.03
693.86	392.79
694.20	390.57
694.53	388.42
694.87	386.23
695.21	384.09
695.54	381.94
695.88	379.73
696.21	377.53
696.55	375.35
696.88	373.27
697.22	371.29
697.56	369.35
697.89	367.42
698.23	365.66
698.56	363.87
698.90	362.04
699.23	360.15
699.57	358.21
699.90	356.26
700.24	354.47
700.58	352.67
700.91	350.97
701.25	349.34
701.58	347.70
701.92	346.11
702.25	344.53
702.59	342.86
702.92	341.29
703.26	339.68
703.59	338.19
703.93	336.92
704.26	335.46
704.60	333.97
704.93	332.48
705.26	330.92
705.60	329.45
705.93	327.94
706.27	326.55
706.60	325.28
706.94	324.09
707.27	322.70
707.61	321.32
707.94	319.96
708.27	318.43
708.61	316.95
708.94	315.52
709.28	314.12
709.61	312.84
709.94	311.60
710.28	310.40
710.61	309.22
710.95	307.77
711.28	306.65
711.61	305.41
711.95	304.24
712.28	303.02
712.61	301.77
712.95	300.71
713.28	299.64
713.61	298.46
713.95	297.22
714.28	296.19
714.61	295.14
714.95	294.13
715.28	293.10
715.61	292.07
715.95	291.13
716.28	290.18
716.61	289.23
716.95	288.19
717.28	287.24
717.61	286.27
717.94	285.35
718.28	284.35
718.61	283.47
718.94	282.51
719.27	281.65
719.61	280.83
719.94	279.94
720.27	278.99
720.60	278.08
720.94	277.28
721.27	276.52
721.60	275.78
721.93	275.01
722.27	274.37
722.60	273.71
722.93	272.95
723.26	272.29
723.59	271.56
723.93	270.94
724.26	270.26
724.59	269.56
724.92	268.97
725.25	268.41
725.59	267.81
725.92	267.33
726.25	266.76
726.58	266.18
726.91	265.56
727.24	265.04
727.57	264.51
727.91	263.91
728.24	263.31
728.57	262.73
728.90	262.17
729.23	261.52
729.56	261.05
729.89	260.51
730.22	259.92
730.55	259.38
730.89	258.82
731.22	258.27
731.55	257.79
731.88	257.26
732.21	256.71
732.54	256.16
732.87	255.62
733.20	255.12
733.53	254.58
733.86	254.13
734.19	253.60
734.52	253.17
734.85	252.88
735.18	252.40
735.51	252.04
735.84	251.60
736.17	251.27
736.50	250.71
736.83	250.54
737.16	250.15
737.49	249.78
737.82	249.37
738.15	249.00
738.48	248.57
738.81	248.16
739.14	247.70
739.47	247.32
739.80	246.94
740.13	246.60
740.46	246.25
740.79	245.84
741.12	245.49
741.45	245.08
741.78	244.65
742.11	244.36
742.44	243.93
742.77	243.63
743.10	243.25
743.43	242.92
743.75	242.34
744.08	242.27
744.41	241.90
744.74	241.55
745.07	241.17
745.40	240.88
745.73	240.67
746.06	240.36
746.39	240.07
746.71	239.74
747.04	239.38
747.37	239.04
747.70	238.76
748.03	238.47
748.36	238.22
748.68	237.90
749.01	237.58
749.34	237.30
749.67	236.98
750.00	236.70
750.33	236.58
750.65	236.34
750.98	235.77
751.31	235.55
751.64	235.32
751.97	235.22
752.29	234.94
752.62	234.54
752.95	234.26
753.28	233.99
753.60	233.72
753.93	233.56
754.26	233.37
754.59	233.08
754.91	232.85
755.24	232.55
755.57	232.30
755.90	232.07
756.22	231.82
756.55	231.57
756.88	231.31
757.20	230.92
757.53	230.63
757.86	230.44
758.19	230.21
758.51	229.99
758.84	229.67
759.17	229.51
759.49	229.35
759.82	229.29
760.15	229.14
760.47	228.98
760.80	228.72
761.13	228.51
761.45	228.29
761.78	228.08
762.11	227.93
762.43	227.76
762.76	227.55
763.08	227.39
763.41	227.24
763.74	227.09
764.06	226.98
764.39	226.84
764.71	226.69
765.04	226.52
765.37	226.37
765.69	226.21
766.02	226.02
766.34	225.88
766.67	225.67
767.00	225.54
767.32	225.52
767.65	225.49
767.97	225.38
768.30	225.27
768.62	225.16
768.95	225.01
769.27	224.88
769.60	224.77
769.92	224.63
770.25	224.48
770.57	224.33
770.90	224.19
771.22	224.05
771.55	223.94
771.87	223.83
772.20	223.70
772.52	223.76
772.85	223.90
773.17	223.78
773.50	223.64
773.82	223.51
774.15	223.31
774.47	223.09
774.80	222.96
775.12	222.90
775.45	222.81
775.77	222.70
776.09	222.62
776.42	222.54
776.74	222.51
777.07	222.43
777.39	222.35
777.72	222.25
778.04	222.21
778.36	222.11
778.69	222.04
779.01	221.95
779.33	221.65
779.66	221.36
779.98	221.24
780.31	221.17
780.63	221.20
780.95	221.14
781.28	221.05
781.60	220.98
781.92	220.87
782.25	220.80
782.57	220.72
782.89	220.62
783.22	220.55
783.54	220.46
783.86	220.38
784.19	220.31
784.51	220.30
784.83	220.23
785.16	220.14
785.48	220.12
785.80	220.06
786.12	220.03
