SpectraSuite Data File
++++++++++++++++++++++++++++++++++++
Date: Tue Jan 29 16:51:47 EST 2013
User: group
Dark Spectrum Present: No
Reference Spectrum Present: No
Number of Sampled Component Spectra: 1
Spectrometers: USB2E7196
Integration Time (usec): 65000 (USB2E7196)
Spectra Averaged: 100 (USB2E7196)
Boxcar Smoothing: 10 (USB2E7196)
Correct for Electrical Dark: No (USB2E7196)
Strobe/Lamp Enabled: No (USB2E7196)
Correct for Detector Non-linearity: No (USB2E7196)
Correct for Stray Light: No (USB2E7196)
Number of Pixels in Processed Spectrum: 2048
>>>>>Begin Processed Spectral Data<<<<<
339.09	0.00
339.48	201.34
339.86	202.99
340.24	204.23
340.63	205.15
341.01	209.83
341.39	208.21
341.78	210.00
342.16	211.43
342.54	211.21
342.93	200.64
343.31	210.79
343.69	211.31
344.07	211.76
344.46	212.21
344.84	212.62
345.22	212.78
345.60	213.04
345.99	213.22
346.37	213.35
346.75	213.46
347.13	213.50
347.52	213.57
347.90	213.70
348.28	213.72
348.66	213.80
349.05	213.78
349.43	213.84
349.81	213.90
350.19	213.95
350.57	213.98
350.96	214.08
351.34	214.14
351.72	214.28
352.10	214.39
352.48	214.42
352.87	214.47
353.25	214.56
353.63	214.65
354.01	214.70
354.39	214.79
354.77	214.88
355.15	215.03
355.54	215.06
355.92	215.03
356.30	215.14
356.68	215.35
357.06	215.43
357.44	215.46
357.82	215.53
358.20	215.63
358.58	215.74
358.97	215.78
359.35	215.93
359.73	216.02
360.11	216.10
360.49	216.20
360.87	216.28
361.25	216.36
361.63	216.47
362.01	216.58
362.39	216.60
362.77	216.66
363.15	216.70
363.53	216.76
363.91	216.85
364.29	216.85
364.67	216.67
365.05	216.66
365.43	216.72
365.81	216.74
366.19	216.82
366.57	216.89
366.95	216.93
367.33	216.87
367.71	216.91
368.09	216.95
368.47	216.95
368.85	216.94
369.23	216.96
369.61	216.89
369.99	216.94
370.37	216.97
370.75	217.07
371.13	217.02
371.51	217.00
371.89	216.98
372.27	216.98
372.65	217.00
373.03	217.03
373.41	216.99
373.78	216.97
374.16	216.83
374.54	216.73
374.92	216.68
375.30	216.66
375.68	216.54
376.06	216.51
376.44	216.46
376.82	216.43
377.19	216.40
377.57	216.33
377.95	216.19
378.33	216.11
378.71	215.96
379.09	215.90
379.47	215.87
379.84	215.80
380.22	215.74
380.60	215.65
380.98	215.58
381.36	215.54
381.73	215.48
382.11	215.48
382.49	215.47
382.87	215.40
383.25	215.38
383.62	215.60
384.00	215.53
384.38	215.51
384.76	215.54
385.13	215.57
385.51	215.55
385.89	215.48
386.27	215.44
386.64	215.44
387.02	215.40
387.40	215.34
387.78	215.34
388.15	215.32
388.53	215.32
388.91	215.31
389.29	215.27
389.66	215.27
390.04	215.21
390.42	215.20
390.79	215.18
391.17	215.13
391.55	214.85
391.92	214.81
392.30	214.80
392.68	214.73
393.05	214.69
393.43	214.69
393.81	214.71
394.18	214.68
394.56	214.69
394.94	214.73
395.31	214.73
395.69	214.80
396.06	214.82
396.44	214.82
396.82	214.85
397.19	214.98
397.57	214.98
397.95	215.06
398.32	215.04
398.70	215.07
399.07	215.15
399.45	215.19
399.82	215.26
400.20	215.29
400.58	215.34
400.95	215.32
401.33	215.45
401.70	215.66
402.08	215.76
402.45	215.83
402.83	215.96
403.20	216.08
403.58	216.13
403.95	216.28
404.33	216.45
404.71	216.58
405.08	216.84
405.46	216.99
405.83	217.18
406.21	217.38
406.58	217.62
406.96	217.84
407.33	218.14
407.70	218.40
408.08	218.88
408.45	219.25
408.83	219.65
409.20	219.96
409.58	220.25
409.95	220.70
410.33	221.19
410.70	221.61
411.08	222.17
411.45	222.77
411.82	223.32
412.20	224.01
412.57	224.83
412.95	225.38
413.32	226.24
413.69	227.10
414.07	228.04
414.44	229.04
414.82	230.06
415.19	231.21
415.56	232.46
415.94	233.63
416.31	235.04
416.68	236.44
417.06	238.09
417.43	239.65
417.81	241.43
418.18	243.23
418.55	245.21
418.93	247.24
419.30	249.36
419.67	251.62
420.04	253.91
420.42	256.31
420.79	259.16
421.16	261.99
421.54	264.90
421.91	267.86
422.28	270.93
422.66	274.24
423.03	277.53
423.40	280.89
423.77	284.50
424.15	288.17
424.52	292.07
424.89	296.21
425.26	300.29
425.64	304.19
426.01	308.51
426.38	313.02
426.75	317.63
427.13	322.40
427.50	327.41
427.87	332.66
428.24	337.90
428.61	342.91
428.99	348.40
429.36	354.44
429.73	360.39
430.10	366.33
430.47	372.45
430.85	378.79
431.22	385.53
431.59	392.73
431.96	399.55
432.33	407.05
432.70	414.33
433.08	422.96
433.45	431.02
433.82	439.05
434.19	447.92
434.56	456.62
434.93	465.01
435.30	473.26
435.68	482.44
436.05	491.50
436.42	500.43
436.79	508.64
437.16	517.43
437.53	526.77
437.90	536.01
438.27	544.98
438.64	554.29
439.01	562.83
439.38	570.44
439.75	577.82
440.13	586.32
440.50	594.34
440.87	600.78
441.24	607.48
441.61	614.90
441.98	620.38
442.35	626.76
442.72	633.09
443.09	639.26
443.46	642.98
443.83	645.51
444.20	647.75
444.57	650.98
444.94	652.42
445.31	653.88
445.68	655.28
446.05	656.02
446.42	655.21
446.79	654.28
447.16	653.26
447.53	652.55
447.90	649.25
448.27	645.99
448.64	641.29
449.01	638.01
449.37	632.07
449.74	626.38
450.11	619.51
450.48	612.07
450.85	604.60
451.22	598.12
451.59	591.94
451.96	586.13
452.33	578.18
452.70	571.09
453.07	562.51
453.43	553.88
453.80	545.50
454.17	537.49
454.54	529.92
454.91	521.60
455.28	513.51
455.65	505.98
456.02	498.43
456.38	492.04
456.75	484.10
457.12	477.45
457.49	470.82
457.86	464.54
458.23	459.07
458.59	453.04
458.96	446.97
459.33	441.60
459.70	436.12
460.07	431.84
460.43	426.96
460.80	422.35
461.17	418.22
461.54	413.97
461.91	409.90
462.27	405.68
462.64	402.26
463.01	398.48
463.38	394.77
463.74	391.04
464.11	387.83
464.48	384.98
464.85	381.89
465.21	379.46
465.58	376.84
465.95	373.75
466.32	371.15
466.68	368.59
467.05	365.97
467.42	363.43
467.78	360.73
468.15	358.09
468.52	356.16
468.88	353.70
469.25	351.42
469.62	349.59
469.98	347.69
470.35	345.82
470.72	344.09
471.08	342.23
471.45	340.71
471.82	339.13
472.18	337.43
472.55	336.18
472.92	334.74
473.28	333.47
473.65	332.32
474.02	331.18
474.38	330.24
474.75	329.49
475.11	328.65
475.48	328.05
475.85	327.58
476.21	327.07
476.58	326.67
476.94	326.43
477.31	326.12
477.67	325.85
478.04	325.70
478.41	325.65
478.77	325.86
479.14	325.79
479.50	325.92
479.87	326.18
480.23	326.51
480.60	326.79
480.96	327.09
481.33	327.68
481.69	328.25
482.06	328.77
482.42	329.23
482.79	329.79
483.15	330.55
483.52	331.55
483.88	332.45
484.25	333.43
484.61	334.45
484.98	335.50
485.34	336.82
485.71	338.21
486.07	339.63
486.44	340.90
486.80	342.52
487.17	344.17
487.53	346.01
487.90	347.87
488.26	349.91
488.62	352.05
488.99	354.08
489.35	356.25
489.72	358.60
490.08	361.16
490.44	363.74
490.81	366.45
491.17	369.14
491.54	372.13
491.90	375.13
492.26	378.36
492.63	381.75
492.99	385.19
493.36	388.83
493.72	392.73
494.08	396.79
494.45	400.96
494.81	405.32
495.17	409.78
495.54	414.48
495.90	419.26
496.26	424.16
496.63	429.33
496.99	434.71
497.35	440.27
497.72	446.07
498.08	452.00
498.44	458.04
498.80	464.46
499.17	470.94
499.53	477.63
499.89	484.52
500.26	491.46
500.62	498.54
500.98	505.90
501.34	513.32
501.71	521.08
502.07	528.89
502.43	536.84
502.79	544.95
503.16	553.38
503.52	562.05
503.88	570.73
504.24	579.74
504.60	588.83
504.97	598.08
505.33	607.31
505.69	617.15
506.05	627.03
506.41	636.85
506.78	646.89
507.14	657.15
507.50	667.56
507.86	678.23
508.22	689.00
508.59	699.68
508.95	710.66
509.31	721.81
509.67	733.25
510.03	744.61
510.39	756.25
510.75	767.94
511.12	779.75
511.48	791.81
511.84	804.00
512.20	816.24
512.56	828.76
512.92	841.58
513.28	854.20
513.64	867.00
514.00	879.88
514.37	892.83
514.73	905.94
515.09	918.90
515.45	931.88
515.81	944.90
516.17	958.23
516.53	971.62
516.89	984.80
517.25	998.09
517.61	1011.67
517.97	1025.13
518.33	1038.33
518.69	1051.95
519.05	1065.78
519.41	1079.45
519.77	1093.43
520.13	1106.80
520.49	1119.97
520.85	1133.27
521.21	1146.58
521.57	1160.18
521.93	1173.20
522.29	1187.02
522.65	1200.67
523.01	1214.27
523.37	1227.40
523.73	1240.75
524.09	1253.94
524.45	1267.46
524.81	1280.84
525.17	1294.19
525.53	1307.44
525.89	1320.81
526.25	1333.92
526.61	1346.68
526.97	1359.74
527.33	1372.72
527.68	1386.19
528.04	1399.79
528.40	1413.01
528.76	1426.41
529.12	1439.36
529.48	1452.72
529.84	1465.08
530.20	1477.86
530.56	1490.42
530.91	1503.85
531.27	1516.81
531.63	1529.50
531.99	1542.30
532.35	1554.55
532.71	1567.00
533.07	1579.96
533.42	1592.27
533.78	1604.41
534.14	1616.60
534.50	1627.96
534.86	1639.67
535.21	1650.63
535.57	1662.13
535.93	1673.54
536.29	1684.71
536.65	1696.26
537.00	1707.35
537.36	1718.64
537.72	1729.79
538.08	1741.38
538.44	1752.47
538.79	1763.66
539.15	1774.71
539.51	1785.52
539.87	1796.95
540.22	1807.99
540.58	1819.01
540.94	1829.97
541.29	1840.37
541.65	1850.21
542.01	1860.69
542.37	1870.72
542.72	1880.91
543.08	1890.84
543.44	1901.41
543.79	1910.73
544.15	1920.22
544.51	1930.28
544.87	1940.20
545.22	1949.41
545.58	1958.34
545.94	1967.29
546.29	1975.86
546.65	1984.26
547.01	1992.61
547.36	2000.40
547.72	2008.15
548.07	2015.74
548.43	2023.55
548.79	2031.44
549.14	2039.60
549.50	2048.28
549.86	2056.23
550.21	2063.79
550.57	2071.54
550.92	2078.33
551.28	2085.84
551.64	2093.15
551.99	2100.69
552.35	2107.93
552.70	2114.91
553.06	2121.64
553.41	2127.81
553.77	2134.32
554.13	2140.77
554.48	2147.72
554.84	2154.94
555.19	2161.35
555.55	2167.69
555.90	2173.95
556.26	2180.71
556.61	2186.78
556.97	2191.50
557.32	2197.25
557.68	2203.66
558.03	2209.44
558.39	2214.79
558.74	2220.79
559.10	2226.33
559.45	2231.78
559.81	2237.27
560.16	2242.79
560.52	2248.62
560.87	2255.03
561.23	2260.79
561.58	2267.33
561.94	2272.42
562.29	2276.92
562.64	2283.04
563.00	2288.74
563.35	2294.18
563.71	2299.78
564.06	2305.53
564.42	2311.44
564.77	2316.65
565.12	2321.93
565.48	2326.66
565.83	2332.03
566.19	2337.21
566.54	2342.37
566.89	2346.80
567.25	2351.28
567.60	2356.93
567.96	2361.92
568.31	2366.31
568.66	2370.69
569.02	2374.53
569.37	2378.16
569.72	2382.47
570.08	2385.66
570.43	2388.69
570.78	2391.74
571.14	2394.14
571.49	2397.10
571.84	2400.45
572.20	2403.14
572.55	2405.88
572.90	2408.23
573.26	2410.97
573.61	2413.47
573.96	2415.46
574.31	2417.64
574.67	2419.33
575.02	2419.81
575.37	2421.13
575.72	2421.71
576.08	2422.92
576.43	2423.05
576.78	2423.48
577.13	2424.87
577.49	2426.06
577.84	2427.01
578.19	2428.19
578.54	2428.67
578.90	2429.04
579.25	2428.77
579.60	2428.34
579.95	2427.34
580.30	2427.11
580.66	2426.07
581.01	2424.31
581.36	2421.79
581.71	2420.07
582.06	2418.85
582.42	2418.02
582.77	2415.53
583.12	2413.66
583.47	2412.01
583.82	2411.12
584.17	2409.68
584.53	2407.31
584.88	2405.00
585.23	2402.76
585.58	2400.14
585.93	2398.09
586.28	2395.87
586.63	2393.24
586.98	2390.93
587.34	2388.84
587.69	2386.23
588.04	2384.09
588.39	2382.49
588.74	2380.01
589.09	2377.08
589.44	2373.54
589.79	2370.77
590.14	2368.64
590.49	2365.77
590.84	2361.87
591.19	2358.44
591.54	2354.97
591.89	2350.93
592.25	2347.50
592.60	2343.22
592.95	2339.12
593.30	2334.73
593.65	2330.17
594.00	2325.76
594.35	2322.75
594.70	2317.97
595.05	2313.42
595.40	2307.82
595.75	2301.89
596.10	2298.10
596.45	2293.27
596.80	2288.76
597.15	2283.40
597.50	2277.49
597.85	2272.54
598.19	2267.31
598.54	2261.51
598.89	2256.12
599.24	2251.39
599.59	2245.19
599.94	2239.29
600.29	2233.16
600.64	2227.27
600.99	2220.43
601.34	2214.78
601.69	2207.73
602.04	2201.36
602.39	2194.77
602.74	2188.65
603.08	2183.05
603.43	2176.47
603.78	2169.61
604.13	2162.63
604.48	2155.36
604.83	2149.19
605.18	2142.95
605.53	2136.01
605.87	2128.95
606.22	2122.28
606.57	2114.41
606.92	2106.43
607.27	2099.57
607.62	2093.07
607.96	2085.96
608.31	2079.53
608.66	2071.72
609.01	2064.08
609.36	2056.81
609.70	2048.94
610.05	2041.03
610.40	2032.80
610.75	2024.42
611.10	2016.48
611.44	2007.33
611.79	1998.76
612.14	1988.86
612.49	1978.03
612.83	1968.63
613.18	1959.35
613.53	1950.10
613.88	1940.66
614.22	1932.19
614.57	1922.28
614.92	1911.64
615.27	1901.47
615.61	1891.25
615.96	1881.70
616.31	1872.12
616.65	1862.84
617.00	1853.36
617.35	1843.87
617.70	1834.21
618.04	1824.39
618.39	1814.43
618.74	1805.07
619.08	1795.37
619.43	1786.71
619.78	1778.61
620.12	1770.14
620.47	1760.76
620.82	1750.48
621.16	1740.63
621.51	1730.74
621.85	1721.08
622.20	1710.99
622.55	1700.49
622.89	1690.73
623.24	1681.08
623.59	1671.35
623.93	1661.27
624.28	1651.45
624.62	1641.54
624.97	1631.38
625.32	1621.53
625.66	1612.73
626.01	1604.01
626.35	1594.77
626.70	1584.80
627.04	1574.92
627.39	1564.86
627.73	1555.73
628.08	1546.94
628.43	1537.42
628.77	1528.35
629.12	1519.51
629.46	1511.64
629.81	1503.63
630.15	1494.27
630.50	1484.59
630.84	1474.25
631.19	1464.40
631.53	1455.26
631.88	1445.26
632.22	1435.26
632.57	1425.99
632.91	1416.08
633.26	1406.35
633.60	1396.90
633.95	1387.72
634.29	1378.21
634.64	1368.96
634.98	1358.99
635.32	1349.80
635.67	1341.52
636.01	1332.19
636.36	1322.56
636.70	1313.17
637.05	1303.72
637.39	1294.92
637.73	1286.33
638.08	1278.77
638.42	1270.91
638.77	1262.20
639.11	1254.03
639.45	1246.41
639.80	1238.16
640.14	1229.52
640.49	1220.75
640.83	1211.99
641.17	1203.93
641.52	1196.02
641.86	1187.56
642.20	1179.73
642.55	1171.07
642.89	1162.24
643.23	1153.84
643.58	1145.81
643.92	1136.80
644.26	1128.22
644.61	1119.90
644.95	1111.27
645.29	1102.22
645.64	1093.01
645.98	1084.55
646.32	1076.79
646.66	1068.37
647.01	1060.08
647.35	1052.06
647.69	1043.82
648.04	1035.69
648.38	1026.94
648.72	1018.22
649.06	1009.94
649.41	1001.89
649.75	994.10
650.09	986.39
650.43	978.44
650.78	970.16
651.12	962.53
651.46	955.25
651.80	948.08
652.14	940.87
652.49	933.40
652.83	926.15
653.17	918.57
653.51	910.82
653.85	903.59
654.20	896.38
654.54	888.91
654.88	881.74
655.22	874.56
655.56	867.47
655.90	860.69
656.25	853.96
656.59	847.15
656.93	840.22
657.27	833.08
657.61	826.06
657.95	819.93
658.29	814.00
658.64	807.96
658.98	801.42
659.32	794.96
659.66	788.74
660.00	782.46
660.34	776.45
660.68	770.41
661.02	764.10
661.36	758.07
661.70	752.29
662.05	746.75
662.39	741.20
662.73	735.88
663.07	730.50
663.41	724.90
663.75	719.18
664.09	713.44
664.43	708.03
664.77	702.77
665.11	697.03
665.45	691.20
665.79	685.18
666.13	679.50
666.47	673.95
666.81	668.48
667.15	663.08
667.49	657.84
667.83	652.62
668.17	647.36
668.51	642.34
668.85	637.39
669.19	632.43
669.53	627.44
669.87	622.29
670.21	617.50
670.55	612.81
670.89	608.35
671.23	604.05
671.57	599.67
671.91	595.39
672.25	591.23
672.58	587.12
672.92	583.11
673.26	579.21
673.60	575.30
673.94	571.54
674.28	567.97
674.62	564.27
674.96	560.45
675.30	556.93
675.64	553.21
675.97	549.59
676.31	545.96
676.65	542.37
676.99	539.04
677.33	535.22
677.67	531.55
678.01	527.68
678.34	524.10
678.68	520.57
679.02	516.91
679.36	513.22
679.70	509.56
680.04	506.03
680.37	502.55
680.71	499.18
681.05	495.94
681.39	492.60
681.73	489.35
682.06	486.35
682.40	483.20
682.74	480.02
683.08	476.76
683.42	473.53
683.75	470.47
684.09	467.33
684.43	464.53
684.77	461.57
685.10	458.74
685.44	455.73
685.78	452.83
686.12	450.01
686.45	447.25
686.79	444.57
687.13	442.00
687.46	439.34
687.80	436.66
688.14	433.82
688.48	431.20
688.81	428.49
689.15	425.85
689.49	423.28
689.82	420.72
690.16	418.15
690.50	415.64
690.83	413.12
691.17	410.57
691.51	408.04
691.84	405.73
692.18	403.46
692.52	401.25
692.85	399.03
693.19	396.90
693.52	394.74
693.86	392.52
694.20	390.31
694.53	388.16
694.87	385.95
695.21	383.77
695.54	381.59
695.88	379.43
696.21	377.21
696.55	375.02
696.88	372.90
697.22	370.89
697.56	368.98
697.89	367.06
698.23	365.32
698.56	363.50
698.90	361.72
699.23	359.80
699.57	357.90
699.90	356.05
700.24	354.20
700.58	352.38
700.91	350.69
701.25	349.09
701.58	347.44
701.92	345.85
702.25	344.26
702.59	342.60
702.92	341.01
703.26	339.44
703.59	337.98
703.93	336.72
704.26	335.29
704.60	333.77
704.93	332.27
705.26	330.73
705.60	329.26
705.93	327.72
706.27	326.36
706.60	325.05
706.94	323.79
707.27	322.38
707.61	321.01
707.94	319.63
708.27	318.10
708.61	316.66
708.94	315.28
709.28	313.93
709.61	312.69
709.94	311.50
710.28	310.27
710.61	309.06
710.95	307.63
711.28	306.51
711.61	305.33
711.95	304.18
712.28	302.98
712.61	301.76
712.95	300.71
713.28	299.62
713.61	298.44
713.95	297.29
714.28	296.26
714.61	295.21
714.95	294.20
715.28	293.15
715.61	292.12
715.95	291.11
716.28	290.15
716.61	289.17
716.95	288.14
717.28	287.18
717.61	286.16
717.94	285.24
718.28	284.21
718.61	283.32
718.94	282.42
719.27	281.53
719.61	280.70
719.94	279.85
720.27	278.86
720.60	277.96
720.94	277.13
721.27	276.38
721.60	275.68
721.93	274.95
722.27	274.29
722.60	273.62
722.93	272.93
723.26	272.27
723.59	271.53
723.93	270.85
724.26	270.21
724.59	269.59
724.92	269.00
725.25	268.47
725.59	267.90
725.92	267.34
726.25	266.77
726.58	266.19
726.91	265.54
727.24	265.04
727.57	264.55
727.91	263.92
728.24	263.33
728.57	262.70
728.90	262.12
729.23	261.52
729.56	261.08
729.89	260.50
730.22	259.89
730.55	259.37
730.89	258.85
731.22	258.31
731.55	257.77
731.88	257.20
732.21	256.57
732.54	256.01
732.87	255.48
733.20	254.98
733.53	254.46
733.86	254.02
734.19	253.51
734.52	253.06
734.85	252.78
735.18	252.32
735.51	251.95
735.84	251.51
736.17	251.12
736.50	250.57
736.83	250.41
737.16	250.03
737.49	249.63
737.82	249.22
738.15	248.86
738.48	248.48
738.81	248.09
739.14	247.72
739.47	247.32
739.80	246.91
740.13	246.58
740.46	246.21
740.79	245.79
741.12	245.46
741.45	245.07
741.78	244.63
742.11	244.34
742.44	243.97
742.77	243.67
743.10	243.31
743.43	242.95
743.75	242.38
744.08	242.29
744.41	241.96
744.74	241.61
745.07	241.21
745.40	240.91
745.73	240.67
746.06	240.34
746.39	240.05
746.71	239.73
747.04	239.38
747.37	239.04
747.70	238.77
748.03	238.41
748.36	238.12
748.68	237.77
749.01	237.40
749.34	237.11
749.67	236.77
750.00	236.46
750.33	236.35
750.65	236.10
750.98	235.54
751.31	235.29
751.64	235.08
751.97	234.99
752.29	234.71
752.62	234.36
752.95	234.06
753.28	233.76
753.60	233.54
753.93	233.33
754.26	233.11
754.59	232.81
754.91	232.60
755.24	232.37
755.57	232.13
755.90	231.91
756.22	231.65
756.55	231.43
756.88	231.20
757.20	230.84
757.53	230.55
757.86	230.35
758.19	230.12
758.51	229.87
758.84	229.53
759.17	229.32
759.49	229.16
759.82	229.10
760.15	228.94
760.47	228.73
760.80	228.46
761.13	228.29
761.45	228.13
761.78	227.94
762.11	227.75
762.43	227.58
762.76	227.39
763.08	227.24
763.41	227.10
763.74	226.95
764.06	226.78
764.39	226.63
764.71	226.49
765.04	226.33
765.37	226.19
765.69	226.04
766.02	225.91
766.34	225.73
766.67	225.50
767.00	225.42
767.32	225.40
767.65	225.41
767.97	225.27
768.30	225.13
768.62	225.03
768.95	224.91
769.27	224.76
769.60	224.67
769.92	224.54
770.25	224.38
770.57	224.20
770.90	224.07
771.22	223.92
771.55	223.81
771.87	223.69
772.20	223.58
772.52	223.64
772.85	223.77
773.17	223.67
773.50	223.53
773.82	223.38
774.15	223.19
774.47	222.97
774.80	222.84
775.12	222.74
775.45	222.57
775.77	222.50
776.09	222.46
776.42	222.38
776.74	222.33
777.07	222.23
777.39	222.17
777.72	222.07
778.04	222.02
778.36	221.94
778.69	221.86
779.01	221.78
779.33	221.50
779.66	221.17
779.98	221.05
780.31	220.99
780.63	220.99
780.95	220.94
781.28	220.82
781.60	220.75
781.92	220.69
782.25	220.62
782.57	220.50
782.89	220.36
783.22	220.22
783.54	220.11
783.86	220.07
784.19	220.02
784.51	220.06
784.83	219.97
785.16	219.87
785.48	219.82
785.80	219.75
786.12	219.72
