SpectraSuite Data File
++++++++++++++++++++++++++++++++++++
Date: Tue Jan 29 16:43:30 EST 2013
User: group
Dark Spectrum Present: No
Reference Spectrum Present: No
Number of Sampled Component Spectra: 1
Spectrometers: USB2E7196
Integration Time (usec): 65000 (USB2E7196)
Spectra Averaged: 100 (USB2E7196)
Boxcar Smoothing: 10 (USB2E7196)
Correct for Electrical Dark: No (USB2E7196)
Strobe/Lamp Enabled: No (USB2E7196)
Correct for Detector Non-linearity: No (USB2E7196)
Correct for Stray Light: No (USB2E7196)
Number of Pixels in Processed Spectrum: 2048
>>>>>Begin Processed Spectral Data<<<<<
339.09	0.00
339.48	201.62
339.86	203.20
340.24	204.33
340.63	206.10
341.01	210.74
341.39	209.02
341.78	210.79
342.16	211.63
342.54	211.87
342.93	200.95
343.31	211.10
343.69	211.65
344.07	212.09
344.46	212.52
344.84	212.89
345.22	213.03
345.60	213.30
345.99	213.46
346.37	213.61
346.75	213.69
347.13	213.75
347.52	213.82
347.90	213.94
348.28	213.94
348.66	214.04
349.05	214.03
349.43	214.11
349.81	214.20
350.19	214.30
350.57	214.37
350.96	214.44
351.34	214.57
351.72	214.65
352.10	214.78
352.48	214.88
352.87	214.96
353.25	215.03
353.63	215.08
354.01	215.17
354.39	215.26
354.77	215.36
355.15	215.52
355.54	215.59
355.92	215.57
356.30	215.66
356.68	215.83
357.06	215.91
357.44	215.97
357.82	216.05
358.20	216.16
358.58	216.22
358.97	216.33
359.35	216.45
359.73	216.57
360.11	216.66
360.49	216.72
360.87	216.79
361.25	216.87
361.63	216.98
362.01	217.03
362.39	217.05
362.77	217.09
363.15	217.10
363.53	217.16
363.91	217.20
364.29	217.23
364.67	217.07
365.05	217.12
365.43	217.13
365.81	217.18
366.19	217.28
366.57	217.38
366.95	217.41
367.33	217.35
367.71	217.34
368.09	217.36
368.47	217.37
368.85	217.36
369.23	217.42
369.61	217.34
369.99	217.41
370.37	217.41
370.75	217.52
371.13	217.47
371.51	217.42
371.89	217.45
372.27	217.42
372.65	217.42
373.03	217.41
373.41	217.37
373.78	217.30
374.16	217.14
374.54	217.05
374.92	216.98
375.30	216.95
375.68	216.89
376.06	216.89
376.44	216.84
376.82	216.83
377.19	216.78
377.57	216.77
377.95	216.64
378.33	216.58
378.71	216.45
379.09	216.41
379.47	216.38
379.84	216.29
380.22	216.24
380.60	216.17
380.98	216.10
381.36	216.05
381.73	215.99
382.11	215.99
382.49	215.95
382.87	215.90
383.25	215.85
383.62	216.03
384.00	215.93
384.38	215.91
384.76	215.90
385.13	215.92
385.51	215.85
385.89	215.82
386.27	215.77
386.64	215.72
387.02	215.73
387.40	215.69
387.78	215.68
388.15	215.67
388.53	215.61
388.91	215.58
389.29	215.54
389.66	215.56
390.04	215.53
390.42	215.56
390.79	215.51
391.17	215.50
391.55	215.26
391.92	215.23
392.30	215.21
392.68	215.16
393.05	215.12
393.43	215.13
393.81	215.15
394.18	215.14
394.56	215.15
394.94	215.18
395.31	215.16
395.69	215.23
396.06	215.26
396.44	215.30
396.82	215.31
397.19	215.47
397.57	215.46
397.95	215.49
398.32	215.44
398.70	215.49
399.07	215.55
399.45	215.58
399.82	215.65
400.20	215.65
400.58	215.71
400.95	215.68
401.33	215.79
401.70	215.96
402.08	216.03
402.45	216.09
402.83	216.25
403.20	216.37
403.58	216.41
403.95	216.54
404.33	216.69
404.71	216.85
405.08	217.10
405.46	217.29
405.83	217.50
406.21	217.71
406.58	217.96
406.96	218.17
407.33	218.42
407.70	218.68
408.08	219.17
408.45	219.51
408.83	219.91
409.20	220.22
409.58	220.50
409.95	220.99
410.33	221.49
410.70	221.87
411.08	222.40
411.45	223.00
411.82	223.57
412.20	224.27
412.57	225.10
412.95	225.63
413.32	226.44
413.69	227.28
414.07	228.18
414.44	229.18
414.82	230.22
415.19	231.46
415.56	232.65
415.94	233.84
416.31	235.25
416.68	236.64
417.06	238.25
417.43	239.80
417.81	241.55
418.18	243.34
418.55	245.25
418.93	247.31
419.30	249.44
419.67	251.68
420.04	253.98
420.42	256.35
420.79	259.21
421.16	262.01
421.54	264.91
421.91	267.93
422.28	271.02
422.66	274.29
423.03	277.52
423.40	280.94
423.77	284.57
424.15	288.24
424.52	292.14
424.89	296.34
425.26	300.46
425.64	304.36
426.01	308.67
426.38	313.22
426.75	317.78
427.13	322.53
427.50	327.55
427.87	332.74
428.24	337.94
428.61	342.94
428.99	348.45
429.36	354.48
429.73	360.38
430.10	366.27
430.47	372.42
430.85	378.72
431.22	385.40
431.59	392.52
431.96	399.38
432.33	406.89
432.70	414.15
433.08	422.64
433.45	430.70
433.82	438.67
434.19	447.56
434.56	456.29
434.93	464.66
435.30	472.96
435.68	482.09
436.05	491.11
436.42	500.09
436.79	508.29
437.16	517.11
437.53	526.43
437.90	535.59
438.27	544.57
438.64	553.83
439.01	562.45
439.38	570.06
439.75	577.35
440.13	585.81
440.50	593.84
440.87	600.33
441.24	607.03
441.61	614.47
441.98	619.90
442.35	626.27
442.72	632.66
443.09	638.72
443.46	642.54
443.83	645.16
444.20	647.27
444.57	650.48
444.94	651.91
445.31	653.34
445.68	654.78
446.05	655.35
446.42	654.63
446.79	653.60
447.16	652.53
447.53	651.83
447.90	648.44
448.27	645.10
448.64	640.47
449.01	637.16
449.37	631.26
449.74	625.55
450.11	618.62
450.48	611.18
450.85	603.73
451.22	597.22
451.59	591.05
451.96	585.27
452.33	577.36
452.70	570.28
453.07	561.79
453.43	553.12
453.80	544.84
454.17	536.85
454.54	529.29
454.91	521.04
455.28	513.02
455.65	505.64
456.02	498.12
456.38	491.74
456.75	483.84
457.12	477.22
457.49	470.68
457.86	464.44
458.23	459.02
458.59	453.01
458.96	447.00
459.33	441.68
459.70	436.23
460.07	431.94
460.43	426.96
460.80	422.35
461.17	418.38
461.54	414.16
461.91	410.07
462.27	405.92
462.64	402.55
463.01	398.76
463.38	395.02
463.74	391.31
464.11	388.06
464.48	385.18
464.85	382.05
465.21	379.67
465.58	377.00
465.95	373.85
466.32	371.26
466.68	368.64
467.05	366.02
467.42	363.51
467.78	360.77
468.15	358.28
468.52	356.33
468.88	353.86
469.25	351.63
469.62	349.81
469.98	347.90
470.35	346.02
470.72	344.30
471.08	342.48
471.45	340.97
471.82	339.44
472.18	337.74
472.55	336.54
472.92	335.07
473.28	333.93
473.65	332.72
474.02	331.61
474.38	330.67
474.75	329.83
475.11	329.00
475.48	328.47
475.85	327.92
476.21	327.43
476.58	327.02
476.94	326.75
477.31	326.39
477.67	326.07
478.04	325.92
478.41	325.86
478.77	326.07
479.14	326.00
479.50	326.14
479.87	326.45
480.23	326.75
480.60	327.01
480.96	327.26
481.33	327.85
481.69	328.38
482.06	328.92
482.42	329.44
482.79	330.04
483.15	330.82
483.52	331.80
483.88	332.70
484.25	333.67
484.61	334.64
484.98	335.72
485.34	337.09
485.71	338.43
486.07	339.91
486.44	341.18
486.80	342.78
487.17	344.40
487.53	346.23
487.90	348.09
488.26	350.13
488.62	352.29
488.99	354.38
489.35	356.60
489.72	358.94
490.08	361.50
490.44	364.08
490.81	366.77
491.17	369.44
491.54	372.45
491.90	375.49
492.26	378.77
492.63	382.23
492.99	385.72
493.36	389.40
493.72	393.23
494.08	397.25
494.45	401.44
494.81	405.84
495.17	410.27
495.54	415.01
495.90	419.83
496.26	424.70
496.63	429.87
496.99	435.26
497.35	440.88
497.72	446.65
498.08	452.55
498.44	458.67
498.80	465.14
499.17	471.60
499.53	478.29
499.89	485.21
500.26	492.13
500.62	499.18
500.98	506.58
501.34	514.08
501.71	521.90
502.07	529.71
502.43	537.67
502.79	545.82
503.16	554.19
503.52	562.76
503.88	571.53
504.24	580.50
504.60	589.50
504.97	598.68
505.33	607.92
505.69	617.78
506.05	627.66
506.41	637.59
506.78	647.65
507.14	657.84
507.50	668.34
507.86	679.05
508.22	689.83
508.59	700.59
508.95	711.66
509.31	722.81
509.67	734.31
510.03	745.73
510.39	757.41
510.75	769.31
511.12	781.28
511.48	793.41
511.84	805.74
512.20	818.07
512.56	830.76
512.92	843.67
513.28	856.28
513.64	869.11
514.00	881.92
514.37	894.92
514.73	908.14
515.09	921.07
515.45	934.07
515.81	947.07
516.17	960.44
516.53	973.75
516.89	986.90
517.25	1000.08
517.61	1013.68
517.97	1027.20
518.33	1040.31
518.69	1053.86
519.05	1067.70
519.41	1081.32
519.77	1095.30
520.13	1108.59
520.49	1121.80
520.85	1135.30
521.21	1148.65
521.57	1162.37
521.93	1175.48
522.29	1189.18
522.65	1202.90
523.01	1216.51
523.37	1229.84
523.73	1243.21
524.09	1256.44
524.45	1270.05
524.81	1283.70
525.17	1297.23
525.53	1310.43
525.89	1323.86
526.25	1337.15
526.61	1350.07
526.97	1363.28
527.33	1376.26
527.68	1389.96
528.04	1403.57
528.40	1416.77
528.76	1430.17
529.12	1443.12
529.48	1456.59
529.84	1469.12
530.20	1482.08
530.56	1494.78
530.91	1508.04
531.27	1520.99
531.63	1533.73
531.99	1546.60
532.35	1558.80
532.71	1571.25
533.07	1584.26
533.42	1596.62
533.78	1608.69
534.14	1620.78
534.50	1632.11
534.86	1643.77
535.21	1654.58
535.57	1666.24
535.93	1677.52
536.29	1688.73
536.65	1700.35
537.00	1711.41
537.36	1722.88
537.72	1733.96
538.08	1745.51
538.44	1756.70
538.79	1767.87
539.15	1778.93
539.51	1789.76
539.87	1801.22
540.22	1812.16
540.58	1823.16
540.94	1834.24
541.29	1844.74
541.65	1854.58
542.01	1865.04
542.37	1875.17
542.72	1885.43
543.08	1895.21
543.44	1905.91
543.79	1915.28
544.15	1924.70
544.51	1934.72
544.87	1944.52
545.22	1953.88
545.58	1962.83
545.94	1971.79
546.29	1980.42
546.65	1988.87
547.01	1997.12
547.36	2004.96
547.72	2012.73
548.07	2020.34
548.43	2028.16
548.79	2036.04
549.14	2044.25
549.50	2052.91
549.86	2060.86
550.21	2068.42
550.57	2076.12
550.92	2082.87
551.28	2090.39
551.64	2097.72
551.99	2105.28
552.35	2112.63
552.70	2119.40
553.06	2126.04
553.41	2132.45
553.77	2138.93
554.13	2145.32
554.48	2152.44
554.84	2159.45
555.19	2166.09
555.55	2172.55
555.90	2178.72
556.26	2185.46
556.61	2191.71
556.97	2196.57
557.32	2202.39
557.68	2208.80
558.03	2214.60
558.39	2220.00
558.74	2226.13
559.10	2231.77
559.45	2237.30
559.81	2242.73
560.16	2248.29
560.52	2254.27
560.87	2260.39
561.23	2266.38
561.58	2273.05
561.94	2278.16
562.29	2282.86
562.64	2288.79
563.00	2294.47
563.35	2299.98
563.71	2305.79
564.06	2311.28
564.42	2317.22
564.77	2322.41
565.12	2327.56
565.48	2332.65
565.83	2338.06
566.19	2343.26
566.54	2348.35
566.89	2352.83
567.25	2357.31
567.60	2362.98
567.96	2367.86
568.31	2372.44
568.66	2376.61
569.02	2380.45
569.37	2384.19
569.72	2388.58
570.08	2391.99
570.43	2395.04
570.78	2398.24
571.14	2400.58
571.49	2403.69
571.84	2407.00
572.20	2409.82
572.55	2412.78
572.90	2414.86
573.26	2417.44
573.61	2419.88
573.96	2422.12
574.31	2424.06
574.67	2426.04
575.02	2426.69
575.37	2428.12
575.72	2428.70
576.08	2429.98
576.43	2430.01
576.78	2430.34
577.13	2431.55
577.49	2432.70
577.84	2433.55
578.19	2434.56
578.54	2435.09
578.90	2435.58
579.25	2435.40
579.60	2435.09
579.95	2434.12
580.30	2434.09
580.66	2433.44
581.01	2431.74
581.36	2429.08
581.71	2427.56
582.06	2426.13
582.42	2425.07
582.77	2422.66
583.12	2421.04
583.47	2419.57
583.82	2418.85
584.17	2417.54
584.53	2415.30
584.88	2413.00
585.23	2411.09
585.58	2408.69
585.93	2406.45
586.28	2404.03
586.63	2401.40
586.98	2399.12
587.34	2397.09
587.69	2394.57
588.04	2392.25
588.39	2390.61
588.74	2388.01
589.09	2385.26
589.44	2381.99
589.79	2379.35
590.14	2377.25
590.49	2374.15
590.84	2370.12
591.19	2366.67
591.54	2363.17
591.89	2359.23
592.25	2355.89
592.60	2351.50
592.95	2347.23
593.30	2343.03
593.65	2338.74
594.00	2334.27
594.35	2331.04
594.70	2326.19
595.05	2321.48
595.40	2315.90
595.75	2310.03
596.10	2306.47
596.45	2301.52
596.80	2296.71
597.15	2291.47
597.50	2285.51
597.85	2280.50
598.19	2275.32
598.54	2269.58
598.89	2264.27
599.24	2259.52
599.59	2253.21
599.94	2247.17
600.29	2241.25
600.64	2235.17
600.99	2228.20
601.34	2222.72
601.69	2215.90
602.04	2209.63
602.39	2202.88
602.74	2196.76
603.08	2191.14
603.43	2184.62
603.78	2177.60
604.13	2170.67
604.48	2163.21
604.83	2157.09
605.18	2150.80
605.53	2143.79
605.87	2136.72
606.22	2129.92
606.57	2121.97
606.92	2114.00
607.27	2107.11
607.62	2100.43
607.96	2093.46
608.31	2086.99
608.66	2079.11
609.01	2071.32
609.36	2064.02
609.70	2056.44
610.05	2048.81
610.40	2040.51
610.75	2032.04
611.10	2024.53
611.44	2015.64
611.79	2007.15
612.14	1997.23
612.49	1986.64
612.83	1977.32
613.18	1968.13
613.53	1958.85
613.88	1949.29
614.22	1940.76
614.57	1930.99
614.92	1920.34
615.27	1910.04
615.61	1899.91
615.96	1890.31
616.31	1880.69
616.65	1871.39
617.00	1861.68
617.35	1852.03
617.70	1842.39
618.04	1832.40
618.39	1822.13
618.74	1812.47
619.08	1802.67
619.43	1793.88
619.78	1785.70
620.12	1777.15
620.47	1767.59
620.82	1757.25
621.16	1747.55
621.51	1737.67
621.85	1727.87
622.20	1717.65
622.55	1707.26
622.89	1697.37
623.24	1687.65
623.59	1677.86
623.93	1667.73
624.28	1657.97
624.62	1647.97
624.97	1637.68
625.32	1627.87
625.66	1618.96
626.01	1610.37
626.35	1601.16
626.70	1591.24
627.04	1581.17
627.39	1571.02
627.73	1561.75
628.08	1552.98
628.43	1543.45
628.77	1534.26
629.12	1525.39
629.46	1517.66
629.81	1509.45
630.15	1500.03
630.50	1490.20
630.84	1479.84
631.19	1469.95
631.53	1460.70
631.88	1450.46
632.22	1440.46
632.57	1431.16
632.91	1421.23
633.26	1411.25
633.60	1401.67
633.95	1392.47
634.29	1382.96
634.64	1373.77
634.98	1363.82
635.32	1354.54
635.67	1346.12
636.01	1336.81
636.36	1327.22
636.70	1317.69
637.05	1308.24
637.39	1299.39
637.73	1290.86
638.08	1283.38
638.42	1275.27
638.77	1266.63
639.11	1258.40
639.45	1250.76
639.80	1242.49
640.14	1233.69
640.49	1224.86
640.83	1216.13
641.17	1208.04
641.52	1200.07
641.86	1191.52
642.20	1183.76
642.55	1175.10
642.89	1166.27
643.23	1157.75
643.58	1149.63
643.92	1140.67
644.26	1132.12
644.61	1123.71
644.95	1114.95
645.29	1105.79
645.64	1096.75
645.98	1088.17
646.32	1080.37
646.66	1071.82
647.01	1063.44
647.35	1055.36
647.69	1047.26
648.04	1039.01
648.38	1030.04
648.72	1021.24
649.06	1012.89
649.41	1004.68
649.75	996.68
650.09	988.89
650.43	980.88
650.78	972.57
651.12	964.89
651.46	957.42
651.80	950.21
652.14	943.09
652.49	935.57
652.83	928.28
653.17	920.65
653.51	912.97
653.85	905.73
654.20	898.48
654.54	891.08
654.88	883.73
655.22	876.56
655.56	869.60
655.90	862.72
656.25	855.96
656.59	849.12
656.93	842.26
657.27	835.07
657.61	828.05
657.95	821.97
658.29	815.96
658.64	809.79
658.98	803.32
659.32	796.68
659.66	790.42
660.00	784.02
660.34	777.94
660.68	771.90
661.02	765.57
661.36	759.53
661.70	753.77
662.05	748.14
662.39	742.67
662.73	737.31
663.07	732.03
663.41	726.40
663.75	720.66
664.09	714.92
664.43	709.47
664.77	704.12
665.11	698.30
665.45	692.42
665.79	686.66
666.13	680.91
666.47	675.43
666.81	669.96
667.15	664.55
667.49	659.31
667.83	654.04
668.17	648.78
668.51	643.72
668.85	638.72
669.19	633.79
669.53	628.63
669.87	623.47
670.21	618.69
670.55	614.01
670.89	609.49
671.23	605.24
671.57	600.89
671.91	596.59
672.25	592.42
672.58	588.24
672.92	584.20
673.26	580.32
673.60	576.44
673.94	572.53
674.28	568.91
674.62	565.12
674.96	561.29
675.30	557.83
675.64	554.09
675.97	550.46
676.31	546.83
676.65	543.29
676.99	539.89
677.33	535.95
677.67	532.29
678.01	528.44
678.34	524.81
678.68	521.27
679.02	517.65
679.36	513.90
679.70	510.24
680.04	506.62
680.37	503.07
680.71	499.69
681.05	496.52
681.39	493.23
681.73	490.06
682.06	487.10
682.40	483.90
682.74	480.76
683.08	477.51
683.42	474.31
683.75	471.24
684.09	468.11
684.43	465.29
684.77	462.35
685.10	459.51
685.44	456.47
685.78	453.48
686.12	450.68
686.45	447.95
686.79	445.23
687.13	442.67
687.46	440.01
687.80	437.32
688.14	434.45
688.48	431.79
688.81	429.07
689.15	426.40
689.49	423.82
689.82	421.17
690.16	418.61
690.50	416.10
690.83	413.59
691.17	411.00
691.51	408.47
691.84	406.13
692.18	403.83
692.52	401.59
692.85	399.46
693.19	397.32
693.52	395.15
693.86	392.91
694.20	390.71
694.53	388.58
694.87	386.31
695.21	384.17
695.54	382.02
695.88	379.87
696.21	377.69
696.55	375.56
696.88	373.49
697.22	371.43
697.56	369.48
697.89	367.57
698.23	365.81
698.56	364.06
698.90	362.27
699.23	360.36
699.57	358.49
699.90	356.54
700.24	354.64
700.58	352.85
700.91	351.15
701.25	349.53
701.58	347.90
701.92	346.33
702.25	344.71
702.59	343.01
702.92	341.45
703.26	339.89
703.59	338.35
703.93	337.05
704.26	335.62
704.60	334.14
704.93	332.63
705.26	331.12
705.60	329.65
705.93	328.14
706.27	326.84
706.60	325.54
706.94	324.35
707.27	322.98
707.61	321.62
707.94	320.29
708.27	318.77
708.61	317.27
708.94	315.87
709.28	314.53
709.61	313.27
709.94	312.03
710.28	310.73
710.61	309.52
710.95	308.10
711.28	307.00
711.61	305.79
711.95	304.63
712.28	303.43
712.61	302.19
712.95	301.12
713.28	300.04
713.61	298.87
713.95	297.64
714.28	296.63
714.61	295.56
714.95	294.53
715.28	293.50
715.61	292.50
715.95	291.53
716.28	290.58
716.61	289.59
716.95	288.61
717.28	287.64
717.61	286.61
717.94	285.70
718.28	284.65
718.61	283.76
718.94	282.83
719.27	281.95
719.61	281.13
719.94	280.22
720.27	279.21
720.60	278.34
720.94	277.55
721.27	276.76
721.60	276.08
721.93	275.30
722.27	274.65
722.60	274.00
722.93	273.25
723.26	272.56
723.59	271.88
723.93	271.19
724.26	270.59
724.59	269.96
724.92	269.37
725.25	268.81
725.59	268.20
725.92	267.68
726.25	267.09
726.58	266.47
726.91	265.87
727.24	265.36
727.57	264.82
727.91	264.19
728.24	263.61
728.57	262.96
728.90	262.37
729.23	261.71
729.56	261.25
729.89	260.69
730.22	260.10
730.55	259.50
730.89	258.95
731.22	258.42
731.55	257.88
731.88	257.32
732.21	256.77
732.54	256.24
732.87	255.75
733.20	255.25
733.53	254.78
733.86	254.33
734.19	253.77
734.52	253.32
734.85	253.03
735.18	252.56
735.51	252.17
735.84	251.78
736.17	251.40
736.50	250.85
736.83	250.69
737.16	250.33
737.49	249.99
737.82	249.59
738.15	249.20
738.48	248.79
738.81	248.40
739.14	248.00
739.47	247.58
739.80	247.17
740.13	246.83
740.46	246.39
740.79	246.01
741.12	245.67
741.45	245.30
741.78	244.89
742.11	244.60
742.44	244.22
742.77	243.90
743.10	243.56
743.43	243.20
743.75	242.64
744.08	242.53
744.41	242.17
744.74	241.79
745.07	241.39
745.40	241.12
745.73	240.85
746.06	240.50
746.39	240.17
746.71	239.81
747.04	239.43
747.37	239.13
747.70	238.84
748.03	238.54
748.36	238.23
748.68	237.89
749.01	237.56
749.34	237.28
749.67	236.98
750.00	236.65
750.33	236.49
750.65	236.23
750.98	235.74
751.31	235.48
751.64	235.29
751.97	235.17
752.29	234.87
752.62	234.52
752.95	234.22
753.28	233.96
753.60	233.76
753.93	233.57
754.26	233.36
754.59	233.10
754.91	232.83
755.24	232.61
755.57	232.34
755.90	232.08
756.22	231.84
756.55	231.56
756.88	231.35
757.20	231.04
757.53	230.77
757.86	230.55
758.19	230.34
758.51	230.10
758.84	229.78
759.17	229.59
759.49	229.42
759.82	229.37
760.15	229.20
760.47	228.97
760.80	228.76
761.13	228.60
761.45	228.38
761.78	228.22
762.11	228.00
762.43	227.84
762.76	227.64
763.08	227.50
763.41	227.35
763.74	227.18
764.06	227.03
764.39	226.88
764.71	226.71
765.04	226.53
765.37	226.38
765.69	226.27
766.02	226.11
766.34	225.97
766.67	225.74
767.00	225.68
767.32	225.63
767.65	225.63
767.97	225.49
768.30	225.39
768.62	225.23
768.95	225.11
769.27	224.97
769.60	224.88
769.92	224.73
770.25	224.60
770.57	224.45
770.90	224.29
771.22	224.15
771.55	224.03
771.87	223.94
772.20	223.83
772.52	223.87
772.85	224.04
773.17	223.93
773.50	223.83
773.82	223.69
774.15	223.52
774.47	223.26
774.80	223.13
775.12	223.02
775.45	222.95
775.77	222.86
776.09	222.80
776.42	222.71
776.74	222.65
777.07	222.55
777.39	222.46
777.72	222.36
778.04	222.28
778.36	222.20
778.69	222.12
779.01	222.07
779.33	221.78
779.66	221.44
779.98	221.35
780.31	221.27
780.63	221.26
780.95	221.22
781.28	221.17
781.60	221.11
781.92	221.04
782.25	220.96
782.57	220.91
782.89	220.83
783.22	220.75
783.54	220.67
783.86	220.62
784.19	220.56
784.51	220.58
784.83	220.52
785.16	220.42
785.48	220.37
785.80	220.31
786.12	220.30
