SpectraSuite Data File
++++++++++++++++++++++++++++++++++++
Date: Tue Jan 29 16:57:41 EST 2013
User: group
Dark Spectrum Present: No
Reference Spectrum Present: No
Number of Sampled Component Spectra: 1
Spectrometers: USB2E7196
Integration Time (usec): 65000 (USB2E7196)
Spectra Averaged: 100 (USB2E7196)
Boxcar Smoothing: 10 (USB2E7196)
Correct for Electrical Dark: No (USB2E7196)
Strobe/Lamp Enabled: No (USB2E7196)
Correct for Detector Non-linearity: No (USB2E7196)
Correct for Stray Light: No (USB2E7196)
Number of Pixels in Processed Spectrum: 2048
>>>>>Begin Processed Spectral Data<<<<<
339.09	0.00
339.48	200.79
339.86	202.64
340.24	203.95
340.63	205.59
341.01	210.34
341.39	207.95
341.78	210.04
342.16	211.29
342.54	211.86
342.93	200.50
343.31	210.63
343.69	211.19
344.07	211.64
344.46	212.08
344.84	212.49
345.22	212.66
345.60	212.94
345.99	213.12
346.37	213.21
346.75	213.33
347.13	213.41
347.52	213.49
347.90	213.58
348.28	213.60
348.66	213.65
349.05	213.63
349.43	213.67
349.81	213.75
350.19	213.82
350.57	213.86
350.96	213.95
351.34	214.03
351.72	214.10
352.10	214.24
352.48	214.30
352.87	214.32
353.25	214.38
353.63	214.42
354.01	214.46
354.39	214.56
354.77	214.62
355.15	214.74
355.54	214.81
355.92	214.83
356.30	214.92
356.68	215.18
357.06	215.26
357.44	215.29
357.82	215.34
358.20	215.42
358.58	215.48
358.97	215.57
359.35	215.68
359.73	215.84
360.11	215.90
360.49	215.97
360.87	216.05
361.25	216.13
361.63	216.27
362.01	216.36
362.39	216.40
362.77	216.45
363.15	216.48
363.53	216.53
363.91	216.57
364.29	216.60
364.67	216.40
365.05	216.45
365.43	216.53
365.81	216.60
366.19	216.70
366.57	216.80
366.95	216.83
367.33	216.82
367.71	216.78
368.09	216.82
368.47	216.83
368.85	216.84
369.23	216.87
369.61	216.78
369.99	216.84
370.37	216.84
370.75	216.94
371.13	216.90
371.51	216.85
371.89	216.85
372.27	216.85
372.65	216.84
373.03	216.81
373.41	216.76
373.78	216.72
374.16	216.60
374.54	216.50
374.92	216.42
375.30	216.38
375.68	216.30
376.06	216.27
376.44	216.22
376.82	216.17
377.19	216.12
377.57	216.07
377.95	215.96
378.33	215.91
378.71	215.73
379.09	215.71
379.47	215.68
379.84	215.59
380.22	215.55
380.60	215.48
380.98	215.40
381.36	215.36
381.73	215.26
382.11	215.25
382.49	215.20
382.87	215.14
383.25	215.10
383.62	215.33
384.00	215.23
384.38	215.19
384.76	215.21
385.13	215.22
385.51	215.19
385.89	215.14
386.27	215.10
386.64	215.08
387.02	215.04
387.40	214.99
387.78	214.99
388.15	214.97
388.53	214.94
388.91	214.89
389.29	214.84
389.66	214.84
390.04	214.77
390.42	214.80
390.79	214.78
391.17	214.77
391.55	214.49
391.92	214.49
392.30	214.51
392.68	214.44
393.05	214.44
393.43	214.45
393.81	214.45
394.18	214.41
394.56	214.40
394.94	214.43
395.31	214.42
395.69	214.48
396.06	214.50
396.44	214.52
396.82	214.56
397.19	214.70
397.57	214.71
397.95	214.78
398.32	214.75
398.70	214.80
399.07	214.85
399.45	214.90
399.82	214.92
400.20	214.94
400.58	215.03
400.95	214.97
401.33	215.09
401.70	215.30
402.08	215.43
402.45	215.52
402.83	215.66
403.20	215.78
403.58	215.88
403.95	216.05
404.33	216.22
404.71	216.37
405.08	216.59
405.46	216.80
405.83	217.02
406.21	217.22
406.58	217.44
406.96	217.69
407.33	217.93
407.70	218.28
408.08	218.75
408.45	219.09
408.83	219.51
409.20	219.84
409.58	220.13
409.95	220.60
410.33	221.09
410.70	221.51
411.08	222.06
411.45	222.62
411.82	223.17
412.20	223.86
412.57	224.70
412.95	225.31
413.32	226.13
413.69	226.95
414.07	227.89
414.44	228.93
414.82	229.99
415.19	231.17
415.56	232.36
415.94	233.57
416.31	234.98
416.68	236.38
417.06	237.98
417.43	239.54
417.81	241.25
418.18	243.05
418.55	245.03
418.93	247.10
419.30	249.25
419.67	251.53
420.04	253.82
420.42	256.26
420.79	259.09
421.16	261.91
421.54	264.90
421.91	267.92
422.28	271.03
422.66	274.30
423.03	277.59
423.40	280.98
423.77	284.57
424.15	288.25
424.52	292.10
424.89	296.31
425.26	300.44
425.64	304.36
426.01	308.62
426.38	313.14
426.75	317.69
427.13	322.42
427.50	327.40
427.87	332.65
428.24	337.89
428.61	342.87
428.99	348.41
429.36	354.44
429.73	360.36
430.10	366.23
430.47	372.35
430.85	378.69
431.22	385.46
431.59	392.65
431.96	399.53
432.33	407.05
432.70	414.37
433.08	422.96
433.45	431.10
433.82	439.20
434.19	448.11
434.56	456.84
434.93	465.26
435.30	473.55
435.68	482.70
436.05	491.72
436.42	500.72
436.79	508.91
437.16	517.73
437.53	527.05
437.90	536.28
438.27	545.28
438.64	554.59
439.01	563.17
439.38	570.80
439.75	578.18
440.13	586.71
440.50	594.67
440.87	601.12
441.24	607.73
441.61	615.12
441.98	620.54
442.35	626.96
442.72	633.31
443.09	639.39
443.46	643.17
443.83	645.76
444.20	647.98
444.57	651.16
444.94	652.61
445.31	654.10
445.68	655.48
446.05	656.17
446.42	655.35
446.79	654.41
447.16	653.35
447.53	652.57
447.90	649.21
448.27	645.97
448.64	641.33
449.01	638.05
449.37	632.18
449.74	626.45
450.11	619.52
450.48	612.08
450.85	604.70
451.22	598.20
451.59	591.95
451.96	586.09
452.33	578.20
452.70	571.05
453.07	562.53
453.43	553.91
453.80	545.52
454.17	537.58
454.54	529.93
454.91	521.65
455.28	513.59
455.65	506.16
456.02	498.55
456.38	492.16
456.75	484.23
457.12	477.57
457.49	471.01
457.86	464.74
458.23	459.30
458.59	453.31
458.96	447.27
459.33	441.97
459.70	436.55
460.07	432.27
460.43	427.33
460.80	422.70
461.17	418.67
461.54	414.46
461.91	410.38
462.27	406.22
462.64	402.74
463.01	398.95
463.38	395.23
463.74	391.55
464.11	388.25
464.48	385.41
464.85	382.31
465.21	379.90
465.58	377.24
465.95	374.08
466.32	371.48
466.68	368.85
467.05	366.22
467.42	363.63
467.78	360.89
468.15	358.33
468.52	356.44
468.88	353.89
469.25	351.63
469.62	349.78
469.98	347.85
470.35	346.05
470.72	344.35
471.08	342.53
471.45	340.95
471.82	339.40
472.18	337.67
472.55	336.43
472.92	335.01
473.28	333.80
473.65	332.65
474.02	331.43
474.38	330.56
474.75	329.79
475.11	328.94
475.48	328.33
475.85	327.79
476.21	327.22
476.58	326.83
476.94	326.60
477.31	326.27
477.67	325.98
478.04	325.80
478.41	325.72
478.77	325.81
479.14	325.78
479.50	325.87
479.87	326.18
480.23	326.43
480.60	326.65
480.96	326.87
481.33	327.46
481.69	328.03
482.06	328.49
482.42	328.91
482.79	329.53
483.15	330.34
483.52	331.29
483.88	332.19
484.25	333.11
484.61	334.14
484.98	335.18
485.34	336.52
485.71	337.87
486.07	339.34
486.44	340.69
486.80	342.31
487.17	344.02
487.53	345.83
487.90	347.75
488.26	349.81
488.62	351.99
488.99	354.05
489.35	356.21
489.72	358.55
490.08	361.12
490.44	363.69
490.81	366.38
491.17	369.06
491.54	372.00
491.90	375.04
492.26	378.27
492.63	381.62
492.99	385.05
493.36	388.72
493.72	392.59
494.08	396.59
494.45	400.76
494.81	405.08
495.17	409.52
495.54	414.20
495.90	419.00
496.26	423.97
496.63	429.12
496.99	434.51
497.35	440.14
497.72	445.91
498.08	451.82
498.44	457.91
498.80	464.37
499.17	470.88
499.53	477.57
499.89	484.46
500.26	491.47
500.62	498.56
500.98	505.90
501.34	513.29
501.71	520.99
502.07	528.80
502.43	536.78
502.79	544.89
503.16	553.21
503.52	561.73
503.88	570.33
504.24	579.25
504.60	588.25
504.97	597.36
505.33	606.63
505.69	616.44
506.05	626.23
506.41	636.09
506.78	646.09
507.14	656.29
507.50	666.60
507.86	677.24
508.22	687.86
508.59	698.55
508.95	709.54
509.31	720.69
509.67	732.12
510.03	743.46
510.39	755.10
510.75	766.93
511.12	778.89
511.48	790.94
511.84	803.20
512.20	815.51
512.56	828.15
512.92	840.92
513.28	853.51
513.64	866.21
514.00	878.91
514.37	891.83
514.73	904.97
515.09	918.00
515.45	930.94
515.81	944.12
516.17	957.42
516.53	970.65
516.89	983.66
517.25	996.74
517.61	1010.25
517.97	1023.58
518.33	1036.70
518.69	1050.15
519.05	1063.91
519.41	1077.52
519.77	1091.38
520.13	1104.66
520.49	1117.79
520.85	1131.24
521.21	1144.65
521.57	1158.27
521.93	1171.37
522.29	1184.95
522.65	1198.54
523.01	1212.21
523.37	1225.31
523.73	1238.59
524.09	1251.86
524.45	1265.38
524.81	1278.96
525.17	1292.24
525.53	1305.54
525.89	1318.81
526.25	1331.99
526.61	1344.85
526.97	1357.98
527.33	1371.08
527.68	1384.63
528.04	1398.14
528.40	1411.27
528.76	1424.59
529.12	1437.62
529.48	1451.00
529.84	1463.38
530.20	1476.23
530.56	1488.72
530.91	1502.07
531.27	1514.99
531.63	1527.73
531.99	1540.51
532.35	1552.64
532.71	1565.19
533.07	1578.15
533.42	1590.55
533.78	1602.71
534.14	1614.73
534.50	1625.93
534.86	1637.44
535.21	1648.30
535.57	1660.00
535.93	1671.23
536.29	1682.40
536.65	1693.82
537.00	1704.76
537.36	1716.25
537.72	1727.26
538.08	1738.77
538.44	1749.75
538.79	1760.86
539.15	1771.87
539.51	1782.83
539.87	1794.30
540.22	1805.20
540.58	1816.30
540.94	1827.23
541.29	1837.62
541.65	1847.46
542.01	1857.99
542.37	1868.14
542.72	1878.26
543.08	1887.93
543.44	1898.54
543.79	1907.86
544.15	1917.40
544.51	1927.48
544.87	1937.37
545.22	1946.66
545.58	1955.67
545.94	1964.53
546.29	1973.12
546.65	1981.49
547.01	1989.75
547.36	1997.51
547.72	2005.42
548.07	2012.77
548.43	2020.54
548.79	2028.34
549.14	2036.58
549.50	2045.17
549.86	2053.12
550.21	2060.74
550.57	2068.57
550.92	2075.39
551.28	2082.84
551.64	2090.17
551.99	2097.54
552.35	2104.78
552.70	2111.70
553.06	2118.34
553.41	2124.67
553.77	2131.14
554.13	2137.53
554.48	2144.53
554.84	2151.68
555.19	2158.06
555.55	2164.59
555.90	2170.87
556.26	2177.70
556.61	2183.88
556.97	2188.62
557.32	2194.32
557.68	2200.61
558.03	2206.30
558.39	2211.67
558.74	2217.72
559.10	2223.29
559.45	2228.90
559.81	2234.40
560.16	2239.86
560.52	2245.65
560.87	2251.99
561.23	2257.78
561.58	2264.36
561.94	2269.56
562.29	2274.10
562.64	2280.04
563.00	2285.62
563.35	2291.21
563.71	2296.82
564.06	2302.46
564.42	2308.28
564.77	2313.17
565.12	2318.41
565.48	2323.35
565.83	2328.56
566.19	2333.58
566.54	2338.61
566.89	2342.97
567.25	2347.39
567.60	2352.99
567.96	2357.81
568.31	2362.25
568.66	2366.53
569.02	2370.30
569.37	2374.02
569.72	2378.30
570.08	2381.61
570.43	2384.63
570.78	2387.58
571.14	2389.88
571.49	2392.79
571.84	2396.24
572.20	2399.16
572.55	2401.87
572.90	2404.03
573.26	2406.64
573.61	2409.40
573.96	2411.54
574.31	2413.53
574.67	2415.29
575.02	2415.69
575.37	2417.15
575.72	2417.64
576.08	2418.88
576.43	2418.92
576.78	2418.86
577.13	2420.12
577.49	2421.25
577.84	2421.98
578.19	2422.99
578.54	2423.47
578.90	2423.75
579.25	2423.51
579.60	2423.03
579.95	2422.20
580.30	2422.11
580.66	2421.36
581.01	2419.41
581.36	2416.72
581.71	2415.16
582.06	2413.73
582.42	2412.84
582.77	2410.22
583.12	2408.50
583.47	2406.88
583.82	2406.09
584.17	2404.60
584.53	2402.40
584.88	2400.11
585.23	2397.99
585.58	2395.58
585.93	2393.57
586.28	2391.23
586.63	2388.36
586.98	2386.09
587.34	2383.81
587.69	2380.96
588.04	2378.49
588.39	2376.83
588.74	2374.26
589.09	2371.25
589.44	2367.77
589.79	2364.93
590.14	2362.74
590.49	2359.77
590.84	2355.69
591.19	2352.14
591.54	2349.06
591.89	2344.94
592.25	2341.45
592.60	2337.29
592.95	2333.00
593.30	2328.49
593.65	2324.14
594.00	2319.78
594.35	2316.64
594.70	2311.91
595.05	2307.51
595.40	2302.14
595.75	2296.14
596.10	2292.32
596.45	2287.46
596.80	2282.83
597.15	2277.76
597.50	2272.02
597.85	2267.07
598.19	2262.13
598.54	2256.50
598.89	2250.93
599.24	2246.20
599.59	2240.05
599.94	2233.89
600.29	2227.77
600.64	2221.85
600.99	2214.91
601.34	2209.38
601.69	2202.38
602.04	2195.97
602.39	2189.21
602.74	2182.96
603.08	2177.47
603.43	2171.04
603.78	2164.18
604.13	2157.21
604.48	2149.86
604.83	2143.68
605.18	2137.42
605.53	2130.40
605.87	2123.30
606.22	2116.63
606.57	2108.71
606.92	2100.80
607.27	2094.06
607.62	2087.53
607.96	2080.62
608.31	2074.22
608.66	2066.55
609.01	2058.98
609.36	2051.90
609.70	2044.43
610.05	2036.71
610.40	2028.45
610.75	2020.11
611.10	2012.33
611.44	2003.34
611.79	1994.58
612.14	1984.65
612.49	1973.89
612.83	1964.44
613.18	1954.95
613.53	1945.85
613.88	1936.31
614.22	1927.64
614.57	1917.74
614.92	1907.23
615.27	1896.95
615.61	1886.68
615.96	1876.97
616.31	1867.37
616.65	1857.90
617.00	1848.24
617.35	1838.72
617.70	1829.07
618.04	1819.31
618.39	1809.38
618.74	1799.93
619.08	1790.37
619.43	1781.76
619.78	1773.68
620.12	1765.18
620.47	1756.09
620.82	1745.65
621.16	1736.03
621.51	1726.31
621.85	1716.81
622.20	1706.65
622.55	1696.26
622.89	1686.49
623.24	1676.98
623.59	1667.20
623.93	1657.33
624.28	1647.43
624.62	1637.46
624.97	1627.41
625.32	1617.48
625.66	1608.52
626.01	1599.89
626.35	1590.90
626.70	1581.03
627.04	1571.16
627.39	1561.15
627.73	1551.96
628.08	1543.17
628.43	1533.78
628.77	1524.67
629.12	1515.74
629.46	1508.12
629.81	1499.96
630.15	1490.72
630.50	1481.00
630.84	1470.73
631.19	1460.95
631.53	1451.95
631.88	1441.97
632.22	1432.01
632.57	1422.87
632.91	1413.10
633.26	1403.40
633.60	1393.89
633.95	1384.72
634.29	1375.44
634.64	1366.10
634.98	1356.13
635.32	1347.14
635.67	1338.76
636.01	1329.59
636.36	1320.06
636.70	1310.46
637.05	1301.14
637.39	1292.46
637.73	1283.95
638.08	1276.47
638.42	1268.50
638.77	1259.85
639.11	1251.75
639.45	1244.16
639.80	1235.78
640.14	1227.17
640.49	1218.38
640.83	1209.56
641.17	1201.38
641.52	1193.21
641.86	1184.97
642.20	1177.33
642.55	1168.72
642.89	1160.03
643.23	1151.60
643.58	1143.64
643.92	1134.84
644.26	1126.33
644.61	1117.92
644.95	1109.27
645.29	1100.27
645.64	1091.18
645.98	1082.60
646.32	1074.75
646.66	1066.24
647.01	1058.04
647.35	1049.95
647.69	1041.80
648.04	1033.72
648.38	1025.08
648.72	1016.46
649.06	1008.10
649.41	999.95
649.75	992.09
650.09	984.30
650.43	976.27
650.78	968.01
651.12	960.32
651.46	952.88
651.80	945.69
652.14	938.41
652.49	931.01
652.83	923.82
653.17	916.35
653.51	908.79
653.85	901.68
654.20	894.56
654.54	887.22
654.88	880.13
655.22	872.98
655.56	866.03
655.90	859.27
656.25	852.61
656.59	845.84
656.93	838.96
657.27	831.95
657.61	824.93
657.95	818.77
658.29	812.88
658.64	806.85
658.98	800.48
659.32	794.05
659.66	787.82
660.00	781.49
660.34	775.50
660.68	769.50
661.02	763.24
661.36	757.16
661.70	751.35
662.05	745.67
662.39	740.22
662.73	734.87
663.07	729.50
663.41	723.93
663.75	718.20
664.09	712.48
664.43	706.98
664.77	701.81
665.11	696.15
665.45	690.31
665.79	684.52
666.13	678.87
666.47	673.44
666.81	668.00
667.15	662.62
667.49	657.37
667.83	652.07
668.17	646.79
668.51	641.79
668.85	636.90
669.19	632.05
669.53	627.00
669.87	621.88
670.21	617.09
670.55	612.38
670.89	607.96
671.23	603.62
671.57	599.21
671.91	594.95
672.25	590.71
672.58	586.54
672.92	582.43
673.26	578.45
673.60	574.53
673.94	570.75
674.28	567.21
674.62	563.50
674.96	559.81
675.30	556.36
675.64	552.63
675.97	549.02
676.31	545.38
676.65	541.79
676.99	538.43
677.33	534.70
677.67	531.12
678.01	527.27
678.34	523.66
678.68	520.20
679.02	516.59
679.36	512.90
679.70	509.28
680.04	505.80
680.37	502.34
680.71	499.01
681.05	495.77
681.39	492.44
681.73	489.21
682.06	486.17
682.40	482.95
682.74	479.81
683.08	476.60
683.42	473.40
683.75	470.36
684.09	467.17
684.43	464.27
684.77	461.34
685.10	458.46
685.44	455.51
685.78	452.52
686.12	449.73
686.45	447.02
686.79	444.35
687.13	441.75
687.46	439.15
687.80	436.46
688.14	433.59
688.48	430.90
688.81	428.21
689.15	425.58
689.49	423.03
689.82	420.47
690.16	417.83
690.50	415.36
690.83	412.88
691.17	410.37
691.51	407.91
691.84	405.55
692.18	403.32
692.52	401.11
692.85	398.98
693.19	396.81
693.52	394.64
693.86	392.39
694.20	390.21
694.53	388.02
694.87	385.79
695.21	383.66
695.54	381.54
695.88	379.38
696.21	377.13
696.55	374.98
696.88	372.90
697.22	370.93
697.56	368.98
697.89	367.04
698.23	365.27
698.56	363.42
698.90	361.66
699.23	359.75
699.57	357.83
699.90	355.94
700.24	354.10
700.58	352.31
700.91	350.59
701.25	349.00
701.58	347.39
701.92	345.81
702.25	344.18
702.59	342.53
702.92	340.96
703.26	339.40
703.59	337.87
703.93	336.58
704.26	335.11
704.60	333.61
704.93	332.13
705.26	330.59
705.60	329.12
705.93	327.58
706.27	326.22
706.60	324.95
706.94	323.73
707.27	322.33
707.61	320.96
707.94	319.58
708.27	318.05
708.61	316.55
708.94	315.12
709.28	313.76
709.61	312.47
709.94	311.23
710.28	309.99
710.61	308.79
710.95	307.34
711.28	306.29
711.61	305.11
711.95	303.96
712.28	302.74
712.61	301.51
712.95	300.43
713.28	299.35
713.61	298.17
713.95	296.96
714.28	295.88
714.61	294.80
714.95	293.78
715.28	292.72
715.61	291.73
715.95	290.73
716.28	289.77
716.61	288.80
716.95	287.76
717.28	286.83
717.61	285.83
717.94	284.91
718.28	283.84
718.61	282.91
718.94	281.97
719.27	281.13
719.61	280.35
719.94	279.46
720.27	278.55
720.60	277.71
720.94	276.90
721.27	276.16
721.60	275.50
721.93	274.76
722.27	274.15
722.60	273.45
722.93	272.78
723.26	272.10
723.59	271.42
723.93	270.80
724.26	270.10
724.59	269.47
724.92	268.87
725.25	268.26
725.59	267.67
725.92	267.15
726.25	266.56
726.58	265.96
726.91	265.37
727.24	264.78
727.57	264.19
727.91	263.57
728.24	263.00
728.57	262.38
728.90	261.84
729.23	261.19
729.56	260.72
729.89	260.13
730.22	259.56
730.55	259.01
730.89	258.46
731.22	257.93
731.55	257.40
731.88	256.88
732.21	256.34
732.54	255.80
732.87	255.27
733.20	254.78
733.53	254.25
733.86	253.79
734.19	253.30
734.52	252.88
734.85	252.64
735.18	252.15
735.51	251.78
735.84	251.34
736.17	250.99
736.50	250.48
736.83	250.35
737.16	249.97
737.49	249.56
737.82	249.12
738.15	248.75
738.48	248.34
738.81	247.93
739.14	247.54
739.47	247.17
739.80	246.80
740.13	246.42
740.46	246.04
740.79	245.64
741.12	245.26
741.45	244.85
741.78	244.37
742.11	244.09
742.44	243.69
742.77	243.39
743.10	242.98
743.43	242.61
743.75	242.01
744.08	241.95
744.41	241.58
744.74	241.24
745.07	240.88
745.40	240.58
745.73	240.35
746.06	240.01
746.39	239.71
746.71	239.37
747.04	239.07
747.37	238.75
747.70	238.46
748.03	238.16
748.36	237.89
748.68	237.58
749.01	237.23
749.34	236.92
749.67	236.61
750.00	236.35
750.33	236.19
750.65	235.92
750.98	235.39
751.31	235.15
751.64	234.95
751.97	234.82
752.29	234.58
752.62	234.19
752.95	233.93
753.28	233.63
753.60	233.42
753.93	233.23
754.26	233.01
754.59	232.77
754.91	232.52
755.24	232.30
755.57	232.03
755.90	231.82
756.22	231.60
756.55	231.32
756.88	231.06
757.20	230.73
757.53	230.51
757.86	230.30
758.19	230.07
758.51	229.85
758.84	229.54
759.17	229.32
759.49	229.15
759.82	229.09
760.15	228.95
760.47	228.71
760.80	228.45
761.13	228.31
761.45	228.10
761.78	227.92
762.11	227.71
762.43	227.56
762.76	227.36
763.08	227.20
763.41	227.05
763.74	226.90
764.06	226.75
764.39	226.57
764.71	226.42
765.04	226.27
765.37	226.09
765.69	225.95
766.02	225.79
766.34	225.63
766.67	225.38
767.00	225.27
767.32	225.26
767.65	225.22
767.97	225.05
768.30	224.95
768.62	224.83
768.95	224.67
769.27	224.54
769.60	224.46
769.92	224.30
770.25	224.14
770.57	223.99
770.90	223.90
771.22	223.76
771.55	223.64
771.87	223.53
772.20	223.42
772.52	223.45
772.85	223.59
773.17	223.51
773.50	223.40
773.82	223.26
774.15	223.05
774.47	222.87
774.80	222.73
775.12	222.60
775.45	222.48
775.77	222.40
776.09	222.33
776.42	222.18
776.74	222.17
777.07	222.13
777.39	222.06
777.72	221.93
778.04	221.87
778.36	221.77
778.69	221.71
779.01	221.64
779.33	221.40
779.66	221.06
779.98	220.95
780.31	220.89
780.63	220.89
780.95	220.83
781.28	220.69
781.60	220.64
781.92	220.61
782.25	220.55
782.57	220.49
782.89	220.41
783.22	220.37
783.54	220.22
783.86	220.13
784.19	220.06
784.51	220.09
784.83	220.00
785.16	219.94
785.48	219.89
785.80	219.78
786.12	219.72
