SpectraSuite Data File
++++++++++++++++++++++++++++++++++++
Date: Tue Jan 29 16:28:14 EST 2013
User: group
Dark Spectrum Present: No
Reference Spectrum Present: No
Number of Sampled Component Spectra: 1
Spectrometers: USB2E7196
Integration Time (usec): 65000 (USB2E7196)
Spectra Averaged: 100 (USB2E7196)
Boxcar Smoothing: 10 (USB2E7196)
Correct for Electrical Dark: No (USB2E7196)
Strobe/Lamp Enabled: No (USB2E7196)
Correct for Detector Non-linearity: No (USB2E7196)
Correct for Stray Light: No (USB2E7196)
Number of Pixels in Processed Spectrum: 2048
>>>>>Begin Processed Spectral Data<<<<<
339.09	0.00
339.48	202.23
339.86	203.90
340.24	204.88
340.63	206.75
341.01	211.17
341.39	209.06
341.78	210.61
342.16	212.39
342.54	212.01
342.93	201.40
343.31	211.58
343.69	212.09
344.07	212.52
344.46	212.98
344.84	213.39
345.22	213.55
345.60	213.81
345.99	214.03
346.37	214.16
346.75	214.31
347.13	214.41
347.52	214.48
347.90	214.64
348.28	214.69
348.66	214.78
349.05	214.72
349.43	214.79
349.81	214.90
350.19	214.93
350.57	214.99
350.96	215.08
351.34	215.19
351.72	215.28
352.10	215.43
352.48	215.49
352.87	215.53
353.25	215.58
353.63	215.63
354.01	215.66
354.39	215.71
354.77	215.77
355.15	215.89
355.54	215.96
355.92	215.94
356.30	216.00
356.68	216.15
357.06	216.28
357.44	216.33
357.82	216.37
358.20	216.44
358.58	216.50
358.97	216.57
359.35	216.66
359.73	216.80
360.11	216.83
360.49	216.87
360.87	216.92
361.25	217.00
361.63	217.17
362.01	217.19
362.39	217.22
362.77	217.27
363.15	217.28
363.53	217.31
363.91	217.33
364.29	217.35
364.67	217.22
365.05	217.20
365.43	217.25
365.81	217.28
366.19	217.37
366.57	217.45
366.95	217.43
367.33	217.36
367.71	217.32
368.09	217.34
368.47	217.35
368.85	217.32
369.23	217.35
369.61	217.24
369.99	217.34
370.37	217.34
370.75	217.38
371.13	217.33
371.51	217.27
371.89	217.26
372.27	217.23
372.65	217.15
373.03	217.13
373.41	217.05
373.78	216.98
374.16	216.84
374.54	216.73
374.92	216.69
375.30	216.67
375.68	216.59
376.06	216.59
376.44	216.52
376.82	216.50
377.19	216.43
377.57	216.34
377.95	216.21
378.33	216.15
378.71	215.99
379.09	215.97
379.47	215.95
379.84	215.89
380.22	215.81
380.60	215.76
380.98	215.72
381.36	215.67
381.73	215.63
382.11	215.64
382.49	215.64
382.87	215.58
383.25	215.54
383.62	215.79
384.00	215.72
384.38	215.71
384.76	215.69
385.13	215.75
385.51	215.76
385.89	215.70
386.27	215.72
386.64	215.75
387.02	215.71
387.40	215.67
387.78	215.67
388.15	215.70
388.53	215.69
388.91	215.65
389.29	215.66
389.66	215.67
390.04	215.63
390.42	215.62
390.79	215.61
391.17	215.61
391.55	215.33
391.92	215.31
392.30	215.31
392.68	215.28
393.05	215.26
393.43	215.27
393.81	215.33
394.18	215.30
394.56	215.27
394.94	215.33
395.31	215.33
395.69	215.39
396.06	215.38
396.44	215.41
396.82	215.43
397.19	215.53
397.57	215.54
397.95	215.59
398.32	215.55
398.70	215.63
399.07	215.71
399.45	215.77
399.82	215.81
400.20	215.83
400.58	215.87
400.95	215.85
401.33	215.96
401.70	216.15
402.08	216.22
402.45	216.33
402.83	216.46
403.20	216.61
403.58	216.67
403.95	216.84
404.33	216.98
404.71	217.15
405.08	217.39
405.46	217.56
405.83	217.79
406.21	218.03
406.58	218.26
406.96	218.48
407.33	218.76
407.70	219.07
408.08	219.54
408.45	219.91
408.83	220.29
409.20	220.62
409.58	220.86
409.95	221.33
410.33	221.82
410.70	222.26
411.08	222.82
411.45	223.40
411.82	223.99
412.20	224.70
412.57	225.50
412.95	226.11
413.32	226.94
413.69	227.73
414.07	228.65
414.44	229.61
414.82	230.62
415.19	231.75
415.56	232.92
415.94	234.12
416.31	235.49
416.68	236.93
417.06	238.50
417.43	240.07
417.81	241.82
418.18	243.61
418.55	245.51
418.93	247.49
419.30	249.61
419.67	251.82
420.04	254.14
420.42	256.52
420.79	259.34
421.16	262.13
421.54	265.05
421.91	268.06
422.28	271.18
422.66	274.44
423.03	277.75
423.40	281.13
423.77	284.73
424.15	288.40
424.52	292.23
424.89	296.43
425.26	300.51
425.64	304.37
426.01	308.60
426.38	313.06
426.75	317.60
427.13	322.31
427.50	327.31
427.87	332.46
428.24	337.63
428.61	342.57
428.99	348.04
429.36	354.06
429.73	359.92
430.10	365.75
430.47	371.84
430.85	378.08
431.22	384.79
431.59	391.90
431.96	398.68
432.33	406.16
432.70	413.45
433.08	421.94
433.45	430.02
433.82	438.03
434.19	446.88
434.56	455.55
434.93	463.84
435.30	472.08
435.68	481.16
436.05	490.17
436.42	499.06
436.79	507.25
437.16	516.00
437.53	525.30
437.90	534.43
438.27	543.40
438.64	552.60
439.01	561.01
439.38	568.52
439.75	575.86
440.13	584.24
440.50	592.12
440.87	598.55
441.24	605.16
441.61	612.51
441.98	617.90
442.35	624.23
442.72	630.54
443.09	636.50
443.46	640.22
443.83	642.75
444.20	644.98
444.57	648.06
444.94	649.44
445.31	650.83
445.68	652.19
446.05	652.77
446.42	651.99
446.79	651.09
447.16	650.03
447.53	649.25
447.90	645.91
448.27	642.64
448.64	637.97
449.01	634.63
449.37	628.79
449.74	623.14
450.11	616.26
450.48	608.97
450.85	601.62
451.22	595.16
451.59	588.99
451.96	583.16
452.33	575.34
452.70	568.31
453.07	559.82
453.43	551.27
453.80	542.99
454.17	535.02
454.54	527.52
454.91	519.35
455.28	511.43
455.65	504.00
456.02	496.51
456.38	490.23
456.75	482.37
457.12	475.73
457.49	469.24
457.86	463.10
458.23	457.65
458.59	451.76
458.96	445.78
459.33	440.45
459.70	435.04
460.07	430.79
460.43	425.89
460.80	421.37
461.17	417.35
461.54	413.18
461.91	409.17
462.27	405.06
462.64	401.62
463.01	397.82
463.38	394.17
463.74	390.47
464.11	387.20
464.48	384.39
464.85	381.39
465.21	378.99
465.58	376.30
465.95	373.17
466.32	370.49
466.68	367.91
467.05	365.39
467.42	362.87
467.78	360.20
468.15	357.65
468.52	355.74
468.88	353.26
469.25	351.03
469.62	349.24
469.98	347.28
470.35	345.50
470.72	343.85
471.08	342.10
471.45	340.57
471.82	339.06
472.18	337.38
472.55	336.12
472.92	334.73
473.28	333.59
473.65	332.47
474.02	331.39
474.38	330.52
474.75	329.75
475.11	328.93
475.48	328.33
475.85	327.89
476.21	327.38
476.58	327.03
476.94	326.80
477.31	326.50
477.67	326.24
478.04	326.07
478.41	326.02
478.77	326.17
479.14	326.17
479.50	326.32
479.87	326.65
480.23	326.98
480.60	327.24
480.96	327.49
481.33	328.06
481.69	328.61
482.06	329.09
482.42	329.58
482.79	330.20
483.15	331.03
483.52	331.95
483.88	332.81
484.25	333.78
484.61	334.80
484.98	335.86
485.34	337.21
485.71	338.63
486.07	340.05
486.44	341.35
486.80	342.95
487.17	344.62
487.53	346.43
487.90	348.28
488.26	350.29
488.62	352.48
488.99	354.53
489.35	356.72
489.72	359.17
490.08	361.70
490.44	364.28
490.81	366.97
491.17	369.69
491.54	372.74
491.90	375.79
492.26	379.04
492.63	382.47
492.99	385.93
493.36	389.61
493.72	393.51
494.08	397.51
494.45	401.74
494.81	406.13
495.17	410.60
495.54	415.33
495.90	420.15
496.26	425.08
496.63	430.30
496.99	435.76
497.35	441.28
497.72	447.09
498.08	453.03
498.44	459.17
498.80	465.60
499.17	472.18
499.53	478.91
499.89	485.86
500.26	492.83
500.62	499.97
500.98	507.43
501.34	514.94
501.71	522.79
502.07	530.71
502.43	538.73
502.79	546.94
503.16	555.42
503.52	564.08
503.88	572.85
504.24	581.88
504.60	590.89
504.97	600.27
505.33	609.60
505.69	619.51
506.05	629.39
506.41	639.41
506.78	649.48
507.14	659.77
507.50	670.33
507.86	681.15
508.22	691.96
508.59	702.67
508.95	713.81
509.31	725.16
509.67	736.63
510.03	748.10
510.39	759.90
510.75	771.73
511.12	783.78
511.48	795.98
511.84	808.30
512.20	820.73
512.56	833.44
512.92	846.33
513.28	859.11
513.64	871.97
514.00	884.85
514.37	897.90
514.73	911.10
515.09	924.14
515.45	937.18
515.81	950.39
516.17	963.86
516.53	977.08
516.89	990.24
517.25	1003.65
517.61	1017.30
517.97	1030.74
518.33	1044.08
518.69	1057.70
519.05	1071.56
519.41	1085.37
519.77	1099.43
520.13	1112.84
520.49	1126.16
520.85	1139.63
521.21	1153.06
521.57	1166.82
521.93	1180.00
522.29	1193.87
522.65	1207.64
523.01	1221.34
523.37	1234.71
523.73	1248.13
524.09	1261.47
524.45	1275.10
524.81	1288.63
525.17	1302.12
525.53	1315.56
525.89	1329.04
526.25	1342.16
526.61	1355.24
526.97	1368.46
527.33	1381.55
527.68	1395.08
528.04	1408.70
528.40	1421.92
528.76	1435.47
529.12	1448.49
529.48	1461.97
529.84	1474.30
530.20	1487.17
530.56	1499.85
530.91	1513.17
531.27	1526.24
531.63	1539.21
531.99	1552.11
532.35	1564.39
532.71	1576.99
533.07	1589.93
533.42	1602.21
533.78	1614.54
534.14	1626.64
534.50	1638.07
534.86	1649.78
535.21	1660.86
535.57	1672.50
535.93	1683.92
536.29	1695.09
536.65	1706.71
537.00	1717.80
537.36	1729.36
537.72	1740.48
538.08	1752.01
538.44	1763.01
538.79	1774.18
539.15	1785.23
539.51	1796.03
539.87	1807.46
540.22	1818.37
540.58	1829.36
540.94	1840.42
541.29	1850.75
541.65	1860.60
542.01	1871.16
542.37	1881.35
542.72	1891.65
543.08	1901.50
543.44	1912.15
543.79	1921.52
544.15	1931.06
544.51	1941.16
544.87	1951.13
545.22	1960.39
545.58	1969.23
545.94	1978.17
546.29	1986.88
546.65	1995.32
547.01	2003.52
547.36	2011.33
547.72	2019.04
548.07	2026.63
548.43	2034.46
548.79	2042.52
549.14	2050.64
549.50	2059.09
549.86	2067.04
550.21	2074.52
550.57	2082.35
550.92	2089.12
551.28	2096.65
551.64	2103.99
551.99	2111.44
552.35	2118.77
552.70	2125.82
553.06	2132.66
553.41	2139.07
553.77	2145.43
554.13	2151.87
554.48	2159.08
554.84	2166.36
555.19	2172.97
555.55	2179.49
555.90	2185.77
556.26	2192.72
556.61	2198.97
556.97	2203.84
557.32	2209.67
557.68	2216.14
558.03	2221.95
558.39	2227.41
558.74	2233.49
559.10	2239.04
559.45	2244.74
559.81	2250.22
560.16	2255.70
560.52	2261.70
560.87	2268.15
561.23	2274.08
561.58	2280.66
561.94	2285.86
562.29	2290.45
562.64	2296.68
563.00	2302.51
563.35	2308.11
563.71	2313.71
564.06	2319.40
564.42	2325.49
564.77	2330.45
565.12	2335.76
565.48	2340.84
565.83	2346.33
566.19	2351.86
566.54	2357.30
566.89	2361.90
567.25	2366.61
567.60	2372.38
567.96	2377.42
568.31	2381.86
568.66	2386.41
569.02	2390.52
569.37	2394.35
569.72	2398.92
570.08	2402.46
570.43	2405.47
570.78	2408.53
571.14	2411.11
571.49	2414.26
571.84	2417.83
572.20	2420.94
572.55	2423.90
572.90	2426.21
573.26	2429.06
573.61	2431.41
573.96	2433.62
574.31	2435.75
574.67	2437.57
575.02	2438.36
575.37	2439.89
575.72	2440.74
576.08	2442.11
576.43	2442.18
576.78	2442.59
577.13	2444.08
577.49	2445.21
577.84	2446.14
578.19	2447.62
578.54	2448.27
578.90	2448.95
579.25	2448.77
579.60	2448.62
579.95	2447.77
580.30	2447.76
580.66	2447.06
581.01	2445.56
581.36	2443.17
581.71	2441.60
582.06	2440.58
582.42	2439.73
582.77	2437.49
583.12	2435.92
583.47	2434.56
583.82	2433.83
584.17	2432.62
584.53	2430.50
584.88	2428.41
585.23	2426.73
585.58	2424.34
585.93	2422.26
586.28	2420.04
586.63	2417.69
586.98	2415.55
587.34	2413.60
587.69	2411.29
588.04	2409.25
588.39	2407.75
588.74	2405.23
589.09	2402.61
589.44	2399.27
589.79	2396.74
590.14	2394.78
590.49	2392.03
590.84	2388.09
591.19	2384.97
591.54	2381.78
591.89	2377.67
592.25	2374.25
592.60	2370.01
592.95	2365.90
593.30	2361.73
593.65	2357.29
594.00	2352.65
594.35	2349.48
594.70	2344.76
595.05	2340.15
595.40	2334.59
595.75	2328.71
596.10	2325.15
596.45	2320.34
596.80	2315.75
597.15	2310.52
597.50	2304.48
597.85	2299.34
598.19	2294.15
598.54	2288.47
598.89	2283.13
599.24	2278.49
599.59	2272.44
599.94	2266.53
600.29	2260.54
600.64	2254.60
600.99	2247.84
601.34	2242.35
601.69	2235.31
602.04	2228.94
602.39	2222.20
602.74	2216.02
603.08	2210.46
603.43	2203.84
603.78	2196.87
604.13	2189.80
604.48	2182.47
604.83	2176.30
605.18	2170.08
605.53	2163.12
605.87	2155.84
606.22	2148.95
606.57	2141.04
606.92	2133.08
607.27	2126.09
607.62	2119.38
607.96	2112.39
608.31	2105.89
608.66	2098.11
609.01	2090.56
609.36	2083.46
609.70	2075.81
610.05	2068.00
610.40	2059.69
610.75	2051.19
611.10	2043.40
611.44	2034.37
611.79	2025.62
612.14	2015.52
612.49	2004.70
612.83	1995.30
613.18	1986.00
613.53	1976.74
613.88	1967.18
614.22	1958.36
614.57	1948.45
614.92	1937.74
615.27	1927.26
615.61	1916.98
615.96	1907.28
616.31	1897.53
616.65	1887.98
617.00	1878.15
617.35	1868.35
617.70	1858.54
618.04	1848.50
618.39	1838.23
618.74	1828.53
619.08	1818.71
619.43	1810.09
619.78	1801.85
620.12	1793.22
620.47	1783.68
620.82	1773.15
621.16	1763.22
621.51	1753.28
621.85	1743.29
622.20	1732.94
622.55	1722.48
622.89	1712.51
623.24	1702.86
623.59	1692.95
623.93	1682.74
624.28	1672.82
624.62	1662.80
624.97	1652.40
625.32	1642.58
625.66	1633.64
626.01	1624.82
626.35	1615.61
626.70	1605.29
627.04	1595.14
627.39	1584.84
627.73	1575.43
628.08	1566.51
628.43	1556.85
628.77	1547.70
629.12	1538.85
629.46	1530.90
629.81	1522.40
630.15	1512.87
630.50	1502.89
630.84	1492.29
631.19	1482.33
631.53	1472.92
631.88	1462.57
632.22	1452.54
632.57	1443.10
632.91	1432.90
633.26	1422.86
633.60	1413.00
633.95	1403.79
634.29	1394.22
634.64	1384.81
634.98	1374.76
635.32	1365.34
635.67	1356.78
636.01	1347.36
636.36	1337.48
636.70	1327.91
637.05	1318.38
637.39	1309.37
637.73	1300.62
638.08	1293.12
638.42	1284.93
638.77	1276.12
639.11	1267.88
639.45	1259.94
639.80	1251.29
640.14	1242.48
640.49	1233.61
640.83	1224.86
641.17	1216.53
641.52	1208.36
641.86	1199.70
642.20	1191.74
642.55	1183.04
642.89	1174.09
643.23	1165.32
643.58	1157.23
643.92	1148.05
644.26	1139.41
644.61	1130.82
644.95	1121.95
645.29	1112.54
645.64	1103.21
645.98	1094.63
646.32	1086.63
646.66	1078.08
647.01	1069.71
647.35	1061.48
647.69	1053.12
648.04	1044.72
648.38	1035.76
648.72	1026.86
649.06	1018.33
649.41	1010.10
649.75	1002.11
650.09	994.28
650.43	986.15
650.78	977.65
651.12	969.91
651.46	962.40
651.80	955.11
652.14	947.73
652.49	940.21
652.83	932.87
653.17	925.12
653.51	917.50
653.85	910.15
654.20	902.79
654.54	895.24
654.88	887.91
655.22	880.56
655.56	873.49
655.90	866.65
656.25	859.87
656.59	852.88
656.93	845.71
657.27	838.44
657.61	831.41
657.95	825.17
658.29	819.15
658.64	812.89
658.98	806.38
659.32	799.77
659.66	793.44
660.00	786.96
660.34	780.79
660.68	774.49
661.02	768.12
661.36	762.07
661.70	756.22
662.05	750.53
662.39	744.99
662.73	739.62
663.07	734.16
663.41	728.52
663.75	722.77
664.09	717.06
664.43	711.51
664.77	706.08
665.11	700.28
665.45	694.23
665.79	688.25
666.13	682.48
666.47	676.89
666.81	671.42
667.15	666.00
667.49	660.73
667.83	655.42
668.17	650.08
668.51	644.93
668.85	639.98
669.19	634.96
669.53	629.87
669.87	624.62
670.21	619.80
670.55	614.99
670.89	610.44
671.23	606.05
671.57	601.66
671.91	597.36
672.25	593.14
672.58	589.05
672.92	585.10
673.26	581.10
673.60	577.17
673.94	573.27
674.28	569.60
674.62	565.79
674.96	561.99
675.30	558.43
675.64	554.73
675.97	551.15
676.31	547.48
676.65	543.77
676.99	540.38
677.33	536.51
677.67	532.91
678.01	529.03
678.34	525.36
678.68	521.78
679.02	518.12
679.36	514.39
679.70	510.72
680.04	507.10
680.37	503.58
680.71	500.21
681.05	497.02
681.39	493.69
681.73	490.42
682.06	487.36
682.40	484.20
682.74	480.93
683.08	477.58
683.42	474.41
683.75	471.42
684.09	468.27
684.43	465.39
684.77	462.39
685.10	459.51
685.44	456.52
685.78	453.51
686.12	450.70
686.45	447.98
686.79	445.22
687.13	442.64
687.46	440.01
687.80	437.30
688.14	434.38
688.48	431.69
688.81	429.01
689.15	426.39
689.49	423.81
689.82	421.27
690.16	418.65
690.50	416.11
690.83	413.59
691.17	411.05
691.51	408.52
691.84	406.18
692.18	403.93
692.52	401.65
692.85	399.48
693.19	397.30
693.52	395.05
693.86	392.79
694.20	390.57
694.53	388.38
694.87	386.17
695.21	384.05
695.54	381.88
695.88	379.72
696.21	377.52
696.55	375.32
696.88	373.25
697.22	371.27
697.56	369.36
697.89	367.45
698.23	365.67
698.56	363.84
698.90	362.11
699.23	360.17
699.57	358.37
699.90	356.55
700.24	354.69
700.58	352.91
700.91	351.23
701.25	349.61
701.58	348.04
701.92	346.41
702.25	344.77
702.59	343.10
702.92	341.53
703.26	339.95
703.59	338.46
703.93	337.14
704.26	335.66
704.60	334.12
704.93	332.59
705.26	331.04
705.60	329.54
705.93	327.99
706.27	326.61
706.60	325.30
706.94	324.01
707.27	322.65
707.61	321.27
707.94	319.88
708.27	318.35
708.61	316.79
708.94	315.43
709.28	314.08
709.61	312.82
709.94	311.60
710.28	310.35
710.61	309.16
710.95	307.72
711.28	306.62
711.61	305.44
711.95	304.27
712.28	303.09
712.61	301.89
712.95	300.81
713.28	299.78
713.61	298.62
713.95	297.40
714.28	296.34
714.61	295.31
714.95	294.34
715.28	293.30
715.61	292.31
715.95	291.35
716.28	290.35
716.61	289.45
716.95	288.42
717.28	287.49
717.61	286.51
717.94	285.59
718.28	284.52
718.61	283.63
718.94	282.74
719.27	281.89
719.61	281.11
719.94	280.24
720.27	279.27
720.60	278.38
720.94	277.63
721.27	276.85
721.60	276.11
721.93	275.35
722.27	274.73
722.60	274.03
722.93	273.31
723.26	272.69
723.59	271.94
723.93	271.28
724.26	270.61
724.59	269.93
724.92	269.33
725.25	268.79
725.59	268.21
725.92	267.68
726.25	267.08
726.58	266.46
726.91	265.82
727.24	265.26
727.57	264.68
727.91	264.05
728.24	263.49
728.57	262.91
728.90	262.37
729.23	261.73
729.56	261.29
729.89	260.72
730.22	260.16
730.55	259.58
730.89	259.04
731.22	258.49
731.55	257.96
731.88	257.42
732.21	256.85
732.54	256.25
732.87	255.70
733.20	255.20
733.53	254.69
733.86	254.25
734.19	253.74
734.52	253.34
734.85	253.03
735.18	252.54
735.51	252.15
735.84	251.71
736.17	251.33
736.50	250.81
736.83	250.62
737.16	250.24
737.49	249.90
737.82	249.50
738.15	249.14
738.48	248.76
738.81	248.37
739.14	247.99
739.47	247.64
739.80	247.26
740.13	246.93
740.46	246.55
740.79	246.12
741.12	245.77
741.45	245.34
741.78	244.91
742.11	244.63
742.44	244.24
742.77	243.92
743.10	243.55
743.43	243.16
743.75	242.64
744.08	242.54
744.41	242.18
744.74	241.84
745.07	241.48
745.40	241.18
745.73	240.95
746.06	240.62
746.39	240.34
746.71	240.00
747.04	239.63
747.37	239.29
747.70	239.03
748.03	238.75
748.36	238.49
748.68	238.16
749.01	237.80
749.34	237.49
749.67	237.20
750.00	236.94
750.33	236.79
750.65	236.51
750.98	235.97
751.31	235.70
751.64	235.45
751.97	235.34
752.29	235.07
752.62	234.71
752.95	234.45
753.28	234.16
753.60	233.94
753.93	233.75
754.26	233.54
754.59	233.28
754.91	233.04
755.24	232.78
755.57	232.58
755.90	232.34
756.22	232.11
756.55	231.84
756.88	231.58
757.20	231.28
757.53	231.02
757.86	230.84
758.19	230.65
758.51	230.44
758.84	230.09
759.17	229.87
759.49	229.69
759.82	229.60
760.15	229.42
760.47	229.22
760.80	228.96
761.13	228.82
761.45	228.62
761.78	228.41
762.11	228.28
762.43	228.04
762.76	227.92
763.08	227.78
763.41	227.63
763.74	227.49
764.06	227.31
764.39	227.15
764.71	227.00
765.04	226.84
765.37	226.69
765.69	226.56
766.02	226.41
766.34	226.23
766.67	226.03
767.00	225.94
767.32	225.94
767.65	225.95
767.97	225.79
768.30	225.66
768.62	225.54
768.95	225.38
769.27	225.26
769.60	225.14
769.92	224.97
770.25	224.82
770.57	224.65
770.90	224.54
771.22	224.42
771.55	224.29
771.87	224.19
772.20	224.05
772.52	224.10
772.85	224.25
773.17	224.16
773.50	224.05
773.82	223.93
774.15	223.73
774.47	223.50
774.80	223.40
775.12	223.30
775.45	223.19
775.77	223.14
776.09	223.07
776.42	222.96
776.74	222.95
777.07	222.84
777.39	222.74
777.72	222.64
778.04	222.56
778.36	222.45
778.69	222.40
779.01	222.34
779.33	222.08
779.66	221.78
779.98	221.71
780.31	221.63
780.63	221.61
780.95	221.54
781.28	221.47
781.60	221.36
781.92	221.29
782.25	221.25
782.57	221.16
782.89	221.10
783.22	220.99
783.54	220.87
783.86	220.86
784.19	220.81
784.51	220.81
784.83	220.71
785.16	220.63
785.48	220.54
785.80	220.46
786.12	220.42
