SpectraSuite Data File
++++++++++++++++++++++++++++++++++++
Date: Tue Jan 29 16:24:40 EST 2013
User: group
Dark Spectrum Present: No
Reference Spectrum Present: No
Number of Sampled Component Spectra: 1
Spectrometers: USB2E7196
Integration Time (usec): 65000 (USB2E7196)
Spectra Averaged: 100 (USB2E7196)
Boxcar Smoothing: 10 (USB2E7196)
Correct for Electrical Dark: No (USB2E7196)
Strobe/Lamp Enabled: No (USB2E7196)
Correct for Detector Non-linearity: No (USB2E7196)
Correct for Stray Light: No (USB2E7196)
Number of Pixels in Processed Spectrum: 2048
>>>>>Begin Processed Spectral Data<<<<<
339.09	0.00
339.48	202.47
339.86	203.91
340.24	204.71
340.63	206.85
341.01	211.13
341.39	209.49
341.78	211.11
342.16	212.19
342.54	212.89
342.93	201.60
343.31	211.79
343.69	212.34
344.07	212.80
344.46	213.25
344.84	213.64
345.22	213.83
345.60	214.11
345.99	214.30
346.37	214.46
346.75	214.57
347.13	214.63
347.52	214.68
347.90	214.81
348.28	214.87
348.66	214.92
349.05	214.93
349.43	214.98
349.81	215.05
350.19	215.12
350.57	215.22
350.96	215.33
351.34	215.42
351.72	215.49
352.10	215.63
352.48	215.74
352.87	215.77
353.25	215.82
353.63	215.86
354.01	215.90
354.39	215.95
354.77	216.01
355.15	216.16
355.54	216.20
355.92	216.22
356.30	216.31
356.68	216.50
357.06	216.59
357.44	216.60
357.82	216.64
358.20	216.71
358.58	216.73
358.97	216.78
359.35	216.88
359.73	216.99
360.11	217.02
360.49	217.04
360.87	217.12
361.25	217.19
361.63	217.29
362.01	217.35
362.39	217.39
362.77	217.46
363.15	217.49
363.53	217.53
363.91	217.54
364.29	217.55
364.67	217.40
365.05	217.43
365.43	217.46
365.81	217.48
366.19	217.58
366.57	217.67
366.95	217.66
367.33	217.60
367.71	217.60
368.09	217.62
368.47	217.64
368.85	217.59
369.23	217.61
369.61	217.53
369.99	217.58
370.37	217.58
370.75	217.64
371.13	217.56
371.51	217.53
371.89	217.53
372.27	217.50
372.65	217.48
373.03	217.42
373.41	217.41
373.78	217.38
374.16	217.22
374.54	217.14
374.92	217.10
375.30	217.09
375.68	217.02
376.06	217.00
376.44	216.92
376.82	216.90
377.19	216.84
377.57	216.80
377.95	216.70
378.33	216.64
378.71	216.47
379.09	216.45
379.47	216.42
379.84	216.36
380.22	216.30
380.60	216.21
380.98	216.14
381.36	216.08
381.73	216.02
382.11	216.03
382.49	215.97
382.87	215.87
383.25	215.82
383.62	216.00
384.00	215.92
384.38	215.92
384.76	215.92
385.13	215.95
385.51	215.95
385.89	215.89
386.27	215.85
386.64	215.85
387.02	215.81
387.40	215.76
387.78	215.75
388.15	215.75
388.53	215.76
388.91	215.75
389.29	215.71
389.66	215.73
390.04	215.68
390.42	215.71
390.79	215.74
391.17	215.70
391.55	215.46
391.92	215.43
392.30	215.47
392.68	215.43
393.05	215.43
393.43	215.41
393.81	215.44
394.18	215.42
394.56	215.44
394.94	215.51
395.31	215.50
395.69	215.57
396.06	215.59
396.44	215.61
396.82	215.63
397.19	215.76
397.57	215.72
397.95	215.78
398.32	215.75
398.70	215.83
399.07	215.92
399.45	215.96
399.82	216.00
400.20	215.98
400.58	216.04
400.95	216.01
401.33	216.13
401.70	216.35
402.08	216.46
402.45	216.55
402.83	216.63
403.20	216.77
403.58	216.85
403.95	217.00
404.33	217.20
404.71	217.35
405.08	217.64
405.46	217.82
405.83	218.01
406.21	218.22
406.58	218.41
406.96	218.64
407.33	218.90
407.70	219.23
408.08	219.71
408.45	220.07
408.83	220.44
409.20	220.81
409.58	221.06
409.95	221.52
410.33	222.01
410.70	222.48
411.08	223.01
411.45	223.54
411.82	224.09
412.20	224.71
412.57	225.53
412.95	226.07
413.32	226.91
413.69	227.75
414.07	228.69
414.44	229.69
414.82	230.73
415.19	231.90
415.56	233.05
415.94	234.25
416.31	235.66
416.68	237.05
417.06	238.63
417.43	240.17
417.81	241.91
418.18	243.69
418.55	245.61
418.93	247.64
419.30	249.75
419.67	251.99
420.04	254.28
420.42	256.66
420.79	259.47
421.16	262.21
421.54	265.11
421.91	268.02
422.28	271.12
422.66	274.36
423.03	277.61
423.40	280.96
423.77	284.57
424.15	288.19
424.52	292.00
424.89	296.15
425.26	300.17
425.64	304.01
426.01	308.24
426.38	312.67
426.75	317.19
427.13	321.92
427.50	326.89
427.87	332.09
428.24	337.22
428.61	342.18
428.99	347.70
429.36	353.69
429.73	359.60
430.10	365.41
430.47	371.51
430.85	377.73
431.22	384.37
431.59	391.41
431.96	398.19
432.33	405.65
432.70	412.87
433.08	421.38
433.45	429.42
433.82	437.43
434.19	446.30
434.56	454.87
434.93	463.14
435.30	471.38
435.68	480.47
436.05	489.50
436.42	498.36
436.79	506.43
437.16	515.14
437.53	524.34
437.90	533.41
438.27	542.22
438.64	551.42
439.01	559.99
439.38	567.51
439.75	574.82
440.13	583.20
440.50	591.10
440.87	597.53
441.24	604.10
441.61	611.43
441.98	616.77
442.35	623.14
442.72	629.39
443.09	635.38
443.46	639.03
443.83	641.48
444.20	643.71
444.57	646.83
444.94	648.29
445.31	649.74
445.68	651.18
446.05	651.80
446.42	650.97
446.79	649.92
447.16	648.79
447.53	647.98
447.90	644.60
448.27	641.32
448.64	636.66
449.01	633.38
449.37	627.46
449.74	621.79
450.11	614.89
450.48	607.57
450.85	600.13
451.22	593.69
451.59	587.58
451.96	581.67
452.33	573.84
452.70	566.76
453.07	558.22
453.43	549.66
453.80	541.40
454.17	533.52
454.54	526.04
454.91	517.95
455.28	510.04
455.65	502.70
456.02	495.23
456.38	488.89
456.75	481.05
457.12	474.51
457.49	468.04
457.86	461.95
458.23	456.61
458.59	450.77
458.96	444.81
459.33	439.55
459.70	434.29
460.07	430.11
460.43	425.24
460.80	420.75
461.17	416.76
461.54	412.61
461.91	408.62
462.27	404.55
462.64	401.13
463.01	397.36
463.38	393.73
463.74	390.10
464.11	386.90
464.48	384.07
464.85	380.98
465.21	378.56
465.58	375.94
465.95	372.79
466.32	370.12
466.68	367.51
467.05	364.92
467.42	362.38
467.78	359.71
468.15	357.21
468.52	355.30
468.88	352.81
469.25	350.64
469.62	348.87
469.98	346.91
470.35	345.11
470.72	343.45
471.08	341.64
471.45	340.15
471.82	338.67
472.18	336.99
472.55	335.82
472.92	334.43
473.28	333.21
473.65	332.12
474.02	331.04
474.38	330.20
474.75	329.47
475.11	328.66
475.48	328.08
475.85	327.58
476.21	327.09
476.58	326.76
476.94	326.55
477.31	326.22
477.67	326.05
478.04	325.89
478.41	325.93
478.77	326.06
479.14	326.00
479.50	326.10
479.87	326.39
480.23	326.71
480.60	326.99
480.96	327.30
481.33	327.90
481.69	328.48
482.06	329.01
482.42	329.48
482.79	330.05
483.15	330.86
483.52	331.82
483.88	332.72
484.25	333.67
484.61	334.70
484.98	335.74
485.34	336.99
485.71	338.41
486.07	339.81
486.44	341.18
486.80	342.78
487.17	344.52
487.53	346.33
487.90	348.19
488.26	350.24
488.62	352.38
488.99	354.38
489.35	356.60
489.72	358.96
490.08	361.51
490.44	364.10
490.81	366.78
491.17	369.45
491.54	372.47
491.90	375.46
492.26	378.73
492.63	382.15
492.99	385.65
493.36	389.27
493.72	393.13
494.08	397.16
494.45	401.38
494.81	405.73
495.17	410.21
495.54	414.90
495.90	419.71
496.26	424.68
496.63	429.98
496.99	435.37
497.35	441.00
497.72	446.79
498.08	452.72
498.44	458.90
498.80	465.40
499.17	471.94
499.53	478.74
499.89	485.66
500.26	492.69
500.62	499.83
500.98	507.38
501.34	514.88
501.71	522.73
502.07	530.62
502.43	538.66
502.79	546.92
503.16	555.42
503.52	564.07
503.88	572.86
504.24	581.92
504.60	591.02
504.97	600.31
505.33	609.70
505.69	619.57
506.05	629.53
506.41	639.45
506.78	649.51
507.14	659.86
507.50	670.36
507.86	681.19
508.22	692.04
508.59	702.77
508.95	713.98
509.31	725.37
509.67	736.90
510.03	748.35
510.39	760.24
510.75	772.17
511.12	784.25
511.48	796.39
511.84	808.69
512.20	821.10
512.56	833.84
512.92	846.72
513.28	859.56
513.64	872.45
514.00	885.41
514.37	898.58
514.73	911.76
515.09	924.81
515.45	937.81
515.81	951.00
516.17	964.43
516.53	977.69
516.89	990.88
517.25	1004.14
517.61	1017.86
517.97	1031.27
518.33	1044.60
518.69	1058.22
519.05	1072.01
519.41	1085.75
519.77	1099.76
520.13	1113.21
520.49	1126.48
520.85	1140.04
521.21	1153.37
521.57	1167.18
521.93	1180.29
522.29	1194.13
522.65	1208.00
523.01	1221.65
523.37	1234.93
523.73	1248.47
524.09	1261.85
524.45	1275.30
524.81	1288.94
525.17	1302.46
525.53	1315.75
525.89	1329.15
526.25	1342.37
526.61	1355.37
526.97	1368.57
527.33	1381.73
527.68	1395.28
528.04	1408.95
528.40	1422.20
528.76	1435.74
529.12	1448.70
529.48	1462.07
529.84	1474.41
530.20	1487.18
530.56	1499.88
530.91	1513.24
531.27	1526.14
531.63	1538.89
531.99	1551.77
532.35	1564.14
532.71	1576.55
533.07	1589.54
533.42	1601.96
533.78	1614.19
534.14	1626.39
534.50	1637.76
534.86	1649.30
535.21	1660.22
535.57	1671.80
535.93	1683.11
536.29	1694.27
536.65	1705.86
537.00	1717.00
537.36	1728.53
537.72	1739.56
538.08	1751.13
538.44	1762.18
538.79	1773.30
539.15	1784.39
539.51	1795.30
539.87	1806.68
540.22	1817.59
540.58	1828.68
540.94	1839.54
541.29	1849.89
541.65	1859.75
542.01	1870.32
542.37	1880.45
542.72	1890.72
543.08	1900.55
543.44	1911.12
543.79	1920.46
544.15	1929.95
544.51	1939.96
544.87	1949.88
545.22	1959.29
545.58	1968.22
545.94	1977.25
546.29	1985.83
546.65	1994.27
547.01	2002.46
547.36	2010.19
547.72	2017.89
548.07	2025.47
548.43	2033.23
548.79	2041.10
549.14	2049.25
549.50	2057.83
549.86	2065.92
550.21	2073.42
550.57	2081.16
550.92	2087.98
551.28	2095.59
551.64	2102.88
551.99	2110.44
552.35	2117.74
552.70	2124.70
553.06	2131.51
553.41	2137.76
553.77	2144.30
554.13	2150.65
554.48	2157.80
554.84	2164.89
555.19	2171.62
555.55	2178.07
555.90	2184.44
556.26	2191.50
556.61	2197.72
556.97	2202.48
557.32	2208.29
557.68	2214.79
558.03	2220.67
558.39	2226.04
558.74	2232.14
559.10	2237.66
559.45	2243.33
559.81	2248.77
560.16	2254.26
560.52	2260.08
560.87	2266.48
561.23	2272.52
561.58	2279.27
561.94	2284.46
562.29	2289.25
562.64	2295.44
563.00	2301.21
563.35	2306.77
563.71	2312.37
564.06	2318.08
564.42	2324.10
564.77	2329.12
565.12	2334.58
565.48	2339.57
565.83	2345.13
566.19	2350.46
566.54	2356.07
566.89	2360.82
567.25	2365.62
567.60	2371.41
567.96	2376.66
568.31	2381.34
568.66	2385.65
569.02	2389.53
569.37	2393.56
569.72	2398.06
570.08	2401.60
570.43	2404.78
570.78	2407.97
571.14	2410.55
571.49	2413.78
571.84	2417.47
572.20	2420.67
572.55	2423.51
572.90	2425.95
573.26	2428.93
573.61	2431.53
573.96	2433.65
574.31	2435.54
574.67	2437.46
575.02	2438.29
575.37	2439.77
575.72	2440.57
576.08	2442.09
576.43	2442.41
576.78	2442.79
577.13	2444.37
577.49	2445.60
577.84	2446.66
578.19	2448.00
578.54	2448.79
578.90	2449.44
579.25	2449.40
579.60	2449.31
579.95	2448.66
580.30	2448.87
580.66	2448.27
581.01	2446.82
581.36	2444.59
581.71	2443.42
582.06	2442.16
582.42	2441.30
582.77	2439.27
583.12	2437.58
583.47	2436.19
583.82	2435.62
584.17	2434.34
584.53	2432.31
584.88	2430.21
585.23	2428.37
585.58	2426.12
585.93	2424.04
586.28	2421.91
586.63	2419.53
586.98	2417.30
587.34	2415.38
587.69	2412.82
588.04	2410.77
588.39	2409.22
588.74	2406.71
589.09	2403.91
589.44	2400.93
589.79	2398.40
590.14	2396.27
590.49	2393.54
590.84	2389.75
591.19	2386.75
591.54	2383.60
591.89	2379.62
592.25	2376.34
592.60	2372.20
592.95	2368.13
593.30	2364.00
593.65	2359.62
594.00	2355.06
594.35	2352.07
594.70	2347.40
595.05	2342.95
595.40	2337.39
595.75	2331.63
596.10	2328.11
596.45	2323.31
596.80	2318.78
597.15	2313.68
597.50	2307.81
597.85	2302.85
598.19	2297.76
598.54	2291.89
598.89	2286.56
599.24	2281.95
599.59	2275.97
599.94	2270.14
600.29	2264.07
600.64	2258.05
600.99	2251.28
601.34	2245.87
601.69	2238.83
602.04	2232.40
602.39	2225.66
602.74	2219.52
603.08	2213.96
603.43	2207.32
603.78	2200.44
604.13	2193.23
604.48	2185.85
604.83	2179.55
605.18	2173.23
605.53	2166.22
605.87	2159.12
606.22	2152.35
606.57	2144.28
606.92	2136.05
607.27	2128.88
607.62	2122.33
607.96	2115.42
608.31	2108.97
608.66	2101.13
609.01	2093.44
609.36	2086.31
609.70	2078.65
610.05	2070.86
610.40	2062.41
610.75	2053.97
611.10	2046.13
611.44	2037.14
611.79	2028.49
612.14	2018.60
612.49	2007.94
612.83	1998.42
613.18	1989.10
613.53	1979.69
613.88	1970.11
614.22	1961.56
614.57	1951.80
614.92	1941.10
615.27	1930.60
615.61	1920.31
615.96	1910.60
616.31	1900.97
616.65	1891.33
617.00	1881.48
617.35	1871.79
617.70	1862.04
618.04	1852.05
618.39	1841.88
618.74	1832.19
619.08	1822.38
619.43	1813.58
619.78	1805.17
620.12	1796.51
620.47	1786.83
620.82	1776.46
621.16	1766.58
621.51	1756.58
621.85	1746.60
622.20	1736.18
622.55	1725.56
622.89	1715.46
623.24	1705.54
623.59	1695.56
623.93	1685.34
624.28	1675.47
624.62	1665.10
624.97	1654.70
625.32	1644.54
625.66	1635.37
626.01	1626.44
626.35	1616.93
626.70	1606.79
627.04	1596.68
627.39	1586.49
627.73	1577.05
628.08	1567.96
628.43	1558.32
628.77	1548.88
629.12	1539.78
629.46	1531.79
629.81	1523.49
630.15	1514.00
630.50	1504.14
630.84	1493.48
631.19	1483.47
631.53	1474.14
631.88	1463.94
632.22	1453.84
632.57	1444.46
632.91	1434.34
633.26	1424.33
633.60	1414.76
633.95	1405.34
634.29	1395.70
634.64	1386.17
634.98	1376.04
635.32	1366.76
635.67	1358.19
636.01	1348.84
636.36	1339.12
636.70	1329.47
637.05	1319.95
637.39	1310.88
637.73	1302.18
638.08	1294.58
638.42	1286.44
638.77	1277.52
639.11	1269.16
639.45	1261.27
639.80	1252.77
640.14	1243.90
640.49	1234.97
640.83	1225.96
641.17	1217.60
641.52	1209.32
641.86	1200.71
642.20	1192.82
642.55	1184.02
642.89	1174.98
643.23	1166.29
643.58	1158.12
643.92	1149.03
644.26	1140.11
644.61	1131.58
644.95	1122.64
645.29	1113.36
645.64	1103.97
645.98	1095.25
646.32	1087.31
646.66	1078.64
647.01	1070.12
647.35	1061.94
647.69	1053.65
648.04	1045.37
648.38	1036.49
648.72	1027.64
649.06	1019.07
649.41	1010.78
649.75	1002.62
650.09	994.60
650.43	986.43
650.78	977.87
651.12	970.06
651.46	962.66
651.80	955.35
652.14	947.97
652.49	940.25
652.83	932.87
653.17	925.13
653.51	917.34
653.85	910.00
654.20	902.71
654.54	895.11
654.88	887.69
655.22	880.32
655.56	873.20
655.90	866.34
656.25	859.66
656.59	852.66
656.93	845.65
657.27	838.45
657.61	831.35
657.95	825.24
658.29	819.18
658.64	812.87
658.98	806.22
659.32	799.55
659.66	793.31
660.00	786.86
660.34	780.74
660.68	774.51
661.02	768.14
661.36	762.07
661.70	756.19
662.05	750.45
662.39	744.85
662.73	739.40
663.07	733.93
663.41	728.22
663.75	722.37
664.09	716.61
664.43	711.06
664.77	705.66
665.11	699.77
665.45	693.74
665.79	687.93
666.13	682.23
666.47	676.70
666.81	671.16
667.15	665.76
667.49	660.45
667.83	655.17
668.17	649.80
668.51	644.61
668.85	639.56
669.19	634.57
669.53	629.48
669.87	624.26
670.21	619.43
670.55	614.65
670.89	610.14
671.23	605.72
671.57	601.35
671.91	597.02
672.25	592.79
672.58	588.66
672.92	584.58
673.26	580.60
673.60	576.70
673.94	572.83
674.28	569.12
674.62	565.32
674.96	561.49
675.30	557.98
675.64	554.24
675.97	550.72
676.31	547.08
676.65	543.46
676.99	540.03
677.33	536.15
677.67	532.41
678.01	528.53
678.34	524.89
678.68	521.33
679.02	517.68
679.36	513.99
679.70	510.31
680.04	506.64
680.37	503.08
680.71	499.65
681.05	496.40
681.39	493.09
681.73	489.88
682.06	486.83
682.40	483.72
682.74	480.50
683.08	477.23
683.42	474.04
683.75	470.98
684.09	467.88
684.43	464.95
684.77	462.01
685.10	459.15
685.44	456.18
685.78	453.22
686.12	450.38
686.45	447.54
686.79	444.85
687.13	442.29
687.46	439.70
687.80	437.01
688.14	434.20
688.48	431.55
688.81	428.82
689.15	426.17
689.49	423.43
689.82	420.86
690.16	418.24
690.50	415.72
690.83	413.20
691.17	410.63
691.51	408.18
691.84	405.86
692.18	403.59
692.52	401.32
692.85	399.13
693.19	396.99
693.52	394.82
693.86	392.57
694.20	390.30
694.53	388.07
694.87	385.83
695.21	383.66
695.54	381.45
695.88	379.24
696.21	377.01
696.55	374.94
696.88	372.86
697.22	370.81
697.56	368.87
697.89	366.92
698.23	365.21
698.56	363.41
698.90	361.59
699.23	359.68
699.57	357.80
699.90	355.94
700.24	354.11
700.58	352.34
700.91	350.66
701.25	349.09
701.58	347.51
701.92	345.89
702.25	344.26
702.59	342.60
702.92	341.07
703.26	339.49
703.59	337.92
703.93	336.63
704.26	335.22
704.60	333.72
704.93	332.26
705.26	330.65
705.60	329.14
705.93	327.64
706.27	326.24
706.60	324.96
706.94	323.70
707.27	322.26
707.61	320.90
707.94	319.56
708.27	318.05
708.61	316.55
708.94	315.19
709.28	313.86
709.61	312.61
709.94	311.37
710.28	310.19
710.61	309.01
710.95	307.59
711.28	306.49
711.61	305.32
711.95	304.16
712.28	302.94
712.61	301.70
712.95	300.62
713.28	299.56
713.61	298.38
713.95	297.24
714.28	296.16
714.61	295.09
714.95	294.04
715.28	293.01
715.61	292.01
715.95	291.01
716.28	290.06
716.61	289.13
716.95	288.13
717.28	287.16
717.61	286.18
717.94	285.28
718.28	284.19
718.61	283.31
718.94	282.39
719.27	281.53
719.61	280.74
719.94	279.88
720.27	278.92
720.60	278.07
720.94	277.22
721.27	276.49
721.60	275.78
721.93	275.08
722.27	274.40
722.60	273.71
722.93	272.99
723.26	272.31
723.59	271.54
723.93	270.88
724.26	270.24
724.59	269.59
724.92	268.96
725.25	268.43
725.59	267.80
725.92	267.23
726.25	266.70
726.58	266.11
726.91	265.51
727.24	264.96
727.57	264.42
727.91	263.82
728.24	263.24
728.57	262.66
728.90	262.05
729.23	261.45
729.56	261.01
729.89	260.46
730.22	259.86
730.55	259.36
730.89	258.82
731.22	258.28
731.55	257.79
731.88	257.28
732.21	256.71
732.54	256.19
732.87	255.69
733.20	255.20
733.53	254.72
733.86	254.27
734.19	253.77
734.52	253.31
734.85	253.00
735.18	252.54
735.51	252.14
735.84	251.73
736.17	251.33
736.50	250.80
736.83	250.62
737.16	250.24
737.49	249.85
737.82	249.45
738.15	249.09
738.48	248.69
738.81	248.27
739.14	247.88
739.47	247.49
739.80	247.09
740.13	246.72
740.46	246.35
740.79	245.95
741.12	245.61
741.45	245.26
741.78	244.82
742.11	244.54
742.44	244.15
742.77	243.85
743.10	243.48
743.43	243.07
743.75	242.50
744.08	242.42
744.41	242.02
744.74	241.68
745.07	241.26
745.40	240.92
745.73	240.66
746.06	240.33
746.39	239.99
746.71	239.65
747.04	239.30
747.37	238.97
747.70	238.65
748.03	238.32
748.36	238.05
748.68	237.75
749.01	237.38
749.34	237.09
749.67	236.79
750.00	236.57
750.33	236.47
750.65	236.27
750.98	235.75
751.31	235.55
751.64	235.34
751.97	235.24
752.29	235.01
752.62	234.70
752.95	234.44
753.28	234.17
753.60	233.92
753.93	233.77
754.26	233.55
754.59	233.33
754.91	233.11
755.24	232.87
755.57	232.65
755.90	232.42
756.22	232.20
756.55	231.94
756.88	231.68
757.20	231.36
757.53	231.08
757.86	230.87
758.19	230.68
758.51	230.43
758.84	230.11
759.17	229.91
759.49	229.72
759.82	229.66
760.15	229.53
760.47	229.33
760.80	229.06
761.13	228.91
761.45	228.69
761.78	228.53
762.11	228.35
762.43	228.15
762.76	227.95
763.08	227.78
763.41	227.69
763.74	227.53
764.06	227.36
764.39	227.21
764.71	227.03
765.04	226.84
765.37	226.73
765.69	226.55
766.02	226.39
766.34	226.24
766.67	226.02
767.00	225.89
767.32	225.87
767.65	225.87
767.97	225.73
768.30	225.66
768.62	225.52
768.95	225.35
769.27	225.24
769.60	225.16
769.92	225.00
770.25	224.81
770.57	224.66
770.90	224.54
771.22	224.40
771.55	224.32
771.87	224.23
772.20	224.11
772.52	224.17
772.85	224.33
773.17	224.25
773.50	224.13
773.82	224.01
774.15	223.86
774.47	223.62
774.80	223.50
775.12	223.36
775.45	223.22
775.77	223.15
776.09	223.02
776.42	222.94
776.74	222.90
777.07	222.80
777.39	222.72
777.72	222.61
778.04	222.58
778.36	222.48
778.69	222.39
779.01	222.29
779.33	222.01
779.66	221.69
779.98	221.56
780.31	221.51
780.63	221.52
780.95	221.45
781.28	221.36
781.60	221.25
781.92	221.19
782.25	221.15
782.57	221.08
782.89	221.04
783.22	220.92
783.54	220.83
783.86	220.77
784.19	220.69
784.51	220.70
784.83	220.56
785.16	220.48
785.48	220.40
785.80	220.34
786.12	220.33
