SpectraSuite Data File
++++++++++++++++++++++++++++++++++++
Date: Tue Jan 29 16:41:57 EST 2013
User: group
Dark Spectrum Present: No
Reference Spectrum Present: No
Number of Sampled Component Spectra: 1
Spectrometers: USB2E7196
Integration Time (usec): 65000 (USB2E7196)
Spectra Averaged: 100 (USB2E7196)
Boxcar Smoothing: 10 (USB2E7196)
Correct for Electrical Dark: No (USB2E7196)
Strobe/Lamp Enabled: No (USB2E7196)
Correct for Detector Non-linearity: No (USB2E7196)
Correct for Stray Light: No (USB2E7196)
Number of Pixels in Processed Spectrum: 2048
>>>>>Begin Processed Spectral Data<<<<<
339.09	0.00
339.48	201.23
339.86	203.18
340.24	204.72
340.63	205.68
341.01	210.63
341.39	208.92
341.78	210.70
342.16	211.75
342.54	211.24
342.93	201.00
343.31	211.13
343.69	211.71
344.07	212.20
344.46	212.66
344.84	213.11
345.22	213.26
345.60	213.53
345.99	213.73
346.37	213.86
346.75	214.02
347.13	214.08
347.52	214.14
347.90	214.26
348.28	214.29
348.66	214.32
349.05	214.29
349.43	214.38
349.81	214.47
350.19	214.54
350.57	214.62
350.96	214.73
351.34	214.83
351.72	214.91
352.10	214.99
352.48	215.04
352.87	215.04
353.25	215.13
353.63	215.20
354.01	215.26
354.39	215.35
354.77	215.43
355.15	215.59
355.54	215.65
355.92	215.64
356.30	215.71
356.68	215.93
357.06	216.03
357.44	216.03
357.82	216.05
358.20	216.10
358.58	216.16
358.97	216.22
359.35	216.36
359.73	216.47
360.11	216.51
360.49	216.58
360.87	216.66
361.25	216.73
361.63	216.82
362.01	216.85
362.39	216.84
362.77	216.89
363.15	216.88
363.53	216.92
363.91	216.97
364.29	217.00
364.67	216.82
365.05	216.82
365.43	216.86
365.81	216.92
366.19	217.06
366.57	217.14
366.95	217.11
367.33	217.08
367.71	217.09
368.09	217.15
368.47	217.16
368.85	217.13
369.23	217.16
369.61	217.10
369.99	217.19
370.37	217.23
370.75	217.28
371.13	217.22
371.51	217.18
371.89	217.16
372.27	217.17
372.65	217.20
373.03	217.18
373.41	217.16
373.78	217.12
374.16	216.97
374.54	216.89
374.92	216.86
375.30	216.80
375.68	216.74
376.06	216.71
376.44	216.64
376.82	216.61
377.19	216.57
377.57	216.51
377.95	216.37
378.33	216.29
378.71	216.14
379.09	216.12
379.47	216.13
379.84	216.06
380.22	215.98
380.60	215.84
380.98	215.80
381.36	215.74
381.73	215.67
382.11	215.68
382.49	215.60
382.87	215.55
383.25	215.53
383.62	215.73
384.00	215.65
384.38	215.62
384.76	215.64
385.13	215.67
385.51	215.62
385.89	215.59
386.27	215.57
386.64	215.56
387.02	215.52
387.40	215.44
387.78	215.42
388.15	215.43
388.53	215.46
388.91	215.47
389.29	215.44
389.66	215.49
390.04	215.45
390.42	215.50
390.79	215.51
391.17	215.46
391.55	215.21
391.92	215.17
392.30	215.20
392.68	215.15
393.05	215.13
393.43	215.13
393.81	215.11
394.18	215.10
394.56	215.13
394.94	215.21
395.31	215.20
395.69	215.29
396.06	215.30
396.44	215.30
396.82	215.30
397.19	215.42
397.57	215.40
397.95	215.46
398.32	215.44
398.70	215.48
399.07	215.56
399.45	215.59
399.82	215.65
400.20	215.65
400.58	215.69
400.95	215.63
401.33	215.76
401.70	215.99
402.08	216.07
402.45	216.15
402.83	216.28
403.20	216.41
403.58	216.51
403.95	216.67
404.33	216.85
404.71	216.98
405.08	217.28
405.46	217.45
405.83	217.63
406.21	217.81
406.58	218.04
406.96	218.25
407.33	218.53
407.70	218.84
408.08	219.33
408.45	219.70
408.83	220.11
409.20	220.44
409.58	220.72
409.95	221.20
410.33	221.67
410.70	222.10
411.08	222.68
411.45	223.26
411.82	223.81
412.20	224.48
412.57	225.32
412.95	225.87
413.32	226.71
413.69	227.54
414.07	228.46
414.44	229.45
414.82	230.50
415.19	231.73
415.56	232.93
415.94	234.09
416.31	235.50
416.68	236.95
417.06	238.56
417.43	240.09
417.81	241.83
418.18	243.63
418.55	245.57
418.93	247.55
419.30	249.64
419.67	251.90
420.04	254.22
420.42	256.60
420.79	259.44
421.16	262.24
421.54	265.17
421.91	268.15
422.28	271.23
422.66	274.54
423.03	277.77
423.40	281.11
423.77	284.78
424.15	288.45
424.52	292.26
424.89	296.46
425.26	300.58
425.64	304.47
426.01	308.72
426.38	313.22
426.75	317.78
427.13	322.56
427.50	327.52
427.87	332.71
428.24	337.95
428.61	342.91
428.99	348.42
429.36	354.43
429.73	360.40
430.10	366.30
430.47	372.41
430.85	378.69
431.22	385.42
431.59	392.57
431.96	399.40
432.33	406.91
432.70	414.16
433.08	422.68
433.45	430.79
433.82	438.90
434.19	447.81
434.56	456.53
434.93	464.86
435.30	473.17
435.68	482.33
436.05	491.33
436.42	500.30
436.79	508.57
437.16	517.35
437.53	526.62
437.90	535.87
438.27	544.82
438.64	554.11
439.01	562.68
439.38	570.31
439.75	577.70
440.13	586.18
440.50	594.15
440.87	600.65
441.24	607.34
441.61	614.65
441.98	620.04
442.35	626.44
442.72	632.84
443.09	638.92
443.46	642.68
443.83	645.19
444.20	647.35
444.57	650.50
444.94	652.00
445.31	653.44
445.68	654.81
446.05	655.43
446.42	654.67
446.79	653.70
447.16	652.56
447.53	651.80
447.90	648.51
448.27	645.19
448.64	640.55
449.01	637.20
449.37	631.30
449.74	625.67
450.11	618.72
450.48	611.27
450.85	603.81
451.22	597.30
451.59	591.18
451.96	585.37
452.33	577.43
452.70	570.26
453.07	561.77
453.43	553.14
453.80	544.86
454.17	536.83
454.54	529.26
454.91	521.05
455.28	513.01
455.65	505.55
456.02	498.08
456.38	491.63
456.75	483.74
457.12	477.13
457.49	470.53
457.86	464.36
458.23	458.91
458.59	452.96
458.96	446.93
459.33	441.61
459.70	436.20
460.07	431.93
460.43	427.07
460.80	422.47
461.17	418.40
461.54	414.14
461.91	410.08
462.27	405.94
462.64	402.48
463.01	398.68
463.38	394.93
463.74	391.21
464.11	388.01
464.48	385.11
464.85	382.03
465.21	379.57
465.58	376.93
465.95	373.80
466.32	371.10
466.68	368.54
467.05	365.91
467.42	363.30
467.78	360.62
468.15	358.05
468.52	356.10
468.88	353.63
469.25	351.39
469.62	349.56
469.98	347.60
470.35	345.76
470.72	344.06
471.08	342.24
471.45	340.70
471.82	339.16
472.18	337.52
472.55	336.28
472.92	334.87
473.28	333.64
473.65	332.49
474.02	331.38
474.38	330.44
474.75	329.67
475.11	328.85
475.48	328.24
475.85	327.75
476.21	327.22
476.58	326.89
476.94	326.68
477.31	326.43
477.67	326.12
478.04	325.98
478.41	325.89
478.77	326.06
479.14	326.03
479.50	326.13
479.87	326.43
480.23	326.73
480.60	326.95
480.96	327.16
481.33	327.74
481.69	328.33
482.06	328.85
482.42	329.31
482.79	329.90
483.15	330.68
483.52	331.62
483.88	332.51
484.25	333.44
484.61	334.43
484.98	335.45
485.34	336.78
485.71	338.15
486.07	339.60
486.44	340.92
486.80	342.55
487.17	344.23
487.53	346.04
487.90	347.91
488.26	349.97
488.62	352.23
488.99	354.29
489.35	356.43
489.72	358.80
490.08	361.38
490.44	363.93
490.81	366.61
491.17	369.32
491.54	372.32
491.90	375.32
492.26	378.60
492.63	382.01
492.99	385.53
493.36	389.16
493.72	393.07
494.08	397.09
494.45	401.33
494.81	405.71
495.17	410.13
495.54	414.87
495.90	419.68
496.26	424.60
496.63	429.82
496.99	435.18
497.35	440.77
497.72	446.61
498.08	452.61
498.44	458.73
498.80	465.18
499.17	471.70
499.53	478.44
499.89	485.33
500.26	492.31
500.62	499.39
500.98	506.83
501.34	514.27
501.71	522.05
502.07	529.82
502.43	537.79
502.79	546.00
503.16	554.36
503.52	562.99
503.88	571.59
504.24	580.54
504.60	589.68
504.97	598.93
505.33	608.20
505.69	618.11
506.05	627.93
506.41	637.73
506.78	647.80
507.14	657.99
507.50	668.47
507.86	679.16
508.22	689.91
508.59	700.53
508.95	711.60
509.31	722.76
509.67	734.26
510.03	745.72
510.39	757.48
510.75	769.32
511.12	781.28
511.48	793.52
511.84	805.75
512.20	818.21
512.56	830.88
512.92	843.70
513.28	856.30
513.64	869.16
514.00	882.08
514.37	895.12
514.73	908.40
515.09	921.44
515.45	934.38
515.81	947.59
516.17	961.15
516.53	974.52
516.89	987.77
517.25	1001.02
517.61	1014.57
517.97	1028.00
518.33	1041.25
518.69	1054.78
519.05	1068.54
519.41	1082.35
519.77	1096.07
520.13	1109.47
520.49	1122.67
520.85	1136.16
521.21	1149.47
521.57	1163.21
521.93	1176.38
522.29	1190.11
522.65	1203.65
523.01	1217.44
523.37	1230.59
523.73	1244.00
524.09	1257.24
524.45	1270.83
524.81	1284.31
525.17	1297.73
525.53	1311.00
525.89	1324.31
526.25	1337.53
526.61	1350.42
526.97	1363.52
527.33	1376.66
527.68	1390.21
528.04	1403.76
528.40	1416.87
528.76	1430.42
529.12	1443.34
529.48	1456.78
529.84	1469.12
530.20	1482.11
530.56	1494.72
530.91	1508.07
531.27	1520.95
531.63	1533.68
531.99	1546.41
532.35	1558.76
532.71	1571.22
533.07	1584.20
533.42	1596.64
533.78	1608.89
534.14	1621.05
534.50	1632.52
534.86	1644.26
535.21	1655.08
535.57	1666.75
535.93	1678.13
536.29	1689.27
536.65	1701.00
537.00	1712.00
537.36	1723.54
537.72	1734.60
538.08	1746.15
538.44	1757.28
538.79	1768.51
539.15	1779.65
539.51	1790.65
539.87	1802.10
540.22	1813.12
540.58	1824.21
540.94	1835.29
541.29	1845.63
541.65	1855.65
542.01	1866.31
542.37	1876.46
542.72	1886.87
543.08	1896.70
543.44	1907.34
543.79	1916.75
544.15	1926.30
544.51	1936.27
544.87	1946.32
545.22	1955.70
545.58	1964.70
545.94	1973.68
546.29	1982.24
546.65	1990.53
547.01	1998.84
547.36	2006.66
547.72	2014.43
548.07	2022.05
548.43	2029.86
548.79	2037.91
549.14	2046.13
549.50	2054.53
549.86	2062.45
550.21	2069.97
550.57	2077.83
550.92	2084.63
551.28	2092.14
551.64	2099.39
551.99	2107.01
552.35	2114.14
552.70	2121.06
553.06	2127.63
553.41	2134.00
553.77	2140.57
554.13	2147.13
554.48	2154.08
554.84	2161.23
555.19	2167.85
555.55	2174.24
555.90	2180.47
556.26	2187.23
556.61	2193.21
556.97	2198.08
557.32	2203.97
557.68	2210.30
558.03	2216.00
558.39	2221.32
558.74	2227.33
559.10	2232.76
559.45	2238.46
559.81	2244.01
560.16	2249.48
560.52	2255.41
560.87	2261.81
561.23	2267.79
561.58	2274.54
561.94	2279.75
562.29	2284.35
562.64	2290.39
563.00	2296.08
563.35	2301.58
563.71	2307.40
564.06	2313.07
564.42	2319.00
564.77	2323.92
565.12	2329.26
565.48	2334.42
565.83	2340.05
566.19	2345.33
566.54	2350.77
566.89	2355.17
567.25	2359.66
567.60	2365.35
567.96	2370.43
568.31	2374.82
568.66	2378.97
569.02	2382.68
569.37	2386.39
569.72	2390.84
570.08	2394.30
570.43	2397.27
570.78	2400.36
571.14	2402.61
571.49	2405.78
571.84	2409.22
572.20	2412.11
572.55	2414.92
572.90	2417.07
573.26	2419.74
573.61	2422.13
573.96	2424.11
574.31	2425.94
574.67	2427.70
575.02	2428.27
575.37	2429.61
575.72	2430.20
576.08	2431.69
576.43	2431.71
576.78	2432.01
577.13	2433.43
577.49	2434.40
577.84	2435.38
578.19	2436.55
578.54	2437.11
578.90	2437.53
579.25	2437.30
579.60	2437.14
579.95	2436.28
580.30	2436.18
580.66	2435.37
581.01	2433.75
581.36	2431.27
581.71	2429.89
582.06	2428.65
582.42	2427.74
582.77	2425.28
583.12	2423.57
583.47	2421.87
583.82	2421.07
584.17	2419.78
584.53	2417.58
584.88	2415.43
585.23	2413.56
585.58	2411.23
585.93	2409.19
586.28	2406.98
586.63	2404.37
586.98	2401.90
587.34	2399.71
587.69	2397.21
588.04	2394.98
588.39	2393.41
588.74	2390.85
589.09	2388.03
589.44	2384.68
589.79	2382.00
590.14	2380.04
590.49	2377.15
590.84	2373.22
591.19	2370.08
591.54	2366.71
591.89	2362.51
592.25	2358.96
592.60	2354.52
592.95	2350.19
593.30	2345.97
593.65	2341.40
594.00	2336.83
594.35	2333.83
594.70	2329.21
595.05	2324.46
595.40	2318.92
595.75	2313.10
596.10	2309.55
596.45	2304.58
596.80	2299.85
597.15	2294.68
597.50	2288.65
597.85	2283.65
598.19	2278.27
598.54	2272.46
598.89	2267.09
599.24	2262.36
599.59	2256.35
599.94	2250.40
600.29	2244.40
600.64	2238.24
600.99	2231.49
601.34	2225.96
601.69	2218.98
602.04	2212.53
602.39	2205.91
602.74	2199.71
603.08	2194.17
603.43	2187.43
603.78	2180.62
604.13	2173.73
604.48	2166.40
604.83	2160.34
605.18	2154.09
605.53	2147.18
605.87	2140.13
606.22	2133.47
606.57	2125.62
606.92	2117.59
607.27	2110.69
607.62	2103.98
607.96	2097.02
608.31	2090.47
608.66	2082.69
609.01	2074.97
609.36	2067.81
609.70	2060.11
610.05	2052.37
610.40	2043.86
610.75	2035.43
611.10	2027.57
611.44	2018.61
611.79	2009.86
612.14	1999.89
612.49	1989.14
612.83	1979.73
613.18	1970.37
613.53	1961.00
613.88	1951.26
614.22	1942.61
614.57	1932.83
614.92	1922.25
615.27	1911.97
615.61	1901.87
615.96	1892.11
616.31	1882.41
616.65	1872.97
617.00	1863.23
617.35	1853.49
617.70	1843.80
618.04	1833.89
618.39	1823.73
618.74	1814.10
619.08	1804.44
619.43	1795.69
619.78	1787.45
620.12	1779.03
620.47	1769.53
620.82	1759.14
621.16	1749.51
621.51	1739.70
621.85	1729.86
622.20	1719.61
622.55	1709.05
622.89	1699.11
623.24	1689.50
623.59	1679.78
623.93	1669.76
624.28	1659.99
624.62	1650.06
624.97	1639.90
625.32	1630.16
625.66	1621.28
626.01	1612.58
626.35	1603.21
626.70	1593.18
627.04	1583.22
627.39	1573.05
627.73	1563.76
628.08	1554.92
628.43	1545.42
628.77	1536.11
629.12	1527.28
629.46	1519.45
629.81	1511.27
630.15	1501.81
630.50	1492.14
630.84	1481.75
631.19	1471.84
631.53	1462.62
631.88	1452.45
632.22	1442.43
632.57	1433.10
632.91	1423.10
633.26	1413.18
633.60	1403.64
633.95	1394.42
634.29	1384.91
634.64	1375.72
634.98	1365.77
635.32	1356.51
635.67	1347.93
636.01	1338.71
636.36	1329.01
636.70	1319.45
637.05	1309.92
637.39	1301.16
637.73	1292.59
638.08	1285.14
638.42	1277.08
638.77	1268.38
639.11	1260.21
639.45	1252.60
639.80	1244.03
640.14	1235.44
640.49	1226.65
640.83	1217.93
641.17	1209.76
641.52	1201.63
641.86	1193.04
642.20	1185.22
642.55	1176.56
642.89	1167.82
643.23	1159.24
643.58	1151.14
643.92	1142.15
644.26	1133.67
644.61	1125.19
644.95	1116.32
645.29	1107.08
645.64	1097.81
645.98	1089.26
646.32	1081.33
646.66	1072.65
647.01	1064.43
647.35	1056.31
647.69	1048.05
648.04	1039.83
648.38	1031.02
648.72	1022.26
649.06	1013.80
649.41	1005.61
649.75	997.70
650.09	989.81
650.43	981.76
650.78	973.40
651.12	965.83
651.46	958.34
651.80	951.05
652.14	943.81
652.49	936.31
652.83	929.01
653.17	921.34
653.51	913.73
653.85	906.54
654.20	899.29
654.54	891.79
654.88	884.50
655.22	877.24
655.56	870.23
655.90	863.44
656.25	856.72
656.59	849.86
656.93	842.79
657.27	835.67
657.61	828.76
657.95	822.70
658.29	816.66
658.64	810.55
658.98	804.08
659.32	797.57
659.66	791.28
660.00	784.96
660.34	778.84
660.68	772.65
661.02	766.30
661.36	760.28
661.70	754.46
662.05	748.82
662.39	743.39
662.73	737.99
663.07	732.59
663.41	727.00
663.75	721.27
664.09	715.59
664.43	710.15
664.77	704.80
665.11	698.94
665.45	692.99
665.79	687.16
666.13	681.40
666.47	675.83
666.81	670.37
667.15	664.95
667.49	659.78
667.83	654.55
668.17	649.25
668.51	644.11
668.85	639.12
669.19	634.18
669.53	629.06
669.87	623.83
670.21	618.99
670.55	614.28
670.89	609.85
671.23	605.58
671.57	601.16
671.91	596.78
672.25	592.64
672.58	588.54
672.92	584.42
673.26	580.47
673.60	576.52
673.94	572.70
674.28	569.05
674.62	565.31
674.96	561.57
675.30	558.07
675.64	554.37
675.97	550.78
676.31	547.16
676.65	543.60
676.99	540.18
677.33	536.35
677.67	532.65
678.01	528.69
678.34	525.02
678.68	521.44
679.02	517.85
679.36	514.10
679.70	510.41
680.04	506.85
680.37	503.38
680.71	500.05
681.05	496.83
681.39	493.54
681.73	490.32
682.06	487.24
682.40	484.15
682.74	480.93
683.08	477.62
683.42	474.38
683.75	471.30
684.09	468.28
684.43	465.42
684.77	462.46
685.10	459.60
685.44	456.58
685.78	453.62
686.12	450.79
686.45	448.04
686.79	445.35
687.13	442.76
687.46	440.11
687.80	437.43
688.14	434.55
688.48	431.88
688.81	429.12
689.15	426.45
689.49	423.75
689.82	421.20
690.16	418.65
690.50	416.16
690.83	413.67
691.17	411.06
691.51	408.56
691.84	406.26
692.18	404.02
692.52	401.81
692.85	399.67
693.19	397.52
693.52	395.27
693.86	393.01
694.20	390.80
694.53	388.61
694.87	386.37
695.21	384.19
695.54	382.03
695.88	379.85
696.21	377.66
696.55	375.56
696.88	373.45
697.22	371.43
697.56	369.52
697.89	367.53
698.23	365.79
698.56	363.98
698.90	362.16
699.23	360.22
699.57	358.32
699.90	356.39
700.24	354.53
700.58	352.82
700.91	351.11
701.25	349.52
701.58	347.91
701.92	346.27
702.25	344.68
702.59	342.98
702.92	341.44
703.26	339.89
703.59	338.34
703.93	337.04
704.26	335.56
704.60	334.00
704.93	332.54
705.26	331.00
705.60	329.50
705.93	327.99
706.27	326.65
706.60	325.41
706.94	324.20
707.27	322.83
707.61	321.45
707.94	320.11
708.27	318.60
708.61	317.13
708.94	315.73
709.28	314.39
709.61	313.15
709.94	311.92
710.28	310.63
710.61	309.46
710.95	308.05
711.28	306.96
711.61	305.75
711.95	304.60
712.28	303.38
712.61	302.18
712.95	301.11
713.28	300.03
713.61	298.82
713.95	297.62
714.28	296.53
714.61	295.48
714.95	294.43
715.28	293.35
715.61	292.32
715.95	291.37
716.28	290.40
716.61	289.40
716.95	288.36
717.28	287.42
717.61	286.42
717.94	285.50
718.28	284.45
718.61	283.55
718.94	282.62
719.27	281.71
719.61	280.85
719.94	279.96
720.27	278.95
720.60	278.07
720.94	277.28
721.27	276.53
721.60	275.78
721.93	274.99
722.27	274.37
722.60	273.71
722.93	273.00
723.26	272.31
723.59	271.63
723.93	271.01
724.26	270.35
724.59	269.66
724.92	269.03
725.25	268.49
725.59	267.91
725.92	267.37
726.25	266.79
726.58	266.24
726.91	265.66
727.24	265.13
727.57	264.58
727.91	263.95
728.24	263.36
728.57	262.80
728.90	262.30
729.23	261.63
729.56	261.19
729.89	260.65
730.22	260.07
730.55	259.48
730.89	258.89
731.22	258.34
731.55	257.88
731.88	257.34
732.21	256.76
732.54	256.23
732.87	255.71
733.20	255.22
733.53	254.73
733.86	254.26
734.19	253.76
734.52	253.31
734.85	253.02
735.18	252.55
735.51	252.14
735.84	251.68
736.17	251.30
736.50	250.74
736.83	250.59
737.16	250.20
737.49	249.82
737.82	249.39
738.15	249.04
738.48	248.62
738.81	248.23
739.14	247.80
739.47	247.41
739.80	247.00
740.13	246.65
740.46	246.24
740.79	245.85
741.12	245.48
741.45	245.11
741.78	244.63
742.11	244.36
742.44	244.00
742.77	243.70
743.10	243.37
743.43	243.03
743.75	242.42
744.08	242.34
744.41	242.00
744.74	241.68
745.07	241.27
745.40	240.96
745.73	240.70
746.06	240.39
746.39	240.10
746.71	239.77
747.04	239.41
747.37	239.11
747.70	238.81
748.03	238.49
748.36	238.22
748.68	237.92
749.01	237.52
749.34	237.19
749.67	236.88
750.00	236.58
750.33	236.44
750.65	236.18
750.98	235.63
751.31	235.39
751.64	235.17
751.97	235.05
752.29	234.81
752.62	234.48
752.95	234.22
753.28	233.95
753.60	233.68
753.93	233.51
754.26	233.27
754.59	232.99
754.91	232.74
755.24	232.52
755.57	232.31
755.90	232.06
756.22	231.85
756.55	231.61
756.88	231.37
757.20	231.02
757.53	230.79
757.86	230.58
758.19	230.36
758.51	230.11
758.84	229.81
759.17	229.60
759.49	229.48
759.82	229.39
760.15	229.20
760.47	229.03
760.80	228.73
761.13	228.63
761.45	228.43
761.78	228.25
762.11	228.07
762.43	227.86
762.76	227.72
763.08	227.52
763.41	227.36
763.74	227.24
764.06	227.07
764.39	226.90
764.71	226.75
765.04	226.58
765.37	226.44
765.69	226.30
766.02	226.14
766.34	225.92
766.67	225.68
767.00	225.58
767.32	225.55
767.65	225.57
767.97	225.38
768.30	225.29
768.62	225.17
768.95	224.99
769.27	224.87
769.60	224.79
769.92	224.66
770.25	224.48
770.57	224.29
770.90	224.17
771.22	224.04
771.55	223.92
771.87	223.81
772.20	223.69
772.52	223.73
772.85	223.85
773.17	223.77
773.50	223.68
773.82	223.54
774.15	223.34
774.47	223.09
774.80	222.98
775.12	222.87
775.45	222.76
775.77	222.71
776.09	222.61
776.42	222.50
776.74	222.47
777.07	222.38
777.39	222.30
777.72	222.24
778.04	222.18
778.36	222.09
778.69	222.00
779.01	221.94
779.33	221.68
779.66	221.39
779.98	221.26
780.31	221.19
780.63	221.23
780.95	221.20
781.28	221.15
781.60	221.06
781.92	221.02
782.25	220.97
782.57	220.90
782.89	220.86
783.22	220.79
783.54	220.68
783.86	220.65
784.19	220.57
784.51	220.55
784.83	220.48
785.16	220.41
785.48	220.38
785.80	220.31
786.12	220.27
