SpectraSuite Data File
++++++++++++++++++++++++++++++++++++
Date: Tue Jan 29 16:32:55 EST 2013
User: group
Dark Spectrum Present: No
Reference Spectrum Present: No
Number of Sampled Component Spectra: 1
Spectrometers: USB2E7196
Integration Time (usec): 65000 (USB2E7196)
Spectra Averaged: 100 (USB2E7196)
Boxcar Smoothing: 10 (USB2E7196)
Correct for Electrical Dark: No (USB2E7196)
Strobe/Lamp Enabled: No (USB2E7196)
Correct for Detector Non-linearity: No (USB2E7196)
Correct for Stray Light: No (USB2E7196)
Number of Pixels in Processed Spectrum: 2048
>>>>>Begin Processed Spectral Data<<<<<
339.09	0.00
339.48	201.96
339.86	202.98
340.24	204.71
340.63	205.93
341.01	210.49
341.39	208.65
341.78	210.60
342.16	211.75
342.54	211.88
342.93	200.95
343.31	211.09
343.69	211.64
344.07	212.09
344.46	212.53
344.84	212.92
345.22	213.07
345.60	213.33
345.99	213.53
346.37	213.64
346.75	213.77
347.13	213.88
347.52	213.93
347.90	214.04
348.28	214.09
348.66	214.22
349.05	214.23
349.43	214.27
349.81	214.37
350.19	214.42
350.57	214.49
350.96	214.58
351.34	214.70
351.72	214.78
352.10	214.92
352.48	215.00
352.87	215.06
353.25	215.14
353.63	215.23
354.01	215.27
354.39	215.37
354.77	215.42
355.15	215.56
355.54	215.61
355.92	215.62
356.30	215.68
356.68	215.88
357.06	215.96
357.44	215.98
357.82	216.05
358.20	216.15
358.58	216.21
358.97	216.29
359.35	216.41
359.73	216.54
360.11	216.61
360.49	216.66
360.87	216.74
361.25	216.83
361.63	216.94
362.01	217.00
362.39	217.04
362.77	217.12
363.15	217.14
363.53	217.17
363.91	217.26
364.29	217.32
364.67	217.11
365.05	217.15
365.43	217.22
365.81	217.25
366.19	217.34
366.57	217.40
366.95	217.42
367.33	217.41
367.71	217.40
368.09	217.44
368.47	217.43
368.85	217.40
369.23	217.44
369.61	217.36
369.99	217.43
370.37	217.44
370.75	217.53
371.13	217.46
371.51	217.43
371.89	217.41
372.27	217.35
372.65	217.38
373.03	217.36
373.41	217.32
373.78	217.29
374.16	217.19
374.54	217.09
374.92	216.98
375.30	216.92
375.68	216.80
376.06	216.75
376.44	216.75
376.82	216.71
377.19	216.64
377.57	216.59
377.95	216.48
378.33	216.41
378.71	216.22
379.09	216.20
379.47	216.19
379.84	216.10
380.22	216.06
380.60	215.96
380.98	215.88
381.36	215.86
381.73	215.77
382.11	215.74
382.49	215.69
382.87	215.68
383.25	215.61
383.62	215.83
384.00	215.75
384.38	215.69
384.76	215.71
385.13	215.76
385.51	215.71
385.89	215.60
386.27	215.58
386.64	215.60
387.02	215.55
387.40	215.51
387.78	215.49
388.15	215.45
388.53	215.44
388.91	215.41
389.29	215.35
389.66	215.36
390.04	215.31
390.42	215.34
390.79	215.35
391.17	215.31
391.55	215.06
391.92	215.04
392.30	215.05
392.68	214.97
393.05	214.94
393.43	214.95
393.81	214.99
394.18	214.95
394.56	214.94
394.94	215.01
395.31	214.99
395.69	215.06
396.06	215.15
396.44	215.17
396.82	215.19
397.19	215.35
397.57	215.35
397.95	215.42
398.32	215.37
398.70	215.40
399.07	215.51
399.45	215.58
399.82	215.67
400.20	215.72
400.58	215.80
400.95	215.80
401.33	215.90
401.70	216.10
402.08	216.21
402.45	216.31
402.83	216.42
403.20	216.52
403.58	216.62
403.95	216.75
404.33	216.94
404.71	217.09
405.08	217.34
405.46	217.52
405.83	217.71
406.21	217.90
406.58	218.15
406.96	218.36
407.33	218.64
407.70	218.91
408.08	219.35
408.45	219.71
408.83	220.09
409.20	220.44
409.58	220.73
409.95	221.19
410.33	221.66
410.70	222.11
411.08	222.67
411.45	223.24
411.82	223.77
412.20	224.41
412.57	225.24
412.95	225.81
413.32	226.64
413.69	227.49
414.07	228.45
414.44	229.43
414.82	230.47
415.19	231.61
415.56	232.80
415.94	234.01
416.31	235.46
416.68	236.84
417.06	238.46
417.43	240.03
417.81	241.74
418.18	243.53
418.55	245.45
418.93	247.52
419.30	249.62
419.67	251.85
420.04	254.17
420.42	256.54
420.79	259.36
421.16	262.16
421.54	265.02
421.91	267.98
422.28	271.08
422.66	274.35
423.03	277.66
423.40	280.98
423.77	284.55
424.15	288.19
424.52	292.05
424.89	296.21
425.26	300.28
425.64	304.20
426.01	308.46
426.38	312.92
426.75	317.47
427.13	322.23
427.50	327.22
427.87	332.44
428.24	337.68
428.61	342.65
428.99	348.16
429.36	354.20
429.73	360.15
430.10	366.03
430.47	372.10
430.85	378.41
431.22	385.17
431.59	392.30
431.96	399.09
432.33	406.55
432.70	413.82
433.08	422.38
433.45	430.45
433.82	438.42
434.19	447.35
434.56	456.05
434.93	464.41
435.30	472.67
435.68	481.71
436.05	490.66
436.42	499.61
436.79	507.72
437.16	516.54
437.53	525.79
437.90	534.94
438.27	543.86
438.64	553.13
439.01	561.71
439.38	569.30
439.75	576.68
440.13	585.08
440.50	593.05
440.87	599.47
441.24	606.16
441.61	613.60
441.98	619.03
442.35	625.32
442.72	631.61
443.09	637.74
443.46	641.58
443.83	644.06
444.20	646.25
444.57	649.47
444.94	650.88
445.31	652.32
445.68	653.75
446.05	654.40
446.42	653.52
446.79	652.50
447.16	651.48
447.53	650.67
447.90	647.38
448.27	644.07
448.64	639.41
449.01	636.07
449.37	630.11
449.74	624.35
450.11	617.46
450.48	610.08
450.85	602.55
451.22	596.02
451.59	589.91
451.96	584.06
452.33	576.15
452.70	569.08
453.07	560.59
453.43	551.91
453.80	543.62
454.17	535.66
454.54	528.13
454.91	519.92
455.28	511.92
455.65	504.48
456.02	496.98
456.38	490.62
456.75	482.73
457.12	476.15
457.49	469.69
457.86	463.48
458.23	458.07
458.59	452.14
458.96	446.12
459.33	440.82
459.70	435.50
460.07	431.24
460.43	426.32
460.80	421.69
461.17	417.70
461.54	413.51
461.91	409.49
462.27	405.39
462.64	401.88
463.01	398.11
463.38	394.44
463.74	390.75
464.11	387.53
464.48	384.68
464.85	381.56
465.21	379.06
465.58	376.44
465.95	373.26
466.32	370.70
466.68	368.12
467.05	365.50
467.42	362.92
467.78	360.19
468.15	357.68
468.52	355.80
468.88	353.35
469.25	351.13
469.62	349.35
469.98	347.36
470.35	345.58
470.72	343.84
471.08	342.04
471.45	340.53
471.82	338.98
472.18	337.30
472.55	336.09
472.92	334.74
473.28	333.51
473.65	332.36
474.02	331.25
474.38	330.41
474.75	329.65
475.11	328.82
475.48	328.26
475.85	327.77
476.21	327.30
476.58	326.91
476.94	326.66
477.31	326.30
477.67	326.03
478.04	325.88
478.41	325.86
478.77	326.00
479.14	325.91
479.50	326.05
479.87	326.35
480.23	326.67
480.60	326.92
480.96	327.21
481.33	327.82
481.69	328.38
482.06	328.85
482.42	329.37
482.79	329.97
483.15	330.73
483.52	331.67
483.88	332.56
484.25	333.49
484.61	334.52
484.98	335.57
485.34	336.87
485.71	338.20
486.07	339.63
486.44	340.98
486.80	342.61
487.17	344.29
487.53	346.15
487.90	348.04
488.26	350.06
488.62	352.21
488.99	354.26
489.35	356.43
489.72	358.81
490.08	361.33
490.44	363.88
490.81	366.59
491.17	369.28
491.54	372.25
491.90	375.32
492.26	378.55
492.63	381.98
492.99	385.54
493.36	389.26
493.72	393.15
494.08	397.11
494.45	401.32
494.81	405.70
495.17	410.16
495.54	414.85
495.90	419.68
496.26	424.66
496.63	429.88
496.99	435.27
497.35	440.87
497.72	446.68
498.08	452.66
498.44	458.83
498.80	465.32
499.17	471.79
499.53	478.48
499.89	485.40
500.26	492.45
500.62	499.52
500.98	506.95
501.34	514.46
501.71	522.27
502.07	530.14
502.43	538.14
502.79	546.31
503.16	554.75
503.52	563.37
503.88	572.02
504.24	581.08
504.60	590.20
504.97	599.45
505.33	608.76
505.69	618.61
506.05	628.49
506.41	638.32
506.78	648.43
507.14	658.80
507.50	669.34
507.86	680.06
508.22	690.85
508.59	701.47
508.95	712.57
509.31	723.93
509.67	735.41
510.03	746.91
510.39	758.65
510.75	770.59
511.12	782.60
511.48	794.87
511.84	807.09
512.20	819.41
512.56	832.15
512.92	845.00
513.28	857.73
513.64	870.63
514.00	883.62
514.37	896.69
514.73	909.76
515.09	922.76
515.45	935.74
515.81	948.96
516.17	962.54
516.53	975.89
516.89	989.11
517.25	1002.48
517.61	1016.12
517.97	1029.62
518.33	1042.88
518.69	1056.54
519.05	1070.27
519.41	1084.09
519.77	1098.09
520.13	1111.52
520.49	1124.80
520.85	1138.28
521.21	1151.75
521.57	1165.51
521.93	1178.67
522.29	1192.52
522.65	1206.32
523.01	1220.15
523.37	1233.37
523.73	1246.70
524.09	1260.00
524.45	1273.60
524.81	1287.19
525.17	1300.64
525.53	1314.01
525.89	1327.48
526.25	1340.68
526.61	1353.79
526.97	1366.94
527.33	1380.05
527.68	1393.65
528.04	1407.25
528.40	1420.56
528.76	1433.91
529.12	1446.92
529.48	1460.33
529.84	1472.84
530.20	1485.62
530.56	1498.29
530.91	1511.80
531.27	1524.71
531.63	1537.68
531.99	1550.64
532.35	1562.87
532.71	1575.44
533.07	1588.38
533.42	1600.65
533.78	1612.94
534.14	1625.05
534.50	1636.51
534.86	1648.17
535.21	1659.15
535.57	1670.85
535.93	1682.19
536.29	1693.51
536.65	1705.17
537.00	1716.38
537.36	1727.87
537.72	1739.05
538.08	1750.59
538.44	1761.60
538.79	1772.88
539.15	1783.80
539.51	1794.45
539.87	1805.94
540.22	1816.85
540.58	1827.80
540.94	1838.87
541.29	1849.25
541.65	1859.06
542.01	1869.70
542.37	1879.87
542.72	1890.00
543.08	1899.91
543.44	1910.59
543.79	1919.82
544.15	1929.28
544.51	1939.36
544.87	1949.43
545.22	1958.77
545.58	1967.65
545.94	1976.66
546.29	1985.36
546.65	1993.75
547.01	2002.16
547.36	2009.97
547.72	2017.79
548.07	2025.57
548.43	2033.36
548.79	2041.27
549.14	2049.72
549.50	2058.05
549.86	2066.05
550.21	2073.60
550.57	2081.31
550.92	2088.13
551.28	2095.80
551.64	2103.16
551.99	2110.60
552.35	2117.76
552.70	2124.71
553.06	2131.45
553.41	2137.73
553.77	2144.25
554.13	2150.69
554.48	2157.74
554.84	2164.98
555.19	2171.68
555.55	2178.22
555.90	2184.52
556.26	2191.41
556.61	2197.31
556.97	2202.33
557.32	2208.28
557.68	2214.88
558.03	2220.65
558.39	2226.00
558.74	2232.00
559.10	2237.53
559.45	2243.20
559.81	2248.82
560.16	2254.41
560.52	2260.43
560.87	2266.84
561.23	2272.70
561.58	2279.52
561.94	2284.77
562.29	2289.33
562.64	2295.34
563.00	2300.88
563.35	2306.45
563.71	2312.27
564.06	2318.17
564.42	2324.11
564.77	2329.11
565.12	2334.30
565.48	2339.53
565.83	2344.99
566.19	2350.42
566.54	2355.91
566.89	2360.49
567.25	2365.05
567.60	2370.75
567.96	2375.84
568.31	2380.31
568.66	2384.62
569.02	2388.46
569.37	2392.18
569.72	2396.79
570.08	2400.24
570.43	2403.43
570.78	2406.69
571.14	2409.21
571.49	2412.23
571.84	2415.77
572.20	2418.60
572.55	2421.58
572.90	2423.72
573.26	2426.69
573.61	2429.24
573.96	2431.25
574.31	2433.21
574.67	2434.96
575.02	2435.75
575.37	2437.12
575.72	2437.87
576.08	2439.33
576.43	2439.42
576.78	2439.83
577.13	2441.20
577.49	2442.33
577.84	2443.36
578.19	2444.34
578.54	2444.80
578.90	2445.35
579.25	2445.28
579.60	2445.20
579.95	2444.39
580.30	2444.54
580.66	2443.65
581.01	2441.83
581.36	2439.53
581.71	2438.17
582.06	2437.05
582.42	2435.93
582.77	2433.52
583.12	2431.97
583.47	2430.52
583.82	2429.88
584.17	2428.62
584.53	2426.49
584.88	2424.44
585.23	2422.56
585.58	2420.36
585.93	2418.24
586.28	2416.05
586.63	2413.50
586.98	2411.27
587.34	2409.14
587.69	2406.57
588.04	2404.52
588.39	2403.03
588.74	2400.39
589.09	2397.46
589.44	2394.24
589.79	2391.77
590.14	2389.83
590.49	2386.85
590.84	2382.99
591.19	2379.81
591.54	2376.57
591.89	2372.53
592.25	2369.18
592.60	2364.79
592.95	2360.55
593.30	2356.29
593.65	2351.86
594.00	2347.37
594.35	2344.23
594.70	2339.56
595.05	2334.91
595.40	2329.35
595.75	2323.57
596.10	2319.93
596.45	2315.19
596.80	2310.48
597.15	2305.27
597.50	2299.38
597.85	2294.27
598.19	2289.08
598.54	2283.23
598.89	2277.81
599.24	2273.04
599.59	2266.73
599.94	2260.94
600.29	2254.96
600.64	2248.98
600.99	2242.19
601.34	2236.55
601.69	2229.57
602.04	2223.31
602.39	2216.69
602.74	2210.53
603.08	2204.95
603.43	2198.39
603.78	2191.45
604.13	2184.28
604.48	2176.95
604.83	2170.73
605.18	2164.38
605.53	2157.24
605.87	2150.05
606.22	2143.27
606.57	2135.31
606.92	2127.36
607.27	2120.18
607.62	2113.53
607.96	2106.49
608.31	2099.96
608.66	2092.29
609.01	2084.59
609.36	2077.27
609.70	2069.43
610.05	2061.61
610.40	2053.24
610.75	2044.91
611.10	2037.11
611.44	2028.30
611.79	2019.48
612.14	2009.43
612.49	1998.78
612.83	1989.53
613.18	1980.36
613.53	1970.93
613.88	1961.34
614.22	1952.67
614.57	1942.91
614.92	1932.21
615.27	1922.06
615.61	1911.86
615.96	1902.00
616.31	1892.35
616.65	1882.88
617.00	1873.06
617.35	1863.44
617.70	1853.63
618.04	1843.42
618.39	1833.28
618.74	1823.57
619.08	1813.97
619.43	1805.31
619.78	1797.18
620.12	1788.56
620.47	1778.80
620.82	1768.49
621.16	1758.61
621.51	1748.65
621.85	1738.81
622.20	1728.52
622.55	1717.82
622.89	1707.85
623.24	1698.11
623.59	1688.31
623.93	1678.11
624.28	1668.38
624.62	1658.14
624.97	1647.90
625.32	1638.05
625.66	1629.10
626.01	1620.28
626.35	1610.94
626.70	1600.71
627.04	1590.55
627.39	1580.36
627.73	1571.09
628.08	1562.17
628.43	1552.54
628.77	1543.24
629.12	1534.25
629.46	1526.43
629.81	1518.06
630.15	1508.63
630.50	1498.76
630.84	1488.24
631.19	1478.41
631.53	1469.06
631.88	1458.85
632.22	1448.85
632.57	1439.50
632.91	1429.26
633.26	1419.29
633.60	1409.49
633.95	1400.26
634.29	1390.70
634.64	1381.30
634.98	1371.30
635.32	1361.97
635.67	1353.60
636.01	1344.40
636.36	1334.65
636.70	1325.04
637.05	1315.68
637.39	1306.72
637.73	1298.11
638.08	1290.59
638.42	1282.41
638.77	1273.59
639.11	1265.38
639.45	1257.46
639.80	1248.92
640.14	1240.20
640.49	1231.32
640.83	1222.48
641.17	1214.28
641.52	1206.18
641.86	1197.55
642.20	1189.71
642.55	1181.01
642.89	1172.13
643.23	1163.40
643.58	1155.28
643.92	1146.09
644.26	1137.32
644.61	1128.82
644.95	1120.03
645.29	1110.76
645.64	1101.45
645.98	1092.87
646.32	1084.96
646.66	1076.45
647.01	1068.01
647.35	1059.90
647.69	1051.58
648.04	1043.37
648.38	1034.53
648.72	1025.69
649.06	1017.27
649.41	1009.02
649.75	1001.01
650.09	993.05
650.43	984.94
650.78	976.51
651.12	968.84
651.46	961.41
651.80	954.08
652.14	946.69
652.49	939.09
652.83	931.71
653.17	924.01
653.51	916.34
653.85	909.01
654.20	901.76
654.54	894.19
654.88	886.90
655.22	879.63
655.56	872.52
655.90	865.61
656.25	858.88
656.59	851.84
656.93	844.80
657.27	837.61
657.61	830.56
657.95	824.36
658.29	818.39
658.64	812.17
658.98	805.65
659.32	799.06
659.66	792.72
660.00	786.31
660.34	780.25
660.68	774.03
661.02	767.62
661.36	761.64
661.70	755.82
662.05	750.16
662.39	744.60
662.73	739.14
663.07	733.76
663.41	728.07
663.75	722.42
664.09	716.70
664.43	711.31
664.77	706.04
665.11	700.23
665.45	694.30
665.79	688.43
666.13	682.68
666.47	677.10
666.81	671.62
667.15	666.28
667.49	661.02
667.83	655.65
668.17	650.36
668.51	645.15
668.85	640.21
669.19	635.20
669.53	630.14
669.87	624.97
670.21	620.08
670.55	615.35
670.89	610.79
671.23	606.43
671.57	601.86
671.91	597.45
672.25	593.35
672.58	589.20
672.92	585.12
673.26	581.09
673.60	577.26
673.94	573.46
674.28	569.75
674.62	565.95
674.96	562.23
675.30	558.71
675.64	554.99
675.97	551.34
676.31	547.72
676.65	544.05
676.99	540.59
677.33	536.69
677.67	532.97
678.01	529.04
678.34	525.37
678.68	521.81
679.02	518.23
679.36	514.41
679.70	510.70
680.04	507.06
680.37	503.63
680.71	500.22
681.05	496.92
681.39	493.61
681.73	490.33
682.06	487.24
682.40	484.11
682.74	480.95
683.08	477.62
683.42	474.38
683.75	471.34
684.09	468.27
684.43	465.47
684.77	462.46
685.10	459.66
685.44	456.66
685.78	453.70
686.12	450.85
686.45	448.11
686.79	445.38
687.13	442.85
687.46	440.22
687.80	437.48
688.14	434.56
688.48	431.91
688.81	429.21
689.15	426.54
689.49	423.83
689.82	421.23
690.16	418.65
690.50	416.19
690.83	413.63
691.17	411.04
691.51	408.50
691.84	406.20
692.18	403.91
692.52	401.73
692.85	399.57
693.19	397.37
693.52	395.14
693.86	392.92
694.20	390.68
694.53	388.45
694.87	386.20
695.21	384.13
695.54	381.92
695.88	379.74
696.21	377.49
696.55	375.39
696.88	373.28
697.22	371.26
697.56	369.32
697.89	367.43
698.23	365.67
698.56	363.89
698.90	362.09
699.23	360.17
699.57	358.22
699.90	356.25
700.24	354.44
700.58	352.63
700.91	350.96
701.25	349.39
701.58	347.79
701.92	346.23
702.25	344.55
702.59	342.94
702.92	341.38
703.26	339.87
703.59	338.38
703.93	337.08
704.26	335.65
704.60	334.14
704.93	332.62
705.26	331.08
705.60	329.56
705.93	328.08
706.27	326.74
706.60	325.46
706.94	324.23
707.27	322.79
707.61	321.43
707.94	320.00
708.27	318.46
708.61	316.96
708.94	315.54
709.28	314.25
709.61	312.96
709.94	311.74
710.28	310.49
710.61	309.27
710.95	307.85
711.28	306.72
711.61	305.48
711.95	304.38
712.28	303.18
712.61	301.97
712.95	300.90
713.28	299.83
713.61	298.68
713.95	297.57
714.28	296.57
714.61	295.53
714.95	294.50
715.28	293.45
715.61	292.41
715.95	291.41
716.28	290.42
716.61	289.44
716.95	288.41
717.28	287.47
717.61	286.48
717.94	285.56
718.28	284.48
718.61	283.61
718.94	282.66
719.27	281.79
719.61	280.97
719.94	280.08
720.27	279.11
720.60	278.22
720.94	277.39
721.27	276.60
721.60	275.86
721.93	275.18
722.27	274.53
722.60	273.89
722.93	273.18
723.26	272.51
723.59	271.78
723.93	271.13
724.26	270.45
724.59	269.78
724.92	269.19
725.25	268.70
725.59	268.08
725.92	267.52
726.25	266.96
726.58	266.36
726.91	265.73
727.24	265.14
727.57	264.56
727.91	263.93
728.24	263.36
728.57	262.82
728.90	262.25
729.23	261.59
729.56	261.12
729.89	260.55
730.22	259.96
730.55	259.41
730.89	258.88
731.22	258.36
731.55	257.85
731.88	257.33
732.21	256.78
732.54	256.26
732.87	255.74
733.20	255.25
733.53	254.75
733.86	254.28
734.19	253.82
734.52	253.42
734.85	253.12
735.18	252.65
735.51	252.21
735.84	251.75
736.17	251.38
736.50	250.85
736.83	250.70
737.16	250.35
737.49	250.01
737.82	249.58
738.15	249.23
738.48	248.85
738.81	248.44
739.14	247.99
739.47	247.62
739.80	247.22
740.13	246.87
740.46	246.48
740.79	246.10
741.12	245.73
741.45	245.32
741.78	244.84
742.11	244.52
742.44	244.16
742.77	243.84
743.10	243.47
743.43	243.12
743.75	242.57
744.08	242.47
744.41	242.09
744.74	241.74
745.07	241.32
745.40	241.00
745.73	240.75
746.06	240.44
746.39	240.12
746.71	239.79
747.04	239.42
747.37	239.11
747.70	238.85
748.03	238.54
748.36	238.32
748.68	238.02
749.01	237.69
749.34	237.40
749.67	237.08
750.00	236.82
750.33	236.70
750.65	236.42
750.98	235.88
751.31	235.65
751.64	235.43
751.97	235.32
752.29	235.08
752.62	234.71
752.95	234.42
753.28	234.14
753.60	233.91
753.93	233.73
754.26	233.49
754.59	233.21
754.91	232.97
755.24	232.68
755.57	232.47
755.90	232.24
756.22	232.01
756.55	231.76
756.88	231.51
757.20	231.14
757.53	230.90
757.86	230.70
758.19	230.49
758.51	230.33
758.84	230.02
759.17	229.79
759.49	229.65
759.82	229.56
760.15	229.37
760.47	229.15
760.80	228.89
761.13	228.73
761.45	228.52
761.78	228.33
762.11	228.16
762.43	227.96
762.76	227.79
763.08	227.63
763.41	227.46
763.74	227.29
764.06	227.14
764.39	226.95
764.71	226.79
765.04	226.61
765.37	226.40
765.69	226.22
766.02	226.10
766.34	225.90
766.67	225.69
767.00	225.61
767.32	225.61
767.65	225.62
767.97	225.48
768.30	225.41
768.62	225.28
768.95	225.12
769.27	225.00
769.60	224.90
769.92	224.71
770.25	224.58
770.57	224.46
770.90	224.30
771.22	224.16
771.55	224.05
771.87	223.93
772.20	223.82
772.52	223.92
772.85	224.05
773.17	223.99
773.50	223.89
773.82	223.76
774.15	223.55
774.47	223.28
774.80	223.18
775.12	223.06
775.45	222.96
775.77	222.89
776.09	222.78
776.42	222.69
776.74	222.73
777.07	222.67
777.39	222.56
777.72	222.47
778.04	222.42
778.36	222.31
778.69	222.26
779.01	222.21
779.33	221.91
779.66	221.57
779.98	221.46
780.31	221.36
780.63	221.36
780.95	221.30
781.28	221.24
781.60	221.12
781.92	221.06
782.25	220.99
782.57	220.92
782.89	220.85
783.22	220.78
783.54	220.67
783.86	220.57
784.19	220.51
784.51	220.52
784.83	220.47
785.16	220.38
785.48	220.31
785.80	220.21
786.12	220.16
