SpectraSuite Data File
++++++++++++++++++++++++++++++++++++
Date: Tue Jan 29 16:07:49 EST 2013
User: group
Dark Spectrum Present: No
Reference Spectrum Present: No
Number of Sampled Component Spectra: 1
Spectrometers: USB2E7196
Integration Time (usec): 65000 (USB2E7196)
Spectra Averaged: 100 (USB2E7196)
Boxcar Smoothing: 10 (USB2E7196)
Correct for Electrical Dark: No (USB2E7196)
Strobe/Lamp Enabled: No (USB2E7196)
Correct for Detector Non-linearity: No (USB2E7196)
Correct for Stray Light: No (USB2E7196)
Number of Pixels in Processed Spectrum: 2048
>>>>>Begin Processed Spectral Data<<<<<
339.09	0.00
339.48	202.67
339.86	204.15
340.24	204.92
340.63	206.77
341.01	211.11
341.39	209.56
341.78	211.30
342.16	212.59
342.54	212.75
342.93	201.80
343.31	212.00
343.69	212.54
344.07	213.05
344.46	213.55
344.84	213.94
345.22	214.14
345.60	214.44
345.99	214.66
346.37	214.83
346.75	214.96
347.13	215.06
347.52	215.11
347.90	215.22
348.28	215.25
348.66	215.34
349.05	215.33
349.43	215.40
349.81	215.48
350.19	215.53
350.57	215.63
350.96	215.72
351.34	215.82
351.72	215.92
352.10	215.98
352.48	216.00
352.87	216.07
353.25	216.11
353.63	216.14
354.01	216.18
354.39	216.23
354.77	216.26
355.15	216.39
355.54	216.46
355.92	216.46
356.30	216.53
356.68	216.72
357.06	216.80
357.44	216.81
357.82	216.84
358.20	216.91
358.58	216.96
358.97	217.02
359.35	217.13
359.73	217.23
360.11	217.28
360.49	217.37
360.87	217.40
361.25	217.50
361.63	217.61
362.01	217.64
362.39	217.65
362.77	217.74
363.15	217.76
363.53	217.77
363.91	217.83
364.29	217.84
364.67	217.68
365.05	217.72
365.43	217.79
365.81	217.85
366.19	217.96
366.57	218.05
366.95	218.01
367.33	217.95
367.71	217.95
368.09	217.97
368.47	217.98
368.85	217.97
369.23	217.98
369.61	217.87
369.99	217.94
370.37	217.95
370.75	218.01
371.13	217.94
371.51	217.88
371.89	217.85
372.27	217.86
372.65	217.82
373.03	217.76
373.41	217.70
373.78	217.64
374.16	217.51
374.54	217.43
374.92	217.42
375.30	217.37
375.68	217.28
376.06	217.26
376.44	217.16
376.82	217.16
377.19	217.10
377.57	217.08
377.95	216.98
378.33	216.91
378.71	216.73
379.09	216.71
379.47	216.71
379.84	216.66
380.22	216.61
380.60	216.55
380.98	216.52
381.36	216.49
381.73	216.41
382.11	216.40
382.49	216.35
382.87	216.26
383.25	216.23
383.62	216.42
384.00	216.33
384.38	216.33
384.76	216.35
385.13	216.40
385.51	216.37
385.89	216.33
386.27	216.30
386.64	216.31
387.02	216.29
387.40	216.24
387.78	216.22
388.15	216.19
388.53	216.14
388.91	216.09
389.29	216.04
389.66	216.08
390.04	216.03
390.42	216.03
390.79	216.08
391.17	216.06
391.55	215.81
391.92	215.83
392.30	215.82
392.68	215.77
393.05	215.74
393.43	215.74
393.81	215.75
394.18	215.74
394.56	215.75
394.94	215.79
395.31	215.77
395.69	215.85
396.06	215.91
396.44	215.96
396.82	215.97
397.19	216.11
397.57	216.08
397.95	216.16
398.32	216.15
398.70	216.16
399.07	216.28
399.45	216.34
399.82	216.37
400.20	216.40
400.58	216.46
400.95	216.47
401.33	216.53
401.70	216.73
402.08	216.85
402.45	216.93
402.83	217.06
403.20	217.18
403.58	217.24
403.95	217.38
404.33	217.55
404.71	217.70
405.08	217.91
405.46	218.09
405.83	218.23
406.21	218.44
406.58	218.69
406.96	218.89
407.33	219.15
407.70	219.44
408.08	219.90
408.45	220.23
408.83	220.61
409.20	220.97
409.58	221.24
409.95	221.66
410.33	222.13
410.70	222.54
411.08	223.07
411.45	223.60
411.82	224.11
412.20	224.76
412.57	225.56
412.95	226.13
413.32	226.94
413.69	227.79
414.07	228.64
414.44	229.56
414.82	230.53
415.19	231.66
415.56	232.84
415.94	233.95
416.31	235.29
416.68	236.62
417.06	238.12
417.43	239.62
417.81	241.32
418.18	243.04
418.55	244.90
418.93	246.85
419.30	248.88
419.67	251.07
420.04	253.27
420.42	255.53
420.79	258.29
421.16	260.97
421.54	263.76
421.91	266.68
422.28	269.69
422.66	272.86
423.03	276.00
423.40	279.22
423.77	282.71
424.15	286.22
424.52	289.96
424.89	294.05
425.26	298.02
425.64	301.78
426.01	305.93
426.38	310.28
426.75	314.70
427.13	319.31
427.50	324.07
427.87	329.12
428.24	334.18
428.61	338.96
428.99	344.32
429.36	350.12
429.73	355.78
430.10	361.44
430.47	367.28
430.85	373.38
431.22	379.87
431.59	386.75
431.96	393.36
432.33	400.62
432.70	407.63
433.08	415.81
433.45	423.61
433.82	431.34
434.19	439.94
434.56	448.31
434.93	456.35
435.30	464.37
435.68	473.11
436.05	481.79
436.42	490.37
436.79	498.28
437.16	506.72
437.53	515.71
437.90	524.51
438.27	533.17
438.64	542.04
439.01	550.26
439.38	557.57
439.75	564.70
440.13	572.80
440.50	580.45
440.87	586.60
441.24	592.99
441.61	600.02
441.98	605.15
442.35	611.27
442.72	617.40
443.09	623.26
443.46	626.87
443.83	629.27
444.20	631.33
444.57	634.31
444.94	635.68
445.31	637.02
445.68	638.34
446.05	638.97
446.42	638.19
446.79	637.23
447.16	636.16
447.53	635.32
447.90	632.04
448.27	628.81
448.64	624.34
449.01	621.09
449.37	615.43
449.74	609.93
450.11	603.24
450.48	596.01
450.85	588.76
451.22	582.52
451.59	576.66
451.96	571.10
452.33	563.50
452.70	556.71
453.07	548.56
453.43	540.25
453.80	532.22
454.17	524.54
454.54	517.32
454.91	509.44
455.28	501.86
455.65	494.78
456.02	487.62
456.38	481.56
456.75	474.01
457.12	467.66
457.49	461.45
457.86	455.51
458.23	450.40
458.59	444.74
458.96	439.01
459.33	433.83
459.70	428.70
460.07	424.61
460.43	419.89
460.80	415.52
461.17	411.68
461.54	407.67
461.91	403.83
462.27	399.85
462.64	396.55
463.01	392.87
463.38	389.28
463.74	385.73
464.11	382.59
464.48	379.86
464.85	376.89
465.21	374.53
465.58	372.01
465.95	368.95
466.32	366.46
466.68	363.96
467.05	361.50
467.42	358.98
467.78	356.37
468.15	353.92
468.52	352.11
468.88	349.74
469.25	347.62
469.62	345.84
469.98	344.01
470.35	342.29
470.72	340.66
471.08	338.96
471.45	337.52
471.82	336.09
472.18	334.49
472.55	333.33
472.92	331.99
473.28	330.83
473.65	329.77
474.02	328.74
474.38	327.91
474.75	327.22
475.11	326.48
475.48	326.00
475.85	325.57
476.21	325.07
476.58	324.71
476.94	324.51
477.31	324.29
477.67	324.08
478.04	323.93
478.41	323.90
478.77	324.08
479.14	324.07
479.50	324.21
479.87	324.56
480.23	324.93
480.60	325.18
480.96	325.50
481.33	326.12
481.69	326.64
482.06	327.15
482.42	327.61
482.79	328.23
483.15	329.03
483.52	329.98
483.88	330.89
484.25	331.87
484.61	332.84
484.98	333.89
485.34	335.18
485.71	336.59
486.07	338.10
486.44	339.37
486.80	340.97
487.17	342.63
487.53	344.44
487.90	346.31
488.26	348.37
488.62	350.50
488.99	352.55
489.35	354.71
489.72	357.09
490.08	359.60
490.44	362.17
490.81	364.91
491.17	367.59
491.54	370.51
491.90	373.56
492.26	376.86
492.63	380.24
492.99	383.70
493.36	387.34
493.72	391.20
494.08	395.25
494.45	399.43
494.81	403.80
495.17	408.24
495.54	412.95
495.90	417.71
496.26	422.68
496.63	427.85
496.99	433.24
497.35	438.81
497.72	444.62
498.08	450.57
498.44	456.61
498.80	463.00
499.17	469.49
499.53	476.14
499.89	483.00
500.26	489.97
500.62	497.14
500.98	504.48
501.34	511.89
501.71	519.57
502.07	527.33
502.43	535.32
502.79	543.37
503.16	551.68
503.52	560.29
503.88	568.91
504.24	577.83
504.60	586.83
504.97	595.96
505.33	605.23
505.69	614.95
506.05	624.76
506.41	634.59
506.78	644.61
507.14	654.85
507.50	665.28
507.86	675.92
508.22	686.56
508.59	697.19
508.95	708.25
509.31	719.47
509.67	730.90
510.03	742.27
510.39	754.03
510.75	765.81
511.12	777.64
511.48	789.70
511.84	801.88
512.20	814.23
512.56	826.85
512.92	839.57
513.28	852.06
513.64	864.68
514.00	877.44
514.37	890.29
514.73	903.20
515.09	916.00
515.45	928.71
515.81	941.56
516.17	954.84
516.53	967.88
516.89	980.78
517.25	993.80
517.61	1007.12
517.97	1020.31
518.33	1033.24
518.69	1046.66
519.05	1060.15
519.41	1073.60
519.77	1087.23
520.13	1100.24
520.49	1113.24
520.85	1126.51
521.21	1139.69
521.57	1153.06
521.93	1165.94
522.29	1179.50
522.65	1192.87
523.01	1206.25
523.37	1219.21
523.73	1232.26
524.09	1245.08
524.45	1258.28
524.81	1271.54
525.17	1284.66
525.53	1297.53
525.89	1310.61
526.25	1323.44
526.61	1336.15
526.97	1349.00
527.33	1361.57
527.68	1374.88
528.04	1388.11
528.40	1400.96
528.76	1413.98
529.12	1426.75
529.48	1439.68
529.84	1451.71
530.20	1464.19
530.56	1476.60
530.91	1489.57
531.27	1502.28
531.63	1514.89
531.99	1527.40
532.35	1539.31
532.71	1551.28
533.07	1563.80
533.42	1575.78
533.78	1587.56
534.14	1599.21
534.50	1610.17
534.86	1621.50
535.21	1632.11
535.57	1643.19
535.93	1654.21
536.29	1665.14
536.65	1676.13
537.00	1686.85
537.36	1697.84
537.72	1708.56
538.08	1719.59
538.44	1730.39
538.79	1740.98
539.15	1751.51
539.51	1761.93
539.87	1772.99
540.22	1783.49
540.58	1794.17
540.94	1804.67
541.29	1814.73
541.65	1824.17
542.01	1834.47
542.37	1844.28
542.72	1853.98
543.08	1863.56
543.44	1873.56
543.79	1882.55
544.15	1891.69
544.51	1901.50
544.87	1911.14
545.22	1920.04
545.58	1928.64
545.94	1937.11
546.29	1945.32
546.65	1953.44
547.01	1961.59
547.36	1968.97
547.72	1976.61
548.07	1983.96
548.43	1991.46
548.79	1998.86
549.14	2006.84
549.50	2014.89
549.86	2022.46
550.21	2029.70
550.57	2037.07
550.92	2043.65
551.28	2051.01
551.64	2058.21
551.99	2065.43
552.35	2072.42
552.70	2079.06
553.06	2085.59
553.41	2091.75
553.77	2098.11
554.13	2104.26
554.48	2110.91
554.84	2117.77
555.19	2124.05
555.55	2130.41
555.90	2136.65
556.26	2143.36
556.61	2149.10
556.97	2153.89
557.32	2159.65
557.68	2165.97
558.03	2171.48
558.39	2176.90
558.74	2182.62
559.10	2188.12
559.45	2193.71
559.81	2199.17
560.16	2204.66
560.52	2210.40
560.87	2216.80
561.23	2222.91
561.58	2229.65
561.94	2234.95
562.29	2239.91
562.64	2246.12
563.00	2251.77
563.35	2257.32
563.71	2263.27
564.06	2268.98
564.42	2274.98
564.77	2280.04
565.12	2285.26
565.48	2290.69
565.83	2296.25
566.19	2301.81
566.54	2307.09
566.89	2311.64
567.25	2316.23
567.60	2322.07
567.96	2327.31
568.31	2331.84
568.66	2335.94
569.02	2339.81
569.37	2343.54
569.72	2347.80
570.08	2351.46
570.43	2354.48
570.78	2357.58
571.14	2360.20
571.49	2363.47
571.84	2367.01
572.20	2370.04
572.55	2373.19
572.90	2375.43
573.26	2378.48
573.61	2381.08
573.96	2383.39
574.31	2385.44
574.67	2387.55
575.02	2388.52
575.37	2390.14
575.72	2391.04
576.08	2392.79
576.43	2393.16
576.78	2393.95
577.13	2395.91
577.49	2397.23
577.84	2398.76
578.19	2400.26
578.54	2401.15
578.90	2402.35
579.25	2402.51
579.60	2402.70
579.95	2402.35
580.30	2402.84
580.66	2402.19
581.01	2400.61
581.36	2398.60
581.71	2397.49
582.06	2396.57
582.42	2395.90
582.77	2394.01
583.12	2392.71
583.47	2391.57
583.82	2391.27
584.17	2390.20
584.53	2388.12
584.88	2386.18
585.23	2384.34
585.58	2382.34
585.93	2380.23
586.28	2378.07
586.63	2375.82
586.98	2373.78
587.34	2371.90
587.69	2369.81
588.04	2367.86
588.39	2366.65
588.74	2364.46
589.09	2362.05
589.44	2359.09
589.79	2356.77
590.14	2354.88
590.49	2352.17
590.84	2348.59
591.19	2345.67
591.54	2342.67
591.89	2338.73
592.25	2335.62
592.60	2331.61
592.95	2327.57
593.30	2323.56
593.65	2319.28
594.00	2315.09
594.35	2311.98
594.70	2307.47
595.05	2302.70
595.40	2297.59
595.75	2292.20
596.10	2288.58
596.45	2283.71
596.80	2279.43
597.15	2274.32
597.50	2268.67
597.85	2263.74
598.19	2258.52
598.54	2252.75
598.89	2247.74
599.24	2243.42
599.59	2237.41
599.94	2231.96
600.29	2226.33
600.64	2220.65
600.99	2214.17
601.34	2208.64
601.69	2201.88
602.04	2195.51
602.39	2189.22
602.74	2183.16
603.08	2177.54
603.43	2171.02
603.78	2164.35
604.13	2157.25
604.48	2150.17
604.83	2144.14
605.18	2138.11
605.53	2131.30
605.87	2124.28
606.22	2117.35
606.57	2109.47
606.92	2101.69
607.27	2094.66
607.62	2088.02
607.96	2080.94
608.31	2074.41
608.66	2066.89
609.01	2059.43
609.36	2052.36
609.70	2044.64
610.05	2036.92
610.40	2028.74
610.75	2020.60
611.10	2013.13
611.44	2004.43
611.79	1995.67
612.14	1985.65
612.49	1975.01
612.83	1965.71
613.18	1956.68
613.53	1947.37
613.88	1937.86
614.22	1929.19
614.57	1919.29
614.92	1908.77
615.27	1898.93
615.61	1889.04
615.96	1879.34
616.31	1869.76
616.65	1860.59
617.00	1850.79
617.35	1841.21
617.70	1831.44
618.04	1821.36
618.39	1810.97
618.74	1801.26
619.08	1791.76
619.43	1783.08
619.78	1774.91
620.12	1766.22
620.47	1756.34
620.82	1746.13
621.16	1736.49
621.51	1726.56
621.85	1716.65
622.20	1706.28
622.55	1695.50
622.89	1685.65
623.24	1675.97
623.59	1666.24
623.93	1656.02
624.28	1646.25
624.62	1636.05
624.97	1625.85
625.32	1616.23
625.66	1607.43
626.01	1598.54
626.35	1589.02
626.70	1578.96
627.04	1568.76
627.39	1558.81
627.73	1549.64
628.08	1540.62
628.43	1530.85
628.77	1521.59
629.12	1512.67
629.46	1504.87
629.81	1496.51
630.15	1486.86
630.50	1477.11
630.84	1466.68
631.19	1456.80
631.53	1447.48
631.88	1437.33
632.22	1427.26
632.57	1417.85
632.91	1407.70
633.26	1397.84
633.60	1388.35
633.95	1379.01
634.29	1369.62
634.64	1360.24
634.98	1350.35
635.32	1341.05
635.67	1332.63
636.01	1323.41
636.36	1313.61
636.70	1304.01
637.05	1294.64
637.39	1285.70
637.73	1276.92
638.08	1269.22
638.42	1260.89
638.77	1252.02
639.11	1243.78
639.45	1235.97
639.80	1227.28
640.14	1218.55
640.49	1209.75
640.83	1200.94
641.17	1192.81
641.52	1184.62
641.86	1176.01
642.20	1168.21
642.55	1159.72
642.89	1150.86
643.23	1142.15
643.58	1134.13
643.92	1125.08
644.26	1116.46
644.61	1107.94
644.95	1099.20
645.29	1090.09
645.64	1081.00
645.98	1072.71
646.32	1064.75
646.66	1056.20
647.01	1047.80
647.35	1039.69
647.69	1031.25
648.04	1022.90
648.38	1013.94
648.72	1005.18
649.06	996.75
649.41	988.55
649.75	980.49
650.09	972.66
650.43	964.61
650.78	956.50
651.12	948.83
651.46	941.44
651.80	934.20
652.14	926.86
652.49	919.37
652.83	912.10
653.17	904.39
653.51	896.88
653.85	889.64
654.20	882.48
654.54	875.03
654.88	867.95
655.22	860.82
655.56	853.91
655.90	847.16
656.25	840.55
656.59	833.54
656.93	826.60
657.27	819.51
657.61	812.77
657.95	806.67
658.29	800.84
658.64	794.68
658.98	788.31
659.32	781.76
659.66	775.55
660.00	769.25
660.34	763.26
660.68	757.17
661.02	751.01
661.36	745.17
661.70	739.43
662.05	733.82
662.39	728.38
662.73	723.16
663.07	717.82
663.41	712.25
663.75	706.72
664.09	701.14
664.43	695.73
664.77	690.38
665.11	684.60
665.45	678.75
665.79	673.07
666.13	667.46
666.47	662.07
666.81	656.69
667.15	651.45
667.49	646.28
667.83	641.16
668.17	635.97
668.51	630.92
668.85	626.07
669.19	621.20
669.53	616.29
669.87	611.24
670.21	606.56
670.55	601.91
670.89	597.55
671.23	593.34
671.57	589.07
671.91	584.80
672.25	580.69
672.58	576.55
672.92	572.48
673.26	568.57
673.60	564.82
673.94	561.05
674.28	557.46
674.62	553.73
674.96	549.95
675.30	546.44
675.64	542.82
675.97	539.28
676.31	535.80
676.65	532.25
676.99	528.81
677.33	525.00
677.67	521.36
678.01	517.56
678.34	513.90
678.68	510.38
679.02	506.85
679.36	503.21
679.70	499.68
680.04	496.22
680.37	492.85
680.71	489.57
681.05	486.43
681.39	483.24
681.73	480.21
682.06	477.21
682.40	474.18
682.74	471.02
683.08	467.85
683.42	464.67
683.75	461.75
684.09	458.81
684.43	456.03
684.77	453.22
685.10	450.35
685.44	447.50
685.78	444.69
686.12	441.95
686.45	439.28
686.79	436.65
687.13	434.16
687.46	431.53
687.80	428.87
688.14	426.08
688.48	423.49
688.81	420.78
689.15	418.27
689.49	415.71
689.82	413.25
690.16	410.74
690.50	408.36
690.83	405.82
691.17	403.29
691.51	400.94
691.84	398.74
692.18	396.62
692.52	394.45
692.85	392.30
693.19	390.22
693.52	388.08
693.86	385.94
694.20	383.81
694.53	381.76
694.87	379.60
695.21	377.56
695.54	375.44
695.88	373.36
696.21	371.20
696.55	369.09
696.88	367.08
697.22	365.13
697.56	363.24
697.89	361.42
698.23	359.74
698.56	358.00
698.90	356.23
699.23	354.32
699.57	352.46
699.90	350.69
700.24	348.93
700.58	347.20
700.91	345.59
701.25	344.05
701.58	342.42
701.92	340.84
702.25	339.28
702.59	337.71
702.92	336.23
703.26	334.71
703.59	333.31
703.93	332.09
704.26	330.68
704.60	329.21
704.93	327.79
705.26	326.31
705.60	324.85
705.93	323.37
706.27	322.11
706.60	320.91
706.94	319.72
707.27	318.35
707.61	317.05
707.94	315.73
708.27	314.25
708.61	312.89
708.94	311.62
709.28	310.37
709.61	309.14
709.94	307.99
710.28	306.87
710.61	305.69
710.95	304.30
711.28	303.31
711.61	302.12
711.95	301.04
712.28	299.90
712.61	298.77
712.95	297.74
713.28	296.73
713.61	295.60
713.95	294.45
714.28	293.45
714.61	292.41
714.95	291.42
715.28	290.43
715.61	289.47
715.95	288.54
716.28	287.59
716.61	286.64
716.95	285.64
717.28	284.68
717.61	283.76
717.94	282.91
718.28	281.86
718.61	281.04
718.94	280.12
719.27	279.27
719.61	278.46
719.94	277.62
720.27	276.71
720.60	275.90
720.94	275.18
721.27	274.52
721.60	273.87
721.93	273.18
722.27	272.55
722.60	271.89
722.93	271.18
723.26	270.52
723.59	269.89
723.93	269.26
724.26	268.68
724.59	268.06
724.92	267.43
725.25	266.91
725.59	266.37
725.92	265.86
726.25	265.30
726.58	264.76
726.91	264.21
727.24	263.69
727.57	263.11
727.91	262.47
728.24	261.89
728.57	261.33
728.90	260.80
729.23	260.25
729.56	259.81
729.89	259.30
730.22	258.77
730.55	258.23
730.89	257.75
731.22	257.20
731.55	256.69
731.88	256.21
732.21	255.68
732.54	255.15
732.87	254.70
733.20	254.25
733.53	253.78
733.86	253.34
734.19	252.85
734.52	252.48
734.85	252.21
735.18	251.75
735.51	251.36
735.84	250.93
736.17	250.52
736.50	249.99
736.83	249.83
737.16	249.43
737.49	249.07
737.82	248.65
738.15	248.28
738.48	247.92
738.81	247.51
739.14	247.12
739.47	246.78
739.80	246.39
740.13	246.01
740.46	245.59
740.79	245.19
741.12	244.85
741.45	244.49
741.78	244.06
742.11	243.81
742.44	243.42
742.77	243.14
743.10	242.80
743.43	242.49
743.75	241.96
744.08	241.92
744.41	241.56
744.74	241.21
745.07	240.89
745.40	240.59
745.73	240.37
746.06	240.04
746.39	239.73
746.71	239.36
747.04	239.04
747.37	238.79
747.70	238.48
748.03	238.18
748.36	237.90
748.68	237.60
749.01	237.22
749.34	236.93
749.67	236.62
750.00	236.36
750.33	236.23
750.65	235.94
750.98	235.39
751.31	235.15
751.64	234.96
751.97	234.81
752.29	234.59
752.62	234.29
752.95	234.04
753.28	233.78
753.60	233.58
753.93	233.41
754.26	233.20
754.59	232.98
754.91	232.73
755.24	232.48
755.57	232.25
755.90	232.04
756.22	231.85
756.55	231.63
756.88	231.40
757.20	231.06
757.53	230.83
757.86	230.64
758.19	230.47
758.51	230.26
758.84	229.97
759.17	229.72
759.49	229.54
759.82	229.46
760.15	229.33
760.47	229.12
760.80	228.86
761.13	228.68
761.45	228.50
761.78	228.32
762.11	228.18
762.43	227.99
762.76	227.84
763.08	227.66
763.41	227.48
763.74	227.34
764.06	227.21
764.39	227.08
764.71	226.95
765.04	226.76
765.37	226.64
765.69	226.50
766.02	226.36
766.34	226.20
766.67	225.99
767.00	225.88
767.32	225.92
767.65	225.92
767.97	225.78
768.30	225.66
768.62	225.57
768.95	225.39
769.27	225.30
769.60	225.18
769.92	225.04
770.25	224.94
770.57	224.77
770.90	224.64
771.22	224.49
771.55	224.37
771.87	224.30
772.20	224.15
772.52	224.23
772.85	224.39
773.17	224.31
773.50	224.22
773.82	224.12
774.15	223.88
774.47	223.63
774.80	223.54
775.12	223.45
775.45	223.35
775.77	223.31
776.09	223.21
776.42	223.16
776.74	223.13
777.07	223.01
777.39	222.93
777.72	222.85
778.04	222.81
778.36	222.73
778.69	222.67
779.01	222.60
779.33	222.34
779.66	222.01
779.98	221.91
780.31	221.84
780.63	221.83
780.95	221.83
781.28	221.77
781.60	221.70
781.92	221.61
782.25	221.55
782.57	221.49
782.89	221.42
783.22	221.35
783.54	221.28
783.86	221.25
784.19	221.18
784.51	221.18
784.83	221.09
785.16	221.01
785.48	220.93
785.80	220.86
786.12	220.85
