SpectraSuite Data File
++++++++++++++++++++++++++++++++++++
Date: Tue Jan 29 16:51:07 EST 2013
User: group
Dark Spectrum Present: No
Reference Spectrum Present: No
Number of Sampled Component Spectra: 1
Spectrometers: USB2E7196
Integration Time (usec): 65000 (USB2E7196)
Spectra Averaged: 100 (USB2E7196)
Boxcar Smoothing: 10 (USB2E7196)
Correct for Electrical Dark: No (USB2E7196)
Strobe/Lamp Enabled: No (USB2E7196)
Correct for Detector Non-linearity: No (USB2E7196)
Correct for Stray Light: No (USB2E7196)
Number of Pixels in Processed Spectrum: 2048
>>>>>Begin Processed Spectral Data<<<<<
339.09	0.00
339.48	201.16
339.86	202.37
340.24	203.80
340.63	205.65
341.01	210.13
341.39	208.22
341.78	209.63
342.16	211.15
342.54	210.50
342.93	200.31
343.31	210.43
343.69	210.99
344.07	211.47
344.46	211.91
344.84	212.32
345.22	212.47
345.60	212.73
345.99	212.94
346.37	213.11
346.75	213.29
347.13	213.39
347.52	213.50
347.90	213.64
348.28	213.68
348.66	213.78
349.05	213.84
349.43	213.92
349.81	213.99
350.19	214.08
350.57	214.22
350.96	214.34
351.34	214.46
351.72	214.59
352.10	214.75
352.48	214.85
352.87	214.92
353.25	215.01
353.63	215.08
354.01	215.16
354.39	215.23
354.77	215.30
355.15	215.44
355.54	215.54
355.92	215.54
356.30	215.67
356.68	215.91
357.06	215.98
357.44	216.02
357.82	216.11
358.20	216.20
358.58	216.22
358.97	216.28
359.35	216.40
359.73	216.48
360.11	216.52
360.49	216.60
360.87	216.66
361.25	216.75
361.63	216.88
362.01	216.92
362.39	216.94
362.77	217.01
363.15	216.99
363.53	217.02
363.91	217.08
364.29	217.09
364.67	216.89
365.05	216.92
365.43	216.97
365.81	216.98
366.19	217.07
366.57	217.15
366.95	217.15
367.33	217.09
367.71	217.06
368.09	217.12
368.47	217.09
368.85	217.04
369.23	217.09
369.61	217.00
369.99	217.07
370.37	217.09
370.75	217.15
371.13	217.12
371.51	217.05
371.89	217.05
372.27	217.04
372.65	217.04
373.03	216.96
373.41	216.90
373.78	216.86
374.16	216.71
374.54	216.65
374.92	216.60
375.30	216.58
375.68	216.54
376.06	216.49
376.44	216.45
376.82	216.45
377.19	216.35
377.57	216.32
377.95	216.18
378.33	216.12
378.71	215.98
379.09	215.96
379.47	215.92
379.84	215.82
380.22	215.75
380.60	215.65
380.98	215.63
381.36	215.59
381.73	215.50
382.11	215.52
382.49	215.46
382.87	215.37
383.25	215.30
383.62	215.46
384.00	215.38
384.38	215.33
384.76	215.33
385.13	215.37
385.51	215.29
385.89	215.24
386.27	215.21
386.64	215.18
387.02	215.14
387.40	215.10
387.78	215.08
388.15	215.07
388.53	215.06
388.91	215.04
389.29	215.02
389.66	215.04
390.04	214.94
390.42	214.99
390.79	215.02
391.17	215.02
391.55	214.78
391.92	214.75
392.30	214.78
392.68	214.72
393.05	214.68
393.43	214.70
393.81	214.73
394.18	214.69
394.56	214.66
394.94	214.70
395.31	214.71
395.69	214.78
396.06	214.80
396.44	214.84
396.82	214.84
397.19	214.98
397.57	214.98
397.95	215.09
398.32	215.04
398.70	215.07
399.07	215.13
399.45	215.15
399.82	215.23
400.20	215.26
400.58	215.34
400.95	215.31
401.33	215.41
401.70	215.63
402.08	215.69
402.45	215.81
402.83	215.95
403.20	216.08
403.58	216.14
403.95	216.29
404.33	216.43
404.71	216.59
405.08	216.80
405.46	216.98
405.83	217.15
406.21	217.36
406.58	217.59
406.96	217.84
407.33	218.09
407.70	218.38
408.08	218.83
408.45	219.18
408.83	219.63
409.20	220.00
409.58	220.26
409.95	220.74
410.33	221.23
410.70	221.62
411.08	222.16
411.45	222.78
411.82	223.34
412.20	224.01
412.57	224.82
412.95	225.42
413.32	226.24
413.69	227.07
414.07	227.98
414.44	228.97
414.82	229.99
415.19	231.20
415.56	232.37
415.94	233.60
416.31	235.02
416.68	236.40
417.06	237.97
417.43	239.57
417.81	241.34
418.18	243.13
418.55	245.10
418.93	247.16
419.30	249.24
419.67	251.49
420.04	253.81
420.42	256.23
420.79	259.05
421.16	261.83
421.54	264.77
421.91	267.77
422.28	270.86
422.66	274.21
423.03	277.49
423.40	280.87
423.77	284.42
424.15	288.15
424.52	292.01
424.89	296.25
425.26	300.31
425.64	304.20
426.01	308.55
426.38	313.06
426.75	317.61
427.13	322.40
427.50	327.46
427.87	332.71
428.24	337.89
428.61	342.90
428.99	348.47
429.36	354.53
429.73	360.40
430.10	366.28
430.47	372.37
430.85	378.68
431.22	385.44
431.59	392.61
431.96	399.41
432.33	406.94
432.70	414.18
433.08	422.79
433.45	430.85
433.82	438.91
434.19	447.90
434.56	456.66
434.93	465.03
435.30	473.32
435.68	482.50
436.05	491.61
436.42	500.62
436.79	508.84
437.16	517.59
437.53	526.87
437.90	536.06
438.27	545.07
438.64	554.38
439.01	562.93
439.38	570.56
439.75	577.88
440.13	586.33
440.50	594.35
440.87	600.77
441.24	607.49
441.61	614.86
441.98	620.23
442.35	626.56
442.72	632.97
443.09	639.08
443.46	642.88
443.83	645.38
444.20	647.53
444.57	650.70
444.94	652.19
445.31	653.74
445.68	655.19
446.05	655.80
446.42	654.97
446.79	654.00
447.16	652.93
447.53	652.29
447.90	649.01
448.27	645.71
448.64	641.04
449.01	637.80
449.37	631.94
449.74	626.24
450.11	619.27
450.48	611.80
450.85	604.30
451.22	597.75
451.59	591.59
451.96	585.78
452.33	577.89
452.70	570.81
453.07	562.28
453.43	553.62
453.80	545.33
454.17	537.33
454.54	529.76
454.91	521.54
455.28	513.47
455.65	505.97
456.02	498.43
456.38	492.09
456.75	484.08
457.12	477.33
457.49	470.72
457.86	464.57
458.23	459.11
458.59	453.13
458.96	447.05
459.33	441.68
459.70	436.26
460.07	431.96
460.43	427.05
460.80	422.47
461.17	418.44
461.54	414.15
461.91	410.12
462.27	405.92
462.64	402.47
463.01	398.65
463.38	394.95
463.74	391.23
464.11	387.98
464.48	385.17
464.85	382.11
465.21	379.73
465.58	377.07
465.95	373.95
466.32	371.34
466.68	368.74
467.05	366.11
467.42	363.51
467.78	360.78
468.15	358.14
468.52	356.20
468.88	353.74
469.25	351.50
469.62	349.65
469.98	347.74
470.35	345.90
470.72	344.19
471.08	342.36
471.45	340.82
471.82	339.23
472.18	337.52
472.55	336.31
472.92	334.90
473.28	333.63
473.65	332.47
474.02	331.31
474.38	330.44
474.75	329.73
475.11	328.96
475.48	328.35
475.85	327.88
476.21	327.35
476.58	326.97
476.94	326.76
477.31	326.45
477.67	326.17
478.04	326.04
478.41	326.00
478.77	326.15
479.14	326.09
479.50	326.20
479.87	326.49
480.23	326.78
480.60	327.01
480.96	327.31
481.33	327.90
481.69	328.43
482.06	328.89
482.42	329.34
482.79	329.93
483.15	330.70
483.52	331.69
483.88	332.58
484.25	333.49
484.61	334.48
484.98	335.50
485.34	336.81
485.71	338.13
486.07	339.58
486.44	340.94
486.80	342.54
487.17	344.25
487.53	346.11
487.90	347.95
488.26	349.95
488.62	352.14
488.99	354.15
489.35	356.38
489.72	358.81
490.08	361.34
490.44	363.88
490.81	366.63
491.17	369.28
491.54	372.27
491.90	375.32
492.26	378.58
492.63	381.99
492.99	385.49
493.36	389.15
493.72	392.93
494.08	396.93
494.45	401.16
494.81	405.51
495.17	409.91
495.54	414.62
495.90	419.47
496.26	424.31
496.63	429.50
496.99	434.86
497.35	440.37
497.72	446.23
498.08	452.14
498.44	458.21
498.80	464.72
499.17	471.16
499.53	477.85
499.89	484.70
500.26	491.74
500.62	498.78
500.98	506.19
501.34	513.67
501.71	521.38
502.07	529.13
502.43	537.13
502.79	545.30
503.16	553.70
503.52	562.25
503.88	570.96
504.24	579.86
504.60	588.89
504.97	598.13
505.33	607.31
505.69	617.19
506.05	627.00
506.41	636.73
506.78	646.81
507.14	657.08
507.50	667.59
507.86	678.22
508.22	689.02
508.59	699.67
508.95	710.70
509.31	722.02
509.67	733.51
510.03	744.79
510.39	756.47
510.75	768.21
511.12	780.07
511.48	792.14
511.84	804.44
512.20	816.69
512.56	829.31
512.92	842.12
513.28	854.76
513.64	867.56
514.00	880.41
514.37	893.33
514.73	906.39
515.09	919.31
515.45	932.16
515.81	945.21
516.17	958.56
516.53	971.85
516.89	984.77
517.25	997.97
517.61	1011.59
517.97	1024.95
518.33	1038.25
518.69	1051.76
519.05	1065.50
519.41	1079.11
519.77	1093.04
520.13	1106.30
520.49	1119.51
520.85	1132.81
521.21	1146.10
521.57	1159.90
521.93	1172.92
522.29	1186.65
522.65	1200.34
523.01	1213.99
523.37	1227.19
523.73	1240.58
524.09	1253.82
524.45	1267.41
524.81	1280.84
525.17	1294.25
525.53	1307.44
525.89	1320.71
526.25	1333.98
526.61	1346.90
526.97	1360.07
527.33	1373.16
527.68	1386.79
528.04	1400.35
528.40	1413.58
528.76	1427.03
529.12	1439.80
529.48	1453.27
529.84	1465.58
530.20	1478.27
530.56	1490.89
530.91	1504.09
531.27	1517.02
531.63	1529.81
531.99	1542.56
532.35	1554.91
532.71	1567.29
533.07	1580.30
533.42	1592.58
533.78	1604.61
534.14	1616.67
534.50	1627.96
534.86	1639.63
535.21	1650.37
535.57	1661.83
535.93	1673.21
536.29	1684.29
536.65	1695.98
537.00	1706.98
537.36	1718.58
537.72	1729.74
538.08	1741.26
538.44	1752.39
538.79	1763.50
539.15	1774.42
539.51	1785.27
539.87	1796.54
540.22	1807.47
540.58	1818.47
540.94	1829.49
541.29	1839.97
541.65	1849.84
542.01	1860.35
542.37	1870.37
542.72	1880.61
543.08	1890.47
543.44	1900.92
543.79	1910.31
544.15	1919.75
544.51	1929.76
544.87	1939.64
545.22	1948.85
545.58	1957.78
545.94	1966.71
546.29	1975.25
546.65	1983.66
547.01	1991.96
547.36	1999.86
547.72	2007.65
548.07	2015.34
548.43	2023.13
548.79	2031.12
549.14	2039.35
549.50	2047.95
549.86	2056.01
550.21	2063.58
550.57	2071.30
550.92	2078.11
551.28	2085.71
551.64	2093.07
551.99	2100.75
552.35	2107.83
552.70	2114.73
553.06	2121.43
553.41	2127.78
553.77	2134.28
554.13	2140.81
554.48	2147.83
554.84	2154.92
555.19	2161.48
555.55	2167.87
555.90	2174.18
556.26	2181.04
556.61	2187.16
556.97	2191.99
557.32	2197.78
557.68	2204.24
558.03	2210.08
558.39	2215.58
558.74	2221.51
559.10	2226.96
559.45	2232.42
559.81	2238.04
560.16	2243.67
560.52	2249.56
560.87	2255.90
561.23	2261.73
561.58	2268.28
561.94	2273.42
562.29	2277.93
562.64	2284.00
563.00	2289.59
563.35	2295.01
563.71	2300.52
564.06	2306.19
564.42	2312.15
564.77	2317.17
565.12	2322.32
565.48	2327.26
565.83	2332.59
566.19	2337.85
566.54	2343.03
566.89	2347.49
567.25	2351.96
567.60	2357.55
567.96	2362.52
568.31	2366.93
568.66	2371.13
569.02	2374.95
569.37	2378.66
569.72	2383.14
570.08	2386.36
570.43	2389.42
570.78	2392.47
571.14	2394.90
571.49	2397.88
571.84	2401.22
572.20	2403.93
572.55	2406.89
572.90	2409.14
573.26	2411.76
573.61	2414.19
573.96	2416.39
574.31	2418.35
574.67	2420.02
575.02	2420.66
575.37	2421.91
575.72	2422.58
576.08	2423.94
576.43	2423.98
576.78	2424.30
577.13	2425.60
577.49	2426.66
577.84	2427.38
578.19	2428.42
578.54	2428.82
578.90	2429.37
579.25	2429.08
579.60	2428.77
579.95	2427.64
580.30	2427.49
580.66	2426.67
581.01	2424.83
581.36	2422.16
581.71	2420.60
582.06	2419.45
582.42	2418.32
582.77	2415.98
583.12	2414.05
583.47	2412.48
583.82	2411.62
584.17	2410.17
584.53	2407.78
584.88	2405.39
585.23	2403.44
585.58	2401.12
585.93	2398.87
586.28	2396.36
586.63	2393.57
586.98	2391.22
587.34	2389.14
587.69	2386.38
588.04	2384.12
588.39	2382.62
588.74	2380.04
589.09	2377.12
589.44	2373.66
589.79	2370.95
590.14	2368.87
590.49	2366.01
590.84	2361.99
591.19	2358.58
591.54	2355.22
591.89	2351.16
592.25	2348.03
592.60	2343.59
592.95	2339.26
593.30	2335.12
593.65	2330.74
594.00	2326.34
594.35	2323.19
594.70	2318.46
595.05	2314.09
595.40	2308.42
595.75	2302.33
596.10	2298.62
596.45	2293.63
596.80	2288.99
597.15	2283.86
597.50	2277.91
597.85	2272.81
598.19	2267.64
598.54	2261.87
598.89	2256.57
599.24	2252.05
599.59	2245.70
599.94	2239.89
600.29	2233.88
600.64	2227.74
600.99	2220.79
601.34	2215.32
601.69	2208.39
602.04	2202.04
602.39	2195.37
602.74	2189.27
603.08	2183.87
603.43	2177.37
603.78	2170.45
604.13	2163.34
604.48	2155.95
604.83	2149.71
605.18	2143.47
605.53	2136.56
605.87	2129.63
606.22	2122.86
606.57	2114.72
606.92	2106.77
607.27	2099.97
607.62	2093.42
607.96	2086.54
608.31	2080.15
608.66	2072.54
609.01	2064.93
609.36	2057.59
609.70	2049.75
610.05	2041.97
610.40	2033.52
610.75	2025.07
611.10	2017.43
611.44	2008.49
611.79	1999.78
612.14	1989.94
612.49	1979.22
612.83	1969.81
613.18	1960.43
613.53	1951.08
613.88	1941.64
614.22	1933.20
614.57	1923.23
614.92	1912.64
615.27	1902.46
615.61	1892.30
615.96	1882.36
616.31	1872.70
616.65	1863.39
617.00	1853.89
617.35	1844.39
617.70	1834.87
618.04	1824.92
618.39	1814.82
618.74	1805.19
619.08	1795.53
619.43	1786.79
619.78	1778.82
620.12	1770.31
620.47	1760.86
620.82	1750.61
621.16	1740.95
621.51	1731.00
621.85	1721.24
622.20	1711.03
622.55	1700.56
622.89	1690.69
623.24	1681.23
623.59	1671.51
623.93	1661.41
624.28	1651.60
624.62	1641.69
624.97	1631.49
625.32	1621.84
625.66	1613.02
626.01	1604.45
626.35	1595.34
626.70	1585.34
627.04	1575.40
627.39	1565.24
627.73	1556.07
628.08	1547.21
628.43	1537.73
628.77	1528.67
629.12	1519.92
629.46	1512.12
629.81	1503.82
630.15	1494.53
630.50	1484.76
630.84	1474.36
631.19	1464.73
631.53	1455.52
631.88	1445.41
632.22	1435.42
632.57	1426.20
632.91	1416.32
633.26	1406.60
633.60	1397.17
633.95	1388.12
634.29	1378.60
634.64	1369.49
634.98	1359.60
635.32	1350.42
635.67	1342.08
636.01	1332.80
636.36	1323.16
636.70	1313.67
637.05	1304.53
637.39	1295.67
637.73	1287.06
638.08	1279.61
638.42	1271.45
638.77	1262.77
639.11	1254.61
639.45	1247.08
639.80	1238.65
640.14	1229.83
640.49	1221.05
640.83	1212.25
641.17	1204.10
641.52	1196.10
641.86	1187.59
642.20	1179.89
642.55	1171.37
642.89	1162.55
643.23	1154.01
643.58	1146.00
643.92	1137.15
644.26	1128.40
644.61	1120.07
644.95	1111.47
645.29	1102.33
645.64	1093.24
645.98	1084.70
646.32	1076.74
646.66	1068.18
647.01	1059.81
647.35	1051.87
647.69	1043.67
648.04	1035.49
648.38	1026.63
648.72	1017.82
649.06	1009.49
649.41	1001.24
649.75	993.40
650.09	985.62
650.43	977.63
650.78	969.34
651.12	961.63
651.46	954.33
651.80	947.11
652.14	939.84
652.49	932.47
652.83	925.23
653.17	917.66
653.51	910.14
653.85	903.01
654.20	895.90
654.54	888.47
654.88	881.17
655.22	873.98
655.56	867.05
655.90	860.35
656.25	853.69
656.59	846.90
656.93	839.98
657.27	832.77
657.61	825.94
657.95	819.83
658.29	813.91
658.64	807.89
658.98	801.44
659.32	794.92
659.66	788.63
660.00	782.37
660.34	776.38
660.68	770.34
661.02	763.93
661.36	757.92
661.70	752.15
662.05	746.54
662.39	741.07
662.73	735.76
663.07	730.38
663.41	724.82
663.75	719.12
664.09	713.32
664.43	707.94
664.77	702.56
665.11	696.81
665.45	690.96
665.79	685.03
666.13	679.39
666.47	674.03
666.81	668.62
667.15	663.29
667.49	658.05
667.83	652.83
668.17	647.63
668.51	642.52
668.85	637.58
669.19	632.69
669.53	627.67
669.87	622.51
670.21	617.79
670.55	613.09
670.89	608.61
671.23	604.30
671.57	599.92
671.91	595.57
672.25	591.44
672.58	587.30
672.92	583.26
673.26	579.30
673.60	575.35
673.94	571.51
674.28	567.86
674.62	564.10
674.96	560.31
675.30	556.80
675.64	553.13
675.97	549.48
676.31	545.90
676.65	542.30
676.99	538.92
677.33	535.03
677.67	531.35
678.01	527.51
678.34	523.91
678.68	520.40
679.02	516.86
679.36	513.20
679.70	509.52
680.04	505.96
680.37	502.50
680.71	499.11
681.05	495.92
681.39	492.64
681.73	489.51
682.06	486.48
682.40	483.35
682.74	480.16
683.08	476.98
683.42	473.76
683.75	470.70
684.09	467.56
684.43	464.74
684.77	461.77
685.10	458.85
685.44	455.86
685.78	452.91
686.12	450.12
686.45	447.29
686.79	444.63
687.13	442.07
687.46	439.43
687.80	436.76
688.14	433.89
688.48	431.15
688.81	428.38
689.15	425.77
689.49	423.15
689.82	420.60
690.16	417.95
690.50	415.47
690.83	413.01
691.17	410.48
691.51	407.95
691.84	405.69
692.18	403.50
692.52	401.30
692.85	399.19
693.19	397.06
693.52	394.91
693.86	392.70
694.20	390.46
694.53	388.29
694.87	386.08
695.21	383.94
695.54	381.80
695.88	379.61
696.21	377.40
696.55	375.25
696.88	373.16
697.22	371.17
697.56	369.23
697.89	367.31
698.23	365.52
698.56	363.73
698.90	361.94
699.23	360.04
699.57	358.13
699.90	356.17
700.24	354.27
700.58	352.49
700.91	350.77
701.25	349.21
701.58	347.59
701.92	345.98
702.25	344.34
702.59	342.68
702.92	341.10
703.26	339.46
703.59	337.96
703.93	336.65
704.26	335.21
704.60	333.73
704.93	332.19
705.26	330.64
705.60	329.17
705.93	327.56
706.27	326.21
706.60	324.95
706.94	323.71
707.27	322.34
707.61	320.94
707.94	319.58
708.27	318.05
708.61	316.59
708.94	315.22
709.28	313.92
709.61	312.66
709.94	311.43
710.28	310.20
710.61	309.00
710.95	307.61
711.28	306.53
711.61	305.30
711.95	304.16
712.28	302.94
712.61	301.74
712.95	300.69
713.28	299.64
713.61	298.45
713.95	297.28
714.28	296.19
714.61	295.14
714.95	294.08
715.28	293.02
715.61	291.98
715.95	290.99
716.28	289.98
716.61	289.02
716.95	288.01
717.28	287.08
717.61	286.12
717.94	285.16
718.28	284.10
718.61	283.21
718.94	282.30
719.27	281.45
719.61	280.62
719.94	279.76
720.27	278.77
720.60	277.87
720.94	277.08
721.27	276.33
721.60	275.63
721.93	274.90
722.27	274.26
722.60	273.58
722.93	272.86
723.26	272.22
723.59	271.50
723.93	270.89
724.26	270.26
724.59	269.57
724.92	268.96
725.25	268.45
725.59	267.87
725.92	267.30
726.25	266.74
726.58	266.11
726.91	265.49
727.24	264.93
727.57	264.36
727.91	263.72
728.24	263.16
728.57	262.56
728.90	262.00
729.23	261.38
729.56	260.92
729.89	260.38
730.22	259.77
730.55	259.19
730.89	258.62
731.22	258.06
731.55	257.53
731.88	257.02
732.21	256.42
732.54	255.82
732.87	255.30
733.20	254.81
733.53	254.33
733.86	253.89
734.19	253.40
734.52	252.98
734.85	252.69
735.18	252.17
735.51	251.72
735.84	251.30
736.17	250.89
736.50	250.32
736.83	250.13
737.16	249.75
737.49	249.40
737.82	249.01
738.15	248.62
738.48	248.25
738.81	247.85
739.14	247.41
739.47	247.06
739.80	246.70
740.13	246.32
740.46	245.92
740.79	245.47
741.12	245.12
741.45	244.78
741.78	244.33
742.11	244.08
742.44	243.74
742.77	243.43
743.10	243.06
743.43	242.71
743.75	242.16
744.08	242.11
744.41	241.73
744.74	241.36
745.07	240.99
745.40	240.69
745.73	240.42
746.06	240.13
746.39	239.78
746.71	239.43
747.04	239.10
747.37	238.80
747.70	238.57
748.03	238.22
748.36	237.96
748.68	237.64
749.01	237.27
749.34	237.00
749.67	236.69
750.00	236.46
750.33	236.36
750.65	236.09
750.98	235.56
751.31	235.32
751.64	235.11
751.97	234.98
752.29	234.71
752.62	234.35
752.95	234.08
753.28	233.84
753.60	233.58
753.93	233.39
754.26	233.18
754.59	232.87
754.91	232.61
755.24	232.33
755.57	232.11
755.90	231.86
756.22	231.59
756.55	231.34
756.88	231.04
757.20	230.67
757.53	230.41
757.86	230.21
758.19	230.01
758.51	229.79
758.84	229.49
759.17	229.29
759.49	229.13
759.82	229.05
760.15	228.88
760.47	228.70
760.80	228.41
761.13	228.25
761.45	228.05
761.78	227.89
762.11	227.71
762.43	227.54
762.76	227.42
763.08	227.30
763.41	227.14
763.74	226.97
764.06	226.79
764.39	226.64
764.71	226.45
765.04	226.30
765.37	226.14
765.69	225.98
766.02	225.82
766.34	225.66
766.67	225.43
767.00	225.32
767.32	225.32
767.65	225.36
767.97	225.21
768.30	225.15
768.62	225.05
768.95	224.90
769.27	224.77
769.60	224.68
769.92	224.48
770.25	224.34
770.57	224.22
770.90	224.13
771.22	224.00
771.55	223.87
771.87	223.76
772.20	223.62
772.52	223.71
772.85	223.87
773.17	223.77
773.50	223.62
773.82	223.48
774.15	223.24
774.47	223.00
774.80	222.86
775.12	222.72
775.45	222.61
775.77	222.54
776.09	222.45
776.42	222.35
776.74	222.33
777.07	222.23
777.39	222.11
777.72	222.03
778.04	221.99
778.36	221.90
778.69	221.82
779.01	221.73
779.33	221.43
779.66	221.07
779.98	220.97
780.31	220.93
780.63	220.92
780.95	220.90
781.28	220.82
781.60	220.76
781.92	220.68
782.25	220.60
782.57	220.52
782.89	220.44
783.22	220.36
783.54	220.25
783.86	220.24
784.19	220.19
784.51	220.16
784.83	220.04
785.16	219.97
785.48	219.88
785.80	219.84
786.12	219.81
