SpectraSuite Data File
++++++++++++++++++++++++++++++++++++
Date: Tue Jan 29 16:24:47 EST 2013
User: group
Dark Spectrum Present: No
Reference Spectrum Present: No
Number of Sampled Component Spectra: 1
Spectrometers: USB2E7196
Integration Time (usec): 65000 (USB2E7196)
Spectra Averaged: 100 (USB2E7196)
Boxcar Smoothing: 10 (USB2E7196)
Correct for Electrical Dark: No (USB2E7196)
Strobe/Lamp Enabled: No (USB2E7196)
Correct for Detector Non-linearity: No (USB2E7196)
Correct for Stray Light: No (USB2E7196)
Number of Pixels in Processed Spectrum: 2048
>>>>>Begin Processed Spectral Data<<<<<
339.09	0.00
339.48	202.90
339.86	204.26
340.24	205.26
340.63	206.79
341.01	211.61
341.39	209.50
341.78	211.07
342.16	211.91
342.54	212.70
342.93	201.70
343.31	211.89
343.69	212.41
344.07	212.88
344.46	213.34
344.84	213.73
345.22	213.88
345.60	214.14
345.99	214.33
346.37	214.48
346.75	214.60
347.13	214.68
347.52	214.75
347.90	214.84
348.28	214.87
348.66	214.97
349.05	214.94
349.43	214.99
349.81	215.04
350.19	215.11
350.57	215.15
350.96	215.24
351.34	215.33
351.72	215.42
352.10	215.49
352.48	215.55
352.87	215.57
353.25	215.63
353.63	215.68
354.01	215.72
354.39	215.78
354.77	215.84
355.15	215.98
355.54	216.01
355.92	216.03
356.30	216.11
356.68	216.30
357.06	216.40
357.44	216.45
357.82	216.49
358.20	216.56
358.58	216.63
358.97	216.69
359.35	216.82
359.73	216.93
360.11	216.97
360.49	217.02
360.87	217.08
361.25	217.16
361.63	217.29
362.01	217.35
362.39	217.39
362.77	217.42
363.15	217.43
363.53	217.46
363.91	217.49
364.29	217.49
364.67	217.33
365.05	217.32
365.43	217.38
365.81	217.45
366.19	217.54
366.57	217.64
366.95	217.62
367.33	217.52
367.71	217.54
368.09	217.58
368.47	217.58
368.85	217.58
369.23	217.64
369.61	217.55
369.99	217.61
370.37	217.65
370.75	217.76
371.13	217.68
371.51	217.62
371.89	217.64
372.27	217.64
372.65	217.61
373.03	217.60
373.41	217.52
373.78	217.46
374.16	217.33
374.54	217.24
374.92	217.20
375.30	217.20
375.68	217.09
376.06	217.05
376.44	217.00
376.82	216.97
377.19	216.91
377.57	216.84
377.95	216.71
378.33	216.65
378.71	216.45
379.09	216.43
379.47	216.46
379.84	216.36
380.22	216.33
380.60	216.27
380.98	216.18
381.36	216.16
381.73	216.10
382.11	216.08
382.49	216.03
382.87	215.99
383.25	215.95
383.62	216.19
384.00	216.08
384.38	216.05
384.76	216.11
385.13	216.10
385.51	216.10
385.89	216.05
386.27	216.02
386.64	216.06
387.02	216.02
387.40	215.96
387.78	215.96
388.15	215.94
388.53	215.89
388.91	215.92
389.29	215.91
389.66	215.95
390.04	215.91
390.42	215.97
390.79	215.98
391.17	215.98
391.55	215.72
391.92	215.76
392.30	215.75
392.68	215.66
393.05	215.66
393.43	215.69
393.81	215.72
394.18	215.67
394.56	215.66
394.94	215.73
395.31	215.76
395.69	215.81
396.06	215.83
396.44	215.88
396.82	215.87
397.19	215.99
397.57	215.96
397.95	216.02
398.32	215.95
398.70	215.97
399.07	216.04
399.45	216.06
399.82	216.10
400.20	216.18
400.58	216.25
400.95	216.17
401.33	216.27
401.70	216.47
402.08	216.58
402.45	216.68
402.83	216.76
403.20	216.87
403.58	216.97
403.95	217.13
404.33	217.32
404.71	217.45
405.08	217.67
405.46	217.84
405.83	218.05
406.21	218.24
406.58	218.50
406.96	218.70
407.33	218.95
407.70	219.26
408.08	219.69
408.45	220.08
408.83	220.51
409.20	220.82
409.58	221.07
409.95	221.55
410.33	222.04
410.70	222.48
411.08	223.04
411.45	223.60
411.82	224.16
412.20	224.83
412.57	225.71
412.95	226.31
413.32	227.16
413.69	227.99
414.07	228.93
414.44	229.91
414.82	230.93
415.19	232.14
415.56	233.34
415.94	234.50
416.31	235.88
416.68	237.27
417.06	238.87
417.43	240.44
417.81	242.16
418.18	243.94
418.55	245.86
418.93	247.87
419.30	249.95
419.67	252.15
420.04	254.36
420.42	256.68
420.79	259.47
421.16	262.21
421.54	265.09
421.91	268.06
422.28	271.16
422.66	274.46
423.03	277.70
423.40	281.01
423.77	284.61
424.15	288.26
424.52	292.10
424.89	296.24
425.26	300.29
425.64	304.16
426.01	308.39
426.38	312.81
426.75	317.33
427.13	321.98
427.50	326.99
427.87	332.24
428.24	337.39
428.61	342.42
428.99	347.95
429.36	353.91
429.73	359.80
430.10	365.65
430.47	371.66
430.85	377.88
431.22	384.53
431.59	391.58
431.96	398.37
432.33	405.83
432.70	413.04
433.08	421.57
433.45	429.57
433.82	437.54
434.19	446.41
434.56	455.03
434.93	463.40
435.30	471.63
435.68	480.64
436.05	489.60
436.42	498.34
436.79	506.47
437.16	515.12
437.53	524.35
437.90	533.42
438.27	542.33
438.64	551.46
439.01	560.04
439.38	567.55
439.75	574.79
440.13	583.18
440.50	591.09
440.87	597.41
441.24	604.02
441.61	611.30
441.98	616.67
442.35	622.98
442.72	629.30
443.09	635.27
443.46	638.95
443.83	641.43
444.20	643.64
444.57	646.73
444.94	648.24
445.31	649.65
445.68	651.05
446.05	651.64
446.42	650.92
446.79	649.88
447.16	648.89
447.53	648.14
447.90	644.81
448.27	641.49
448.64	636.86
449.01	633.53
449.37	627.61
449.74	621.96
450.11	615.10
450.48	607.67
450.85	600.28
451.22	593.89
451.59	587.75
451.96	581.97
452.33	574.09
452.70	566.98
453.07	558.48
453.43	549.93
453.80	541.71
454.17	533.76
454.54	526.21
454.91	518.04
455.28	510.09
455.65	502.69
456.02	495.22
456.38	488.96
456.75	481.18
457.12	474.74
457.49	468.21
457.86	462.05
458.23	456.71
458.59	450.79
458.96	444.86
459.33	439.63
459.70	434.30
460.07	430.10
460.43	425.27
460.80	420.77
461.17	416.76
461.54	412.56
461.91	408.57
462.27	404.49
462.64	401.07
463.01	397.30
463.38	393.65
463.74	390.00
464.11	386.76
464.48	383.92
464.85	380.81
465.21	378.43
465.58	375.80
465.95	372.71
466.32	370.16
466.68	367.56
467.05	365.01
467.42	362.48
467.78	359.86
468.15	357.31
468.52	355.37
468.88	352.91
469.25	350.69
469.62	348.91
469.98	346.99
470.35	345.17
470.72	343.50
471.08	341.69
471.45	340.19
471.82	338.69
472.18	337.04
472.55	335.84
472.92	334.45
473.28	333.28
473.65	332.12
474.02	331.00
474.38	330.08
474.75	329.29
475.11	328.46
475.48	327.87
475.85	327.42
476.21	326.95
476.58	326.61
476.94	326.40
477.31	326.11
477.67	325.93
478.04	325.80
478.41	325.77
478.77	325.97
479.14	325.95
479.50	326.04
479.87	326.35
480.23	326.71
480.60	326.95
480.96	327.19
481.33	327.82
481.69	328.35
482.06	328.89
482.42	329.40
482.79	330.03
483.15	330.81
483.52	331.72
483.88	332.64
484.25	333.60
484.61	334.62
484.98	335.62
485.34	336.89
485.71	338.25
486.07	339.68
486.44	340.98
486.80	342.61
487.17	344.31
487.53	346.13
487.90	347.98
488.26	350.04
488.62	352.26
488.99	354.26
489.35	356.46
489.72	358.87
490.08	361.41
490.44	363.97
490.81	366.66
491.17	369.38
491.54	372.40
491.90	375.45
492.26	378.72
492.63	382.19
492.99	385.72
493.36	389.42
493.72	393.33
494.08	397.39
494.45	401.58
494.81	405.96
495.17	410.46
495.54	415.20
495.90	420.04
496.26	424.92
496.63	430.18
496.99	435.60
497.35	441.21
497.72	447.07
498.08	453.02
498.44	459.16
498.80	465.65
499.17	472.16
499.53	478.92
499.89	485.84
500.26	492.91
500.62	500.00
500.98	507.40
501.34	514.91
501.71	522.68
502.07	530.56
502.43	538.63
502.79	546.81
503.16	555.23
503.52	563.88
503.88	572.68
504.24	581.73
504.60	590.79
504.97	600.08
505.33	609.36
505.69	619.29
506.05	629.26
506.41	639.15
506.78	649.23
507.14	659.50
507.50	670.00
507.86	680.80
508.22	691.67
508.59	702.41
508.95	713.54
509.31	724.88
509.67	736.52
510.03	748.02
510.39	759.85
510.75	771.78
511.12	783.79
511.48	796.01
511.84	808.27
512.20	820.72
512.56	833.46
512.92	846.49
513.28	859.29
513.64	872.16
514.00	885.17
514.37	898.36
514.73	911.64
515.09	924.76
515.45	937.72
515.81	950.87
516.17	964.47
516.53	977.90
516.89	991.18
517.25	1004.41
517.61	1018.06
517.97	1031.62
518.33	1044.88
518.69	1058.63
519.05	1072.51
519.41	1086.40
519.77	1100.44
520.13	1113.84
520.49	1127.04
520.85	1140.50
521.21	1153.92
521.57	1167.67
521.93	1180.79
522.29	1194.75
522.65	1208.44
523.01	1222.20
523.37	1235.52
523.73	1248.89
524.09	1262.15
524.45	1275.70
524.81	1289.31
525.17	1302.70
525.53	1315.94
525.89	1329.33
526.25	1342.41
526.61	1355.36
526.97	1368.59
527.33	1381.77
527.68	1395.35
528.04	1408.95
528.40	1422.24
528.76	1435.75
529.12	1448.76
529.48	1462.21
529.84	1474.45
530.20	1487.40
530.56	1500.03
530.91	1513.49
531.27	1526.49
531.63	1539.26
531.99	1552.10
532.35	1564.40
532.71	1577.05
533.07	1590.05
533.42	1602.47
533.78	1614.74
534.14	1626.90
534.50	1638.18
534.86	1649.72
535.21	1660.69
535.57	1672.24
535.93	1683.60
536.29	1694.73
536.65	1706.34
537.00	1717.35
537.36	1728.96
537.72	1739.96
538.08	1751.53
538.44	1762.55
538.79	1773.71
539.15	1784.79
539.51	1795.68
539.87	1807.12
540.22	1818.00
540.58	1829.15
540.94	1840.09
541.29	1850.48
541.65	1860.25
542.01	1870.87
542.37	1881.12
542.72	1891.31
543.08	1901.30
543.44	1911.74
543.79	1921.15
544.15	1930.57
544.51	1940.66
544.87	1950.36
545.22	1959.84
545.58	1968.80
545.94	1977.66
546.29	1986.20
546.65	1994.63
547.01	2002.90
547.36	2010.64
547.72	2018.34
548.07	2025.95
548.43	2033.74
548.79	2041.68
549.14	2049.89
549.50	2058.35
549.86	2066.31
550.21	2073.88
550.57	2081.67
550.92	2088.54
551.28	2096.12
551.64	2103.49
551.99	2111.00
552.35	2118.17
552.70	2124.96
553.06	2131.63
553.41	2137.97
553.77	2144.67
554.13	2151.11
554.48	2158.22
554.84	2165.37
555.19	2172.07
555.55	2178.44
555.90	2184.85
556.26	2191.59
556.61	2197.79
556.97	2202.69
557.32	2208.45
557.68	2214.92
558.03	2220.67
558.39	2226.08
558.74	2232.08
559.10	2237.72
559.45	2243.34
559.81	2249.14
560.16	2254.72
560.52	2260.59
560.87	2266.98
561.23	2272.76
561.58	2279.51
561.94	2284.74
562.29	2289.51
562.64	2295.63
563.00	2301.30
563.35	2306.84
563.71	2312.74
564.06	2318.46
564.42	2324.36
564.77	2329.53
565.12	2334.93
565.48	2340.05
565.83	2345.73
566.19	2351.10
566.54	2356.46
566.89	2361.11
567.25	2365.85
567.60	2371.71
567.96	2377.02
568.31	2381.74
568.66	2386.22
569.02	2390.16
569.37	2393.92
569.72	2398.49
570.08	2401.93
570.43	2405.29
570.78	2408.60
571.14	2411.11
571.49	2414.40
571.84	2418.27
572.20	2421.26
572.55	2424.30
572.90	2426.68
573.26	2429.49
573.61	2432.10
573.96	2434.42
574.31	2436.57
574.67	2438.40
575.02	2439.29
575.37	2440.83
575.72	2441.60
576.08	2442.95
576.43	2443.05
576.78	2443.52
577.13	2444.99
577.49	2446.31
577.84	2447.33
578.19	2448.60
578.54	2449.34
578.90	2449.88
579.25	2449.58
579.60	2449.51
579.95	2448.72
580.30	2448.94
580.66	2448.30
581.01	2446.79
581.36	2444.30
581.71	2442.93
582.06	2441.90
582.42	2441.00
582.77	2438.80
583.12	2437.27
583.47	2435.95
583.82	2435.46
584.17	2434.37
584.53	2432.32
584.88	2430.35
585.23	2428.49
585.58	2426.21
585.93	2424.18
586.28	2422.15
586.63	2419.80
586.98	2417.65
587.34	2415.63
587.69	2413.08
588.04	2411.18
588.39	2409.82
588.74	2407.49
589.09	2404.73
589.44	2401.42
589.79	2398.88
590.14	2396.87
590.49	2394.03
590.84	2390.35
591.19	2387.28
591.54	2384.11
591.89	2380.11
592.25	2376.79
592.60	2372.58
592.95	2368.53
593.30	2364.44
593.65	2359.97
594.00	2355.49
594.35	2352.43
594.70	2347.97
595.05	2343.42
595.40	2337.70
595.75	2331.93
596.10	2328.32
596.45	2323.58
596.80	2319.07
597.15	2313.93
597.50	2308.03
597.85	2303.10
598.19	2297.93
598.54	2292.00
598.89	2286.66
599.24	2282.21
599.59	2275.98
599.94	2270.07
600.29	2264.14
600.64	2258.22
600.99	2251.43
601.34	2245.86
601.69	2238.82
602.04	2232.40
602.39	2225.72
602.74	2219.68
603.08	2214.06
603.43	2207.38
603.78	2200.48
604.13	2193.43
604.48	2186.12
604.83	2179.95
605.18	2173.56
605.53	2166.55
605.87	2159.48
606.22	2152.64
606.57	2144.52
606.92	2136.52
607.27	2129.60
607.62	2122.84
607.96	2115.75
608.31	2109.36
608.66	2101.58
609.01	2093.94
609.36	2086.62
609.70	2078.87
610.05	2071.05
610.40	2062.55
610.75	2054.21
611.10	2046.38
611.44	2037.29
611.79	2028.51
612.14	2018.41
612.49	2007.58
612.83	1998.09
613.18	1988.90
613.53	1979.56
613.88	1969.86
614.22	1961.19
614.57	1951.15
614.92	1940.42
615.27	1930.10
615.61	1919.76
615.96	1910.13
616.31	1900.45
616.65	1890.84
617.00	1881.18
617.35	1871.38
617.70	1861.64
618.04	1851.61
618.39	1841.30
618.74	1831.54
619.08	1821.75
619.43	1813.01
619.78	1804.82
620.12	1796.08
620.47	1786.37
620.82	1775.95
621.16	1766.14
621.51	1756.05
621.85	1746.20
622.20	1735.76
622.55	1725.02
622.89	1715.00
623.24	1705.11
623.59	1695.19
623.93	1684.97
624.28	1675.10
624.62	1664.87
624.97	1654.54
625.32	1644.51
625.66	1635.55
626.01	1626.77
626.35	1617.30
626.70	1607.10
627.04	1596.84
627.39	1586.63
627.73	1577.32
628.08	1568.30
628.43	1558.66
628.77	1549.47
629.12	1540.53
629.46	1532.62
629.81	1524.27
630.15	1514.79
630.50	1504.84
630.84	1494.17
631.19	1484.28
631.53	1474.70
631.88	1464.45
632.22	1454.25
632.57	1444.80
632.91	1434.60
633.26	1424.63
633.60	1415.02
633.95	1405.60
634.29	1396.06
634.64	1386.65
634.98	1376.51
635.32	1367.08
635.67	1358.43
636.01	1349.03
636.36	1339.12
636.70	1329.51
637.05	1320.00
637.39	1310.89
637.73	1302.22
638.08	1294.69
638.42	1286.38
638.77	1277.51
639.11	1269.25
639.45	1261.44
639.80	1252.87
640.14	1244.04
640.49	1235.03
640.83	1226.08
641.17	1217.79
641.52	1209.57
641.86	1200.91
642.20	1192.86
642.55	1184.07
642.89	1175.11
643.23	1166.26
643.58	1158.09
643.92	1148.90
644.26	1140.09
644.61	1131.58
644.95	1122.61
645.29	1113.26
645.64	1104.06
645.98	1095.53
646.32	1087.44
646.66	1078.74
647.01	1070.26
647.35	1061.95
647.69	1053.56
648.04	1045.23
648.38	1036.22
648.72	1027.38
649.06	1018.83
649.41	1010.53
649.75	1002.45
650.09	994.52
650.43	986.43
650.78	977.95
651.12	970.16
651.46	962.61
651.80	955.20
652.14	947.84
652.49	940.23
652.83	932.68
653.17	924.79
653.51	917.05
653.85	909.84
654.20	902.53
654.54	895.05
654.88	887.77
655.22	880.45
655.56	873.46
655.90	866.53
656.25	859.79
656.59	852.90
656.93	845.82
657.27	838.52
657.61	831.41
657.95	825.26
658.29	819.23
658.64	813.09
658.98	806.56
659.32	799.90
659.66	793.52
660.00	787.18
660.34	781.13
660.68	774.96
661.02	768.46
661.36	762.40
661.70	756.52
662.05	750.74
662.39	745.15
662.73	739.68
663.07	734.19
663.41	728.48
663.75	722.66
664.09	716.93
664.43	711.46
664.77	706.07
665.11	700.21
665.45	694.30
665.79	688.43
666.13	682.67
666.47	677.16
666.81	671.67
667.15	666.13
667.49	660.77
667.83	655.51
668.17	650.25
668.51	645.02
668.85	639.97
669.19	634.97
669.53	629.87
669.87	624.66
670.21	619.83
670.55	615.07
670.89	610.48
671.23	606.09
671.57	601.58
671.91	597.18
672.25	592.91
672.58	588.68
672.92	584.55
673.26	580.58
673.60	576.68
673.94	572.78
674.28	569.23
674.62	565.47
674.96	561.56
675.30	557.98
675.64	554.26
675.97	550.67
676.31	546.98
676.65	543.32
676.99	539.88
677.33	535.96
677.67	532.25
678.01	528.34
678.34	524.64
678.68	521.13
679.02	517.50
679.36	513.76
679.70	510.08
680.04	506.43
680.37	502.99
680.71	499.60
681.05	496.40
681.39	493.04
681.73	489.80
682.06	486.74
682.40	483.59
682.74	480.38
683.08	477.12
683.42	473.95
683.75	470.90
684.09	467.84
684.43	465.02
684.77	462.06
685.10	459.21
685.44	456.24
685.78	453.32
686.12	450.52
686.45	447.75
686.79	445.08
687.13	442.52
687.46	439.84
687.80	437.10
688.14	434.20
688.48	431.49
688.81	428.79
689.15	426.19
689.49	423.54
689.82	420.99
690.16	418.36
690.50	415.87
690.83	413.37
691.17	410.77
691.51	408.29
691.84	405.95
692.18	403.70
692.52	401.52
692.85	399.35
693.19	397.17
693.52	395.01
693.86	392.77
694.20	390.55
694.53	388.31
694.87	386.12
695.21	383.99
695.54	381.85
695.88	379.65
696.21	377.42
696.55	375.23
696.88	373.14
697.22	371.15
697.56	369.23
697.89	367.29
698.23	365.51
698.56	363.68
698.90	361.91
699.23	360.02
699.57	358.15
699.90	356.22
700.24	354.41
700.58	352.62
700.91	350.86
701.25	349.28
701.58	347.68
701.92	346.09
702.25	344.43
702.59	342.78
702.92	341.25
703.26	339.68
703.59	338.24
703.93	336.98
704.26	335.48
704.60	333.92
704.93	332.38
705.26	330.84
705.60	329.34
705.93	327.81
706.27	326.43
706.60	325.09
706.94	323.81
707.27	322.43
707.61	321.07
707.94	319.77
708.27	318.21
708.61	316.75
708.94	315.36
709.28	314.07
709.61	312.80
709.94	311.55
710.28	310.33
710.61	309.13
710.95	307.67
711.28	306.65
711.61	305.47
711.95	304.37
712.28	303.17
712.61	301.99
712.95	300.91
713.28	299.88
713.61	298.75
713.95	297.64
714.28	296.60
714.61	295.52
714.95	294.43
715.28	293.43
715.61	292.41
715.95	291.44
716.28	290.46
716.61	289.50
716.95	288.50
717.28	287.54
717.61	286.54
717.94	285.65
718.28	284.59
718.61	283.73
718.94	282.82
719.27	281.99
719.61	281.17
719.94	280.31
720.27	279.33
720.60	278.43
720.94	277.57
721.27	276.81
721.60	276.10
721.93	275.40
722.27	274.77
722.60	274.12
722.93	273.39
723.26	272.73
723.59	272.00
723.93	271.33
724.26	270.68
724.59	270.02
724.92	269.39
725.25	268.85
725.59	268.24
725.92	267.67
726.25	267.07
726.58	266.46
726.91	265.85
727.24	265.30
727.57	264.72
727.91	264.12
728.24	263.56
728.57	262.95
728.90	262.42
729.23	261.74
729.56	261.29
729.89	260.75
730.22	260.16
730.55	259.64
730.89	259.09
731.22	258.56
731.55	258.04
731.88	257.54
732.21	256.99
732.54	256.46
732.87	255.95
733.20	255.48
733.53	255.01
733.86	254.54
734.19	254.03
734.52	253.63
734.85	253.33
735.18	252.86
735.51	252.49
735.84	252.05
736.17	251.65
736.50	251.09
736.83	250.92
737.16	250.50
737.49	250.12
737.82	249.70
738.15	249.34
738.48	248.95
738.81	248.53
739.14	248.10
739.47	247.68
739.80	247.27
740.13	246.91
740.46	246.48
740.79	246.09
741.12	245.76
741.45	245.38
741.78	244.89
742.11	244.63
742.44	244.23
742.77	243.89
743.10	243.56
743.43	243.23
743.75	242.61
744.08	242.56
744.41	242.18
744.74	241.86
745.07	241.46
745.40	241.18
745.73	240.93
746.06	240.60
746.39	240.32
746.71	239.98
747.04	239.63
747.37	239.32
747.70	239.01
748.03	238.70
748.36	238.41
748.68	238.12
749.01	237.74
749.34	237.46
749.67	237.20
750.00	236.92
750.33	236.80
750.65	236.56
750.98	236.04
751.31	235.80
751.64	235.58
751.97	235.48
752.29	235.22
752.62	234.86
752.95	234.61
753.28	234.34
753.60	234.12
753.93	233.92
754.26	233.71
754.59	233.45
754.91	233.22
755.24	233.01
755.57	232.77
755.90	232.54
756.22	232.30
756.55	232.03
756.88	231.79
757.20	231.43
757.53	231.19
757.86	230.99
758.19	230.80
758.51	230.60
758.84	230.29
759.17	230.07
759.49	229.91
759.82	229.84
760.15	229.69
760.47	229.50
760.80	229.26
761.13	229.11
761.45	228.89
761.78	228.70
762.11	228.50
762.43	228.33
762.76	228.15
763.08	227.98
763.41	227.84
763.74	227.72
764.06	227.57
764.39	227.42
764.71	227.22
765.04	227.04
765.37	226.86
765.69	226.71
766.02	226.59
766.34	226.40
766.67	226.15
767.00	226.02
767.32	226.04
767.65	226.02
767.97	225.88
768.30	225.79
768.62	225.66
768.95	225.51
769.27	225.37
769.60	225.28
769.92	225.11
770.25	224.94
770.57	224.78
770.90	224.61
771.22	224.48
771.55	224.37
771.87	224.30
772.20	224.17
772.52	224.19
772.85	224.31
773.17	224.23
773.50	224.12
773.82	224.00
774.15	223.75
774.47	223.56
774.80	223.43
775.12	223.33
775.45	223.25
775.77	223.16
776.09	223.10
776.42	223.02
776.74	223.04
777.07	222.95
777.39	222.86
777.72	222.76
778.04	222.69
778.36	222.59
778.69	222.50
779.01	222.43
779.33	222.23
779.66	221.92
779.98	221.83
780.31	221.74
780.63	221.75
780.95	221.72
781.28	221.64
781.60	221.58
781.92	221.52
782.25	221.43
782.57	221.35
782.89	221.25
783.22	221.17
783.54	221.02
783.86	220.95
784.19	220.88
784.51	220.89
784.83	220.81
785.16	220.77
785.48	220.71
785.80	220.66
786.12	220.58
