SpectraSuite Data File
++++++++++++++++++++++++++++++++++++
Date: Tue Jan 29 16:29:34 EST 2013
User: group
Dark Spectrum Present: No
Reference Spectrum Present: No
Number of Sampled Component Spectra: 1
Spectrometers: USB2E7196
Integration Time (usec): 65000 (USB2E7196)
Spectra Averaged: 100 (USB2E7196)
Boxcar Smoothing: 10 (USB2E7196)
Correct for Electrical Dark: No (USB2E7196)
Strobe/Lamp Enabled: No (USB2E7196)
Correct for Detector Non-linearity: No (USB2E7196)
Correct for Stray Light: No (USB2E7196)
Number of Pixels in Processed Spectrum: 2048
>>>>>Begin Processed Spectral Data<<<<<
339.09	0.00
339.48	201.90
339.86	203.04
340.24	204.30
340.63	206.45
341.01	210.04
341.39	208.68
341.78	210.97
342.16	211.75
342.54	212.13
342.93	201.22
343.31	211.37
343.69	211.92
344.07	212.40
344.46	212.88
344.84	213.29
345.22	213.50
345.60	213.79
345.99	213.97
346.37	214.12
346.75	214.26
347.13	214.35
347.52	214.44
347.90	214.63
348.28	214.68
348.66	214.75
349.05	214.74
349.43	214.79
349.81	214.84
350.19	214.88
350.57	214.92
350.96	215.00
351.34	215.14
351.72	215.27
352.10	215.40
352.48	215.48
352.87	215.54
353.25	215.62
353.63	215.68
354.01	215.75
354.39	215.80
354.77	215.88
355.15	216.00
355.54	216.06
355.92	216.03
356.30	216.11
356.68	216.32
357.06	216.41
357.44	216.44
357.82	216.53
358.20	216.64
358.58	216.70
358.97	216.76
359.35	216.84
359.73	216.94
360.11	216.99
360.49	217.03
360.87	217.08
361.25	217.17
361.63	217.27
362.01	217.33
362.39	217.39
362.77	217.43
363.15	217.48
363.53	217.51
363.91	217.58
364.29	217.61
364.67	217.44
365.05	217.44
365.43	217.50
365.81	217.51
366.19	217.59
366.57	217.72
366.95	217.74
367.33	217.68
367.71	217.68
368.09	217.73
368.47	217.74
368.85	217.71
369.23	217.72
369.61	217.65
369.99	217.66
370.37	217.65
370.75	217.72
371.13	217.64
371.51	217.62
371.89	217.56
372.27	217.54
372.65	217.52
373.03	217.49
373.41	217.44
373.78	217.40
374.16	217.23
374.54	217.10
374.92	217.02
375.30	216.98
375.68	216.89
376.06	216.82
376.44	216.75
376.82	216.70
377.19	216.62
377.57	216.59
377.95	216.50
378.33	216.46
378.71	216.30
379.09	216.25
379.47	216.20
379.84	216.14
380.22	216.06
380.60	215.98
380.98	215.95
381.36	215.89
381.73	215.86
382.11	215.88
382.49	215.82
382.87	215.76
383.25	215.75
383.62	215.93
384.00	215.87
384.38	215.83
384.76	215.84
385.13	215.88
385.51	215.83
385.89	215.79
386.27	215.76
386.64	215.74
387.02	215.70
387.40	215.65
387.78	215.67
388.15	215.67
388.53	215.66
388.91	215.62
389.29	215.58
389.66	215.55
390.04	215.52
390.42	215.57
390.79	215.60
391.17	215.58
391.55	215.35
391.92	215.33
392.30	215.38
392.68	215.35
393.05	215.31
393.43	215.29
393.81	215.29
394.18	215.27
394.56	215.28
394.94	215.33
395.31	215.34
395.69	215.38
396.06	215.39
396.44	215.42
396.82	215.42
397.19	215.55
397.57	215.55
397.95	215.61
398.32	215.58
398.70	215.63
399.07	215.70
399.45	215.75
399.82	215.83
400.20	215.84
400.58	215.89
400.95	215.90
401.33	216.03
401.70	216.22
402.08	216.32
402.45	216.39
402.83	216.54
403.20	216.65
403.58	216.72
403.95	216.88
404.33	217.03
404.71	217.22
405.08	217.45
405.46	217.64
405.83	217.79
406.21	217.97
406.58	218.19
406.96	218.38
407.33	218.64
407.70	218.89
408.08	219.34
408.45	219.70
408.83	220.08
409.20	220.40
409.58	220.68
409.95	221.12
410.33	221.62
410.70	222.04
411.08	222.60
411.45	223.17
411.82	223.75
412.20	224.45
412.57	225.27
412.95	225.87
413.32	226.71
413.69	227.59
414.07	228.53
414.44	229.51
414.82	230.54
415.19	231.72
415.56	232.96
415.94	234.14
416.31	235.59
416.68	237.03
417.06	238.67
417.43	240.26
417.81	241.99
418.18	243.77
418.55	245.71
418.93	247.72
419.30	249.85
419.67	252.06
420.04	254.35
420.42	256.72
420.79	259.53
421.16	262.31
421.54	265.21
421.91	268.18
422.28	271.27
422.66	274.58
423.03	277.83
423.40	281.20
423.77	284.77
424.15	288.41
424.52	292.28
424.89	296.43
425.26	300.49
425.64	304.39
426.01	308.66
426.38	313.14
426.75	317.67
427.13	322.39
427.50	327.35
427.87	332.53
428.24	337.75
428.61	342.72
428.99	348.20
429.36	354.21
429.73	360.06
430.10	365.94
430.47	371.94
430.85	378.24
431.22	384.92
431.59	392.01
431.96	398.78
432.33	406.21
432.70	413.45
433.08	421.96
433.45	430.01
433.82	438.01
434.19	446.88
434.56	455.61
434.93	463.89
435.30	472.15
435.68	481.26
436.05	490.26
436.42	499.18
436.79	507.36
437.16	516.09
437.53	525.39
437.90	534.52
438.27	543.49
438.64	552.71
439.01	561.22
439.38	568.83
439.75	576.15
440.13	584.58
440.50	592.48
440.87	598.92
441.24	605.54
441.61	612.89
441.98	618.27
442.35	624.58
442.72	630.91
443.09	636.96
443.46	640.70
443.83	643.18
444.20	645.36
444.57	648.51
444.94	650.04
445.31	651.51
445.68	652.91
446.05	653.58
446.42	652.75
446.79	651.81
447.16	650.76
447.53	650.04
447.90	646.73
448.27	643.46
448.64	638.78
449.01	635.48
449.37	629.56
449.74	623.93
450.11	617.02
450.48	609.68
450.85	602.31
451.22	595.86
451.59	589.74
451.96	583.96
452.33	576.10
452.70	568.90
453.07	560.35
453.43	551.74
453.80	543.40
454.17	535.45
454.54	527.91
454.91	519.71
455.28	511.69
455.65	504.29
456.02	496.84
456.38	490.48
456.75	482.63
457.12	476.07
457.49	469.50
457.86	463.29
458.23	457.94
458.59	452.01
458.96	446.02
459.33	440.71
459.70	435.32
460.07	431.04
460.43	426.20
460.80	421.66
461.17	417.69
461.54	413.51
461.91	409.49
462.27	405.36
462.64	401.94
463.01	398.18
463.38	394.47
463.74	390.72
464.11	387.52
464.48	384.73
464.85	381.63
465.21	379.21
465.58	376.62
465.95	373.43
466.32	370.77
466.68	368.12
467.05	365.53
467.42	362.94
467.78	360.28
468.15	357.75
468.52	355.80
468.88	353.35
469.25	351.15
469.62	349.36
469.98	347.40
470.35	345.58
470.72	343.89
471.08	342.08
471.45	340.58
471.82	339.03
472.18	337.32
472.55	336.14
472.92	334.73
473.28	333.51
473.65	332.38
474.02	331.28
474.38	330.44
474.75	329.66
475.11	328.86
475.48	328.27
475.85	327.74
476.21	327.32
476.58	326.95
476.94	326.70
477.31	326.40
477.67	326.16
478.04	325.99
478.41	325.96
478.77	326.14
479.14	326.10
479.50	326.22
479.87	326.55
480.23	326.91
480.60	327.15
480.96	327.42
481.33	328.05
481.69	328.60
482.06	329.08
482.42	329.59
482.79	330.22
483.15	331.02
483.52	332.01
483.88	332.82
484.25	333.76
484.61	334.77
484.98	335.84
485.34	337.16
485.71	338.54
486.07	339.99
486.44	341.33
486.80	342.93
487.17	344.64
487.53	346.44
487.90	348.28
488.26	350.34
488.62	352.52
488.99	354.52
489.35	356.71
489.72	359.09
490.08	361.58
490.44	364.06
490.81	366.74
491.17	369.47
491.54	372.48
491.90	375.49
492.26	378.73
492.63	382.13
492.99	385.58
493.36	389.31
493.72	393.19
494.08	397.17
494.45	401.47
494.81	405.91
495.17	410.33
495.54	415.06
495.90	419.91
496.26	424.83
496.63	430.11
496.99	435.53
497.35	441.13
497.72	446.97
498.08	452.98
498.44	459.17
498.80	465.60
499.17	472.11
499.53	478.85
499.89	485.75
500.26	492.77
500.62	499.91
500.98	507.34
501.34	514.80
501.71	522.61
502.07	530.39
502.43	538.35
502.79	546.56
503.16	554.98
503.52	563.54
503.88	572.27
504.24	581.21
504.60	590.28
504.97	599.60
505.33	608.92
505.69	618.90
506.05	628.82
506.41	638.75
506.78	648.92
507.14	659.30
507.50	669.89
507.86	680.67
508.22	691.55
508.59	702.29
508.95	713.48
509.31	724.81
509.67	736.39
510.03	747.85
510.39	759.72
510.75	771.57
511.12	783.58
511.48	795.75
511.84	808.06
512.20	820.54
512.56	833.31
512.92	846.28
513.28	858.94
513.64	871.76
514.00	884.62
514.37	897.69
514.73	910.81
515.09	923.87
515.45	936.84
515.81	950.00
516.17	963.43
516.53	976.78
516.89	989.94
517.25	1003.22
517.61	1016.89
517.97	1030.31
518.33	1043.63
518.69	1057.33
519.05	1071.18
519.41	1084.96
519.77	1099.03
520.13	1112.30
520.49	1125.51
520.85	1139.01
521.21	1152.47
521.57	1166.36
521.93	1179.51
522.29	1193.46
522.65	1207.17
523.01	1220.97
523.37	1234.28
523.73	1247.82
524.09	1261.06
524.45	1274.65
524.81	1288.23
525.17	1301.74
525.53	1315.14
525.89	1328.58
526.25	1341.89
526.61	1354.85
526.97	1368.07
527.33	1381.08
527.68	1394.69
528.04	1408.34
528.40	1421.46
528.76	1435.02
529.12	1448.09
529.48	1461.54
529.84	1473.84
530.20	1486.67
530.56	1499.45
530.91	1512.80
531.27	1525.62
531.63	1538.66
531.99	1551.51
532.35	1563.82
532.71	1576.29
533.07	1589.21
533.42	1601.61
533.78	1613.82
534.14	1626.06
534.50	1637.52
534.86	1649.22
535.21	1660.35
535.57	1672.03
535.93	1683.58
536.29	1694.64
536.65	1706.09
537.00	1717.11
537.36	1728.59
537.72	1739.79
538.08	1751.24
538.44	1762.24
538.79	1773.45
539.15	1784.32
539.51	1795.16
539.87	1806.59
540.22	1817.54
540.58	1828.64
540.94	1839.70
541.29	1849.98
541.65	1859.90
542.01	1870.42
542.37	1880.59
542.72	1890.69
543.08	1900.43
543.44	1911.01
543.79	1920.41
544.15	1929.99
544.51	1940.15
544.87	1950.23
545.22	1959.49
545.58	1968.37
545.94	1977.43
546.29	1986.10
546.65	1994.54
547.01	2003.05
547.36	2010.78
547.72	2018.68
548.07	2026.45
548.43	2034.12
548.79	2042.12
549.14	2050.26
549.50	2058.76
549.86	2066.66
550.21	2074.26
550.57	2081.88
550.92	2088.62
551.28	2096.24
551.64	2103.60
551.99	2111.11
552.35	2118.41
552.70	2125.43
553.06	2132.18
553.41	2138.53
553.77	2145.05
554.13	2151.53
554.48	2158.47
554.84	2165.80
555.19	2172.29
555.55	2178.61
555.90	2185.10
556.26	2191.95
556.61	2198.16
556.97	2203.03
557.32	2208.88
557.68	2215.27
558.03	2221.24
558.39	2226.72
558.74	2232.64
559.10	2238.11
559.45	2243.74
559.81	2249.16
560.16	2254.68
560.52	2260.58
560.87	2266.94
561.23	2272.94
561.58	2279.65
561.94	2284.97
562.29	2289.61
562.64	2295.83
563.00	2301.53
563.35	2307.05
563.71	2312.99
564.06	2318.62
564.42	2324.59
564.77	2329.67
565.12	2335.12
565.48	2340.57
565.83	2346.16
566.19	2351.61
566.54	2357.18
566.89	2361.93
567.25	2366.60
567.60	2372.51
567.96	2377.79
568.31	2382.27
568.66	2386.66
569.02	2390.58
569.37	2394.20
569.72	2398.72
570.08	2402.24
570.43	2405.45
570.78	2408.59
571.14	2410.97
571.49	2414.15
571.84	2417.75
572.20	2420.87
572.55	2423.66
572.90	2425.79
573.26	2428.67
573.61	2431.32
573.96	2433.44
574.31	2435.27
574.67	2437.27
575.02	2437.80
575.37	2439.19
575.72	2439.99
576.08	2441.38
576.43	2441.48
576.78	2442.05
577.13	2443.49
577.49	2444.48
577.84	2445.58
578.19	2446.89
578.54	2447.58
578.90	2448.34
579.25	2448.22
579.60	2448.03
579.95	2447.35
580.30	2447.50
580.66	2446.64
581.01	2444.94
581.36	2442.45
581.71	2441.14
582.06	2439.83
582.42	2438.98
582.77	2436.64
583.12	2435.03
583.47	2433.53
583.82	2432.95
584.17	2431.67
584.53	2429.62
584.88	2427.66
585.23	2425.57
585.58	2423.22
585.93	2421.07
586.28	2418.91
586.63	2416.43
586.98	2414.21
587.34	2412.22
587.69	2409.47
588.04	2407.38
588.39	2405.80
588.74	2403.40
589.09	2400.61
589.44	2397.42
589.79	2394.97
590.14	2393.12
590.49	2390.17
590.84	2386.39
591.19	2383.30
591.54	2379.85
591.89	2375.72
592.25	2372.31
592.60	2368.11
592.95	2363.92
593.30	2359.77
593.65	2355.19
594.00	2350.71
594.35	2347.67
594.70	2342.97
595.05	2338.57
595.40	2333.05
595.75	2327.29
596.10	2323.62
596.45	2318.75
596.80	2314.05
597.15	2308.80
597.50	2302.76
597.85	2297.79
598.19	2292.51
598.54	2286.58
598.89	2281.43
599.24	2276.84
599.59	2270.66
599.94	2264.77
600.29	2258.87
600.64	2252.83
600.99	2246.04
601.34	2240.51
601.69	2233.27
602.04	2226.88
602.39	2220.10
602.74	2214.05
603.08	2208.49
603.43	2201.81
603.78	2194.92
604.13	2187.88
604.48	2180.47
604.83	2174.32
605.18	2168.16
605.53	2161.10
605.87	2153.91
606.22	2147.13
606.57	2139.07
606.92	2131.08
607.27	2124.11
607.62	2117.28
607.96	2110.41
608.31	2103.79
608.66	2095.92
609.01	2088.41
609.36	2081.23
609.70	2073.49
610.05	2065.59
610.40	2057.23
610.75	2048.79
611.10	2040.98
611.44	2032.04
611.79	2023.31
612.14	2013.32
612.49	2002.58
612.83	1993.24
613.18	1983.94
613.53	1974.58
613.88	1965.05
614.22	1956.47
614.57	1946.54
614.92	1935.87
615.27	1925.39
615.61	1915.23
615.96	1905.48
616.31	1895.75
616.65	1886.35
617.00	1876.51
617.35	1866.82
617.70	1857.09
618.04	1847.21
618.39	1836.98
618.74	1827.25
619.08	1817.60
619.43	1808.83
619.78	1800.51
620.12	1791.84
620.47	1782.23
620.82	1771.83
621.16	1761.97
621.51	1751.93
621.85	1742.03
622.20	1731.73
622.55	1721.17
622.89	1711.26
623.24	1701.55
623.59	1691.70
623.93	1681.44
624.28	1671.74
624.62	1661.54
624.97	1651.15
625.32	1641.18
625.66	1632.27
626.01	1623.46
626.35	1614.05
626.70	1603.90
627.04	1593.71
627.39	1583.44
627.73	1574.06
628.08	1565.00
628.43	1555.33
628.77	1546.11
629.12	1537.22
629.46	1529.31
629.81	1520.93
630.15	1511.43
630.50	1501.51
630.84	1490.92
631.19	1480.92
631.53	1471.47
631.88	1461.33
632.22	1451.25
632.57	1441.84
632.91	1431.71
633.26	1421.76
633.60	1412.09
633.95	1402.70
634.29	1393.18
634.64	1383.84
634.98	1373.89
635.32	1364.62
635.67	1356.20
636.01	1346.80
636.36	1336.95
636.70	1327.28
637.05	1317.86
637.39	1308.78
637.73	1300.09
638.08	1292.56
638.42	1284.31
638.77	1275.40
639.11	1267.01
639.45	1259.22
639.80	1250.59
640.14	1241.76
640.49	1232.89
640.83	1224.02
641.17	1215.77
641.52	1207.62
641.86	1198.97
642.20	1191.01
642.55	1182.29
642.89	1173.27
643.23	1164.52
643.58	1156.39
643.92	1147.31
644.26	1138.55
644.61	1130.12
644.95	1121.32
645.29	1111.95
645.64	1102.59
645.98	1094.06
646.32	1086.18
646.66	1077.52
647.01	1069.17
647.35	1060.99
647.69	1052.60
648.04	1044.27
648.38	1035.37
648.72	1026.43
649.06	1017.94
649.41	1009.60
649.75	1001.53
650.09	993.66
650.43	985.57
650.78	977.27
651.12	969.52
651.46	961.96
651.80	954.65
652.14	947.33
652.49	939.78
652.83	932.53
653.17	924.82
653.51	917.07
653.85	909.76
654.20	902.44
654.54	894.85
654.88	887.52
655.22	880.11
655.56	872.98
655.90	866.17
656.25	859.42
656.59	852.53
656.93	845.51
657.27	838.25
657.61	831.21
657.95	824.86
658.29	818.84
658.64	812.71
658.98	806.09
659.32	799.44
659.66	793.15
660.00	786.69
660.34	780.57
660.68	774.40
661.02	768.00
661.36	761.92
661.70	756.09
662.05	750.43
662.39	744.97
662.73	739.57
663.07	734.11
663.41	728.40
663.75	722.60
664.09	716.86
664.43	711.38
664.77	705.93
665.11	700.13
665.45	694.28
665.79	688.39
666.13	682.72
666.47	677.16
666.81	671.64
667.15	666.20
667.49	660.93
667.83	655.65
668.17	650.40
668.51	645.30
668.85	640.34
669.19	635.35
669.53	630.25
669.87	625.08
670.21	620.24
670.55	615.56
670.89	611.05
671.23	606.65
671.57	602.21
671.91	597.93
672.25	593.70
672.58	589.44
672.92	585.35
673.26	581.29
673.60	577.36
673.94	573.45
674.28	569.80
674.62	566.03
674.96	562.16
675.30	558.57
675.64	554.76
675.97	551.07
676.31	547.42
676.65	543.77
676.99	540.30
677.33	536.43
677.67	532.71
678.01	528.86
678.34	525.16
678.68	521.61
679.02	517.92
679.36	514.16
679.70	510.50
680.04	506.84
680.37	503.39
680.71	500.01
681.05	496.81
681.39	493.47
681.73	490.22
682.06	487.21
682.40	484.04
682.74	480.87
683.08	477.61
683.42	474.36
683.75	471.30
684.09	468.21
684.43	465.40
684.77	462.44
685.10	459.59
685.44	456.65
685.78	453.70
686.12	450.92
686.45	448.19
686.79	445.49
687.13	442.92
687.46	440.22
687.80	437.49
688.14	434.61
688.48	431.95
688.81	429.26
689.15	426.59
689.49	423.98
689.82	421.40
690.16	418.74
690.50	416.22
690.83	413.62
691.17	411.07
691.51	408.53
691.84	406.20
692.18	403.87
692.52	401.61
692.85	399.41
693.19	397.21
693.52	395.01
693.86	392.78
694.20	390.58
694.53	388.42
694.87	386.23
695.21	384.10
695.54	381.91
695.88	379.71
696.21	377.51
696.55	375.36
696.88	373.27
697.22	371.33
697.56	369.43
697.89	367.60
698.23	365.80
698.56	363.98
698.90	362.20
699.23	360.35
699.57	358.48
699.90	356.58
700.24	354.76
700.58	352.96
700.91	351.20
701.25	349.57
701.58	347.92
701.92	346.31
702.25	344.64
702.59	342.99
702.92	341.42
703.26	339.80
703.59	338.30
703.93	337.01
704.26	335.54
704.60	334.02
704.93	332.45
705.26	330.91
705.60	329.45
705.93	327.89
706.27	326.54
706.60	325.22
706.94	323.96
707.27	322.52
707.61	321.14
707.94	319.80
708.27	318.28
708.61	316.85
708.94	315.44
709.28	314.16
709.61	312.93
709.94	311.74
710.28	310.53
710.61	309.34
710.95	307.90
711.28	306.79
711.61	305.59
711.95	304.48
712.28	303.27
712.61	302.05
712.95	301.01
713.28	299.97
713.61	298.82
713.95	297.69
714.28	296.66
714.61	295.65
714.95	294.62
715.28	293.60
715.61	292.58
715.95	291.63
716.28	290.64
716.61	289.63
716.95	288.56
717.28	287.59
717.61	286.55
717.94	285.66
718.28	284.60
718.61	283.70
718.94	282.76
719.27	281.88
719.61	281.05
719.94	280.15
720.27	279.15
720.60	278.28
720.94	277.43
721.27	276.68
721.60	275.95
721.93	275.20
722.27	274.55
722.60	273.86
722.93	273.11
723.26	272.44
723.59	271.73
723.93	271.12
724.26	270.53
724.59	269.87
724.92	269.27
725.25	268.72
725.59	268.12
725.92	267.59
726.25	267.03
726.58	266.46
726.91	265.87
727.24	265.33
727.57	264.77
727.91	264.20
728.24	263.62
728.57	263.05
728.90	262.51
729.23	261.90
729.56	261.41
729.89	260.86
730.22	260.25
730.55	259.74
730.89	259.20
731.22	258.60
731.55	258.12
731.88	257.56
732.21	257.00
732.54	256.48
732.87	255.93
733.20	255.42
733.53	254.93
733.86	254.46
734.19	253.96
734.52	253.57
734.85	253.22
735.18	252.71
735.51	252.30
735.84	251.85
736.17	251.47
736.50	250.97
736.83	250.80
737.16	250.44
737.49	250.04
737.82	249.60
738.15	249.25
738.48	248.83
738.81	248.45
739.14	248.06
739.47	247.65
739.80	247.30
740.13	246.98
740.46	246.59
740.79	246.20
741.12	245.83
741.45	245.40
741.78	244.95
742.11	244.71
742.44	244.31
742.77	244.01
743.10	243.65
743.43	243.31
743.75	242.74
744.08	242.65
744.41	242.26
744.74	241.93
745.07	241.57
745.40	241.28
745.73	241.01
746.06	240.70
746.39	240.43
746.71	240.10
747.04	239.76
747.37	239.40
747.70	239.15
748.03	238.83
748.36	238.59
748.68	238.29
749.01	237.93
749.34	237.66
749.67	237.35
750.00	237.06
750.33	236.90
750.65	236.67
750.98	236.15
751.31	235.90
751.64	235.67
751.97	235.48
752.29	235.20
752.62	234.85
752.95	234.56
753.28	234.26
753.60	233.99
753.93	233.81
754.26	233.62
754.59	233.31
754.91	233.09
755.24	232.83
755.57	232.60
755.90	232.35
756.22	232.09
756.55	231.85
756.88	231.57
757.20	231.22
757.53	230.95
757.86	230.74
758.19	230.55
758.51	230.34
758.84	230.03
759.17	229.82
759.49	229.69
759.82	229.62
760.15	229.48
760.47	229.30
760.80	229.02
761.13	228.86
761.45	228.66
761.78	228.52
762.11	228.31
762.43	228.14
762.76	227.96
763.08	227.81
763.41	227.66
763.74	227.53
764.06	227.36
764.39	227.22
764.71	227.04
765.04	226.92
765.37	226.75
765.69	226.63
766.02	226.50
766.34	226.31
766.67	226.07
767.00	225.94
767.32	225.90
767.65	225.91
767.97	225.72
768.30	225.60
768.62	225.43
768.95	225.28
769.27	225.13
769.60	225.04
769.92	224.87
770.25	224.68
770.57	224.53
770.90	224.46
771.22	224.27
771.55	224.19
771.87	224.07
772.20	223.96
772.52	224.02
772.85	224.11
773.17	224.04
773.50	223.92
773.82	223.81
774.15	223.61
774.47	223.39
774.80	223.29
775.12	223.19
775.45	223.09
775.77	223.00
776.09	222.93
776.42	222.84
776.74	222.84
777.07	222.79
777.39	222.69
777.72	222.55
778.04	222.51
778.36	222.39
778.69	222.31
779.01	222.21
779.33	221.95
779.66	221.70
779.98	221.57
780.31	221.53
780.63	221.53
780.95	221.47
781.28	221.39
781.60	221.31
781.92	221.25
782.25	221.20
782.57	221.15
782.89	221.06
783.22	220.96
783.54	220.82
783.86	220.76
784.19	220.68
784.51	220.66
784.83	220.59
785.16	220.52
785.48	220.44
785.80	220.40
786.12	220.37
