SpectraSuite Data File
++++++++++++++++++++++++++++++++++++
Date: Tue Jan 29 16:03:54 EST 2013
User: group
Dark Spectrum Present: No
Reference Spectrum Present: No
Number of Sampled Component Spectra: 1
Spectrometers: USB2E7196
Integration Time (usec): 65000 (USB2E7196)
Spectra Averaged: 100 (USB2E7196)
Boxcar Smoothing: 10 (USB2E7196)
Correct for Electrical Dark: No (USB2E7196)
Strobe/Lamp Enabled: No (USB2E7196)
Correct for Detector Non-linearity: No (USB2E7196)
Correct for Stray Light: No (USB2E7196)
Number of Pixels in Processed Spectrum: 2048
>>>>>Begin Processed Spectral Data<<<<<
339.09	0.00
339.48	202.91
339.86	203.93
340.24	204.87
340.63	207.08
341.01	211.49
341.39	209.06
341.78	211.20
342.16	212.67
342.54	212.57
342.93	201.70
343.31	211.89
343.69	212.40
344.07	212.87
344.46	213.33
344.84	213.72
345.22	213.86
345.60	214.16
345.99	214.36
346.37	214.48
346.75	214.59
347.13	214.67
347.52	214.73
347.90	214.84
348.28	214.91
348.66	215.00
349.05	215.00
349.43	215.08
349.81	215.20
350.19	215.27
350.57	215.36
350.96	215.43
351.34	215.56
351.72	215.71
352.10	215.83
352.48	215.92
352.87	215.97
353.25	216.08
353.63	216.14
354.01	216.22
354.39	216.32
354.77	216.42
355.15	216.57
355.54	216.65
355.92	216.68
356.30	216.79
356.68	216.98
357.06	217.07
357.44	217.11
357.82	217.16
358.20	217.25
358.58	217.32
358.97	217.40
359.35	217.49
359.73	217.57
360.11	217.64
360.49	217.71
360.87	217.76
361.25	217.84
361.63	217.98
362.01	218.02
362.39	218.06
362.77	218.13
363.15	218.15
363.53	218.16
363.91	218.21
364.29	218.22
364.67	218.05
365.05	218.05
365.43	218.08
365.81	218.13
366.19	218.18
366.57	218.26
366.95	218.26
367.33	218.23
367.71	218.21
368.09	218.24
368.47	218.25
368.85	218.25
369.23	218.25
369.61	218.15
369.99	218.18
370.37	218.18
370.75	218.24
371.13	218.15
371.51	218.13
371.89	218.12
372.27	218.09
372.65	218.09
373.03	218.05
373.41	218.02
373.78	217.93
374.16	217.79
374.54	217.70
374.92	217.63
375.30	217.55
375.68	217.48
376.06	217.45
376.44	217.37
376.82	217.34
377.19	217.27
377.57	217.25
377.95	217.13
378.33	217.07
378.71	216.91
379.09	216.93
379.47	216.89
379.84	216.80
380.22	216.73
380.60	216.66
380.98	216.60
381.36	216.55
381.73	216.50
382.11	216.51
382.49	216.49
382.87	216.46
383.25	216.44
383.62	216.62
384.00	216.51
384.38	216.49
384.76	216.48
385.13	216.52
385.51	216.43
385.89	216.39
386.27	216.34
386.64	216.37
387.02	216.29
387.40	216.25
387.78	216.28
388.15	216.28
388.53	216.27
388.91	216.26
389.29	216.22
389.66	216.27
390.04	216.24
390.42	216.24
390.79	216.20
391.17	216.21
391.55	215.96
391.92	215.97
392.30	216.00
392.68	215.96
393.05	215.96
393.43	215.99
393.81	215.99
394.18	215.98
394.56	215.92
394.94	216.00
395.31	216.01
395.69	216.06
396.06	216.08
396.44	216.09
396.82	216.07
397.19	216.19
397.57	216.19
397.95	216.24
398.32	216.19
398.70	216.27
399.07	216.34
399.45	216.39
399.82	216.45
400.20	216.47
400.58	216.50
400.95	216.46
401.33	216.53
401.70	216.77
402.08	216.85
402.45	216.95
402.83	217.05
403.20	217.11
403.58	217.17
403.95	217.32
404.33	217.48
404.71	217.64
405.08	217.90
405.46	218.03
405.83	218.23
406.21	218.45
406.58	218.64
406.96	218.83
407.33	219.10
407.70	219.40
408.08	219.83
408.45	220.19
408.83	220.60
409.20	220.99
409.58	221.23
409.95	221.67
410.33	222.15
410.70	222.54
411.08	223.11
411.45	223.71
411.82	224.23
412.20	224.87
412.57	225.67
412.95	226.20
413.32	227.03
413.69	227.85
414.07	228.71
414.44	229.69
414.82	230.69
415.19	231.83
415.56	233.01
415.94	234.12
416.31	235.44
416.68	236.79
417.06	238.31
417.43	239.81
417.81	241.49
418.18	243.21
418.55	245.10
418.93	247.03
419.30	249.05
419.67	251.23
420.04	253.42
420.42	255.72
420.79	258.41
421.16	261.05
421.54	263.79
421.91	266.65
422.28	269.61
422.66	272.75
423.03	275.88
423.40	279.05
423.77	282.54
424.15	286.09
424.52	289.76
424.89	293.78
425.26	297.68
425.64	301.44
426.01	305.56
426.38	309.90
426.75	314.30
427.13	318.82
427.50	323.62
427.87	328.65
428.24	333.69
428.61	338.55
428.99	343.94
429.36	349.76
429.73	355.45
430.10	361.12
430.47	367.01
430.85	373.04
431.22	379.54
431.59	386.47
431.96	393.05
432.33	400.36
432.70	407.38
433.08	415.64
433.45	423.42
433.82	431.13
434.19	439.66
434.56	448.05
434.93	456.08
435.30	464.04
435.68	472.81
436.05	481.47
436.42	490.03
436.79	497.87
437.16	506.34
437.53	515.26
437.90	524.10
438.27	532.77
438.64	541.71
439.01	549.95
439.38	557.20
439.75	564.31
440.13	572.44
440.50	580.04
440.87	586.22
441.24	592.60
441.61	599.64
441.98	604.84
442.35	610.97
442.72	617.09
443.09	622.96
443.46	626.56
443.83	628.98
444.20	631.10
444.57	634.10
444.94	635.44
445.31	636.80
445.68	638.12
446.05	638.63
446.42	637.82
446.79	636.88
447.16	635.83
447.53	635.00
447.90	631.69
448.27	628.54
448.64	624.03
449.01	620.78
449.37	615.13
449.74	609.64
450.11	602.96
450.48	595.82
450.85	588.61
451.22	582.38
451.59	576.42
451.96	570.75
452.33	563.18
452.70	556.36
453.07	548.19
453.43	539.87
453.80	531.95
454.17	524.28
454.54	516.98
454.91	509.12
455.28	501.51
455.65	494.41
456.02	487.22
456.38	481.17
456.75	473.66
457.12	467.42
457.49	461.18
457.86	455.19
458.23	450.03
458.59	444.34
458.96	438.57
459.33	433.50
459.70	428.40
460.07	424.32
460.43	419.64
460.80	415.30
461.17	411.50
461.54	407.42
461.91	403.55
462.27	399.61
462.64	396.30
463.01	392.61
463.38	389.06
463.74	385.47
464.11	382.35
464.48	379.64
464.85	376.60
465.21	374.22
465.58	371.72
465.95	368.71
466.32	366.15
466.68	363.67
467.05	361.14
467.42	358.64
467.78	356.08
468.15	353.59
468.52	351.78
468.88	349.41
469.25	347.34
469.62	345.60
469.98	343.75
470.35	342.01
470.72	340.39
471.08	338.68
471.45	337.31
471.82	335.86
472.18	334.30
472.55	333.15
472.92	331.88
473.28	330.72
473.65	329.61
474.02	328.57
474.38	327.73
474.75	327.10
475.11	326.37
475.48	325.78
475.85	325.36
476.21	324.87
476.58	324.52
476.94	324.27
477.31	324.06
477.67	323.80
478.04	323.70
478.41	323.71
478.77	323.83
479.14	323.76
479.50	323.92
479.87	324.12
480.23	324.47
480.60	324.72
480.96	325.04
481.33	325.70
481.69	326.32
482.06	326.87
482.42	327.37
482.79	327.98
483.15	328.85
483.52	329.81
483.88	330.76
484.25	331.72
484.61	332.80
484.98	333.84
485.34	335.21
485.71	336.56
486.07	338.04
486.44	339.38
486.80	341.01
487.17	342.67
487.53	344.58
487.90	346.46
488.26	348.52
488.62	350.67
488.99	352.68
489.35	354.84
489.72	357.22
490.08	359.67
490.44	362.18
490.81	364.87
491.17	367.61
491.54	370.56
491.90	373.58
492.26	376.76
492.63	380.14
492.99	383.59
493.36	387.26
493.72	391.10
494.08	395.11
494.45	399.36
494.81	403.68
495.17	408.15
495.54	412.88
495.90	417.66
496.26	422.56
496.63	427.72
496.99	433.08
497.35	438.65
497.72	444.48
498.08	450.43
498.44	456.47
498.80	462.84
499.17	469.31
499.53	475.99
499.89	482.86
500.26	489.84
500.62	496.91
500.98	504.22
501.34	511.65
501.71	519.42
502.07	527.09
502.43	535.13
502.79	543.17
503.16	551.43
503.52	560.01
503.88	568.68
504.24	577.62
504.60	586.63
504.97	595.81
505.33	605.11
505.69	614.97
506.05	624.82
506.41	634.57
506.78	644.64
507.14	654.86
507.50	665.30
507.86	676.00
508.22	686.77
508.59	697.48
508.95	708.59
509.31	719.75
509.67	731.26
510.03	742.56
510.39	754.27
510.75	766.11
511.12	777.93
511.48	790.05
511.84	802.24
512.20	814.56
512.56	827.15
512.92	839.84
513.28	852.37
513.64	865.03
514.00	877.86
514.37	890.61
514.73	903.60
515.09	916.42
515.45	929.13
515.81	941.97
516.17	955.21
516.53	968.14
516.89	981.13
517.25	994.06
517.61	1007.38
517.97	1020.60
518.33	1033.52
518.69	1046.91
519.05	1060.48
519.41	1073.94
519.77	1087.57
520.13	1100.62
520.49	1113.69
520.85	1126.91
521.21	1140.06
521.57	1153.46
521.93	1166.43
522.29	1180.01
522.65	1193.45
523.01	1206.80
523.37	1219.74
523.73	1232.83
524.09	1245.87
524.45	1259.10
524.81	1272.38
525.17	1285.49
525.53	1298.43
525.89	1311.48
526.25	1324.32
526.61	1336.87
526.97	1349.63
527.33	1362.33
527.68	1375.55
528.04	1388.66
528.40	1401.55
528.76	1414.57
529.12	1427.23
529.48	1440.16
529.84	1452.20
530.20	1464.67
530.56	1477.02
530.91	1489.97
531.27	1502.50
531.63	1515.02
531.99	1527.49
532.35	1539.44
532.71	1551.63
533.07	1564.04
533.42	1575.89
533.78	1587.71
534.14	1599.51
534.50	1610.54
534.86	1621.85
535.21	1632.47
535.57	1643.59
535.93	1654.57
536.29	1665.52
536.65	1676.57
537.00	1687.38
537.36	1698.34
537.72	1709.04
538.08	1720.05
538.44	1730.78
538.79	1741.41
539.15	1751.81
539.51	1762.14
539.87	1773.08
540.22	1783.45
540.58	1794.12
540.94	1804.95
541.29	1814.90
541.65	1824.35
542.01	1834.70
542.37	1844.47
542.72	1854.30
543.08	1863.86
543.44	1873.91
543.79	1882.96
544.15	1892.11
544.51	1901.85
544.87	1911.40
545.22	1920.18
545.58	1928.83
545.94	1937.62
546.29	1946.03
546.65	1954.20
547.01	1962.26
547.36	1969.86
547.72	1977.53
548.07	1984.94
548.43	1992.40
548.79	2000.06
549.14	2007.95
549.50	2016.00
549.86	2023.39
550.21	2030.69
550.57	2038.04
550.92	2044.76
551.28	2051.96
551.64	2059.03
551.99	2066.29
552.35	2073.28
552.70	2080.12
553.06	2086.64
553.41	2092.55
553.77	2098.85
554.13	2105.10
554.48	2111.96
554.84	2118.76
555.19	2124.99
555.55	2131.34
555.90	2137.52
556.26	2144.22
556.61	2150.01
556.97	2154.78
557.32	2160.76
557.68	2166.95
558.03	2172.66
558.39	2177.71
558.74	2183.53
559.10	2189.17
559.45	2194.60
559.81	2200.22
560.16	2205.74
560.52	2211.66
560.87	2218.01
561.23	2224.00
561.58	2230.59
561.94	2235.70
562.29	2240.47
562.64	2246.77
563.00	2252.36
563.35	2257.81
563.71	2263.61
564.06	2269.16
564.42	2275.18
564.77	2280.34
565.12	2285.47
565.48	2290.85
565.83	2296.58
566.19	2302.08
566.54	2307.55
566.89	2312.18
567.25	2316.75
567.60	2322.47
567.96	2327.73
568.31	2332.40
568.66	2336.69
569.02	2340.66
569.37	2344.50
569.72	2349.04
570.08	2352.54
570.43	2355.73
570.78	2358.88
571.14	2361.44
571.49	2364.89
571.84	2368.46
572.20	2371.22
572.55	2374.54
572.90	2376.71
573.26	2379.75
573.61	2382.33
573.96	2384.52
574.31	2386.64
574.67	2388.64
575.02	2389.68
575.37	2391.04
575.72	2391.96
576.08	2393.58
576.43	2394.00
576.78	2394.90
577.13	2396.80
577.49	2398.15
577.84	2399.45
578.19	2401.20
578.54	2402.17
578.90	2403.14
579.25	2403.15
579.60	2403.53
579.95	2402.89
580.30	2403.51
580.66	2402.82
581.01	2401.33
581.36	2399.38
581.71	2398.25
582.06	2397.43
582.42	2396.78
582.77	2394.98
583.12	2393.55
583.47	2392.54
583.82	2392.20
584.17	2391.09
584.53	2389.04
584.88	2387.17
585.23	2385.46
585.58	2383.40
585.93	2381.28
586.28	2379.42
586.63	2377.32
586.98	2375.21
587.34	2373.54
587.69	2371.32
588.04	2369.56
588.39	2368.36
588.74	2366.09
589.09	2363.79
589.44	2360.93
589.79	2358.64
590.14	2357.02
590.49	2354.32
590.84	2350.58
591.19	2347.92
591.54	2344.75
591.89	2340.87
592.25	2337.70
592.60	2333.78
592.95	2329.86
593.30	2325.80
593.65	2321.47
594.00	2317.29
594.35	2314.44
594.70	2310.07
595.05	2305.43
595.40	2300.12
595.75	2294.75
596.10	2291.03
596.45	2286.12
596.80	2281.67
597.15	2276.46
597.50	2270.50
597.85	2265.69
598.19	2260.66
598.54	2254.83
598.89	2249.90
599.24	2245.55
599.59	2239.54
599.94	2234.02
600.29	2227.98
600.64	2222.43
600.99	2215.95
601.34	2210.68
601.69	2203.74
602.04	2197.28
602.39	2190.88
602.74	2185.02
603.08	2179.47
603.43	2173.17
603.78	2166.52
604.13	2159.43
604.48	2152.32
604.83	2146.34
605.18	2140.18
605.53	2133.27
605.87	2126.23
606.22	2119.53
606.57	2111.70
606.92	2103.92
607.27	2097.02
607.62	2090.50
607.96	2083.45
608.31	2076.95
608.66	2069.13
609.01	2061.70
609.36	2054.75
609.70	2047.22
610.05	2039.49
610.40	2031.38
610.75	2023.16
611.10	2015.55
611.44	2006.84
611.79	1998.12
612.14	1988.16
612.49	1977.79
612.83	1968.63
613.18	1959.61
613.53	1950.21
613.88	1940.58
614.22	1932.01
614.57	1922.03
614.92	1911.62
615.27	1901.51
615.61	1891.39
615.96	1881.73
616.31	1872.11
616.65	1862.72
617.00	1852.65
617.35	1843.01
617.70	1833.15
618.04	1823.07
618.39	1812.68
618.74	1803.07
619.08	1793.66
619.43	1784.94
619.78	1776.62
620.12	1767.95
620.47	1757.98
620.82	1747.71
621.16	1737.89
621.51	1728.02
621.85	1718.21
622.20	1707.75
622.55	1697.22
622.89	1687.50
623.24	1677.73
623.59	1667.96
623.93	1657.88
624.28	1648.28
624.62	1638.01
624.97	1627.69
625.32	1618.01
625.66	1609.23
626.01	1600.37
626.35	1590.80
626.70	1580.71
627.04	1570.59
627.39	1560.35
627.73	1551.13
628.08	1542.04
628.43	1532.49
628.77	1523.17
629.12	1514.19
629.46	1506.23
629.81	1497.86
630.15	1488.14
630.50	1478.35
630.84	1467.88
631.19	1457.80
631.53	1448.35
631.88	1438.28
632.22	1428.24
632.57	1418.87
632.91	1408.78
633.26	1398.87
633.60	1389.34
633.95	1379.94
634.29	1370.42
634.64	1361.18
634.98	1351.30
635.32	1341.99
635.67	1333.46
636.01	1324.24
636.36	1314.48
636.70	1305.01
637.05	1295.56
637.39	1286.58
637.73	1277.92
638.08	1270.36
638.42	1262.21
638.77	1253.37
639.11	1245.05
639.45	1237.18
639.80	1228.52
640.14	1219.74
640.49	1210.82
640.83	1202.01
641.17	1194.08
641.52	1185.88
641.86	1177.18
642.20	1169.22
642.55	1160.61
642.89	1151.68
643.23	1142.91
643.58	1134.80
643.92	1125.70
644.26	1117.07
644.61	1108.69
644.95	1099.91
645.29	1090.57
645.64	1081.38
645.98	1073.10
646.32	1065.14
646.66	1056.68
647.01	1048.20
647.35	1040.11
647.69	1031.69
648.04	1023.42
648.38	1014.41
648.72	1005.62
649.06	997.27
649.41	989.15
649.75	981.25
650.09	973.39
650.43	965.34
650.78	957.18
651.12	949.59
651.46	942.26
651.80	934.93
652.14	927.59
652.49	920.15
652.83	912.86
653.17	905.07
653.51	897.45
653.85	890.18
654.20	882.96
654.54	875.33
654.88	868.32
655.22	861.08
655.56	854.08
655.90	847.33
656.25	840.59
656.59	833.54
656.93	826.56
657.27	819.50
657.61	812.70
657.95	806.60
658.29	800.74
658.64	794.52
658.98	788.21
659.32	781.66
659.66	775.47
660.00	769.16
660.34	763.22
660.68	757.18
661.02	750.97
661.36	745.16
661.70	739.54
662.05	733.90
662.39	728.50
662.73	723.21
663.07	717.79
663.41	712.32
663.75	706.78
664.09	701.23
664.43	695.96
664.77	690.66
665.11	684.84
665.45	678.93
665.79	673.19
666.13	667.45
666.47	662.12
666.81	656.75
667.15	651.42
667.49	646.26
667.83	641.08
668.17	635.91
668.51	630.83
668.85	626.01
669.19	621.10
669.53	616.13
669.87	611.07
670.21	606.48
670.55	601.79
670.89	597.49
671.23	593.20
671.57	588.77
671.91	584.47
672.25	580.43
672.58	576.34
672.92	572.38
673.26	568.53
673.60	564.69
673.94	560.88
674.28	557.29
674.62	553.56
674.96	549.85
675.30	546.34
675.64	542.73
675.97	539.12
676.31	535.56
676.65	532.00
676.99	528.57
677.33	524.79
677.67	521.15
678.01	517.28
678.34	513.62
678.68	510.13
679.02	506.56
679.36	502.87
679.70	499.29
680.04	495.82
680.37	492.45
680.71	489.14
681.05	486.07
681.39	482.93
681.73	479.80
682.06	476.85
682.40	473.81
682.74	470.63
683.08	467.48
683.42	464.38
683.75	461.44
684.09	458.48
684.43	455.74
684.77	452.94
685.10	450.20
685.44	447.38
685.78	444.55
686.12	441.93
686.45	439.25
686.79	436.59
687.13	434.06
687.46	431.47
687.80	428.85
688.14	426.01
688.48	423.41
688.81	420.81
689.15	418.27
689.49	415.71
689.82	413.28
690.16	410.73
690.50	408.27
690.83	405.81
691.17	403.35
691.51	400.97
691.84	398.74
692.18	396.57
692.52	394.39
692.85	392.31
693.19	390.09
693.52	387.95
693.86	385.84
694.20	383.73
694.53	381.63
694.87	379.49
695.21	377.44
695.54	375.32
695.88	373.21
696.21	371.06
696.55	368.98
696.88	366.97
697.22	365.06
697.56	363.20
697.89	361.40
698.23	359.66
698.56	357.90
698.90	356.16
699.23	354.22
699.57	352.43
699.90	350.62
700.24	348.88
700.58	347.20
700.91	345.56
701.25	344.02
701.58	342.47
701.92	340.96
702.25	339.37
702.59	337.83
702.92	336.38
703.26	334.83
703.59	333.45
703.93	332.18
704.26	330.77
704.60	329.36
704.93	327.90
705.26	326.44
705.60	324.99
705.93	323.53
706.27	322.31
706.60	321.05
706.94	319.83
707.27	318.51
707.61	317.15
707.94	315.87
708.27	314.38
708.61	312.98
708.94	311.63
709.28	310.38
709.61	309.15
709.94	307.92
710.28	306.82
710.61	305.64
710.95	304.29
711.28	303.28
711.61	302.08
711.95	300.96
712.28	299.81
712.61	298.67
712.95	297.66
713.28	296.60
713.61	295.49
713.95	294.39
714.28	293.43
714.61	292.43
714.95	291.41
715.28	290.45
715.61	289.44
715.95	288.49
716.28	287.57
716.61	286.64
716.95	285.67
717.28	284.74
717.61	283.79
717.94	282.91
718.28	281.89
718.61	281.06
718.94	280.20
719.27	279.36
719.61	278.52
719.94	277.64
720.27	276.72
720.60	275.95
720.94	275.17
721.27	274.36
721.60	273.73
721.93	273.03
722.27	272.38
722.60	271.76
722.93	271.08
723.26	270.45
723.59	269.80
723.93	269.18
724.26	268.54
724.59	267.91
724.92	267.34
725.25	266.86
725.59	266.29
725.92	265.78
726.25	265.25
726.58	264.68
726.91	264.13
727.24	263.59
727.57	263.00
727.91	262.38
728.24	261.88
728.57	261.24
728.90	260.70
729.23	260.11
729.56	259.66
729.89	259.18
730.22	258.60
730.55	258.02
730.89	257.54
731.22	257.01
731.55	256.50
731.88	256.01
732.21	255.41
732.54	254.89
732.87	254.41
733.20	253.89
733.53	253.44
733.86	252.96
734.19	252.52
734.52	252.15
734.85	251.93
735.18	251.45
735.51	251.13
735.84	250.71
736.17	250.34
736.50	249.84
736.83	249.67
737.16	249.34
737.49	248.99
737.82	248.58
738.15	248.22
738.48	247.86
738.81	247.49
739.14	247.11
739.47	246.73
739.80	246.34
740.13	246.04
740.46	245.66
740.79	245.30
741.12	244.97
741.45	244.59
741.78	244.16
742.11	243.89
742.44	243.50
742.77	243.24
743.10	242.90
743.43	242.59
743.75	242.02
744.08	241.93
744.41	241.61
744.74	241.28
745.07	240.92
745.40	240.64
745.73	240.37
746.06	240.13
746.39	239.85
746.71	239.50
747.04	239.17
747.37	238.88
747.70	238.63
748.03	238.31
748.36	238.06
748.68	237.75
749.01	237.45
749.34	237.16
749.67	236.87
750.00	236.63
750.33	236.46
750.65	236.24
750.98	235.72
751.31	235.46
751.64	235.24
751.97	235.15
752.29	234.88
752.62	234.57
752.95	234.28
753.28	234.02
753.60	233.83
753.93	233.64
754.26	233.44
754.59	233.20
754.91	232.99
755.24	232.71
755.57	232.49
755.90	232.25
756.22	232.02
756.55	231.77
756.88	231.52
757.20	231.18
757.53	230.96
757.86	230.75
758.19	230.60
758.51	230.43
758.84	230.12
759.17	229.93
759.49	229.74
759.82	229.68
760.15	229.56
760.47	229.37
760.80	229.12
761.13	228.97
761.45	228.73
761.78	228.55
762.11	228.41
762.43	228.23
762.76	228.06
763.08	227.95
763.41	227.80
763.74	227.67
764.06	227.51
764.39	227.34
764.71	227.21
765.04	227.02
765.37	226.84
765.69	226.67
766.02	226.54
766.34	226.42
766.67	226.21
767.00	226.10
767.32	226.06
767.65	226.05
767.97	225.89
768.30	225.81
768.62	225.68
768.95	225.55
769.27	225.42
769.60	225.34
769.92	225.17
770.25	225.04
770.57	224.87
770.90	224.75
771.22	224.63
771.55	224.49
771.87	224.41
772.20	224.31
772.52	224.38
772.85	224.50
773.17	224.36
773.50	224.23
773.82	224.08
774.15	223.88
774.47	223.69
774.80	223.56
775.12	223.45
775.45	223.36
775.77	223.29
776.09	223.22
776.42	223.11
776.74	223.11
777.07	223.02
777.39	222.97
777.72	222.90
778.04	222.85
778.36	222.77
778.69	222.65
779.01	222.62
779.33	222.41
779.66	222.13
779.98	222.06
780.31	222.03
780.63	222.03
780.95	222.00
781.28	221.92
781.60	221.86
781.92	221.80
782.25	221.74
782.57	221.66
782.89	221.58
783.22	221.50
783.54	221.36
783.86	221.34
784.19	221.24
784.51	221.25
784.83	221.12
785.16	221.07
785.48	221.01
785.80	220.92
786.12	220.86
