SpectraSuite Data File
++++++++++++++++++++++++++++++++++++
Date: Tue Jan 29 16:09:02 EST 2013
User: group
Dark Spectrum Present: No
Reference Spectrum Present: No
Number of Sampled Component Spectra: 1
Spectrometers: USB2E7196
Integration Time (usec): 65000 (USB2E7196)
Spectra Averaged: 100 (USB2E7196)
Boxcar Smoothing: 10 (USB2E7196)
Correct for Electrical Dark: No (USB2E7196)
Strobe/Lamp Enabled: No (USB2E7196)
Correct for Detector Non-linearity: No (USB2E7196)
Correct for Stray Light: No (USB2E7196)
Number of Pixels in Processed Spectrum: 2048
>>>>>Begin Processed Spectral Data<<<<<
339.09	0.00
339.48	202.62
339.86	203.92
340.24	205.23
340.63	206.84
341.01	211.31
341.39	209.71
341.78	211.38
342.16	212.34
342.54	212.17
342.93	201.77
343.31	211.98
343.69	212.51
344.07	212.98
344.46	213.43
344.84	213.84
345.22	214.01
345.60	214.28
345.99	214.45
346.37	214.60
346.75	214.75
347.13	214.81
347.52	214.90
347.90	215.01
348.28	215.04
348.66	215.14
349.05	215.10
349.43	215.14
349.81	215.19
350.19	215.27
350.57	215.31
350.96	215.42
351.34	215.50
351.72	215.63
352.10	215.72
352.48	215.81
352.87	215.86
353.25	215.91
353.63	215.95
354.01	216.04
354.39	216.14
354.77	216.22
355.15	216.38
355.54	216.44
355.92	216.47
356.30	216.51
356.68	216.68
357.06	216.77
357.44	216.81
357.82	216.89
358.20	216.95
358.58	217.01
358.97	217.08
359.35	217.21
359.73	217.28
360.11	217.34
360.49	217.38
360.87	217.43
361.25	217.51
361.63	217.65
362.01	217.70
362.39	217.69
362.77	217.73
363.15	217.73
363.53	217.76
363.91	217.79
364.29	217.85
364.67	217.68
365.05	217.72
365.43	217.76
365.81	217.82
366.19	217.94
366.57	218.04
366.95	218.05
367.33	217.98
367.71	217.99
368.09	218.05
368.47	218.06
368.85	218.04
369.23	218.09
369.61	218.00
369.99	218.05
370.37	218.06
370.75	218.14
371.13	218.10
371.51	218.09
371.89	218.10
372.27	218.11
372.65	218.14
373.03	218.12
373.41	218.09
373.78	218.02
374.16	217.88
374.54	217.79
374.92	217.73
375.30	217.70
375.68	217.64
376.06	217.59
376.44	217.54
376.82	217.52
377.19	217.46
377.57	217.42
377.95	217.28
378.33	217.22
378.71	217.06
379.09	217.02
379.47	216.98
379.84	216.87
380.22	216.81
380.60	216.70
380.98	216.62
381.36	216.58
381.73	216.52
382.11	216.53
382.49	216.49
382.87	216.41
383.25	216.38
383.62	216.56
384.00	216.51
384.38	216.49
384.76	216.52
385.13	216.56
385.51	216.53
385.89	216.49
386.27	216.46
386.64	216.46
387.02	216.41
387.40	216.35
387.78	216.36
388.15	216.31
388.53	216.31
388.91	216.28
389.29	216.23
389.66	216.23
390.04	216.19
390.42	216.22
390.79	216.22
391.17	216.18
391.55	215.92
391.92	215.91
392.30	215.90
392.68	215.81
393.05	215.77
393.43	215.77
393.81	215.78
394.18	215.75
394.56	215.76
394.94	215.81
395.31	215.81
395.69	215.87
396.06	215.90
396.44	215.93
396.82	215.93
397.19	216.05
397.57	216.04
397.95	216.09
398.32	216.04
398.70	216.10
399.07	216.21
399.45	216.26
399.82	216.31
400.20	216.32
400.58	216.39
400.95	216.35
401.33	216.44
401.70	216.65
402.08	216.76
402.45	216.83
402.83	216.97
403.20	217.08
403.58	217.21
403.95	217.31
404.33	217.45
404.71	217.62
405.08	217.86
405.46	218.05
405.83	218.23
406.21	218.46
406.58	218.70
406.96	218.89
407.33	219.17
407.70	219.45
408.08	219.91
408.45	220.24
408.83	220.67
409.20	221.01
409.58	221.26
409.95	221.73
410.33	222.21
410.70	222.62
411.08	223.17
411.45	223.66
411.82	224.25
412.20	224.92
412.57	225.74
412.95	226.31
413.32	227.08
413.69	227.87
414.07	228.73
414.44	229.63
414.82	230.61
415.19	231.72
415.56	232.86
415.94	233.98
416.31	235.35
416.68	236.68
417.06	238.23
417.43	239.71
417.81	241.35
418.18	243.04
418.55	244.93
418.93	246.85
419.30	248.92
419.67	251.08
420.04	253.28
420.42	255.55
420.79	258.28
421.16	260.99
421.54	263.81
421.91	266.71
422.28	269.73
422.66	272.91
423.03	276.07
423.40	279.32
423.77	282.81
424.15	286.30
424.52	290.02
424.89	294.07
425.26	298.01
425.64	301.81
426.01	305.98
426.38	310.29
426.75	314.70
427.13	319.24
427.50	324.04
427.87	329.01
428.24	334.04
428.61	338.82
428.99	344.17
429.36	350.00
429.73	355.68
430.10	361.34
430.47	367.18
430.85	373.26
431.22	379.69
431.59	386.59
431.96	393.17
432.33	400.37
432.70	407.35
433.08	415.64
433.45	423.36
433.82	431.09
434.19	439.62
434.56	448.05
434.93	456.11
435.30	464.16
435.68	473.03
436.05	481.67
436.42	490.30
436.79	498.15
437.16	506.57
437.53	515.52
437.90	524.32
438.27	532.97
438.64	541.89
439.01	550.17
439.38	557.50
439.75	564.61
440.13	572.75
440.50	580.43
440.87	586.65
441.24	593.08
441.61	600.15
441.98	605.36
442.35	611.39
442.72	617.49
443.09	623.31
443.46	626.92
443.83	629.30
444.20	631.41
444.57	634.42
444.94	635.80
445.31	637.15
445.68	638.50
446.05	639.06
446.42	638.28
446.79	637.32
447.16	636.23
447.53	635.48
447.90	632.25
448.27	629.05
448.64	624.54
449.01	621.34
449.37	615.69
449.74	610.20
450.11	603.60
450.48	596.41
450.85	589.15
451.22	582.85
451.59	577.01
451.96	571.36
452.33	563.78
452.70	556.95
453.07	548.82
453.43	540.55
453.80	532.58
454.17	524.88
454.54	517.60
454.91	509.69
455.28	502.00
455.65	494.88
456.02	487.69
456.38	481.52
456.75	473.92
457.12	467.56
457.49	461.36
457.86	455.38
458.23	450.20
458.59	444.53
458.96	438.77
459.33	433.62
459.70	428.44
460.07	424.35
460.43	419.64
460.80	415.22
461.17	411.39
461.54	407.39
461.91	403.53
462.27	399.57
462.64	396.31
463.01	392.66
463.38	389.09
463.74	385.49
464.11	382.39
464.48	379.67
464.85	376.66
465.21	374.27
465.58	371.74
465.95	368.71
466.32	366.16
466.68	363.64
467.05	361.19
467.42	358.75
467.78	356.17
468.15	353.68
468.52	351.87
468.88	349.45
469.25	347.30
469.62	345.61
469.98	343.78
470.35	342.06
470.72	340.44
471.08	338.74
471.45	337.31
471.82	335.87
472.18	334.25
472.55	333.14
472.92	331.82
473.28	330.62
473.65	329.59
474.02	328.54
474.38	327.73
474.75	327.02
475.11	326.30
475.48	325.78
475.85	325.40
476.21	324.89
476.58	324.52
476.94	324.35
477.31	324.04
477.67	323.80
478.04	323.65
478.41	323.65
478.77	323.85
479.14	323.84
479.50	324.00
479.87	324.31
480.23	324.59
480.60	324.86
480.96	325.20
481.33	325.79
481.69	326.42
482.06	326.99
482.42	327.52
482.79	328.14
483.15	328.93
483.52	329.87
483.88	330.80
484.25	331.79
484.61	332.79
484.98	333.82
485.34	335.14
485.71	336.50
486.07	337.91
486.44	339.22
486.80	340.80
487.17	342.46
487.53	344.28
487.90	346.17
488.26	348.21
488.62	350.36
488.99	352.39
489.35	354.51
489.72	356.89
490.08	359.39
490.44	361.87
490.81	364.58
491.17	367.28
491.54	370.27
491.90	373.31
492.26	376.52
492.63	379.98
492.99	383.40
493.36	387.09
493.72	390.94
494.08	394.92
494.45	399.22
494.81	403.56
495.17	408.07
495.54	412.81
495.90	417.61
496.26	422.49
496.63	427.66
496.99	433.06
497.35	438.58
497.72	444.36
498.08	450.37
498.44	456.41
498.80	462.76
499.17	469.22
499.53	475.91
499.89	482.79
500.26	489.77
500.62	496.89
500.98	504.28
501.34	511.74
501.71	519.54
502.07	527.27
502.43	535.21
502.79	543.26
503.16	551.55
503.52	560.07
503.88	568.76
504.24	577.74
504.60	586.69
504.97	595.87
505.33	605.07
505.69	614.89
506.05	624.68
506.41	634.51
506.78	644.46
507.14	654.63
507.50	665.04
507.86	675.66
508.22	686.35
508.59	696.95
508.95	707.95
509.31	719.14
509.67	730.59
510.03	741.98
510.39	753.62
510.75	765.51
511.12	777.40
511.48	789.42
511.84	801.51
512.20	813.88
512.56	826.51
512.92	839.23
513.28	851.71
513.64	864.38
514.00	877.11
514.37	890.06
514.73	903.00
515.09	915.82
515.45	928.51
515.81	941.44
516.17	954.66
516.53	967.78
516.89	980.66
517.25	993.68
517.61	1007.10
517.97	1020.38
518.33	1033.23
518.69	1046.55
519.05	1060.08
519.41	1073.61
519.77	1087.32
520.13	1100.35
520.49	1113.30
520.85	1126.52
521.21	1139.68
521.57	1153.17
521.93	1166.01
522.29	1179.60
522.65	1192.99
523.01	1206.39
523.37	1219.42
523.73	1232.45
524.09	1245.37
524.45	1258.61
524.81	1271.80
525.17	1284.83
525.53	1297.62
525.89	1310.75
526.25	1323.58
526.61	1336.12
526.97	1348.98
527.33	1361.52
527.68	1374.70
528.04	1387.83
528.40	1400.75
528.76	1413.76
529.12	1426.29
529.48	1439.25
529.84	1451.14
530.20	1463.50
530.56	1475.86
530.91	1488.86
531.27	1501.48
531.63	1513.95
531.99	1526.37
532.35	1538.22
532.71	1550.38
533.07	1562.94
533.42	1574.74
533.78	1586.58
534.14	1598.40
534.50	1609.39
534.86	1620.69
535.21	1631.22
535.57	1642.42
535.93	1653.28
536.29	1664.00
536.65	1675.20
537.00	1685.94
537.36	1697.15
537.72	1708.05
538.08	1719.08
538.44	1729.60
538.79	1740.40
539.15	1750.85
539.51	1761.25
539.87	1772.38
540.22	1782.85
540.58	1793.51
540.94	1804.22
541.29	1814.16
541.65	1823.66
542.01	1833.91
542.37	1843.63
542.72	1853.62
543.08	1863.20
543.44	1873.46
543.79	1882.70
544.15	1891.83
544.51	1901.58
544.87	1911.25
545.22	1920.10
545.58	1928.69
545.94	1937.22
546.29	1945.43
546.65	1953.59
547.01	1961.78
547.36	1969.05
547.72	1976.51
548.07	1983.87
548.43	1991.34
548.79	1998.92
549.14	2006.77
549.50	2014.89
549.86	2022.53
550.21	2029.70
550.57	2037.09
550.92	2043.60
551.28	2050.93
551.64	2057.98
551.99	2065.19
552.35	2071.95
552.70	2078.63
553.06	2085.09
553.41	2091.30
553.77	2097.54
554.13	2103.77
554.48	2110.42
554.84	2117.37
555.19	2123.78
555.55	2130.12
555.90	2136.22
556.26	2142.95
556.61	2148.78
556.97	2153.54
557.32	2159.16
557.68	2165.39
558.03	2170.93
558.39	2176.18
558.74	2181.91
559.10	2187.45
559.45	2192.99
559.81	2198.41
560.16	2203.94
560.52	2209.81
560.87	2216.19
561.23	2222.17
561.58	2228.81
561.94	2234.02
562.29	2238.89
562.64	2245.06
563.00	2250.64
563.35	2256.18
563.71	2262.02
564.06	2267.68
564.42	2273.50
564.77	2278.69
565.12	2283.87
565.48	2289.27
565.83	2294.90
566.19	2300.32
566.54	2305.77
566.89	2310.39
567.25	2315.19
567.60	2320.97
567.96	2326.21
568.31	2330.67
568.66	2334.91
569.02	2338.71
569.37	2342.66
569.72	2347.07
570.08	2350.43
570.43	2353.57
570.78	2356.77
571.14	2359.39
571.49	2362.58
571.84	2366.17
572.20	2369.10
572.55	2372.16
572.90	2374.39
573.26	2377.28
573.61	2379.94
573.96	2382.09
574.31	2384.09
574.67	2386.08
575.02	2387.04
575.37	2388.47
575.72	2389.49
576.08	2391.20
576.43	2391.72
576.78	2392.36
577.13	2394.33
577.49	2395.75
577.84	2397.29
578.19	2398.94
578.54	2399.66
578.90	2400.76
579.25	2400.96
579.60	2401.30
579.95	2400.92
580.30	2401.39
580.66	2400.79
581.01	2399.28
581.36	2397.25
581.71	2396.26
582.06	2395.44
582.42	2394.84
582.77	2392.96
583.12	2391.65
583.47	2390.47
583.82	2390.07
584.17	2388.98
584.53	2386.70
584.88	2384.78
585.23	2382.85
585.58	2380.68
585.93	2378.75
586.28	2376.71
586.63	2374.44
586.98	2372.43
587.34	2370.77
587.69	2368.54
588.04	2366.71
588.39	2365.41
588.74	2363.26
589.09	2360.79
589.44	2357.68
589.79	2355.28
590.14	2353.62
590.49	2350.88
590.84	2347.23
591.19	2344.41
591.54	2341.09
591.89	2337.31
592.25	2334.29
592.60	2330.28
592.95	2326.29
593.30	2322.34
593.65	2318.18
594.00	2313.92
594.35	2310.89
594.70	2306.21
595.05	2301.71
595.40	2296.40
595.75	2290.99
596.10	2287.39
596.45	2282.57
596.80	2278.11
597.15	2272.94
597.50	2266.97
597.85	2262.11
598.19	2256.90
598.54	2251.18
598.89	2246.37
599.24	2241.94
599.59	2235.92
599.94	2230.44
600.29	2224.71
600.64	2219.01
600.99	2212.36
601.34	2207.03
601.69	2200.17
602.04	2193.95
602.39	2187.53
602.74	2181.72
603.08	2176.11
603.43	2169.62
603.78	2162.99
604.13	2156.13
604.48	2148.92
604.83	2143.15
605.18	2136.97
605.53	2130.23
605.87	2123.29
606.22	2116.58
606.57	2108.84
606.92	2101.07
607.27	2094.04
607.62	2087.55
607.96	2080.57
608.31	2074.11
608.66	2066.36
609.01	2058.86
609.36	2051.87
609.70	2044.11
610.05	2036.26
610.40	2028.03
610.75	2019.89
611.10	2012.15
611.44	2003.35
611.79	1994.76
612.14	1984.73
612.49	1974.31
612.83	1965.18
613.18	1956.01
613.53	1946.63
613.88	1937.12
614.22	1928.54
614.57	1918.64
614.92	1908.07
615.27	1897.94
615.61	1888.00
615.96	1878.37
616.31	1868.78
616.65	1859.39
617.00	1849.67
617.35	1840.13
617.70	1830.59
618.04	1820.43
618.39	1810.10
618.74	1800.47
619.08	1790.89
619.43	1782.13
619.78	1773.90
620.12	1765.12
620.47	1755.37
620.82	1745.15
621.16	1735.28
621.51	1725.28
621.85	1715.46
622.20	1704.97
622.55	1694.42
622.89	1684.48
623.24	1674.81
623.59	1665.16
623.93	1655.03
624.28	1645.24
624.62	1635.04
624.97	1624.76
625.32	1615.10
625.66	1606.46
626.01	1597.60
626.35	1588.19
626.70	1578.12
627.04	1567.94
627.39	1557.93
627.73	1548.70
628.08	1539.73
628.43	1530.19
628.77	1521.03
629.12	1512.20
629.46	1504.37
629.81	1495.92
630.15	1486.34
630.50	1476.55
630.84	1466.00
631.19	1456.02
631.53	1446.59
631.88	1436.42
632.22	1426.34
632.57	1416.96
632.91	1406.74
633.26	1396.92
633.60	1387.39
633.95	1378.07
634.29	1368.59
634.64	1359.15
634.98	1349.24
635.32	1339.97
635.67	1331.37
636.01	1322.12
636.36	1312.30
636.70	1302.76
637.05	1293.48
637.39	1284.49
637.73	1275.85
638.08	1268.30
638.42	1260.08
638.77	1251.32
639.11	1243.12
639.45	1235.36
639.80	1226.78
640.14	1218.12
640.49	1209.25
640.83	1200.51
641.17	1192.44
641.52	1184.31
641.86	1175.78
642.20	1167.98
642.55	1159.30
642.89	1150.50
643.23	1141.79
643.58	1133.82
643.92	1124.76
644.26	1116.11
644.61	1107.80
644.95	1099.02
645.29	1089.75
645.64	1080.67
645.98	1072.42
646.32	1064.50
646.66	1055.92
647.01	1047.53
647.35	1039.38
647.69	1031.00
648.04	1022.58
648.38	1013.58
648.72	1004.80
649.06	996.38
649.41	988.11
649.75	980.22
650.09	972.36
650.43	964.37
650.78	956.03
651.12	948.48
651.46	941.11
651.80	933.84
652.14	926.48
652.49	918.95
652.83	911.62
653.17	903.90
653.51	896.33
653.85	889.19
654.20	881.95
654.54	874.46
654.88	867.34
655.22	860.28
655.56	853.42
655.90	846.67
656.25	840.07
656.59	833.21
656.93	826.23
657.27	819.20
657.61	812.35
657.95	806.29
658.29	800.44
658.64	794.29
658.98	787.92
659.32	781.53
659.66	775.39
660.00	769.08
660.34	763.05
660.68	756.96
661.02	750.71
661.36	744.95
661.70	739.29
662.05	733.70
662.39	728.27
662.73	723.02
663.07	717.66
663.41	712.11
663.75	706.50
664.09	700.87
664.43	695.50
664.77	690.13
665.11	684.32
665.45	678.47
665.79	672.70
666.13	667.07
666.47	661.66
666.81	656.29
667.15	651.04
667.49	645.86
667.83	640.71
668.17	635.54
668.51	630.37
668.85	625.52
669.19	620.72
669.53	615.73
669.87	610.66
670.21	605.99
670.55	601.27
670.89	596.91
671.23	592.71
671.57	588.41
671.91	584.26
672.25	580.27
672.58	576.14
672.92	572.14
673.26	568.29
673.60	564.46
673.94	560.74
674.28	557.13
674.62	553.50
674.96	549.80
675.30	546.29
675.64	542.79
675.97	539.22
676.31	535.54
676.65	532.03
676.99	528.60
677.33	524.81
677.67	521.20
678.01	517.40
678.34	513.81
678.68	510.29
679.02	506.65
679.36	502.94
679.70	499.42
680.04	496.01
680.37	492.58
680.71	489.33
681.05	486.17
681.39	483.01
681.73	479.87
682.06	476.86
682.40	473.76
682.74	470.60
683.08	467.46
683.42	464.34
683.75	461.41
684.09	458.44
684.43	455.70
684.77	452.89
685.10	450.15
685.44	447.31
685.78	444.50
686.12	441.89
686.45	439.27
686.79	436.65
687.13	434.10
687.46	431.45
687.80	428.81
688.14	426.02
688.48	423.50
688.81	420.86
689.15	418.34
689.49	415.85
689.82	413.38
690.16	410.82
690.50	408.48
690.83	406.01
691.17	403.55
691.51	401.16
691.84	398.94
692.18	396.75
692.52	394.55
692.85	392.39
693.19	390.23
693.52	388.10
693.86	385.90
694.20	383.77
694.53	381.73
694.87	379.58
695.21	377.53
695.54	375.36
695.88	373.26
696.21	371.12
696.55	369.02
696.88	366.93
697.22	365.03
697.56	363.15
697.89	361.30
698.23	359.60
698.56	357.82
698.90	356.05
699.23	354.15
699.57	352.32
699.90	350.50
700.24	348.75
700.58	346.98
700.91	345.38
701.25	343.83
701.58	342.32
701.92	340.80
702.25	339.24
702.59	337.69
702.92	336.21
703.26	334.73
703.59	333.35
703.93	332.18
704.26	330.76
704.60	329.30
704.93	327.88
705.26	326.40
705.60	324.99
705.93	323.54
706.27	322.28
706.60	321.03
706.94	319.86
707.27	318.49
707.61	317.24
707.94	315.96
708.27	314.50
708.61	313.05
708.94	311.68
709.28	310.44
709.61	309.18
709.94	308.00
710.28	306.80
710.61	305.60
710.95	304.19
711.28	303.16
711.61	302.04
711.95	300.96
712.28	299.77
712.61	298.59
712.95	297.56
713.28	296.55
713.61	295.47
713.95	294.33
714.28	293.35
714.61	292.35
714.95	291.33
715.28	290.37
715.61	289.39
715.95	288.46
716.28	287.50
716.61	286.62
716.95	285.67
717.28	284.76
717.61	283.83
717.94	282.95
718.28	281.96
718.61	281.09
718.94	280.16
719.27	279.36
719.61	278.55
719.94	277.69
720.27	276.74
720.60	275.90
720.94	275.11
721.27	274.38
721.60	273.70
721.93	272.98
722.27	272.35
722.60	271.70
722.93	271.04
723.26	270.42
723.59	269.72
723.93	269.11
724.26	268.49
724.59	267.87
724.92	267.32
725.25	266.79
725.59	266.21
725.92	265.70
726.25	265.14
726.58	264.58
726.91	264.03
727.24	263.53
727.57	262.99
727.91	262.42
728.24	261.87
728.57	261.27
728.90	260.78
729.23	260.17
729.56	259.73
729.89	259.17
730.22	258.62
730.55	258.11
730.89	257.58
731.22	257.05
731.55	256.52
731.88	256.00
732.21	255.46
732.54	254.95
732.87	254.47
733.20	254.01
733.53	253.55
733.86	253.09
734.19	252.61
734.52	252.22
734.85	251.93
735.18	251.47
735.51	251.16
735.84	250.72
736.17	250.35
736.50	249.84
736.83	249.70
737.16	249.30
737.49	248.91
737.82	248.53
738.15	248.17
738.48	247.84
738.81	247.45
739.14	247.04
739.47	246.65
739.80	246.28
740.13	245.93
740.46	245.56
740.79	245.20
741.12	244.84
741.45	244.49
741.78	244.06
742.11	243.81
742.44	243.39
742.77	243.08
743.10	242.78
743.43	242.44
743.75	241.91
744.08	241.87
744.41	241.56
744.74	241.21
745.07	240.84
745.40	240.54
745.73	240.33
746.06	240.05
746.39	239.81
746.71	239.47
747.04	239.12
747.37	238.82
747.70	238.54
748.03	238.26
748.36	238.00
748.68	237.71
749.01	237.34
749.34	237.06
749.67	236.80
750.00	236.51
750.33	236.42
750.65	236.13
750.98	235.60
751.31	235.33
751.64	235.11
751.97	234.98
752.29	234.70
752.62	234.34
752.95	234.08
753.28	233.82
753.60	233.63
753.93	233.49
754.26	233.27
754.59	233.02
754.91	232.75
755.24	232.50
755.57	232.26
755.90	232.08
756.22	231.86
756.55	231.63
756.88	231.40
757.20	231.07
757.53	230.86
757.86	230.63
758.19	230.48
758.51	230.29
758.84	230.00
759.17	229.81
759.49	229.64
759.82	229.57
760.15	229.40
760.47	229.20
760.80	228.95
761.13	228.80
761.45	228.61
761.78	228.47
762.11	228.30
762.43	228.14
762.76	227.95
763.08	227.80
763.41	227.68
763.74	227.50
764.06	227.33
764.39	227.12
764.71	227.00
765.04	226.82
765.37	226.64
765.69	226.48
766.02	226.33
766.34	226.21
766.67	226.01
767.00	225.87
767.32	225.84
767.65	225.83
767.97	225.69
768.30	225.55
768.62	225.43
768.95	225.28
769.27	225.15
769.60	225.06
769.92	224.91
770.25	224.70
770.57	224.55
770.90	224.39
771.22	224.30
771.55	224.20
771.87	224.08
772.20	223.97
772.52	224.05
772.85	224.19
773.17	224.08
773.50	223.97
773.82	223.86
774.15	223.67
774.47	223.45
774.80	223.33
775.12	223.26
775.45	223.15
775.77	223.08
776.09	223.01
776.42	222.95
776.74	222.93
777.07	222.86
777.39	222.82
777.72	222.75
778.04	222.70
778.36	222.61
778.69	222.54
779.01	222.50
779.33	222.27
779.66	221.99
779.98	221.90
780.31	221.81
780.63	221.81
780.95	221.77
781.28	221.72
781.60	221.62
781.92	221.56
782.25	221.50
782.57	221.43
782.89	221.36
783.22	221.27
783.54	221.19
783.86	221.16
784.19	221.08
784.51	221.09
784.83	221.00
785.16	220.91
785.48	220.87
785.80	220.78
786.12	220.74
