SpectraSuite Data File
++++++++++++++++++++++++++++++++++++
Date: Tue Jan 29 16:23:40 EST 2013
User: group
Dark Spectrum Present: No
Reference Spectrum Present: No
Number of Sampled Component Spectra: 1
Spectrometers: USB2E7196
Integration Time (usec): 65000 (USB2E7196)
Spectra Averaged: 100 (USB2E7196)
Boxcar Smoothing: 10 (USB2E7196)
Correct for Electrical Dark: No (USB2E7196)
Strobe/Lamp Enabled: No (USB2E7196)
Correct for Detector Non-linearity: No (USB2E7196)
Correct for Stray Light: No (USB2E7196)
Number of Pixels in Processed Spectrum: 2048
>>>>>Begin Processed Spectral Data<<<<<
339.09	0.00
339.48	202.00
339.86	203.60
340.24	205.51
340.63	206.96
341.01	211.41
341.39	209.30
341.78	210.77
342.16	211.66
342.54	213.09
342.93	201.51
343.31	211.68
343.69	212.26
344.07	212.75
344.46	213.16
344.84	213.52
345.22	213.67
345.60	213.93
345.99	214.13
346.37	214.30
346.75	214.38
347.13	214.47
347.52	214.58
347.90	214.70
348.28	214.75
348.66	214.84
349.05	214.81
349.43	214.87
349.81	214.94
350.19	215.03
350.57	215.05
350.96	215.15
351.34	215.28
351.72	215.33
352.10	215.43
352.48	215.49
352.87	215.55
353.25	215.59
353.63	215.67
354.01	215.72
354.39	215.78
354.77	215.86
355.15	215.97
355.54	215.99
355.92	215.96
356.30	216.03
356.68	216.19
357.06	216.27
357.44	216.30
357.82	216.36
358.20	216.44
358.58	216.52
358.97	216.54
359.35	216.62
359.73	216.78
360.11	216.82
360.49	216.89
360.87	216.97
361.25	217.04
361.63	217.13
362.01	217.21
362.39	217.22
362.77	217.26
363.15	217.30
363.53	217.33
363.91	217.39
364.29	217.41
364.67	217.28
365.05	217.32
365.43	217.37
365.81	217.39
366.19	217.47
366.57	217.58
366.95	217.59
367.33	217.55
367.71	217.53
368.09	217.57
368.47	217.57
368.85	217.54
369.23	217.63
369.61	217.55
369.99	217.62
370.37	217.65
370.75	217.74
371.13	217.66
371.51	217.64
371.89	217.64
372.27	217.64
372.65	217.65
373.03	217.58
373.41	217.59
373.78	217.58
374.16	217.43
374.54	217.32
374.92	217.30
375.30	217.25
375.68	217.16
376.06	217.13
376.44	217.09
376.82	217.07
377.19	216.99
377.57	216.97
377.95	216.81
378.33	216.73
378.71	216.56
379.09	216.57
379.47	216.55
379.84	216.46
380.22	216.39
380.60	216.29
380.98	216.26
381.36	216.13
381.73	216.06
382.11	216.06
382.49	216.02
382.87	215.95
383.25	215.91
383.62	216.13
384.00	216.05
384.38	216.04
384.76	216.04
385.13	216.08
385.51	216.03
385.89	215.95
386.27	215.92
386.64	215.92
387.02	215.88
387.40	215.81
387.78	215.81
388.15	215.83
388.53	215.81
388.91	215.79
389.29	215.84
389.66	215.88
390.04	215.84
390.42	215.85
390.79	215.82
391.17	215.81
391.55	215.51
391.92	215.49
392.30	215.50
392.68	215.44
393.05	215.41
393.43	215.44
393.81	215.52
394.18	215.50
394.56	215.51
394.94	215.55
395.31	215.52
395.69	215.61
396.06	215.60
396.44	215.66
396.82	215.66
397.19	215.76
397.57	215.72
397.95	215.79
398.32	215.77
398.70	215.84
399.07	215.95
399.45	216.01
399.82	216.09
400.20	216.12
400.58	216.18
400.95	216.14
401.33	216.20
401.70	216.39
402.08	216.49
402.45	216.58
402.83	216.73
403.20	216.87
403.58	216.92
403.95	217.08
404.33	217.21
404.71	217.36
405.08	217.60
405.46	217.79
405.83	217.98
406.21	218.18
406.58	218.41
406.96	218.59
407.33	218.86
407.70	219.14
408.08	219.58
408.45	219.91
408.83	220.31
409.20	220.68
409.58	220.95
409.95	221.38
410.33	221.91
410.70	222.27
411.08	222.84
411.45	223.43
411.82	223.98
412.20	224.66
412.57	225.52
412.95	226.07
413.32	226.87
413.69	227.71
414.07	228.59
414.44	229.58
414.82	230.58
415.19	231.76
415.56	232.95
415.94	234.13
416.31	235.55
416.68	236.94
417.06	238.52
417.43	240.07
417.81	241.83
418.18	243.57
418.55	245.53
418.93	247.52
419.30	249.63
419.67	251.88
420.04	254.15
420.42	256.50
420.79	259.32
421.16	262.11
421.54	264.98
421.91	267.93
422.28	271.00
422.66	274.33
423.03	277.56
423.40	280.88
423.77	284.43
424.15	288.05
424.52	291.86
424.89	295.99
425.26	300.01
425.64	303.84
426.01	308.09
426.38	312.49
426.75	317.02
427.13	321.76
427.50	326.67
427.87	331.84
428.24	337.00
428.61	341.93
428.99	347.44
429.36	353.43
429.73	359.31
430.10	365.18
430.47	371.19
430.85	377.48
431.22	384.14
431.59	391.24
431.96	398.05
432.33	405.54
432.70	412.77
433.08	421.26
433.45	429.29
433.82	437.23
434.19	446.05
434.56	454.68
434.93	462.91
435.30	471.14
435.68	480.20
436.05	489.14
436.42	498.09
436.79	506.14
437.16	514.84
437.53	524.02
437.90	533.05
438.27	541.95
438.64	551.12
439.01	559.60
439.38	567.12
439.75	574.41
440.13	582.72
440.50	590.62
440.87	597.01
441.24	603.61
441.61	610.93
441.98	616.33
442.35	622.63
442.72	628.93
443.09	634.88
443.46	638.53
443.83	641.01
444.20	643.10
444.57	646.26
444.94	647.67
445.31	649.14
445.68	650.52
446.05	651.06
446.42	650.21
446.79	649.32
447.16	648.25
447.53	647.45
447.90	644.11
448.27	640.84
448.64	636.20
449.01	632.90
449.37	627.00
449.74	621.33
450.11	614.45
450.48	607.03
450.85	599.66
451.22	593.25
451.59	587.16
451.96	581.33
452.33	573.50
452.70	566.45
453.07	558.04
453.43	549.51
453.80	541.34
454.17	533.40
454.54	525.80
454.91	517.64
455.28	509.76
455.65	502.44
456.02	494.91
456.38	488.63
456.75	480.87
457.12	474.38
457.49	467.98
457.86	461.85
458.23	456.50
458.59	450.63
458.96	444.69
459.33	439.45
459.70	434.16
460.07	429.90
460.43	425.05
460.80	420.44
461.17	416.45
461.54	412.25
461.91	408.24
462.27	404.21
462.64	400.79
463.01	397.00
463.38	393.37
463.74	389.73
464.11	386.55
464.48	383.66
464.85	380.55
465.21	378.09
465.58	375.46
465.95	372.35
466.32	369.77
466.68	367.19
467.05	364.63
467.42	362.10
467.78	359.47
468.15	356.95
468.52	355.09
468.88	352.66
469.25	350.47
469.62	348.69
469.98	346.75
470.35	344.96
470.72	343.28
471.08	341.48
471.45	340.02
471.82	338.49
472.18	336.84
472.55	335.69
472.92	334.33
473.28	333.10
473.65	331.98
474.02	330.84
474.38	329.92
474.75	329.13
475.11	328.28
475.48	327.73
475.85	327.25
476.21	326.79
476.58	326.41
476.94	326.19
477.31	325.89
477.67	325.66
478.04	325.51
478.41	325.48
478.77	325.61
479.14	325.57
479.50	325.70
479.87	326.04
480.23	326.34
480.60	326.59
480.96	326.89
481.33	327.54
481.69	328.15
482.06	328.70
482.42	329.22
482.79	329.86
483.15	330.62
483.52	331.56
483.88	332.41
484.25	333.44
484.61	334.45
484.98	335.52
485.34	336.86
485.71	338.25
486.07	339.68
486.44	341.05
486.80	342.67
487.17	344.32
487.53	346.10
487.90	347.98
488.26	349.99
488.62	352.15
488.99	354.20
489.35	356.34
489.72	358.70
490.08	361.22
490.44	363.80
490.81	366.53
491.17	369.27
491.54	372.30
491.90	375.33
492.26	378.58
492.63	382.03
492.99	385.51
493.36	389.17
493.72	393.05
494.08	397.00
494.45	401.22
494.81	405.62
495.17	410.17
495.54	414.87
495.90	419.74
496.26	424.71
496.63	429.93
496.99	435.41
497.35	441.03
497.72	446.84
498.08	452.80
498.44	458.90
498.80	465.36
499.17	471.85
499.53	478.54
499.89	485.44
500.26	492.48
500.62	499.58
500.98	507.04
501.34	514.62
501.71	522.45
502.07	530.31
502.43	538.39
502.79	546.57
503.16	555.01
503.52	563.68
503.88	572.44
504.24	581.47
504.60	590.53
504.97	599.85
505.33	609.24
505.69	619.16
506.05	629.11
506.41	639.05
506.78	649.24
507.14	659.63
507.50	670.15
507.86	680.84
508.22	691.78
508.59	702.57
508.95	713.68
509.31	725.05
509.67	736.62
510.03	748.13
510.39	759.92
510.75	771.87
511.12	783.85
511.48	796.09
511.84	808.44
512.20	820.93
512.56	833.65
512.92	846.49
513.28	859.21
513.64	872.00
514.00	884.93
514.37	897.96
514.73	911.09
515.09	924.27
515.45	937.34
515.81	950.43
516.17	963.89
516.53	977.31
516.89	990.53
517.25	1003.74
517.61	1017.37
517.97	1030.82
518.33	1044.10
518.69	1057.74
519.05	1071.64
519.41	1085.35
519.77	1099.31
520.13	1112.83
520.49	1126.18
520.85	1139.80
521.21	1153.25
521.57	1167.02
521.93	1180.23
522.29	1194.12
522.65	1207.90
523.01	1221.60
523.37	1234.95
523.73	1248.35
524.09	1261.66
524.45	1275.22
524.81	1288.84
525.17	1302.31
525.53	1315.70
525.89	1329.12
526.25	1342.46
526.61	1355.40
526.97	1368.68
527.33	1381.74
527.68	1395.19
528.04	1408.79
528.40	1421.94
528.76	1435.45
529.12	1448.57
529.48	1461.96
529.84	1474.22
530.20	1486.99
530.56	1499.83
530.91	1513.15
531.27	1526.14
531.63	1538.81
531.99	1551.71
532.35	1564.06
532.71	1576.58
533.07	1589.60
533.42	1601.92
533.78	1614.14
534.14	1626.25
534.50	1637.66
534.86	1649.29
535.21	1660.44
535.57	1672.06
535.93	1683.38
536.29	1694.55
536.65	1705.96
537.00	1716.99
537.36	1728.52
537.72	1739.66
538.08	1750.92
538.44	1761.94
538.79	1773.10
539.15	1784.10
539.51	1794.94
539.87	1806.38
540.22	1817.19
540.58	1828.08
540.94	1839.02
541.29	1849.25
541.65	1859.19
542.01	1869.65
542.37	1879.72
542.72	1889.76
543.08	1899.54
543.44	1910.16
543.79	1919.47
544.15	1929.00
544.51	1939.01
544.87	1949.05
545.22	1958.23
545.58	1967.20
545.94	1976.11
546.29	1984.63
546.65	1993.04
547.01	2001.20
547.36	2008.92
547.72	2016.80
548.07	2024.41
548.43	2032.17
548.79	2040.11
549.14	2048.29
549.50	2056.79
549.86	2064.92
550.21	2072.42
550.57	2080.09
550.92	2086.86
551.28	2094.47
551.64	2101.81
551.99	2109.47
552.35	2116.65
552.70	2123.52
553.06	2130.22
553.41	2136.66
553.77	2143.30
554.13	2149.78
554.48	2156.88
554.84	2164.05
555.19	2170.53
555.55	2177.04
555.90	2183.37
556.26	2190.21
556.61	2196.28
556.97	2201.14
557.32	2206.86
557.68	2213.40
558.03	2219.26
558.39	2224.64
558.74	2230.67
559.10	2236.15
559.45	2241.71
559.81	2247.28
560.16	2252.95
560.52	2258.95
560.87	2265.33
561.23	2271.24
561.58	2278.00
561.94	2283.27
562.29	2288.06
562.64	2294.33
563.00	2300.18
563.35	2305.90
563.71	2311.70
564.06	2317.53
564.42	2323.71
564.77	2328.83
565.12	2334.26
565.48	2339.51
565.83	2345.19
566.19	2350.61
566.54	2356.10
566.89	2360.66
567.25	2365.32
567.60	2371.22
567.96	2376.48
568.31	2381.11
568.66	2385.63
569.02	2389.64
569.37	2393.64
569.72	2398.08
570.08	2401.52
570.43	2404.65
570.78	2407.94
571.14	2410.62
571.49	2413.84
571.84	2417.40
572.20	2420.53
572.55	2423.41
572.90	2425.70
573.26	2428.65
573.61	2431.41
573.96	2433.73
574.31	2436.12
574.67	2438.23
575.02	2438.93
575.37	2440.46
575.72	2441.31
576.08	2442.69
576.43	2442.84
576.78	2443.16
577.13	2444.77
577.49	2446.01
577.84	2447.10
578.19	2448.28
578.54	2448.88
578.90	2449.49
579.25	2449.33
579.60	2449.28
579.95	2448.64
580.30	2448.81
580.66	2448.13
581.01	2446.52
581.36	2444.06
581.71	2442.57
582.06	2441.24
582.42	2440.59
582.77	2438.45
583.12	2436.75
583.47	2435.42
583.82	2434.90
584.17	2433.75
584.53	2431.76
584.88	2429.79
585.23	2427.97
585.58	2425.75
585.93	2423.72
586.28	2421.61
586.63	2419.28
586.98	2417.06
587.34	2415.01
587.69	2412.60
588.04	2410.55
588.39	2409.19
588.74	2406.94
589.09	2404.18
589.44	2401.18
589.79	2398.59
590.14	2396.51
590.49	2393.82
590.84	2390.01
591.19	2386.90
591.54	2383.93
591.89	2379.79
592.25	2376.57
592.60	2372.30
592.95	2368.23
593.30	2364.10
593.65	2359.81
594.00	2355.38
594.35	2352.42
594.70	2347.76
595.05	2343.26
595.40	2337.76
595.75	2331.89
596.10	2328.13
596.45	2323.35
596.80	2318.70
597.15	2313.64
597.50	2307.62
597.85	2302.68
598.19	2297.56
598.54	2291.72
598.89	2286.17
599.24	2281.78
599.59	2275.66
599.94	2269.87
600.29	2264.01
600.64	2258.06
600.99	2251.17
601.34	2245.72
601.69	2238.60
602.04	2232.32
602.39	2225.53
602.74	2219.33
603.08	2213.73
603.43	2207.23
603.78	2200.51
604.13	2193.40
604.48	2185.86
604.83	2179.96
605.18	2173.75
605.53	2166.84
605.87	2159.83
606.22	2153.15
606.57	2145.08
606.92	2136.97
607.27	2129.95
607.62	2123.23
607.96	2116.13
608.31	2109.70
608.66	2101.77
609.01	2094.16
609.36	2087.03
609.70	2079.39
610.05	2071.61
610.40	2063.18
610.75	2054.76
611.10	2046.75
611.44	2037.85
611.79	2029.27
612.14	2019.05
612.49	2008.15
612.83	1998.64
613.18	1989.27
613.53	1979.77
613.88	1970.17
614.22	1961.48
614.57	1951.55
614.92	1940.84
615.27	1930.63
615.61	1920.33
615.96	1910.64
616.31	1901.05
616.65	1891.46
617.00	1881.68
617.35	1871.94
617.70	1862.18
618.04	1852.05
618.39	1841.88
618.74	1832.18
619.08	1822.28
619.43	1813.54
619.78	1805.31
620.12	1796.56
620.47	1786.97
620.82	1776.60
621.16	1766.61
621.51	1756.64
621.85	1746.72
622.20	1736.26
622.55	1725.63
622.89	1715.55
623.24	1705.55
623.59	1695.59
623.93	1685.40
624.28	1675.43
624.62	1665.25
624.97	1654.90
625.32	1644.99
625.66	1636.02
626.01	1627.12
626.35	1617.77
626.70	1607.61
627.04	1597.47
627.39	1587.11
627.73	1577.59
628.08	1568.57
628.43	1558.99
628.77	1549.58
629.12	1540.52
629.46	1532.63
629.81	1524.25
630.15	1514.79
630.50	1505.02
630.84	1494.27
631.19	1484.33
631.53	1474.97
631.88	1464.66
632.22	1454.48
632.57	1445.07
632.91	1434.81
633.26	1424.75
633.60	1415.10
633.95	1405.80
634.29	1396.15
634.64	1386.87
634.98	1376.88
635.32	1367.46
635.67	1358.83
636.01	1349.45
636.36	1339.76
636.70	1330.03
637.05	1320.46
637.39	1311.37
637.73	1302.66
638.08	1295.09
638.42	1286.75
638.77	1277.85
639.11	1269.47
639.45	1261.55
639.80	1252.92
640.14	1244.04
640.49	1235.22
640.83	1226.29
641.17	1217.87
641.52	1209.60
641.86	1200.85
642.20	1192.82
642.55	1184.02
642.89	1175.00
643.23	1166.23
643.58	1157.92
643.92	1148.71
644.26	1139.85
644.61	1131.22
644.95	1122.29
645.29	1112.98
645.64	1103.61
645.98	1094.86
646.32	1086.86
646.66	1078.18
647.01	1069.80
647.35	1061.52
647.69	1052.95
648.04	1044.49
648.38	1035.54
648.72	1026.59
649.06	1018.03
649.41	1009.74
649.75	1001.73
650.09	993.80
650.43	985.75
650.78	977.35
651.12	969.51
651.46	961.96
651.80	954.69
652.14	947.30
652.49	939.64
652.83	932.31
653.17	924.59
653.51	916.86
653.85	909.54
654.20	902.16
654.54	894.68
654.88	887.32
655.22	880.02
655.56	872.89
655.90	866.11
656.25	859.34
656.59	852.37
656.93	845.22
657.27	837.95
657.61	830.75
657.95	824.59
658.29	818.67
658.64	812.50
658.98	805.91
659.32	799.29
659.66	792.96
660.00	786.45
660.34	780.37
660.68	774.16
661.02	767.77
661.36	761.72
661.70	755.82
662.05	750.14
662.39	744.59
662.73	739.16
663.07	733.67
663.41	728.02
663.75	722.19
664.09	716.49
664.43	711.04
664.77	705.80
665.11	699.86
665.45	693.89
665.79	687.98
666.13	682.23
666.47	676.64
666.81	671.11
667.15	665.66
667.49	660.36
667.83	655.07
668.17	649.78
668.51	644.59
668.85	639.54
669.19	634.57
669.53	629.47
669.87	624.25
670.21	619.44
670.55	614.62
670.89	610.11
671.23	605.65
671.57	601.20
671.91	596.79
672.25	592.54
672.58	588.32
672.92	584.16
673.26	580.19
673.60	576.27
673.94	572.44
674.28	568.78
674.62	564.94
674.96	561.15
675.30	557.58
675.64	553.85
675.97	550.26
676.31	546.62
676.65	542.98
676.99	539.56
677.33	535.60
677.67	531.89
678.01	527.99
678.34	524.32
678.68	520.71
679.02	517.03
679.36	513.35
679.70	509.70
680.04	506.14
680.37	502.61
680.71	499.17
681.05	495.93
681.39	492.61
681.73	489.40
682.06	486.30
682.40	483.20
682.74	479.99
683.08	476.73
683.42	473.48
683.75	470.39
684.09	467.30
684.43	464.48
684.77	461.51
685.10	458.67
685.44	455.73
685.78	452.87
686.12	450.07
686.45	447.28
686.79	444.53
687.13	441.99
687.46	439.36
687.80	436.68
688.14	433.78
688.48	431.08
688.81	428.38
689.15	425.76
689.49	423.07
689.82	420.45
690.16	417.85
690.50	415.36
690.83	412.87
691.17	410.33
691.51	407.87
691.84	405.60
692.18	403.33
692.52	401.08
692.85	398.84
693.19	396.66
693.52	394.48
693.86	392.26
694.20	389.98
694.53	387.75
694.87	385.55
695.21	383.40
695.54	381.23
695.88	379.05
696.21	376.84
696.55	374.67
696.88	372.59
697.22	370.60
697.56	368.66
697.89	366.70
698.23	364.89
698.56	363.03
698.90	361.23
699.23	359.28
699.57	357.45
699.90	355.60
700.24	353.79
700.58	352.01
700.91	350.35
701.25	348.79
701.58	347.20
701.92	345.64
702.25	344.02
702.59	342.39
702.92	340.84
703.26	339.23
703.59	337.77
703.93	336.52
704.26	335.04
704.60	333.53
704.93	332.07
705.26	330.58
705.60	329.14
705.93	327.60
706.27	326.27
706.60	324.97
706.94	323.71
707.27	322.28
707.61	320.92
707.94	319.52
708.27	317.97
708.61	316.49
708.94	315.06
709.28	313.77
709.61	312.54
709.94	311.35
710.28	310.15
710.61	308.93
710.95	307.50
711.28	306.42
711.61	305.24
711.95	304.09
712.28	302.87
712.61	301.64
712.95	300.61
713.28	299.59
713.61	298.41
713.95	297.22
714.28	296.20
714.61	295.11
714.95	294.10
715.28	293.08
715.61	292.09
715.95	291.12
716.28	290.08
716.61	289.10
716.95	288.09
717.28	287.14
717.61	286.19
717.94	285.26
718.28	284.18
718.61	283.29
718.94	282.41
719.27	281.55
719.61	280.74
719.94	279.83
720.27	278.82
720.60	277.94
720.94	277.16
721.27	276.40
721.60	275.74
721.93	275.01
722.27	274.41
722.60	273.72
722.93	273.02
723.26	272.39
723.59	271.70
723.93	271.07
724.26	270.39
724.59	269.75
724.92	269.13
725.25	268.60
725.59	268.07
725.92	267.50
726.25	266.91
726.58	266.30
726.91	265.71
727.24	265.19
727.57	264.61
727.91	264.00
728.24	263.44
728.57	262.80
728.90	262.25
729.23	261.57
729.56	261.11
729.89	260.53
730.22	259.97
730.55	259.44
730.89	258.83
731.22	258.32
731.55	257.79
731.88	257.28
732.21	256.71
732.54	256.12
732.87	255.61
733.20	255.14
733.53	254.68
733.86	254.25
734.19	253.75
734.52	253.34
734.85	252.99
735.18	252.50
735.51	252.16
735.84	251.72
736.17	251.34
736.50	250.80
736.83	250.65
737.16	250.23
737.49	249.81
737.82	249.44
738.15	249.07
738.48	248.68
738.81	248.26
739.14	247.83
739.47	247.45
739.80	247.07
740.13	246.70
740.46	246.29
740.79	245.85
741.12	245.47
741.45	245.10
741.78	244.67
742.11	244.36
742.44	243.96
742.77	243.67
743.10	243.35
743.43	243.03
743.75	242.46
744.08	242.43
744.41	242.09
744.74	241.73
745.07	241.37
745.40	241.08
745.73	240.88
746.06	240.58
746.39	240.28
746.71	239.91
747.04	239.53
747.37	239.21
747.70	238.94
748.03	238.66
748.36	238.40
748.68	238.09
749.01	237.76
749.34	237.44
749.67	237.12
750.00	236.81
750.33	236.66
750.65	236.41
750.98	235.87
751.31	235.62
751.64	235.41
751.97	235.27
752.29	234.99
752.62	234.63
752.95	234.38
753.28	234.10
753.60	233.87
753.93	233.72
754.26	233.50
754.59	233.23
754.91	232.98
755.24	232.72
755.57	232.50
755.90	232.30
756.22	232.07
756.55	231.83
756.88	231.58
757.20	231.23
757.53	231.01
757.86	230.79
758.19	230.60
758.51	230.33
758.84	230.01
759.17	229.81
759.49	229.65
759.82	229.56
760.15	229.41
760.47	229.19
760.80	228.93
761.13	228.79
761.45	228.60
761.78	228.43
762.11	228.24
762.43	228.05
762.76	227.84
763.08	227.71
763.41	227.56
763.74	227.43
764.06	227.27
764.39	227.11
764.71	226.94
765.04	226.77
765.37	226.64
765.69	226.52
766.02	226.42
766.34	226.24
766.67	226.02
767.00	225.90
767.32	225.93
767.65	225.95
767.97	225.75
768.30	225.62
768.62	225.46
768.95	225.36
769.27	225.25
769.60	225.15
769.92	225.00
770.25	224.83
770.57	224.65
770.90	224.52
771.22	224.34
771.55	224.24
771.87	224.13
772.20	224.01
772.52	224.05
772.85	224.15
773.17	224.04
773.50	223.92
773.82	223.78
774.15	223.56
774.47	223.32
774.80	223.24
775.12	223.15
775.45	223.06
775.77	222.96
776.09	222.88
776.42	222.79
776.74	222.76
777.07	222.68
777.39	222.61
777.72	222.52
778.04	222.50
778.36	222.39
778.69	222.32
779.01	222.26
779.33	221.99
779.66	221.66
779.98	221.61
780.31	221.54
780.63	221.56
780.95	221.53
781.28	221.46
781.60	221.37
781.92	221.29
782.25	221.23
782.57	221.15
782.89	221.05
783.22	220.97
783.54	220.84
783.86	220.78
784.19	220.70
784.51	220.70
784.83	220.58
785.16	220.54
785.48	220.48
785.80	220.42
786.12	220.41
