SpectraSuite Data File
++++++++++++++++++++++++++++++++++++
Date: Tue Jan 29 16:33:15 EST 2013
User: group
Dark Spectrum Present: No
Reference Spectrum Present: No
Number of Sampled Component Spectra: 1
Spectrometers: USB2E7196
Integration Time (usec): 65000 (USB2E7196)
Spectra Averaged: 100 (USB2E7196)
Boxcar Smoothing: 10 (USB2E7196)
Correct for Electrical Dark: No (USB2E7196)
Strobe/Lamp Enabled: No (USB2E7196)
Correct for Detector Non-linearity: No (USB2E7196)
Correct for Stray Light: No (USB2E7196)
Number of Pixels in Processed Spectrum: 2048
>>>>>Begin Processed Spectral Data<<<<<
339.09	0.00
339.48	201.68
339.86	203.47
340.24	205.09
340.63	205.39
341.01	210.12
341.39	208.99
341.78	210.44
342.16	211.88
342.54	212.12
342.93	201.07
343.31	211.24
343.69	211.78
344.07	212.22
344.46	212.66
344.84	213.09
345.22	213.31
345.60	213.56
345.99	213.78
346.37	213.90
346.75	214.01
347.13	214.06
347.52	214.13
347.90	214.23
348.28	214.29
348.66	214.36
349.05	214.31
349.43	214.38
349.81	214.46
350.19	214.49
350.57	214.58
350.96	214.67
351.34	214.75
351.72	214.87
352.10	214.98
352.48	215.04
352.87	215.10
353.25	215.15
353.63	215.24
354.01	215.29
354.39	215.39
354.77	215.46
355.15	215.59
355.54	215.65
355.92	215.67
356.30	215.73
356.68	215.92
357.06	216.02
357.44	216.07
357.82	216.12
358.20	216.18
358.58	216.23
358.97	216.30
359.35	216.40
359.73	216.50
360.11	216.57
360.49	216.62
360.87	216.67
361.25	216.74
361.63	216.86
362.01	216.93
362.39	216.93
362.77	216.99
363.15	217.03
363.53	217.02
363.91	217.03
364.29	217.07
364.67	216.88
365.05	216.90
365.43	216.97
365.81	217.01
366.19	217.10
366.57	217.22
366.95	217.23
367.33	217.19
367.71	217.20
368.09	217.24
368.47	217.24
368.85	217.19
369.23	217.22
369.61	217.11
369.99	217.17
370.37	217.19
370.75	217.30
371.13	217.24
371.51	217.22
371.89	217.23
372.27	217.23
372.65	217.25
373.03	217.24
373.41	217.19
373.78	217.13
374.16	217.04
374.54	216.92
374.92	216.86
375.30	216.81
375.68	216.72
376.06	216.71
376.44	216.65
376.82	216.63
377.19	216.61
377.57	216.53
377.95	216.37
378.33	216.29
378.71	216.09
379.09	216.07
379.47	216.06
379.84	216.00
380.22	215.92
380.60	215.85
380.98	215.77
381.36	215.70
381.73	215.63
382.11	215.61
382.49	215.58
382.87	215.55
383.25	215.52
383.62	215.70
384.00	215.60
384.38	215.59
384.76	215.62
385.13	215.65
385.51	215.65
385.89	215.64
386.27	215.63
386.64	215.65
387.02	215.60
387.40	215.57
387.78	215.54
388.15	215.54
388.53	215.49
388.91	215.48
389.29	215.45
389.66	215.47
390.04	215.44
390.42	215.45
390.79	215.40
391.17	215.41
391.55	215.16
391.92	215.15
392.30	215.18
392.68	215.14
393.05	215.10
393.43	215.11
393.81	215.10
394.18	215.05
394.56	215.04
394.94	215.09
395.31	215.07
395.69	215.17
396.06	215.20
396.44	215.25
396.82	215.25
397.19	215.38
397.57	215.39
397.95	215.42
398.32	215.37
398.70	215.44
399.07	215.51
399.45	215.58
399.82	215.64
400.20	215.64
400.58	215.69
400.95	215.66
401.33	215.76
401.70	215.98
402.08	216.10
402.45	216.19
402.83	216.33
403.20	216.44
403.58	216.52
403.95	216.69
404.33	216.84
404.71	216.99
405.08	217.24
405.46	217.44
405.83	217.63
406.21	217.86
406.58	218.14
406.96	218.33
407.33	218.59
407.70	218.89
408.08	219.35
408.45	219.71
408.83	220.14
409.20	220.49
409.58	220.77
409.95	221.20
410.33	221.67
410.70	222.12
411.08	222.70
411.45	223.28
411.82	223.83
412.20	224.51
412.57	225.33
412.95	225.92
413.32	226.73
413.69	227.57
414.07	228.46
414.44	229.40
414.82	230.43
415.19	231.61
415.56	232.78
415.94	233.99
416.31	235.38
416.68	236.73
417.06	238.34
417.43	239.90
417.81	241.63
418.18	243.43
418.55	245.33
418.93	247.36
419.30	249.44
419.67	251.68
420.04	253.98
420.42	256.39
420.79	259.21
421.16	262.03
421.54	264.94
421.91	267.93
422.28	271.03
422.66	274.31
423.03	277.56
423.40	280.93
423.77	284.55
424.15	288.24
424.52	292.12
424.89	296.26
425.26	300.34
425.64	304.27
426.01	308.61
426.38	313.10
426.75	317.64
427.13	322.39
427.50	327.34
427.87	332.53
428.24	337.70
428.61	342.70
428.99	348.22
429.36	354.24
429.73	360.15
430.10	366.05
430.47	372.11
430.85	378.42
431.22	385.16
431.59	392.27
431.96	399.11
432.33	406.60
432.70	413.90
433.08	422.45
433.45	430.55
433.82	438.61
434.19	447.52
434.56	456.22
434.93	464.52
435.30	472.88
435.68	482.07
436.05	491.08
436.42	500.00
436.79	508.12
437.16	516.96
437.53	526.28
437.90	535.40
438.27	544.42
438.64	553.59
439.01	562.08
439.38	569.62
439.75	576.99
440.13	585.45
440.50	593.37
440.87	599.85
441.24	606.45
441.61	613.73
441.98	619.09
442.35	625.47
442.72	631.89
443.09	637.92
443.46	641.58
443.83	644.10
444.20	646.27
444.57	649.47
444.94	650.86
445.31	652.28
445.68	653.71
446.05	654.33
446.42	653.66
446.79	652.77
447.16	651.70
447.53	650.84
447.90	647.53
448.27	644.26
448.64	639.56
449.01	636.26
449.37	630.33
449.74	624.65
450.11	617.71
450.48	610.29
450.85	602.81
451.22	596.40
451.59	590.30
451.96	584.50
452.33	576.64
452.70	569.58
453.07	561.03
453.43	552.44
453.80	544.15
454.17	536.08
454.54	528.53
454.91	520.36
455.28	512.38
455.65	504.90
456.02	497.36
456.38	491.00
456.75	483.09
457.12	476.51
457.49	470.01
457.86	463.85
458.23	458.44
458.59	452.54
458.96	446.52
459.33	441.19
459.70	435.82
460.07	431.55
460.43	426.65
460.80	422.11
461.17	418.08
461.54	413.85
461.91	409.84
462.27	405.70
462.64	402.31
463.01	398.56
463.38	394.86
463.74	391.14
464.11	387.87
464.48	385.04
464.85	381.97
465.21	379.55
465.58	376.88
465.95	373.74
466.32	371.09
466.68	368.46
467.05	365.86
467.42	363.26
467.78	360.56
468.15	357.98
468.52	356.09
468.88	353.61
469.25	351.38
469.62	349.57
469.98	347.59
470.35	345.69
470.72	343.96
471.08	342.17
471.45	340.71
471.82	339.24
472.18	337.54
472.55	336.36
472.92	334.95
473.28	333.76
473.65	332.61
474.02	331.49
474.38	330.62
474.75	329.81
475.11	328.98
475.48	328.39
475.85	327.92
476.21	327.39
476.58	327.02
476.94	326.75
477.31	326.45
477.67	326.21
478.04	326.09
478.41	326.04
478.77	326.20
479.14	326.13
479.50	326.23
479.87	326.52
480.23	326.82
480.60	327.10
480.96	327.37
481.33	327.97
481.69	328.55
482.06	329.05
482.42	329.56
482.79	330.18
483.15	330.95
483.52	331.90
483.88	332.81
484.25	333.77
484.61	334.83
484.98	335.89
485.34	337.19
485.71	338.58
486.07	340.02
486.44	341.37
486.80	342.96
487.17	344.64
487.53	346.43
487.90	348.30
488.26	350.30
488.62	352.43
488.99	354.41
489.35	356.59
489.72	358.96
490.08	361.50
490.44	364.06
490.81	366.77
491.17	369.47
491.54	372.46
491.90	375.48
492.26	378.67
492.63	382.09
492.99	385.61
493.36	389.34
493.72	393.23
494.08	397.27
494.45	401.49
494.81	405.84
495.17	410.31
495.54	415.06
495.90	419.87
496.26	424.79
496.63	430.03
496.99	435.45
497.35	441.09
497.72	446.96
498.08	452.90
498.44	459.00
498.80	465.44
499.17	471.96
499.53	478.70
499.89	485.69
500.26	492.65
500.62	499.73
500.98	507.10
501.34	514.59
501.71	522.38
502.07	530.24
502.43	538.31
502.79	546.51
503.16	554.88
503.52	563.49
503.88	572.30
504.24	581.32
504.60	590.36
504.97	599.65
505.33	608.97
505.69	618.86
506.05	628.83
506.41	638.76
506.78	648.92
507.14	659.17
507.50	669.57
507.86	680.36
508.22	691.18
508.59	701.90
508.95	713.00
509.31	724.31
509.67	735.93
510.03	747.44
510.39	759.30
510.75	771.28
511.12	783.31
511.48	795.40
511.84	807.75
512.20	820.27
512.56	832.99
512.92	845.82
513.28	858.55
513.64	871.35
514.00	884.26
514.37	897.26
514.73	910.45
515.09	923.55
515.45	936.56
515.81	949.70
516.17	963.21
516.53	976.59
516.89	989.74
517.25	1002.92
517.61	1016.55
517.97	1030.03
518.33	1043.17
518.69	1056.73
519.05	1070.69
519.41	1084.48
519.77	1098.37
520.13	1111.70
520.49	1124.95
520.85	1138.52
521.21	1151.87
521.57	1165.68
521.93	1178.88
522.29	1192.79
522.65	1206.57
523.01	1220.34
523.37	1233.62
523.73	1247.08
524.09	1260.29
524.45	1273.91
524.81	1287.55
525.17	1301.12
525.53	1314.39
525.89	1327.82
526.25	1341.18
526.61	1354.11
526.97	1367.28
527.33	1380.31
527.68	1393.86
528.04	1407.55
528.40	1420.73
528.76	1434.37
529.12	1447.33
529.48	1460.89
529.84	1473.20
530.20	1486.14
530.56	1498.86
530.91	1512.20
531.27	1525.12
531.63	1538.01
531.99	1550.86
532.35	1563.13
532.71	1575.52
533.07	1588.51
533.42	1600.82
533.78	1613.00
534.14	1625.10
534.50	1636.49
534.86	1648.27
535.21	1659.33
535.57	1671.06
535.93	1682.38
536.29	1693.54
536.65	1705.26
537.00	1716.34
537.36	1727.93
537.72	1738.92
538.08	1750.49
538.44	1761.71
538.79	1772.88
539.15	1783.93
539.51	1794.84
539.87	1806.45
540.22	1817.24
540.58	1828.35
540.94	1839.61
541.29	1849.95
541.65	1859.88
542.01	1870.36
542.37	1880.57
542.72	1890.80
543.08	1900.56
543.44	1911.20
543.79	1920.57
544.15	1929.97
544.51	1940.01
544.87	1950.08
545.22	1959.47
545.58	1968.34
545.94	1977.25
546.29	1985.97
546.65	1994.53
547.01	2002.84
547.36	2010.44
547.72	2018.44
548.07	2026.14
548.43	2033.75
548.79	2041.81
549.14	2050.05
549.50	2058.71
549.86	2066.57
550.21	2074.05
550.57	2081.79
550.92	2088.74
551.28	2096.40
551.64	2103.78
551.99	2111.30
552.35	2118.42
552.70	2125.34
553.06	2132.01
553.41	2138.29
553.77	2144.68
554.13	2150.97
554.48	2158.06
554.84	2165.29
555.19	2171.86
555.55	2178.17
555.90	2184.59
556.26	2191.37
556.61	2197.54
556.97	2202.44
557.32	2208.37
557.68	2214.94
558.03	2220.78
558.39	2226.04
558.74	2231.95
559.10	2237.59
559.45	2243.17
559.81	2248.68
560.16	2254.28
560.52	2260.32
560.87	2266.76
561.23	2272.76
561.58	2279.56
561.94	2284.68
562.29	2289.35
562.64	2295.37
563.00	2301.16
563.35	2306.69
563.71	2312.43
564.06	2318.00
564.42	2323.91
564.77	2329.08
565.12	2334.29
565.48	2339.48
565.83	2345.08
566.19	2350.56
566.54	2355.95
566.89	2360.48
567.25	2365.12
567.60	2370.78
567.96	2375.80
568.31	2380.33
568.66	2384.58
569.02	2388.34
569.37	2392.18
569.72	2396.60
570.08	2400.10
570.43	2403.08
570.78	2406.19
571.14	2408.72
571.49	2411.83
571.84	2415.49
572.20	2418.23
572.55	2421.15
572.90	2423.35
573.26	2426.02
573.61	2428.53
573.96	2430.57
574.31	2432.73
574.67	2434.57
575.02	2435.39
575.37	2436.80
575.72	2437.41
576.08	2438.86
576.43	2439.05
576.78	2439.57
577.13	2441.13
577.49	2442.29
577.84	2443.51
578.19	2444.89
578.54	2445.56
578.90	2446.30
579.25	2446.03
579.60	2445.89
579.95	2445.10
580.30	2445.03
580.66	2444.27
581.01	2442.55
581.36	2440.11
581.71	2438.43
582.06	2437.25
582.42	2436.34
582.77	2434.08
583.12	2432.51
583.47	2431.12
583.82	2430.48
584.17	2429.12
584.53	2426.86
584.88	2424.70
585.23	2422.61
585.58	2420.16
585.93	2418.05
586.28	2415.74
586.63	2413.12
586.98	2410.92
587.34	2408.85
587.69	2406.34
588.04	2404.39
588.39	2402.88
588.74	2400.45
589.09	2397.81
589.44	2394.49
589.79	2391.79
590.14	2389.64
590.49	2386.81
590.84	2382.79
591.19	2379.50
591.54	2376.19
591.89	2372.15
592.25	2368.81
592.60	2364.50
592.95	2360.32
593.30	2356.07
593.65	2351.59
594.00	2347.22
594.35	2344.13
594.70	2339.39
595.05	2334.89
595.40	2329.15
595.75	2323.31
596.10	2319.60
596.45	2314.68
596.80	2310.08
597.15	2304.82
597.50	2298.95
597.85	2293.93
598.19	2288.74
598.54	2283.00
598.89	2277.63
599.24	2272.97
599.59	2266.90
599.94	2261.02
600.29	2254.97
600.64	2248.97
600.99	2242.18
601.34	2236.59
601.69	2229.50
602.04	2223.18
602.39	2216.46
602.74	2210.39
603.08	2204.87
603.43	2198.19
603.78	2191.18
604.13	2184.15
604.48	2176.93
604.83	2170.74
605.18	2164.41
605.53	2157.36
605.87	2150.26
606.22	2143.47
606.57	2135.45
606.92	2127.34
607.27	2120.43
607.62	2113.77
607.96	2106.71
608.31	2100.28
608.66	2092.53
609.01	2084.90
609.36	2077.69
609.70	2069.87
610.05	2061.98
610.40	2053.53
610.75	2045.13
611.10	2037.40
611.44	2028.36
611.79	2019.58
612.14	2009.63
612.49	1998.92
612.83	1989.71
613.18	1980.38
613.53	1970.88
613.88	1961.29
614.22	1952.66
614.57	1942.65
614.92	1932.04
615.27	1921.79
615.61	1911.60
615.96	1901.88
616.31	1892.19
616.65	1882.61
617.00	1872.87
617.35	1863.23
617.70	1853.39
618.04	1843.45
618.39	1833.24
618.74	1823.66
619.08	1814.04
619.43	1805.29
619.78	1797.05
620.12	1788.29
620.47	1778.67
620.82	1768.46
621.16	1758.66
621.51	1748.60
621.85	1738.83
622.20	1728.37
622.55	1717.71
622.89	1707.72
623.24	1697.99
623.59	1688.25
623.93	1678.14
624.28	1668.27
624.62	1658.18
624.97	1647.93
625.32	1638.01
625.66	1629.30
626.01	1620.42
626.35	1610.88
626.70	1600.79
627.04	1590.68
627.39	1580.48
627.73	1571.25
628.08	1562.33
628.43	1552.75
628.77	1543.63
629.12	1534.75
629.46	1526.87
629.81	1518.53
630.15	1508.93
630.50	1499.08
630.84	1488.45
631.19	1478.52
631.53	1469.30
631.88	1459.05
632.22	1448.97
632.57	1439.68
632.91	1429.30
633.26	1419.48
633.60	1409.94
633.95	1400.69
634.29	1391.21
634.64	1381.87
634.98	1371.81
635.32	1362.38
635.67	1353.83
636.01	1344.48
636.36	1334.67
636.70	1325.17
637.05	1315.77
637.39	1306.95
637.73	1298.31
638.08	1290.88
638.42	1282.74
638.77	1273.82
639.11	1265.62
639.45	1257.80
639.80	1249.15
640.14	1240.41
640.49	1231.49
640.83	1222.65
641.17	1214.42
641.52	1206.19
641.86	1197.58
642.20	1189.64
642.55	1181.00
642.89	1172.14
643.23	1163.43
643.58	1155.23
643.92	1146.17
644.26	1137.39
644.61	1128.85
644.95	1119.95
645.29	1110.55
645.64	1101.34
645.98	1092.91
646.32	1084.95
646.66	1076.46
647.01	1068.02
647.35	1059.80
647.69	1051.39
648.04	1042.99
648.38	1034.02
648.72	1025.16
649.06	1016.73
649.41	1008.52
649.75	1000.46
650.09	992.54
650.43	984.54
650.78	976.16
651.12	968.38
651.46	961.02
651.80	953.75
652.14	946.43
652.49	938.92
652.83	931.56
653.17	923.70
653.51	916.04
653.85	908.72
654.20	901.49
654.54	894.07
654.88	886.83
655.22	879.65
655.56	872.65
655.90	865.82
656.25	859.02
656.59	852.12
656.93	845.06
657.27	837.86
657.61	830.74
657.95	824.57
658.29	818.60
658.64	812.36
658.98	805.83
659.32	799.25
659.66	792.99
660.00	786.57
660.34	780.49
660.68	774.33
661.02	767.88
661.36	761.88
661.70	755.98
662.05	750.27
662.39	744.68
662.73	739.21
663.07	733.81
663.41	728.21
663.75	722.39
664.09	716.65
664.43	711.18
664.77	705.91
665.11	700.08
665.45	694.16
665.79	688.25
666.13	682.48
666.47	676.91
666.81	671.32
667.15	665.92
667.49	660.68
667.83	655.28
668.17	650.09
668.51	644.94
668.85	640.03
669.19	635.13
669.53	630.08
669.87	624.93
670.21	620.09
670.55	615.30
670.89	610.85
671.23	606.54
671.57	602.13
671.91	597.70
672.25	593.49
672.58	589.29
672.92	585.24
673.26	581.27
673.60	577.31
673.94	573.46
674.28	569.81
674.62	566.04
674.96	562.33
675.30	558.75
675.64	555.00
675.97	551.32
676.31	547.61
676.65	543.96
676.99	540.49
677.33	536.61
677.67	532.93
678.01	528.98
678.34	525.26
678.68	521.69
679.02	518.07
679.36	514.36
679.70	510.69
680.04	507.05
680.37	503.59
680.71	500.21
681.05	497.00
681.39	493.62
681.73	490.39
682.06	487.29
682.40	484.13
682.74	480.93
683.08	477.66
683.42	474.42
683.75	471.34
684.09	468.28
684.43	465.41
684.77	462.40
685.10	459.50
685.44	456.59
685.78	453.57
686.12	450.76
686.45	448.00
686.79	445.30
687.13	442.73
687.46	440.05
687.80	437.37
688.14	434.49
688.48	431.87
688.81	429.16
689.15	426.50
689.49	423.83
689.82	421.27
690.16	418.66
690.50	416.19
690.83	413.69
691.17	411.14
691.51	408.64
691.84	406.39
692.18	404.19
692.52	401.93
692.85	399.80
693.19	397.61
693.52	395.40
693.86	393.10
694.20	390.89
694.53	388.67
694.87	386.42
695.21	384.30
695.54	382.09
695.88	379.88
696.21	377.72
696.55	375.54
696.88	373.47
697.22	371.47
697.56	369.51
697.89	367.60
698.23	365.80
698.56	363.96
698.90	362.20
699.23	360.24
699.57	358.36
699.90	356.47
700.24	354.64
700.58	352.87
700.91	351.19
701.25	349.62
701.58	348.01
701.92	346.41
702.25	344.80
702.59	343.12
702.92	341.58
703.26	339.97
703.59	338.54
703.93	337.24
704.26	335.79
704.60	334.28
704.93	332.77
705.26	331.24
705.60	329.77
705.93	328.18
706.27	326.86
706.60	325.58
706.94	324.35
707.27	322.93
707.61	321.54
707.94	320.19
708.27	318.58
708.61	317.11
708.94	315.73
709.28	314.38
709.61	313.16
709.94	311.89
710.28	310.66
710.61	309.42
710.95	307.97
711.28	306.85
711.61	305.64
711.95	304.46
712.28	303.22
712.61	301.99
712.95	300.93
713.28	299.81
713.61	298.60
713.95	297.40
714.28	296.37
714.61	295.29
714.95	294.27
715.28	293.26
715.61	292.23
715.95	291.21
716.28	290.25
716.61	289.28
716.95	288.28
717.28	287.33
717.61	286.36
717.94	285.41
718.28	284.36
718.61	283.47
718.94	282.57
719.27	281.69
719.61	280.90
719.94	279.96
720.27	279.06
720.60	278.17
720.94	277.39
721.27	276.63
721.60	275.95
721.93	275.23
722.27	274.58
722.60	273.92
722.93	273.22
723.26	272.51
723.59	271.77
723.93	271.12
724.26	270.47
724.59	269.83
724.92	269.24
725.25	268.73
725.59	268.14
725.92	267.57
726.25	266.99
726.58	266.37
726.91	265.76
727.24	265.19
727.57	264.63
727.91	264.00
728.24	263.43
728.57	262.79
728.90	262.21
729.23	261.63
729.56	261.16
729.89	260.64
730.22	260.09
730.55	259.54
730.89	259.03
731.22	258.51
731.55	257.97
731.88	257.46
732.21	256.90
732.54	256.38
732.87	255.89
733.20	255.44
733.53	254.93
733.86	254.54
734.19	254.04
734.52	253.64
734.85	253.34
735.18	252.83
735.51	252.45
735.84	252.02
736.17	251.60
736.50	251.04
736.83	250.83
737.16	250.42
737.49	250.04
737.82	249.62
738.15	249.22
738.48	248.83
738.81	248.43
739.14	247.97
739.47	247.53
739.80	247.13
740.13	246.77
740.46	246.39
740.79	245.96
741.12	245.61
741.45	245.26
741.78	244.79
742.11	244.53
742.44	244.13
742.77	243.81
743.10	243.45
743.43	243.14
743.75	242.58
744.08	242.52
744.41	242.14
744.74	241.76
745.07	241.37
745.40	241.07
745.73	240.79
746.06	240.48
746.39	240.18
746.71	239.84
747.04	239.44
747.37	239.11
747.70	238.83
748.03	238.47
748.36	238.16
748.68	237.85
749.01	237.46
749.34	237.17
749.67	236.83
750.00	236.58
750.33	236.40
750.65	236.12
750.98	235.58
751.31	235.33
751.64	235.16
751.97	235.02
752.29	234.75
752.62	234.41
752.95	234.17
753.28	233.91
753.60	233.65
753.93	233.50
754.26	233.32
754.59	233.06
754.91	232.85
755.24	232.62
755.57	232.37
755.90	232.18
756.22	231.93
756.55	231.69
756.88	231.42
757.20	231.10
757.53	230.85
757.86	230.63
758.19	230.43
758.51	230.17
758.84	229.86
759.17	229.65
759.49	229.48
759.82	229.40
760.15	229.25
760.47	229.11
760.80	228.85
761.13	228.69
761.45	228.47
761.78	228.29
762.11	228.09
762.43	227.90
762.76	227.70
763.08	227.57
763.41	227.42
763.74	227.27
764.06	227.11
764.39	226.94
764.71	226.79
765.04	226.63
765.37	226.47
765.69	226.29
766.02	226.12
766.34	225.96
766.67	225.75
767.00	225.63
767.32	225.60
767.65	225.56
767.97	225.36
768.30	225.24
768.62	225.12
768.95	224.96
769.27	224.84
769.60	224.75
769.92	224.59
770.25	224.44
770.57	224.30
770.90	224.18
771.22	224.07
771.55	223.97
771.87	223.86
772.20	223.76
772.52	223.86
772.85	224.02
773.17	223.92
773.50	223.76
773.82	223.64
774.15	223.37
774.47	223.20
774.80	223.09
775.12	223.00
775.45	222.90
775.77	222.82
776.09	222.75
776.42	222.66
776.74	222.66
777.07	222.58
777.39	222.48
777.72	222.38
778.04	222.34
778.36	222.22
778.69	222.14
779.01	222.04
779.33	221.75
779.66	221.44
779.98	221.35
780.31	221.31
780.63	221.32
780.95	221.33
781.28	221.25
781.60	221.19
781.92	221.12
782.25	221.05
782.57	220.99
782.89	220.91
783.22	220.82
783.54	220.67
783.86	220.62
784.19	220.57
784.51	220.57
784.83	220.47
785.16	220.44
785.48	220.42
785.80	220.37
786.12	220.35
