SpectraSuite Data File
++++++++++++++++++++++++++++++++++++
Date: Tue Jan 29 15:57:17 EST 2013
User: group
Dark Spectrum Present: No
Reference Spectrum Present: No
Number of Sampled Component Spectra: 1
Spectrometers: USB2E7196
Integration Time (usec): 65000 (USB2E7196)
Spectra Averaged: 100 (USB2E7196)
Boxcar Smoothing: 10 (USB2E7196)
Correct for Electrical Dark: No (USB2E7196)
Strobe/Lamp Enabled: No (USB2E7196)
Correct for Detector Non-linearity: No (USB2E7196)
Correct for Stray Light: No (USB2E7196)
Number of Pixels in Processed Spectrum: 2048
>>>>>Begin Processed Spectral Data<<<<<
339.09	0.00
339.48	202.34
339.86	203.78
340.24	205.17
340.63	207.05
341.01	211.68
341.39	209.98
341.78	210.51
342.16	212.93
342.54	212.55
342.93	201.76
343.31	211.97
343.69	212.50
344.07	212.94
344.46	213.42
344.84	213.83
345.22	213.98
345.60	214.24
345.99	214.46
346.37	214.60
346.75	214.70
347.13	214.75
347.52	214.82
347.90	214.94
348.28	214.97
348.66	215.08
349.05	215.07
349.43	215.16
349.81	215.25
350.19	215.33
350.57	215.39
350.96	215.47
351.34	215.60
351.72	215.74
352.10	215.89
352.48	215.96
352.87	216.02
353.25	216.09
353.63	216.15
354.01	216.24
354.39	216.33
354.77	216.44
355.15	216.58
355.54	216.62
355.92	216.62
356.30	216.69
356.68	216.88
357.06	216.97
357.44	217.01
357.82	217.06
358.20	217.15
358.58	217.23
358.97	217.36
359.35	217.45
359.73	217.54
360.11	217.60
360.49	217.65
360.87	217.68
361.25	217.77
361.63	217.90
362.01	217.95
362.39	217.96
362.77	218.01
363.15	218.04
363.53	218.10
363.91	218.11
364.29	218.17
364.67	218.01
365.05	218.06
365.43	218.11
365.81	218.13
366.19	218.21
366.57	218.27
366.95	218.22
367.33	218.19
367.71	218.21
368.09	218.26
368.47	218.30
368.85	218.31
369.23	218.38
369.61	218.31
369.99	218.37
370.37	218.37
370.75	218.49
371.13	218.45
371.51	218.41
371.89	218.46
372.27	218.42
372.65	218.41
373.03	218.36
373.41	218.33
373.78	218.31
374.16	218.18
374.54	218.13
374.92	218.09
375.30	218.04
375.68	217.93
376.06	217.87
376.44	217.78
376.82	217.76
377.19	217.66
377.57	217.61
377.95	217.46
378.33	217.43
378.71	217.23
379.09	217.20
379.47	217.17
379.84	217.07
380.22	217.05
380.60	216.97
380.98	216.96
381.36	216.92
381.73	216.86
382.11	216.86
382.49	216.80
382.87	216.74
383.25	216.71
383.62	216.94
384.00	216.88
384.38	216.84
384.76	216.82
385.13	216.87
385.51	216.84
385.89	216.78
386.27	216.74
386.64	216.74
387.02	216.69
387.40	216.66
387.78	216.64
388.15	216.62
388.53	216.60
388.91	216.53
389.29	216.49
389.66	216.49
390.04	216.45
390.42	216.44
390.79	216.48
391.17	216.45
391.55	216.22
391.92	216.19
392.30	216.21
392.68	216.15
393.05	216.08
393.43	216.07
393.81	216.06
394.18	216.03
394.56	216.04
394.94	216.10
395.31	216.06
395.69	216.17
396.06	216.16
396.44	216.21
396.82	216.24
397.19	216.38
397.57	216.35
397.95	216.41
398.32	216.37
398.70	216.39
399.07	216.46
399.45	216.50
399.82	216.56
400.20	216.60
400.58	216.68
400.95	216.66
401.33	216.78
401.70	217.03
402.08	217.12
402.45	217.20
402.83	217.33
403.20	217.50
403.58	217.56
403.95	217.74
404.33	217.87
404.71	218.00
405.08	218.22
405.46	218.40
405.83	218.58
406.21	218.80
406.58	219.01
406.96	219.20
407.33	219.42
407.70	219.73
408.08	220.16
408.45	220.49
408.83	220.90
409.20	221.22
409.58	221.49
409.95	221.95
410.33	222.42
410.70	222.82
411.08	223.32
411.45	223.86
411.82	224.40
412.20	225.05
412.57	225.85
412.95	226.39
413.32	227.19
413.69	227.98
414.07	228.89
414.44	229.83
414.82	230.82
415.19	231.98
415.56	233.08
415.94	234.17
416.31	235.56
416.68	236.89
417.06	238.43
417.43	239.89
417.81	241.56
418.18	243.25
418.55	245.07
418.93	247.01
419.30	249.05
419.67	251.20
420.04	253.41
420.42	255.71
420.79	258.39
421.16	261.12
421.54	263.93
421.91	266.78
422.28	269.76
422.66	272.91
423.03	276.08
423.40	279.33
423.77	282.82
424.15	286.34
424.52	290.05
424.89	294.04
425.26	297.95
425.64	301.67
426.01	305.79
426.38	310.10
426.75	314.48
427.13	318.98
427.50	323.73
427.87	328.74
428.24	333.72
428.61	338.53
428.99	343.80
429.36	349.55
429.73	355.16
430.10	360.79
430.47	366.68
430.85	372.68
431.22	379.11
431.59	385.95
431.96	392.46
432.33	399.63
432.70	406.67
433.08	414.86
433.45	422.59
433.82	430.30
434.19	438.87
434.56	447.26
434.93	455.26
435.30	463.25
435.68	471.96
436.05	480.60
436.42	489.13
436.79	496.92
437.16	505.41
437.53	514.37
437.90	523.19
438.27	531.77
438.64	540.66
439.01	548.86
439.38	556.21
439.75	563.29
440.13	571.43
440.50	578.99
440.87	585.17
441.24	591.57
441.61	598.62
441.98	603.72
442.35	609.83
442.72	615.95
443.09	621.72
443.46	625.33
443.83	627.71
444.20	629.78
444.57	632.82
444.94	634.12
445.31	635.45
445.68	636.78
446.05	637.28
446.42	636.51
446.79	635.53
447.16	634.39
447.53	633.56
447.90	630.29
448.27	627.10
448.64	622.64
449.01	619.42
449.37	613.75
449.74	608.31
450.11	601.61
450.48	594.44
450.85	587.27
451.22	581.03
451.59	575.14
451.96	569.60
452.33	561.98
452.70	555.19
453.07	547.09
453.43	538.77
453.80	530.86
454.17	523.18
454.54	515.96
454.91	508.12
455.28	500.56
455.65	493.49
456.02	486.39
456.38	480.37
456.75	472.91
457.12	466.61
457.49	460.42
457.86	454.52
458.23	449.43
458.59	443.82
458.96	438.07
459.33	433.04
459.70	427.93
460.07	423.93
460.43	419.26
460.80	414.85
461.17	411.05
461.54	407.03
461.91	403.18
462.27	399.24
462.64	395.98
463.01	392.33
463.38	388.74
463.74	385.17
464.11	381.98
464.48	379.22
464.85	376.23
465.21	373.93
465.58	371.41
465.95	368.40
466.32	365.86
466.68	363.38
467.05	360.89
467.42	358.39
467.78	355.82
468.15	353.41
468.52	351.64
468.88	349.27
469.25	347.21
469.62	345.53
469.98	343.74
470.35	341.99
470.72	340.40
471.08	338.72
471.45	337.28
471.82	335.83
472.18	334.24
472.55	333.11
472.92	331.74
473.28	330.58
473.65	329.47
474.02	328.44
474.38	327.67
474.75	326.93
475.11	326.20
475.48	325.66
475.85	325.23
476.21	324.75
476.58	324.48
476.94	324.29
477.31	324.02
477.67	323.76
478.04	323.67
478.41	323.69
478.77	323.88
479.14	323.85
479.50	324.03
479.87	324.37
480.23	324.78
480.60	325.06
480.96	325.38
481.33	326.01
481.69	326.59
482.06	327.08
482.42	327.58
482.79	328.20
483.15	329.03
483.52	329.98
483.88	330.89
484.25	331.82
484.61	332.79
484.98	333.87
485.34	335.17
485.71	336.50
486.07	337.89
486.44	339.22
486.80	340.83
487.17	342.46
487.53	344.29
487.90	346.09
488.26	348.12
488.62	350.30
488.99	352.38
489.35	354.53
489.72	356.91
490.08	359.42
490.44	361.99
490.81	364.70
491.17	367.39
491.54	370.33
491.90	373.35
492.26	376.54
492.63	379.88
492.99	383.34
493.36	387.01
493.72	390.91
494.08	394.93
494.45	399.13
494.81	403.53
495.17	407.96
495.54	412.67
495.90	417.47
496.26	422.35
496.63	427.52
496.99	432.91
497.35	438.54
497.72	444.34
498.08	450.25
498.44	456.23
498.80	462.65
499.17	469.15
499.53	475.85
499.89	482.79
500.26	489.76
500.62	496.86
500.98	504.27
501.34	511.71
501.71	519.38
502.07	527.15
502.43	535.11
502.79	543.26
503.16	551.66
503.52	560.22
503.88	568.92
504.24	577.83
504.60	586.83
504.97	595.98
505.33	605.24
505.69	615.09
506.05	625.01
506.41	634.85
506.78	644.86
507.14	655.05
507.50	665.39
507.86	676.05
508.22	686.73
508.59	697.34
508.95	708.34
509.31	719.66
509.67	731.02
510.03	742.41
510.39	754.12
510.75	765.82
511.12	777.67
511.48	789.63
511.84	801.74
512.20	814.06
512.56	826.60
512.92	839.35
513.28	851.94
513.64	864.60
514.00	877.22
514.37	890.07
514.73	903.12
515.09	915.96
515.45	928.68
515.81	941.68
516.17	954.98
516.53	968.01
516.89	980.88
517.25	993.90
517.61	1007.19
517.97	1020.31
518.33	1033.37
518.69	1046.75
519.05	1060.40
519.41	1073.90
519.77	1087.62
520.13	1100.72
520.49	1113.63
520.85	1126.71
521.21	1139.76
521.57	1153.37
521.93	1166.38
522.29	1179.93
522.65	1193.46
523.01	1206.90
523.37	1219.86
523.73	1232.89
524.09	1245.84
524.45	1259.09
524.81	1272.34
525.17	1285.58
525.53	1298.52
525.89	1311.47
526.25	1324.16
526.61	1336.63
526.97	1349.44
527.33	1361.91
527.68	1375.07
528.04	1388.20
528.40	1401.04
528.76	1414.09
529.12	1426.53
529.48	1439.46
529.84	1451.35
530.20	1463.72
530.56	1476.04
530.91	1488.98
531.27	1501.50
531.63	1514.05
531.99	1526.43
532.35	1538.42
532.71	1550.43
533.07	1562.89
533.42	1574.73
533.78	1586.70
534.14	1598.47
534.50	1609.32
534.86	1620.58
535.21	1631.09
535.57	1642.25
535.93	1653.30
536.29	1664.14
536.65	1675.24
537.00	1685.84
537.36	1696.88
537.72	1707.54
538.08	1718.42
538.44	1728.89
538.79	1739.48
539.15	1750.00
539.51	1760.33
539.87	1771.29
540.22	1781.72
540.58	1792.22
540.94	1802.81
541.29	1812.68
541.65	1822.13
542.01	1832.51
542.37	1842.28
542.72	1852.13
543.08	1861.56
543.44	1871.53
543.79	1880.54
544.15	1889.60
544.51	1899.23
544.87	1908.81
545.22	1917.56
545.58	1926.26
545.94	1934.61
546.29	1942.85
546.65	1950.62
547.01	1958.53
547.36	1965.88
547.72	1973.25
548.07	1980.52
548.43	1987.90
548.79	1995.45
549.14	2003.33
549.50	2011.22
549.86	2018.77
550.21	2025.93
550.57	2033.35
550.92	2039.85
551.28	2047.11
551.64	2054.22
551.99	2061.45
552.35	2068.24
552.70	2074.90
553.06	2081.21
553.41	2087.64
553.77	2093.94
554.13	2100.24
554.48	2107.04
554.84	2113.74
555.19	2120.08
555.55	2126.61
555.90	2132.76
556.26	2139.34
556.61	2144.97
556.97	2149.80
557.32	2155.65
557.68	2161.96
558.03	2167.45
558.39	2172.62
558.74	2178.40
559.10	2183.90
559.45	2189.43
559.81	2194.89
560.16	2200.39
560.52	2206.35
560.87	2212.57
561.23	2218.63
561.58	2225.35
561.94	2230.62
562.29	2235.56
562.64	2241.83
563.00	2247.26
563.35	2253.02
563.71	2258.89
564.06	2264.68
564.42	2270.55
564.77	2275.63
565.12	2280.72
565.48	2286.29
565.83	2291.96
566.19	2297.56
566.54	2303.07
566.89	2307.72
567.25	2312.60
567.60	2318.44
567.96	2323.73
568.31	2328.45
568.66	2332.76
569.02	2336.57
569.37	2340.47
569.72	2344.97
570.08	2348.37
570.43	2351.62
570.78	2354.60
571.14	2357.35
571.49	2360.65
571.84	2364.40
572.20	2367.23
572.55	2370.57
572.90	2372.73
573.26	2375.82
573.61	2378.32
573.96	2380.53
574.31	2382.59
574.67	2384.39
575.02	2385.52
575.37	2387.05
575.72	2388.00
576.08	2389.51
576.43	2390.01
576.78	2390.78
577.13	2392.60
577.49	2394.04
577.84	2395.46
578.19	2397.29
578.54	2398.35
578.90	2399.56
579.25	2399.64
579.60	2400.08
579.95	2399.64
580.30	2400.29
580.66	2399.82
581.01	2398.45
581.36	2396.58
581.71	2395.51
582.06	2394.86
582.42	2394.26
582.77	2392.34
583.12	2390.98
583.47	2390.08
583.82	2389.91
584.17	2388.95
584.53	2387.08
584.88	2385.28
585.23	2383.54
585.58	2381.53
585.93	2379.32
586.28	2377.33
586.63	2375.23
586.98	2373.25
587.34	2371.46
587.69	2369.22
588.04	2367.48
588.39	2366.27
588.74	2364.05
589.09	2361.69
589.44	2358.92
589.79	2356.71
590.14	2355.12
590.49	2352.52
590.84	2349.01
591.19	2346.15
591.54	2342.94
591.89	2339.10
592.25	2336.14
592.60	2332.19
592.95	2328.12
593.30	2324.28
593.65	2319.91
594.00	2315.78
594.35	2312.83
594.70	2308.32
595.05	2303.80
595.40	2298.37
595.75	2293.01
596.10	2289.34
596.45	2284.62
596.80	2280.03
597.15	2274.86
597.50	2268.99
597.85	2264.18
598.19	2258.85
598.54	2253.06
598.89	2248.20
599.24	2243.75
599.59	2237.62
599.94	2232.15
600.29	2226.35
600.64	2220.60
600.99	2214.23
601.34	2208.96
601.69	2201.86
602.04	2195.73
602.39	2189.37
602.74	2183.66
603.08	2178.02
603.43	2171.80
603.78	2165.12
604.13	2158.21
604.48	2150.93
604.83	2145.10
605.18	2138.89
605.53	2132.16
605.87	2125.29
606.22	2118.56
606.57	2110.88
606.92	2103.26
607.27	2096.28
607.62	2089.75
607.96	2082.71
608.31	2076.20
608.66	2068.49
609.01	2061.28
609.36	2054.26
609.70	2046.66
610.05	2038.79
610.40	2030.67
610.75	2022.34
611.10	2014.81
611.44	2006.15
611.79	1997.45
612.14	1987.31
612.49	1976.82
612.83	1967.69
613.18	1958.61
613.53	1949.30
613.88	1939.73
614.22	1931.09
614.57	1921.26
614.92	1910.83
615.27	1900.93
615.61	1890.87
615.96	1881.10
616.31	1871.52
616.65	1862.06
617.00	1852.07
617.35	1842.48
617.70	1832.75
618.04	1822.57
618.39	1812.15
618.74	1802.36
619.08	1792.97
619.43	1784.30
619.78	1776.04
620.12	1767.16
620.47	1757.21
620.82	1746.93
621.16	1737.01
621.51	1727.01
621.85	1717.08
622.20	1706.62
622.55	1695.80
622.89	1686.01
623.24	1676.32
623.59	1666.55
623.93	1656.38
624.28	1646.66
624.62	1636.44
624.97	1626.16
625.32	1616.63
625.66	1607.87
626.01	1599.01
626.35	1589.49
626.70	1579.34
627.04	1569.15
627.39	1559.18
627.73	1550.02
628.08	1540.92
628.43	1531.38
628.77	1522.13
629.12	1513.36
629.46	1505.44
629.81	1497.12
630.15	1487.48
630.50	1477.55
630.84	1467.09
631.19	1457.26
631.53	1447.90
631.88	1437.78
632.22	1427.74
632.57	1418.28
632.91	1408.08
633.26	1398.20
633.60	1388.61
633.95	1379.28
634.29	1369.95
634.64	1360.54
634.98	1350.63
635.32	1341.36
635.67	1332.80
636.01	1323.50
636.36	1313.57
636.70	1304.10
637.05	1294.67
637.39	1285.66
637.73	1277.06
638.08	1269.43
638.42	1261.09
638.77	1252.31
639.11	1244.15
639.45	1236.24
639.80	1227.55
640.14	1218.88
640.49	1209.93
640.83	1201.11
641.17	1193.06
641.52	1184.73
641.86	1176.03
642.20	1168.15
642.55	1159.48
642.89	1150.62
643.23	1141.91
643.58	1133.78
643.92	1124.62
644.26	1115.92
644.61	1107.50
644.95	1098.67
645.29	1089.29
645.64	1080.13
645.98	1071.80
646.32	1063.72
646.66	1055.18
647.01	1046.78
647.35	1038.56
647.69	1030.25
648.04	1021.92
648.38	1012.87
648.72	1004.11
649.06	995.76
649.41	987.68
649.75	979.71
650.09	971.85
650.43	963.83
650.78	955.69
651.12	948.08
651.46	940.76
651.80	933.42
652.14	926.17
652.49	918.78
652.83	911.49
653.17	903.72
653.51	896.10
653.85	888.92
654.20	881.66
654.54	874.08
654.88	866.94
655.22	859.88
655.56	853.08
655.90	846.35
656.25	839.65
656.59	832.54
656.93	825.57
657.27	818.47
657.61	811.66
657.95	805.62
658.29	799.77
658.64	793.58
658.98	787.19
659.32	780.65
659.66	774.44
660.00	768.08
660.34	762.10
660.68	756.05
661.02	749.72
661.36	743.91
661.70	738.28
662.05	732.60
662.39	727.12
662.73	721.76
663.07	716.39
663.41	710.90
663.75	705.31
664.09	699.72
664.43	694.42
664.77	689.11
665.11	683.27
665.45	677.42
665.79	671.70
666.13	666.08
666.47	660.68
666.81	655.25
667.15	649.97
667.49	644.79
667.83	639.56
668.17	634.43
668.51	629.38
668.85	624.52
669.19	619.72
669.53	614.67
669.87	609.55
670.21	604.88
670.55	600.18
670.89	595.88
671.23	591.71
671.57	587.29
671.91	583.04
672.25	578.96
672.58	574.85
672.92	570.85
673.26	566.99
673.60	563.22
673.94	559.53
674.28	555.93
674.62	552.27
674.96	548.62
675.30	545.13
675.64	541.60
675.97	538.03
676.31	534.43
676.65	530.90
676.99	527.56
677.33	523.81
677.67	520.27
678.01	516.43
678.34	512.80
678.68	509.35
679.02	505.74
679.36	502.09
679.70	498.53
680.04	495.12
680.37	491.75
680.71	488.45
681.05	485.31
681.39	482.12
681.73	478.94
682.06	475.96
682.40	472.94
682.74	469.74
683.08	466.64
683.42	463.65
683.75	460.80
684.09	457.86
684.43	455.10
684.77	452.17
685.10	449.44
685.44	446.54
685.78	443.65
686.12	440.97
686.45	438.30
686.79	435.74
687.13	433.20
687.46	430.60
687.80	427.98
688.14	425.19
688.48	422.70
688.81	420.10
689.15	417.59
689.49	415.02
689.82	412.53
690.16	410.01
690.50	407.56
690.83	405.08
691.17	402.57
691.51	400.16
691.84	398.05
692.18	395.83
692.52	393.73
692.85	391.71
693.19	389.63
693.52	387.53
693.86	385.32
694.20	383.18
694.53	381.13
694.87	378.97
695.21	376.92
695.54	374.79
695.88	372.71
696.21	370.57
696.55	368.50
696.88	366.52
697.22	364.56
697.56	362.73
697.89	360.89
698.23	359.23
698.56	357.49
698.90	355.74
699.23	353.87
699.57	352.01
699.90	350.19
700.24	348.39
700.58	346.66
700.91	345.05
701.25	343.50
701.58	341.91
701.92	340.40
702.25	338.84
702.59	337.30
702.92	335.79
703.26	334.30
703.59	332.91
703.93	331.67
704.26	330.28
704.60	328.78
704.93	327.35
705.26	325.83
705.60	324.42
705.93	322.96
706.27	321.69
706.60	320.48
706.94	319.31
707.27	317.98
707.61	316.73
707.94	315.45
708.27	314.03
708.61	312.60
708.94	311.24
709.28	309.99
709.61	308.77
709.94	307.62
710.28	306.43
710.61	305.24
710.95	303.84
711.28	302.84
711.61	301.72
711.95	300.64
712.28	299.51
712.61	298.33
712.95	297.28
713.28	296.25
713.61	295.13
713.95	293.99
714.28	293.02
714.61	291.94
714.95	290.92
715.28	289.94
715.61	289.00
715.95	288.09
716.28	287.17
716.61	286.21
716.95	285.26
717.28	284.37
717.61	283.46
717.94	282.62
718.28	281.59
718.61	280.74
718.94	279.83
719.27	278.99
719.61	278.22
719.94	277.39
720.27	276.48
720.60	275.66
720.94	274.90
721.27	274.16
721.60	273.52
721.93	272.82
722.27	272.16
722.60	271.49
722.93	270.80
723.26	270.15
723.59	269.50
723.93	268.88
724.26	268.26
724.59	267.62
724.92	267.05
725.25	266.54
725.59	266.00
725.92	265.50
726.25	264.98
726.58	264.42
726.91	263.88
727.24	263.35
727.57	262.83
727.91	262.24
728.24	261.73
728.57	261.15
728.90	260.62
729.23	260.05
729.56	259.63
729.89	259.10
730.22	258.55
730.55	258.02
730.89	257.48
731.22	256.94
731.55	256.43
731.88	255.94
732.21	255.43
732.54	254.87
732.87	254.35
733.20	253.88
733.53	253.38
733.86	252.94
734.19	252.46
734.52	252.07
734.85	251.77
735.18	251.30
735.51	250.97
735.84	250.58
736.17	250.20
736.50	249.71
736.83	249.60
737.16	249.27
737.49	248.92
737.82	248.53
738.15	248.21
738.48	247.88
738.81	247.48
739.14	247.07
739.47	246.70
739.80	246.35
740.13	246.00
740.46	245.67
740.79	245.29
741.12	244.96
741.45	244.59
741.78	244.17
742.11	243.90
742.44	243.55
742.77	243.24
743.10	242.90
743.43	242.56
743.75	241.99
744.08	241.94
744.41	241.58
744.74	241.24
745.07	240.85
745.40	240.57
745.73	240.32
746.06	240.03
746.39	239.76
746.71	239.43
747.04	239.07
747.37	238.76
747.70	238.45
748.03	238.18
748.36	237.95
748.68	237.66
749.01	237.33
749.34	237.03
749.67	236.76
750.00	236.54
750.33	236.42
750.65	236.15
750.98	235.61
751.31	235.39
751.64	235.18
751.97	235.11
752.29	234.82
752.62	234.48
752.95	234.25
753.28	234.02
753.60	233.81
753.93	233.70
754.26	233.53
754.59	233.30
754.91	233.05
755.24	232.79
755.57	232.54
755.90	232.32
756.22	232.09
756.55	231.85
756.88	231.60
757.20	231.27
757.53	231.01
757.86	230.83
758.19	230.67
758.51	230.49
758.84	230.20
759.17	230.01
759.49	229.88
759.82	229.78
760.15	229.58
760.47	229.41
760.80	229.15
761.13	229.01
761.45	228.81
761.78	228.65
762.11	228.50
762.43	228.34
762.76	228.18
763.08	228.06
763.41	227.93
763.74	227.78
764.06	227.62
764.39	227.49
764.71	227.30
765.04	227.12
765.37	226.93
765.69	226.77
766.02	226.62
766.34	226.47
766.67	226.26
767.00	226.15
767.32	226.13
767.65	226.11
767.97	225.94
768.30	225.83
768.62	225.68
768.95	225.53
769.27	225.40
769.60	225.33
769.92	225.15
770.25	224.97
770.57	224.84
770.90	224.77
771.22	224.65
771.55	224.56
771.87	224.44
772.20	224.33
772.52	224.40
772.85	224.54
773.17	224.44
773.50	224.30
773.82	224.23
774.15	224.02
774.47	223.81
774.80	223.70
775.12	223.58
775.45	223.52
775.77	223.44
776.09	223.38
776.42	223.27
776.74	223.28
777.07	223.17
777.39	223.10
777.72	222.99
778.04	222.96
778.36	222.87
778.69	222.83
779.01	222.76
779.33	222.49
779.66	222.19
779.98	222.15
780.31	222.09
780.63	222.09
780.95	222.06
781.28	222.01
781.60	221.93
781.92	221.91
782.25	221.81
782.57	221.75
782.89	221.68
783.22	221.57
783.54	221.46
783.86	221.44
784.19	221.35
784.51	221.35
784.83	221.20
785.16	221.13
785.48	221.04
785.80	221.03
786.12	221.00
