SpectraSuite Data File
++++++++++++++++++++++++++++++++++++
Date: Tue Jan 29 16:57:48 EST 2013
User: group
Dark Spectrum Present: No
Reference Spectrum Present: No
Number of Sampled Component Spectra: 1
Spectrometers: USB2E7196
Integration Time (usec): 65000 (USB2E7196)
Spectra Averaged: 100 (USB2E7196)
Boxcar Smoothing: 10 (USB2E7196)
Correct for Electrical Dark: No (USB2E7196)
Strobe/Lamp Enabled: No (USB2E7196)
Correct for Detector Non-linearity: No (USB2E7196)
Correct for Stray Light: No (USB2E7196)
Number of Pixels in Processed Spectrum: 2048
>>>>>Begin Processed Spectral Data<<<<<
339.09	0.00
339.48	200.97
339.86	202.96
340.24	203.95
340.63	206.04
341.01	209.69
341.39	208.55
341.78	209.87
342.16	211.25
342.54	211.65
342.93	200.82
343.31	210.95
343.69	211.53
344.07	212.00
344.46	212.48
344.84	212.87
345.22	213.09
345.60	213.36
345.99	213.55
346.37	213.69
346.75	213.80
347.13	213.87
347.52	213.95
347.90	214.05
348.28	214.07
348.66	214.11
349.05	214.12
349.43	214.20
349.81	214.25
350.19	214.30
350.57	214.37
350.96	214.47
351.34	214.60
351.72	214.71
352.10	214.83
352.48	214.89
352.87	214.94
353.25	215.02
353.63	215.08
354.01	215.14
354.39	215.22
354.77	215.30
355.15	215.40
355.54	215.44
355.92	215.46
356.30	215.52
356.68	215.71
357.06	215.77
357.44	215.76
357.82	215.81
358.20	215.88
358.58	215.92
358.97	215.97
359.35	216.06
359.73	216.14
360.11	216.21
360.49	216.25
360.87	216.29
361.25	216.30
361.63	216.41
362.01	216.49
362.39	216.50
362.77	216.57
363.15	216.61
363.53	216.64
363.91	216.67
364.29	216.72
364.67	216.53
365.05	216.57
365.43	216.60
365.81	216.66
366.19	216.75
366.57	216.83
366.95	216.83
367.33	216.75
367.71	216.70
368.09	216.70
368.47	216.68
368.85	216.67
369.23	216.70
369.61	216.62
369.99	216.67
370.37	216.70
370.75	216.76
371.13	216.70
371.51	216.66
371.89	216.66
372.27	216.63
372.65	216.60
373.03	216.53
373.41	216.50
373.78	216.43
374.16	216.34
374.54	216.24
374.92	216.18
375.30	216.17
375.68	216.12
376.06	216.08
376.44	216.05
376.82	216.03
377.19	216.00
377.57	215.95
377.95	215.81
378.33	215.74
378.71	215.56
379.09	215.57
379.47	215.54
379.84	215.46
380.22	215.41
380.60	215.34
380.98	215.30
381.36	215.25
381.73	215.14
382.11	215.07
382.49	215.04
382.87	214.97
383.25	214.91
383.62	215.10
384.00	215.05
384.38	215.01
384.76	215.03
385.13	215.05
385.51	215.00
385.89	214.95
386.27	214.91
386.64	214.93
387.02	214.87
387.40	214.85
387.78	214.82
388.15	214.79
388.53	214.76
388.91	214.76
389.29	214.75
389.66	214.79
390.04	214.76
390.42	214.77
390.79	214.77
391.17	214.75
391.55	214.51
391.92	214.47
392.30	214.50
392.68	214.43
393.05	214.39
393.43	214.40
393.81	214.42
394.18	214.41
394.56	214.40
394.94	214.45
395.31	214.43
395.69	214.53
396.06	214.61
396.44	214.68
396.82	214.66
397.19	214.77
397.57	214.80
397.95	214.88
398.32	214.83
398.70	214.89
399.07	214.97
399.45	215.01
399.82	215.08
400.20	215.14
400.58	215.20
400.95	215.21
401.33	215.32
401.70	215.54
402.08	215.64
402.45	215.73
402.83	215.85
403.20	215.99
403.58	216.05
403.95	216.18
404.33	216.33
404.71	216.51
405.08	216.77
405.46	216.97
405.83	217.13
406.21	217.41
406.58	217.63
406.96	217.88
407.33	218.16
407.70	218.46
408.08	218.90
408.45	219.26
408.83	219.69
409.20	220.03
409.58	220.31
409.95	220.75
410.33	221.23
410.70	221.64
411.08	222.20
411.45	222.78
411.82	223.37
412.20	224.05
412.57	224.87
412.95	225.45
413.32	226.26
413.69	227.13
414.07	227.99
414.44	228.96
414.82	230.00
415.19	231.21
415.56	232.39
415.94	233.58
416.31	235.01
416.68	236.39
417.06	238.02
417.43	239.59
417.81	241.37
418.18	243.18
418.55	245.14
418.93	247.21
419.30	249.35
419.67	251.56
420.04	253.87
420.42	256.27
420.79	259.07
421.16	261.90
421.54	264.80
421.91	267.83
422.28	270.99
422.66	274.27
423.03	277.49
423.40	280.92
423.77	284.51
424.15	288.17
424.52	292.06
424.89	296.28
425.26	300.34
425.64	304.20
426.01	308.52
426.38	313.06
426.75	317.58
427.13	322.32
427.50	327.37
427.87	332.60
428.24	337.83
428.61	342.85
428.99	348.38
429.36	354.44
429.73	360.36
430.10	366.19
430.47	372.28
430.85	378.66
431.22	385.29
431.59	392.43
431.96	399.27
432.33	406.75
432.70	414.02
433.08	422.61
433.45	430.77
433.82	438.81
434.19	447.73
434.56	456.51
434.93	464.87
435.30	473.19
435.68	482.31
436.05	491.34
436.42	500.33
436.79	508.59
437.16	517.43
437.53	526.79
437.90	536.05
438.27	545.17
438.64	554.44
439.01	563.12
439.38	570.78
439.75	578.18
440.13	586.73
440.50	594.73
440.87	601.18
441.24	607.83
441.61	615.18
441.98	620.53
442.35	626.86
442.72	633.23
443.09	639.31
443.46	643.12
443.83	645.71
444.20	647.88
444.57	650.99
444.94	652.41
445.31	653.85
445.68	655.28
446.05	655.85
446.42	655.04
446.79	654.10
447.16	653.04
447.53	652.30
447.90	648.92
448.27	645.65
448.64	641.01
449.01	637.66
449.37	631.87
449.74	626.23
450.11	619.33
450.48	611.91
450.85	604.42
451.22	597.98
451.59	591.81
451.96	586.01
452.33	578.14
452.70	571.04
453.07	562.52
453.43	553.88
453.80	545.51
454.17	537.51
454.54	529.87
454.91	521.63
455.28	513.61
455.65	506.11
456.02	498.48
456.38	492.10
456.75	484.20
457.12	477.49
457.49	470.90
457.86	464.58
458.23	459.20
458.59	453.20
458.96	447.11
459.33	441.71
459.70	436.30
460.07	431.98
460.43	427.06
460.80	422.38
461.17	418.36
461.54	414.16
461.91	410.11
462.27	406.00
462.64	402.54
463.01	398.71
463.38	395.06
463.74	391.35
464.11	388.10
464.48	385.26
464.85	382.14
465.21	379.75
465.58	377.18
465.95	373.97
466.32	371.34
466.68	368.70
467.05	366.09
467.42	363.50
467.78	360.77
468.15	358.20
468.52	356.29
468.88	353.72
469.25	351.41
469.62	349.58
469.98	347.57
470.35	345.70
470.72	343.96
471.08	342.11
471.45	340.63
471.82	339.08
472.18	337.41
472.55	336.21
472.92	334.75
473.28	333.51
473.65	332.34
474.02	331.19
474.38	330.31
474.75	329.58
475.11	328.74
475.48	328.12
475.85	327.59
476.21	327.06
476.58	326.70
476.94	326.47
477.31	326.15
477.67	325.91
478.04	325.75
478.41	325.69
478.77	325.79
479.14	325.72
479.50	325.80
479.87	326.05
480.23	326.27
480.60	326.47
480.96	326.73
481.33	327.31
481.69	327.83
482.06	328.28
482.42	328.69
482.79	329.28
483.15	330.06
483.52	330.97
483.88	331.84
484.25	332.73
484.61	333.73
484.98	334.71
485.34	335.99
485.71	337.29
486.07	338.67
486.44	340.01
486.80	341.56
487.17	343.19
487.53	344.94
487.90	346.85
488.26	348.90
488.62	351.04
488.99	353.05
489.35	355.20
489.72	357.57
490.08	360.12
490.44	362.67
490.81	365.36
491.17	368.07
491.54	371.06
491.90	374.06
492.26	377.29
492.63	380.68
492.99	384.17
493.36	387.88
493.72	391.82
494.08	395.81
494.45	400.07
494.81	404.50
495.17	408.99
495.54	413.71
495.90	418.47
496.26	423.42
496.63	428.67
496.99	434.12
497.35	439.68
497.72	445.46
498.08	451.39
498.44	457.49
498.80	463.92
499.17	470.40
499.53	477.10
499.89	484.02
500.26	491.10
500.62	498.16
500.98	505.56
501.34	512.96
501.71	520.71
502.07	528.45
502.43	536.39
502.79	544.53
503.16	552.83
503.52	561.42
503.88	570.11
504.24	578.98
504.60	588.02
504.97	597.29
505.33	606.48
505.69	616.24
506.05	626.06
506.41	635.95
506.78	646.08
507.14	656.38
507.50	666.80
507.86	677.39
508.22	688.07
508.59	698.66
508.95	709.65
509.31	720.81
509.67	732.20
510.03	743.53
510.39	755.21
510.75	767.01
511.12	778.85
511.48	790.86
511.84	803.08
512.20	815.36
512.56	827.95
512.92	840.87
513.28	853.55
513.64	866.32
514.00	879.07
514.37	891.89
514.73	904.90
515.09	917.91
515.45	930.81
515.81	943.85
516.17	957.26
516.53	970.50
516.89	983.65
517.25	996.91
517.61	1010.49
517.97	1023.83
518.33	1037.05
518.69	1050.58
519.05	1064.32
519.41	1078.02
519.77	1091.86
520.13	1105.09
520.49	1118.07
520.85	1131.44
521.21	1144.70
521.57	1158.27
521.93	1171.26
522.29	1184.89
522.65	1198.46
523.01	1212.17
523.37	1225.47
523.73	1238.68
524.09	1251.98
524.45	1265.48
524.81	1278.93
525.17	1292.29
525.53	1305.57
525.89	1318.80
526.25	1331.97
526.61	1344.92
526.97	1358.02
527.33	1371.10
527.68	1384.61
528.04	1398.18
528.40	1411.27
528.76	1424.75
529.12	1437.76
529.48	1451.16
529.84	1463.55
530.20	1476.34
530.56	1488.77
530.91	1501.97
531.27	1514.97
531.63	1527.57
531.99	1540.24
532.35	1552.48
532.71	1564.83
533.07	1577.69
533.42	1590.10
533.78	1602.33
534.14	1614.24
534.50	1625.43
534.86	1636.87
535.21	1647.74
535.57	1659.27
535.93	1670.50
536.29	1681.49
536.65	1692.86
537.00	1703.71
537.36	1715.16
537.72	1725.85
538.08	1737.13
538.44	1747.85
538.79	1758.80
539.15	1769.70
539.51	1780.42
539.87	1791.64
540.22	1802.44
540.58	1813.25
540.94	1823.93
541.29	1833.97
541.65	1843.66
542.01	1853.99
542.37	1863.93
542.72	1873.99
543.08	1883.59
543.44	1894.14
543.79	1903.46
544.15	1912.95
544.51	1922.93
544.87	1932.74
545.22	1942.30
545.58	1951.43
545.94	1960.58
546.29	1969.14
546.65	1977.71
547.01	1986.12
547.36	1993.94
547.72	2001.76
548.07	2009.49
548.43	2017.38
548.79	2025.44
549.14	2033.82
549.50	2042.57
549.86	2050.69
550.21	2058.32
550.57	2066.36
550.92	2073.27
551.28	2080.84
551.64	2088.26
551.99	2095.96
552.35	2103.24
552.70	2110.27
553.06	2117.03
553.41	2123.51
553.77	2130.05
554.13	2136.46
554.48	2143.46
554.84	2150.62
555.19	2157.27
555.55	2163.80
555.90	2170.21
556.26	2177.01
556.61	2183.04
556.97	2187.99
557.32	2193.65
557.68	2199.95
558.03	2205.66
558.39	2211.06
558.74	2217.09
559.10	2222.49
559.45	2227.99
559.81	2233.55
560.16	2238.95
560.52	2244.66
560.87	2250.94
561.23	2256.75
561.58	2263.29
561.94	2268.54
562.29	2273.10
562.64	2278.92
563.00	2284.60
563.35	2290.14
563.71	2295.87
564.06	2301.68
564.42	2307.56
564.77	2312.71
565.12	2318.03
565.48	2322.81
565.83	2328.16
566.19	2333.26
566.54	2338.63
566.89	2343.11
567.25	2347.52
567.60	2353.17
567.96	2358.09
568.31	2362.39
568.66	2366.76
569.02	2370.57
569.37	2374.21
569.72	2378.63
570.08	2381.94
570.43	2384.85
570.78	2387.62
571.14	2389.87
571.49	2392.87
571.84	2396.01
572.20	2398.85
572.55	2401.75
572.90	2404.16
573.26	2406.71
573.61	2409.28
573.96	2411.33
574.31	2413.29
574.67	2415.12
575.02	2415.56
575.37	2417.00
575.72	2417.47
576.08	2418.67
576.43	2418.53
576.78	2418.80
577.13	2419.92
577.49	2421.19
577.84	2421.83
578.19	2422.92
578.54	2423.32
578.90	2423.46
579.25	2423.30
579.60	2422.92
579.95	2421.74
580.30	2421.31
580.66	2420.62
581.01	2418.70
581.36	2415.98
581.71	2414.32
582.06	2412.77
582.42	2411.78
582.77	2409.27
583.12	2407.52
583.47	2405.82
583.82	2405.21
584.17	2403.51
584.53	2401.27
584.88	2398.82
585.23	2396.79
585.58	2394.31
585.93	2392.24
586.28	2390.04
586.63	2387.16
586.98	2384.63
587.34	2382.53
587.69	2379.93
588.04	2377.53
588.39	2375.88
588.74	2373.25
589.09	2370.36
589.44	2366.93
589.79	2364.21
590.14	2362.04
590.49	2359.11
590.84	2355.06
591.19	2351.56
591.54	2348.29
591.89	2344.16
592.25	2340.68
592.60	2336.54
592.95	2332.32
593.30	2328.09
593.65	2323.69
594.00	2319.21
594.35	2316.23
594.70	2311.56
595.05	2307.16
595.40	2301.54
595.75	2295.57
596.10	2291.94
596.45	2286.90
596.80	2282.25
597.15	2277.03
597.50	2271.19
597.85	2266.17
598.19	2261.12
598.54	2255.40
598.89	2250.18
599.24	2245.45
599.59	2239.43
599.94	2233.35
600.29	2227.38
600.64	2221.22
600.99	2214.10
601.34	2208.63
601.69	2201.65
602.04	2195.24
602.39	2188.43
602.74	2182.33
603.08	2176.84
603.43	2170.28
603.78	2163.57
604.13	2156.60
604.48	2149.21
604.83	2142.97
605.18	2136.83
605.53	2129.82
605.87	2122.71
606.22	2115.74
606.57	2107.78
606.92	2099.51
607.27	2092.44
607.62	2085.69
607.96	2078.67
608.31	2072.32
608.66	2064.49
609.01	2056.72
609.36	2049.38
609.70	2041.48
610.05	2033.60
610.40	2025.23
610.75	2016.60
611.10	2008.63
611.44	1999.63
611.79	1990.99
612.14	1981.01
612.49	1970.17
612.83	1960.73
613.18	1951.40
613.53	1942.13
613.88	1932.64
614.22	1924.21
614.57	1914.61
614.92	1904.09
615.27	1893.91
615.61	1883.82
615.96	1874.32
616.31	1864.78
616.65	1855.45
617.00	1846.24
617.35	1836.67
617.70	1827.16
618.04	1817.52
618.39	1807.69
618.74	1798.38
619.08	1788.77
619.43	1780.23
619.78	1772.18
620.12	1763.83
620.47	1754.55
620.82	1744.41
621.16	1734.97
621.51	1725.30
621.85	1715.75
622.20	1705.67
622.55	1695.39
622.89	1685.45
623.24	1675.91
623.59	1666.28
623.93	1656.53
624.28	1646.70
624.62	1636.94
624.97	1626.78
625.32	1617.14
625.66	1608.22
626.01	1599.56
626.35	1590.41
626.70	1580.49
627.04	1570.64
627.39	1560.50
627.73	1551.33
628.08	1542.75
628.43	1533.25
628.77	1524.11
629.12	1515.22
629.46	1507.48
629.81	1499.27
630.15	1490.22
630.50	1480.52
630.84	1470.20
631.19	1460.29
631.53	1451.28
631.88	1441.28
632.22	1431.44
632.57	1422.18
632.91	1412.40
633.26	1402.58
633.60	1393.26
633.95	1384.21
634.29	1374.73
634.64	1365.66
634.98	1355.81
635.32	1346.52
635.67	1338.27
636.01	1329.10
636.36	1319.52
636.70	1310.13
637.05	1300.82
637.39	1292.08
637.73	1283.65
638.08	1276.27
638.42	1268.30
638.77	1259.67
639.11	1251.53
639.45	1243.96
639.80	1235.62
640.14	1227.04
640.49	1218.34
640.83	1209.59
641.17	1201.39
641.52	1193.44
641.86	1185.02
642.20	1177.33
642.55	1168.72
642.89	1159.91
643.23	1151.53
643.58	1143.60
643.92	1134.70
644.26	1126.22
644.61	1117.81
644.95	1109.05
645.29	1099.96
645.64	1090.93
645.98	1082.34
646.32	1074.47
646.66	1065.87
647.01	1057.74
647.35	1049.66
647.69	1041.52
648.04	1033.45
648.38	1024.77
648.72	1016.16
649.06	1007.83
649.41	999.66
649.75	991.92
650.09	984.11
650.43	976.16
650.78	967.86
651.12	960.23
651.46	952.84
651.80	945.73
652.14	938.58
652.49	931.22
652.83	924.03
653.17	916.49
653.51	908.93
653.85	901.85
654.20	894.59
654.54	887.25
654.88	880.10
655.22	872.90
655.56	866.02
655.90	859.30
656.25	852.67
656.59	846.01
656.93	839.06
657.27	832.09
657.61	825.13
657.95	819.04
658.29	813.17
658.64	807.13
658.98	800.70
659.32	794.24
659.66	788.00
660.00	781.72
660.34	775.71
660.68	769.79
661.02	763.37
661.36	757.38
661.70	751.58
662.05	745.98
662.39	740.48
662.73	735.09
663.07	729.72
663.41	724.12
663.75	718.28
664.09	712.59
664.43	707.09
664.77	701.82
665.11	696.08
665.45	690.25
665.79	684.45
666.13	678.75
666.47	673.31
666.81	667.83
667.15	662.39
667.49	657.25
667.83	651.92
668.17	646.77
668.51	641.65
668.85	636.74
669.19	631.82
669.53	626.76
669.87	621.62
670.21	616.84
670.55	612.21
670.89	607.80
671.23	603.48
671.57	599.11
671.91	594.83
672.25	590.62
672.58	586.47
672.92	582.46
673.26	578.51
673.60	574.56
673.94	570.78
674.28	567.17
674.62	563.39
674.96	559.67
675.30	556.19
675.64	552.59
675.97	548.94
676.31	545.27
676.65	541.71
676.99	538.32
677.33	534.52
677.67	530.89
678.01	527.04
678.34	523.46
678.68	519.92
679.02	516.30
679.36	512.74
679.70	509.08
680.04	505.48
680.37	502.03
680.71	498.70
681.05	495.56
681.39	492.22
681.73	489.03
682.06	485.94
682.40	482.85
682.74	479.66
683.08	476.47
683.42	473.32
683.75	470.28
684.09	467.18
684.43	464.35
684.77	461.38
685.10	458.54
685.44	455.57
685.78	452.70
686.12	449.88
686.45	447.04
686.79	444.34
687.13	441.80
687.46	439.17
687.80	436.49
688.14	433.53
688.48	430.89
688.81	428.17
689.15	425.54
689.49	422.97
689.82	420.40
690.16	417.80
690.50	415.41
690.83	412.93
691.17	410.40
691.51	407.91
691.84	405.58
692.18	403.34
692.52	401.14
692.85	398.98
693.19	396.80
693.52	394.65
693.86	392.48
694.20	390.20
694.53	388.02
694.87	385.79
695.21	383.68
695.54	381.51
695.88	379.35
696.21	377.16
696.55	374.97
696.88	372.92
697.22	370.93
697.56	368.95
697.89	367.05
698.23	365.26
698.56	363.43
698.90	361.68
699.23	359.77
699.57	357.86
699.90	355.91
700.24	354.02
700.58	352.20
700.91	350.46
701.25	348.90
701.58	347.30
701.92	345.73
702.25	344.12
702.59	342.44
702.92	340.86
703.26	339.26
703.59	337.71
703.93	336.35
704.26	334.92
704.60	333.37
704.93	331.81
705.26	330.28
705.60	328.78
705.93	327.18
706.27	325.83
706.60	324.58
706.94	323.34
707.27	322.00
707.61	320.64
707.94	319.31
708.27	317.74
708.61	316.25
708.94	314.82
709.28	313.51
709.61	312.25
709.94	311.02
710.28	309.85
710.61	308.68
710.95	307.31
711.28	306.19
711.61	305.02
711.95	303.93
712.28	302.76
712.61	301.56
712.95	300.49
713.28	299.43
713.61	298.26
713.95	297.09
714.28	296.09
714.61	295.04
714.95	294.00
715.28	293.01
715.61	292.01
715.95	291.02
716.28	290.05
716.61	289.11
716.95	288.09
717.28	287.13
717.61	286.14
717.94	285.21
718.28	284.14
718.61	283.23
718.94	282.31
719.27	281.44
719.61	280.63
719.94	279.76
720.27	278.76
720.60	277.83
720.94	277.00
721.27	276.19
721.60	275.46
721.93	274.74
722.27	274.05
722.60	273.40
722.93	272.73
723.26	272.06
723.59	271.31
723.93	270.70
724.26	270.05
724.59	269.38
724.92	268.79
725.25	268.26
725.59	267.67
725.92	267.13
726.25	266.50
726.58	265.87
726.91	265.22
727.24	264.68
727.57	264.14
727.91	263.55
728.24	263.00
728.57	262.42
728.90	261.85
729.23	261.22
729.56	260.73
729.89	260.13
730.22	259.54
730.55	259.01
730.89	258.43
731.22	257.89
731.55	257.38
731.88	256.84
732.21	256.24
732.54	255.72
732.87	255.19
733.20	254.75
733.53	254.30
733.86	253.88
734.19	253.36
734.52	252.91
734.85	252.60
735.18	252.10
735.51	251.73
735.84	251.31
736.17	250.90
736.50	250.33
736.83	250.21
737.16	249.82
737.49	249.44
737.82	249.04
738.15	248.67
738.48	248.28
738.81	247.89
739.14	247.49
739.47	247.10
739.80	246.71
740.13	246.33
740.46	245.93
740.79	245.51
741.12	245.19
741.45	244.84
741.78	244.41
742.11	244.15
742.44	243.73
742.77	243.40
743.10	243.08
743.43	242.76
743.75	242.16
744.08	242.09
744.41	241.70
744.74	241.36
745.07	240.98
745.40	240.69
745.73	240.44
746.06	240.11
746.39	239.77
746.71	239.41
747.04	239.06
747.37	238.75
747.70	238.49
748.03	238.18
748.36	237.89
748.68	237.54
749.01	237.17
749.34	236.91
749.67	236.65
750.00	236.37
750.33	236.23
750.65	236.00
750.98	235.45
751.31	235.22
751.64	235.01
751.97	234.87
752.29	234.60
752.62	234.24
752.95	233.97
753.28	233.69
753.60	233.46
753.93	233.25
754.26	233.00
754.59	232.69
754.91	232.42
755.24	232.19
755.57	231.96
755.90	231.72
756.22	231.42
756.55	231.14
756.88	230.86
757.20	230.50
757.53	230.20
757.86	229.99
758.19	229.76
758.51	229.54
758.84	229.26
759.17	229.04
759.49	228.87
759.82	228.81
760.15	228.67
760.47	228.47
760.80	228.22
761.13	228.09
761.45	227.93
761.78	227.76
762.11	227.58
762.43	227.39
762.76	227.20
763.08	227.08
763.41	226.95
763.74	226.80
764.06	226.64
764.39	226.52
764.71	226.32
765.04	226.23
765.37	226.05
765.69	225.85
766.02	225.69
766.34	225.55
766.67	225.31
767.00	225.22
767.32	225.22
767.65	225.23
767.97	225.06
768.30	224.91
768.62	224.79
768.95	224.64
769.27	224.51
769.60	224.42
769.92	224.26
770.25	224.07
770.57	223.91
770.90	223.80
771.22	223.67
771.55	223.61
771.87	223.48
772.20	223.36
772.52	223.44
772.85	223.57
773.17	223.49
773.50	223.39
773.82	223.26
774.15	223.03
774.47	222.83
774.80	222.73
775.12	222.65
775.45	222.55
775.77	222.47
776.09	222.40
776.42	222.32
776.74	222.30
777.07	222.24
777.39	222.14
777.72	222.03
778.04	221.95
778.36	221.84
778.69	221.75
779.01	221.68
779.33	221.43
779.66	221.11
779.98	221.00
780.31	220.91
780.63	220.91
780.95	220.88
781.28	220.78
781.60	220.70
781.92	220.61
782.25	220.55
782.57	220.46
782.89	220.36
783.22	220.28
783.54	220.20
783.86	220.13
784.19	220.08
784.51	220.09
784.83	220.02
785.16	219.95
785.48	219.90
785.80	219.81
786.12	219.75
