SpectraSuite Data File
++++++++++++++++++++++++++++++++++++
Date: Tue Jan 29 16:25:07 EST 2013
User: group
Dark Spectrum Present: No
Reference Spectrum Present: No
Number of Sampled Component Spectra: 1
Spectrometers: USB2E7196
Integration Time (usec): 65000 (USB2E7196)
Spectra Averaged: 100 (USB2E7196)
Boxcar Smoothing: 10 (USB2E7196)
Correct for Electrical Dark: No (USB2E7196)
Strobe/Lamp Enabled: No (USB2E7196)
Correct for Detector Non-linearity: No (USB2E7196)
Correct for Stray Light: No (USB2E7196)
Number of Pixels in Processed Spectrum: 2048
>>>>>Begin Processed Spectral Data<<<<<
339.09	0.00
339.48	201.59
339.86	203.73
340.24	205.21
340.63	206.80
341.01	211.39
341.39	208.86
341.78	210.17
342.16	212.07
342.54	212.33
342.93	201.40
343.31	211.58
343.69	212.14
344.07	212.61
344.46	213.03
344.84	213.41
345.22	213.55
345.60	213.86
345.99	214.09
346.37	214.22
346.75	214.34
347.13	214.42
347.52	214.49
347.90	214.62
348.28	214.67
348.66	214.73
349.05	214.72
349.43	214.78
349.81	214.87
350.19	214.89
350.57	214.94
350.96	215.05
351.34	215.15
351.72	215.24
352.10	215.35
352.48	215.44
352.87	215.49
353.25	215.57
353.63	215.59
354.01	215.64
354.39	215.73
354.77	215.83
355.15	215.99
355.54	216.04
355.92	216.04
356.30	216.12
356.68	216.32
357.06	216.41
357.44	216.44
357.82	216.49
358.20	216.60
358.58	216.68
358.97	216.71
359.35	216.82
359.73	216.94
360.11	217.01
360.49	217.06
360.87	217.15
361.25	217.24
361.63	217.36
362.01	217.43
362.39	217.46
362.77	217.51
363.15	217.50
363.53	217.50
363.91	217.56
364.29	217.59
364.67	217.42
365.05	217.45
365.43	217.51
365.81	217.54
366.19	217.63
366.57	217.72
366.95	217.73
367.33	217.67
367.71	217.68
368.09	217.71
368.47	217.71
368.85	217.68
369.23	217.70
369.61	217.62
369.99	217.65
370.37	217.66
370.75	217.73
371.13	217.67
371.51	217.66
371.89	217.64
372.27	217.62
372.65	217.58
373.03	217.56
373.41	217.51
373.78	217.45
374.16	217.32
374.54	217.25
374.92	217.22
375.30	217.20
375.68	217.11
376.06	217.07
376.44	217.01
376.82	216.99
377.19	216.94
377.57	216.89
377.95	216.81
378.33	216.71
378.71	216.53
379.09	216.53
379.47	216.51
379.84	216.46
380.22	216.35
380.60	216.32
380.98	216.24
381.36	216.20
381.73	216.17
382.11	216.15
382.49	216.10
382.87	216.04
383.25	216.01
383.62	216.21
384.00	216.13
384.38	216.09
384.76	216.08
385.13	216.11
385.51	216.07
385.89	216.00
386.27	216.04
386.64	216.05
387.02	216.00
387.40	215.90
387.78	215.89
388.15	215.91
388.53	215.89
388.91	215.89
389.29	215.88
389.66	215.88
390.04	215.84
390.42	215.86
390.79	215.84
391.17	215.82
391.55	215.56
391.92	215.54
392.30	215.56
392.68	215.49
393.05	215.46
393.43	215.47
393.81	215.49
394.18	215.42
394.56	215.44
394.94	215.48
395.31	215.49
395.69	215.56
396.06	215.58
396.44	215.60
396.82	215.59
397.19	215.69
397.57	215.69
397.95	215.78
398.32	215.75
398.70	215.78
399.07	215.85
399.45	215.90
399.82	215.96
400.20	215.96
400.58	216.02
400.95	216.03
401.33	216.15
401.70	216.37
402.08	216.47
402.45	216.54
402.83	216.65
403.20	216.78
403.58	216.84
403.95	216.99
404.33	217.16
404.71	217.31
405.08	217.55
405.46	217.69
405.83	217.85
406.21	218.05
406.58	218.31
406.96	218.52
407.33	218.77
407.70	219.07
408.08	219.58
408.45	219.94
408.83	220.32
409.20	220.66
409.58	220.89
409.95	221.35
410.33	221.85
410.70	222.30
411.08	222.86
411.45	223.44
411.82	223.98
412.20	224.63
412.57	225.45
412.95	226.02
413.32	226.88
413.69	227.75
414.07	228.66
414.44	229.66
414.82	230.67
415.19	231.88
415.56	233.09
415.94	234.19
416.31	235.56
416.68	236.94
417.06	238.53
417.43	240.10
417.81	241.83
418.18	243.62
418.55	245.53
418.93	247.57
419.30	249.67
419.67	251.89
420.04	254.19
420.42	256.58
420.79	259.43
421.16	262.16
421.54	265.01
421.91	268.01
422.28	271.07
422.66	274.36
423.03	277.56
423.40	280.86
423.77	284.48
424.15	288.15
424.52	291.97
424.89	296.12
425.26	300.21
425.64	304.09
426.01	308.35
426.38	312.82
426.75	317.33
427.13	322.02
427.50	327.00
427.87	332.17
428.24	337.34
428.61	342.31
428.99	347.83
429.36	353.84
429.73	359.65
430.10	365.45
430.47	371.50
430.85	377.80
431.22	384.52
431.59	391.63
431.96	398.40
432.33	405.84
432.70	413.06
433.08	421.48
433.45	429.54
433.82	437.44
434.19	446.26
434.56	454.93
434.93	463.22
435.30	471.49
435.68	480.53
436.05	489.46
436.42	498.36
436.79	506.44
437.16	515.16
437.53	524.39
437.90	533.55
438.27	542.48
438.64	551.63
439.01	560.16
439.38	567.63
439.75	574.96
440.13	583.37
440.50	591.28
440.87	597.69
441.24	604.27
441.61	611.67
441.98	617.01
442.35	623.26
442.72	629.52
443.09	635.45
443.46	639.19
443.83	641.68
444.20	643.84
444.57	646.96
444.94	648.36
445.31	649.84
445.68	651.22
446.05	651.83
446.42	651.06
446.79	650.11
447.16	649.08
447.53	648.25
447.90	644.91
448.27	641.60
448.64	637.02
449.01	633.68
449.37	627.77
449.74	622.15
450.11	615.28
450.48	607.95
450.85	600.61
451.22	594.13
451.59	588.08
451.96	582.29
452.33	574.51
452.70	567.43
453.07	558.93
453.43	550.34
453.80	542.07
454.17	534.12
454.54	526.53
454.91	518.37
455.28	510.49
455.65	503.16
456.02	495.79
456.38	489.45
456.75	481.63
457.12	475.06
457.49	468.58
457.86	462.44
458.23	457.12
458.59	451.22
458.96	445.28
459.33	439.97
459.70	434.57
460.07	430.31
460.43	425.49
460.80	421.00
461.17	417.04
461.54	412.88
461.91	408.89
462.27	404.78
462.64	401.37
463.01	397.59
463.38	393.86
463.74	390.18
464.11	386.95
464.48	384.15
464.85	381.14
465.21	378.72
465.58	376.12
465.95	372.98
466.32	370.36
466.68	367.76
467.05	365.17
467.42	362.66
467.78	359.98
468.15	357.47
468.52	355.52
468.88	353.03
469.25	350.85
469.62	349.04
469.98	347.13
470.35	345.38
470.72	343.73
471.08	341.96
471.45	340.41
471.82	338.88
472.18	337.24
472.55	336.00
472.92	334.65
473.28	333.45
473.65	332.31
474.02	331.25
474.38	330.35
474.75	329.63
475.11	328.82
475.48	328.24
475.85	327.74
476.21	327.25
476.58	326.91
476.94	326.65
477.31	326.37
477.67	326.11
478.04	325.95
478.41	325.93
478.77	326.10
479.14	326.10
479.50	326.23
479.87	326.51
480.23	326.85
480.60	327.11
480.96	327.38
481.33	327.99
481.69	328.52
482.06	329.08
482.42	329.48
482.79	330.11
483.15	330.90
483.52	331.84
483.88	332.72
484.25	333.67
484.61	334.68
484.98	335.72
485.34	337.02
485.71	338.39
486.07	339.80
486.44	341.13
486.80	342.73
487.17	344.41
487.53	346.25
487.90	348.12
488.26	350.18
488.62	352.35
488.99	354.39
489.35	356.50
489.72	358.89
490.08	361.42
490.44	364.00
490.81	366.74
491.17	369.46
491.54	372.40
491.90	375.46
492.26	378.70
492.63	382.13
492.99	385.63
493.36	389.31
493.72	393.17
494.08	397.21
494.45	401.43
494.81	405.83
495.17	410.30
495.54	415.03
495.90	419.80
496.26	424.77
496.63	430.01
496.99	435.48
497.35	441.07
497.72	446.93
498.08	452.86
498.44	458.99
498.80	465.41
499.17	471.98
499.53	478.72
499.89	485.66
500.26	492.63
500.62	499.75
500.98	507.24
501.34	514.74
501.71	522.51
502.07	530.37
502.43	538.37
502.79	546.50
503.16	554.92
503.52	563.61
503.88	572.37
504.24	581.32
504.60	590.45
504.97	599.76
505.33	609.16
505.69	619.08
506.05	629.01
506.41	638.96
506.78	649.12
507.14	659.44
507.50	669.98
507.86	680.83
508.22	691.72
508.59	702.46
508.95	713.64
509.31	724.96
509.67	736.53
510.03	748.08
510.39	759.98
510.75	771.96
511.12	783.90
511.48	796.04
511.84	808.48
512.20	820.99
512.56	833.68
512.92	846.65
513.28	859.35
513.64	872.21
514.00	885.13
514.37	898.20
514.73	911.41
515.09	924.47
515.45	937.46
515.81	950.63
516.17	964.11
516.53	977.42
516.89	990.69
517.25	1003.92
517.61	1017.51
517.97	1031.01
518.33	1044.16
518.69	1057.80
519.05	1071.64
519.41	1085.35
519.77	1099.23
520.13	1112.70
520.49	1125.92
520.85	1139.41
521.21	1152.90
521.57	1166.79
521.93	1180.01
522.29	1193.91
522.65	1207.73
523.01	1221.50
523.37	1234.76
523.73	1248.18
524.09	1261.50
524.45	1275.05
524.81	1288.68
525.17	1302.26
525.53	1315.63
525.89	1329.02
526.25	1342.33
526.61	1355.34
526.97	1368.55
527.33	1381.69
527.68	1395.15
528.04	1408.67
528.40	1421.92
528.76	1435.39
529.12	1448.27
529.48	1461.61
529.84	1473.95
530.20	1486.84
530.56	1499.49
530.91	1512.96
531.27	1525.90
531.63	1538.73
531.99	1551.56
532.35	1563.92
532.71	1576.32
533.07	1589.30
533.42	1601.78
533.78	1614.04
534.14	1626.32
534.50	1637.80
534.86	1649.48
535.21	1660.67
535.57	1672.36
535.93	1683.75
536.29	1694.86
536.65	1706.57
537.00	1717.72
537.36	1729.23
537.72	1740.24
538.08	1751.70
538.44	1762.70
538.79	1773.95
539.15	1785.03
539.51	1795.83
539.87	1807.31
540.22	1818.20
540.58	1829.08
540.94	1840.02
541.29	1850.31
541.65	1860.05
542.01	1870.64
542.37	1880.74
542.72	1890.81
543.08	1900.59
543.44	1911.26
543.79	1920.75
544.15	1930.14
544.51	1940.12
544.87	1950.11
545.22	1959.50
545.58	1968.52
545.94	1977.44
546.29	1985.75
546.65	1994.12
547.01	2002.49
547.36	2010.23
547.72	2018.18
548.07	2025.89
548.43	2033.75
548.79	2041.66
549.14	2049.91
549.50	2058.27
549.86	2066.20
550.21	2073.74
550.57	2081.61
550.92	2088.45
551.28	2095.90
551.64	2103.21
551.99	2110.82
552.35	2117.92
552.70	2124.77
553.06	2131.45
553.41	2137.74
553.77	2144.55
554.13	2150.98
554.48	2158.08
554.84	2165.27
555.19	2171.83
555.55	2178.32
555.90	2184.69
556.26	2191.60
556.61	2197.70
556.97	2202.60
557.32	2208.43
557.68	2215.00
558.03	2220.68
558.39	2226.00
558.74	2231.99
559.10	2237.72
559.45	2243.24
559.81	2248.97
560.16	2254.63
560.52	2260.59
560.87	2267.07
561.23	2273.10
561.58	2279.92
561.94	2285.21
562.29	2289.86
562.64	2296.02
563.00	2301.69
563.35	2307.29
563.71	2313.01
564.06	2318.82
564.42	2324.87
564.77	2330.06
565.12	2335.38
565.48	2340.64
565.83	2346.34
566.19	2351.89
566.54	2357.21
566.89	2361.93
567.25	2366.53
567.60	2372.22
567.96	2377.50
568.31	2382.13
568.66	2386.34
569.02	2390.34
569.37	2394.21
569.72	2398.72
570.08	2402.12
570.43	2405.40
570.78	2408.61
571.14	2411.31
571.49	2414.33
571.84	2418.00
572.20	2421.07
572.55	2423.96
572.90	2426.40
573.26	2429.23
573.61	2431.80
573.96	2434.03
574.31	2436.19
574.67	2438.02
575.02	2438.82
575.37	2440.30
575.72	2441.10
576.08	2442.73
576.43	2442.81
576.78	2443.25
577.13	2444.86
577.49	2446.12
577.84	2447.19
578.19	2448.49
578.54	2449.11
578.90	2449.93
579.25	2449.76
579.60	2449.55
579.95	2448.92
580.30	2448.94
580.66	2448.22
581.01	2446.51
581.36	2444.22
581.71	2442.79
582.06	2441.90
582.42	2441.25
582.77	2439.03
583.12	2437.38
583.47	2435.86
583.82	2435.32
584.17	2434.13
584.53	2432.18
584.88	2430.16
585.23	2428.14
585.58	2425.91
585.93	2423.98
586.28	2421.87
586.63	2419.24
586.98	2417.11
587.34	2415.20
587.69	2412.83
588.04	2410.77
588.39	2409.29
588.74	2406.88
589.09	2404.36
589.44	2401.01
589.79	2398.39
590.14	2396.39
590.49	2393.60
590.84	2389.90
591.19	2386.80
591.54	2383.55
591.89	2379.46
592.25	2376.22
592.60	2372.20
592.95	2368.07
593.30	2363.72
593.65	2359.34
594.00	2355.19
594.35	2352.29
594.70	2347.66
595.05	2343.07
595.40	2337.53
595.75	2331.94
596.10	2328.31
596.45	2323.28
596.80	2318.71
597.15	2313.62
597.50	2307.58
597.85	2302.65
598.19	2297.27
598.54	2291.34
598.89	2286.07
599.24	2281.56
599.59	2275.42
599.94	2269.45
600.29	2263.51
600.64	2257.62
600.99	2250.76
601.34	2245.17
601.69	2238.00
602.04	2231.45
602.39	2224.69
602.74	2218.63
603.08	2213.01
603.43	2206.55
603.78	2199.62
604.13	2192.55
604.48	2185.00
604.83	2178.94
605.18	2172.68
605.53	2165.81
605.87	2158.85
606.22	2152.01
606.57	2143.85
606.92	2135.77
607.27	2128.81
607.62	2122.08
607.96	2115.06
608.31	2108.66
608.66	2100.90
609.01	2093.32
609.36	2086.20
609.70	2078.52
610.05	2070.79
610.40	2062.36
610.75	2053.87
611.10	2046.13
611.44	2037.24
611.79	2028.57
612.14	2018.63
612.49	2007.87
612.83	1998.37
613.18	1988.95
613.53	1979.55
613.88	1969.81
614.22	1961.17
614.57	1951.22
614.92	1940.49
615.27	1930.14
615.61	1919.91
615.96	1910.17
616.31	1900.38
616.65	1890.88
617.00	1881.06
617.35	1871.16
617.70	1861.51
618.04	1851.24
618.39	1841.04
618.74	1831.16
619.08	1821.38
619.43	1812.59
619.78	1804.25
620.12	1795.66
620.47	1786.03
620.82	1775.67
621.16	1765.96
621.51	1755.94
621.85	1745.98
622.20	1735.62
622.55	1724.95
622.89	1714.88
623.24	1705.09
623.59	1695.31
623.93	1685.11
624.28	1675.29
624.62	1665.15
624.97	1654.70
625.32	1644.92
625.66	1635.86
626.01	1627.10
626.35	1617.77
626.70	1607.45
627.04	1597.19
627.39	1586.88
627.73	1577.43
628.08	1568.42
628.43	1558.66
628.77	1549.30
629.12	1540.42
629.46	1532.51
629.81	1524.13
630.15	1514.49
630.50	1504.51
630.84	1493.86
631.19	1483.75
631.53	1474.31
631.88	1463.98
632.22	1453.89
632.57	1444.43
632.91	1434.26
633.26	1424.26
633.60	1414.49
633.95	1405.12
634.29	1395.65
634.64	1386.26
634.98	1376.26
635.32	1366.89
635.67	1358.36
636.01	1348.91
636.36	1339.05
636.70	1329.31
637.05	1319.81
637.39	1310.91
637.73	1302.25
638.08	1294.58
638.42	1286.28
638.77	1277.30
639.11	1269.06
639.45	1261.19
639.80	1252.56
640.14	1243.74
640.49	1234.81
640.83	1225.93
641.17	1217.69
641.52	1209.37
641.86	1200.68
642.20	1192.76
642.55	1183.90
642.89	1174.86
643.23	1166.11
643.58	1157.90
643.92	1148.87
644.26	1140.10
644.61	1131.56
644.95	1122.56
645.29	1113.22
645.64	1103.99
645.98	1095.43
646.32	1087.38
646.66	1078.65
647.01	1070.15
647.35	1061.91
647.69	1053.40
648.04	1044.96
648.38	1035.99
648.72	1027.20
649.06	1018.61
649.41	1010.29
649.75	1002.27
650.09	994.30
650.43	986.24
650.78	977.78
651.12	969.94
651.46	962.36
651.80	954.87
652.14	947.51
652.49	939.91
652.83	932.49
653.17	924.73
653.51	916.99
653.85	909.78
654.20	902.48
654.54	894.89
654.88	887.63
655.22	880.34
655.56	873.20
655.90	866.34
656.25	859.63
656.59	852.58
656.93	845.49
657.27	838.24
657.61	831.18
657.95	825.00
658.29	819.00
658.64	812.74
658.98	806.17
659.32	799.54
659.66	793.17
660.00	786.76
660.34	780.60
660.68	774.39
661.02	767.90
661.36	761.83
661.70	756.00
662.05	750.26
662.39	744.71
662.73	739.29
663.07	733.82
663.41	728.14
663.75	722.46
664.09	716.68
664.43	711.25
664.77	705.85
665.11	699.96
665.45	693.94
665.79	688.17
666.13	682.46
666.47	676.86
666.81	671.35
667.15	665.93
667.49	660.72
667.83	655.40
668.17	650.11
668.51	644.94
668.85	639.91
669.19	634.98
669.53	629.86
669.87	624.67
670.21	619.80
670.55	615.09
670.89	610.54
671.23	606.20
671.57	601.71
671.91	597.34
672.25	593.14
672.58	588.98
672.92	584.81
673.26	580.85
673.60	576.95
673.94	573.15
674.28	569.50
674.62	565.67
674.96	561.83
675.30	558.24
675.64	554.48
675.97	550.85
676.31	547.12
676.65	543.48
676.99	540.00
677.33	536.10
677.67	532.39
678.01	528.49
678.34	524.79
678.68	521.18
679.02	517.54
679.36	513.73
679.70	509.99
680.04	506.39
680.37	502.84
680.71	499.43
681.05	496.22
681.39	492.88
681.73	489.66
682.06	486.66
682.40	483.55
682.74	480.34
683.08	477.08
683.42	473.85
683.75	470.84
684.09	467.73
684.43	464.89
684.77	461.90
685.10	459.02
685.44	456.11
685.78	453.20
686.12	450.38
686.45	447.67
686.79	444.99
687.13	442.42
687.46	439.82
687.80	437.11
688.14	434.21
688.48	431.57
688.81	428.85
689.15	426.17
689.49	423.47
689.82	420.90
690.16	418.25
690.50	415.78
690.83	413.26
691.17	410.73
691.51	408.23
691.84	405.93
692.18	403.68
692.52	401.34
692.85	399.19
693.19	397.05
693.52	394.85
693.86	392.59
694.20	390.37
694.53	388.13
694.87	385.94
695.21	383.76
695.54	381.55
695.88	379.39
696.21	377.16
696.55	375.06
696.88	373.01
697.22	371.05
697.56	369.14
697.89	367.23
698.23	365.43
698.56	363.64
698.90	361.82
699.23	359.89
699.57	358.03
699.90	356.15
700.24	354.31
700.58	352.53
700.91	350.87
701.25	349.30
701.58	347.73
701.92	346.11
702.25	344.49
702.59	342.86
702.92	341.28
703.26	339.72
703.59	338.19
703.93	336.87
704.26	335.40
704.60	333.84
704.93	332.32
705.26	330.78
705.60	329.28
705.93	327.79
706.27	326.44
706.60	325.23
706.94	323.94
707.27	322.56
707.61	321.23
707.94	319.84
708.27	318.29
708.61	316.78
708.94	315.39
709.28	314.07
709.61	312.81
709.94	311.59
710.28	310.35
710.61	309.17
710.95	307.75
711.28	306.67
711.61	305.48
711.95	304.36
712.28	303.15
712.61	301.90
712.95	300.79
713.28	299.73
713.61	298.51
713.95	297.34
714.28	296.29
714.61	295.22
714.95	294.21
715.28	293.18
715.61	292.20
715.95	291.24
716.28	290.26
716.61	289.32
716.95	288.29
717.28	287.36
717.61	286.40
717.94	285.52
718.28	284.49
718.61	283.59
718.94	282.69
719.27	281.86
719.61	281.06
719.94	280.20
720.27	279.22
720.60	278.35
720.94	277.56
721.27	276.77
721.60	276.08
721.93	275.32
722.27	274.66
722.60	273.97
722.93	273.27
723.26	272.60
723.59	271.87
723.93	271.25
724.26	270.60
724.59	269.90
724.92	269.25
725.25	268.66
725.59	268.11
725.92	267.53
726.25	266.96
726.58	266.40
726.91	265.79
727.24	265.27
727.57	264.73
727.91	264.10
728.24	263.54
728.57	262.88
728.90	262.35
729.23	261.72
729.56	261.27
729.89	260.68
730.22	260.12
730.55	259.59
730.89	259.06
731.22	258.50
731.55	257.99
731.88	257.46
732.21	256.92
732.54	256.36
732.87	255.85
733.20	255.35
733.53	254.84
733.86	254.39
734.19	253.89
734.52	253.46
734.85	253.19
735.18	252.71
735.51	252.34
735.84	251.90
736.17	251.53
736.50	250.96
736.83	250.81
737.16	250.40
737.49	249.98
737.82	249.50
738.15	249.13
738.48	248.76
738.81	248.39
739.14	248.00
739.47	247.60
739.80	247.21
740.13	246.89
740.46	246.50
740.79	246.11
741.12	245.75
741.45	245.34
741.78	244.90
742.11	244.63
742.44	244.24
742.77	243.95
743.10	243.59
743.43	243.29
743.75	242.70
744.08	242.65
744.41	242.28
744.74	241.94
745.07	241.56
745.40	241.26
745.73	241.00
746.06	240.67
746.39	240.38
746.71	240.06
747.04	239.64
747.37	239.30
747.70	239.01
748.03	238.73
748.36	238.48
748.68	238.12
749.01	237.75
749.34	237.44
749.67	237.11
750.00	236.85
750.33	236.72
750.65	236.46
750.98	235.91
751.31	235.67
751.64	235.45
751.97	235.32
752.29	235.05
752.62	234.73
752.95	234.44
753.28	234.18
753.60	233.91
753.93	233.78
754.26	233.57
754.59	233.28
754.91	233.03
755.24	232.78
755.57	232.55
755.90	232.32
756.22	232.11
756.55	231.85
756.88	231.58
757.20	231.21
757.53	230.96
757.86	230.74
758.19	230.58
758.51	230.39
758.84	230.07
759.17	229.84
759.49	229.66
759.82	229.59
760.15	229.41
760.47	229.23
760.80	228.96
761.13	228.83
761.45	228.64
761.78	228.44
762.11	228.24
762.43	228.06
762.76	227.88
763.08	227.75
763.41	227.61
763.74	227.48
764.06	227.33
764.39	227.21
764.71	227.07
765.04	226.91
765.37	226.72
765.69	226.61
766.02	226.50
766.34	226.34
766.67	226.11
767.00	226.03
767.32	226.01
767.65	226.01
767.97	225.84
768.30	225.75
768.62	225.63
768.95	225.51
769.27	225.42
769.60	225.33
769.92	225.15
770.25	225.01
770.57	224.86
770.90	224.73
771.22	224.59
771.55	224.52
771.87	224.38
772.20	224.31
772.52	224.35
772.85	224.49
773.17	224.39
773.50	224.29
773.82	224.16
774.15	223.97
774.47	223.73
774.80	223.63
775.12	223.50
775.45	223.42
775.77	223.35
776.09	223.26
776.42	223.16
776.74	223.12
777.07	223.03
777.39	222.95
777.72	222.86
778.04	222.83
778.36	222.71
778.69	222.62
779.01	222.51
779.33	222.27
779.66	221.92
779.98	221.86
780.31	221.78
780.63	221.77
780.95	221.73
781.28	221.66
781.60	221.57
781.92	221.52
782.25	221.42
782.57	221.34
782.89	221.25
783.22	221.16
783.54	221.05
783.86	221.03
784.19	220.93
784.51	220.92
784.83	220.84
785.16	220.77
785.48	220.73
785.80	220.65
786.12	220.61
