SpectraSuite Data File
++++++++++++++++++++++++++++++++++++
Date: Tue Jan 29 16:45:32 EST 2013
User: group
Dark Spectrum Present: No
Reference Spectrum Present: No
Number of Sampled Component Spectra: 1
Spectrometers: USB2E7196
Integration Time (usec): 65000 (USB2E7196)
Spectra Averaged: 100 (USB2E7196)
Boxcar Smoothing: 10 (USB2E7196)
Correct for Electrical Dark: No (USB2E7196)
Strobe/Lamp Enabled: No (USB2E7196)
Correct for Detector Non-linearity: No (USB2E7196)
Correct for Stray Light: No (USB2E7196)
Number of Pixels in Processed Spectrum: 2048
>>>>>Begin Processed Spectral Data<<<<<
339.09	0.00
339.48	201.75
339.86	203.06
340.24	204.44
340.63	205.57
341.01	210.37
341.39	208.66
341.78	210.24
342.16	211.17
342.54	211.28
342.93	200.76
343.31	210.91
343.69	211.45
344.07	211.93
344.46	212.38
344.84	212.80
345.22	212.96
345.60	213.22
345.99	213.43
346.37	213.58
346.75	213.73
347.13	213.80
347.52	213.88
347.90	214.04
348.28	214.10
348.66	214.18
349.05	214.14
349.43	214.23
349.81	214.29
350.19	214.36
350.57	214.44
350.96	214.54
351.34	214.66
351.72	214.77
352.10	214.89
352.48	214.94
352.87	214.99
353.25	215.07
353.63	215.14
354.01	215.17
354.39	215.27
354.77	215.33
355.15	215.49
355.54	215.55
355.92	215.53
356.30	215.60
356.68	215.83
357.06	215.93
357.44	215.99
357.82	216.07
358.20	216.15
358.58	216.20
358.97	216.26
359.35	216.37
359.73	216.47
360.11	216.50
360.49	216.60
360.87	216.67
361.25	216.76
361.63	216.89
362.01	216.97
362.39	217.01
362.77	217.09
363.15	217.10
363.53	217.14
363.91	217.19
364.29	217.23
364.67	217.03
365.05	217.07
365.43	217.11
365.81	217.14
366.19	217.25
366.57	217.35
366.95	217.34
367.33	217.25
367.71	217.24
368.09	217.29
368.47	217.28
368.85	217.26
369.23	217.30
369.61	217.21
369.99	217.28
370.37	217.28
370.75	217.35
371.13	217.30
371.51	217.23
371.89	217.22
372.27	217.17
372.65	217.18
373.03	217.18
373.41	217.12
373.78	217.08
374.16	216.96
374.54	216.84
374.92	216.79
375.30	216.78
375.68	216.70
376.06	216.67
376.44	216.61
376.82	216.60
377.19	216.54
377.57	216.50
377.95	216.37
378.33	216.31
378.71	216.11
379.09	216.09
379.47	216.08
379.84	216.03
380.22	216.01
380.60	215.92
380.98	215.85
381.36	215.79
381.73	215.71
382.11	215.68
382.49	215.66
382.87	215.60
383.25	215.57
383.62	215.79
384.00	215.70
384.38	215.68
384.76	215.65
385.13	215.67
385.51	215.58
385.89	215.51
386.27	215.46
386.64	215.50
387.02	215.44
387.40	215.43
387.78	215.39
388.15	215.35
388.53	215.32
388.91	215.25
389.29	215.23
389.66	215.24
390.04	215.18
390.42	215.20
390.79	215.18
391.17	215.16
391.55	214.89
391.92	214.86
392.30	214.88
392.68	214.81
393.05	214.79
393.43	214.82
393.81	214.82
394.18	214.82
394.56	214.81
394.94	214.85
395.31	214.82
395.69	214.88
396.06	214.91
396.44	214.94
396.82	214.94
397.19	215.08
397.57	215.07
397.95	215.14
398.32	215.07
398.70	215.13
399.07	215.23
399.45	215.26
399.82	215.33
400.20	215.33
400.58	215.38
400.95	215.37
401.33	215.47
401.70	215.71
402.08	215.81
402.45	215.89
402.83	216.01
403.20	216.13
403.58	216.20
403.95	216.39
404.33	216.56
404.71	216.71
405.08	216.97
405.46	217.15
405.83	217.34
406.21	217.60
406.58	217.83
406.96	218.05
407.33	218.30
407.70	218.60
408.08	219.08
408.45	219.49
408.83	219.89
409.20	220.22
409.58	220.49
409.95	220.92
410.33	221.45
410.70	221.89
411.08	222.46
411.45	223.08
411.82	223.64
412.20	224.33
412.57	225.21
412.95	225.76
413.32	226.60
413.69	227.48
414.07	228.39
414.44	229.36
414.82	230.36
415.19	231.56
415.56	232.75
415.94	233.90
416.31	235.29
416.68	236.70
417.06	238.34
417.43	239.89
417.81	241.66
418.18	243.41
418.55	245.34
418.93	247.38
419.30	249.45
419.67	251.69
420.04	253.99
420.42	256.39
420.79	259.24
421.16	262.07
421.54	264.98
421.91	267.99
422.28	271.14
422.66	274.46
423.03	277.75
423.40	281.15
423.77	284.85
424.15	288.55
424.52	292.37
424.89	296.51
425.26	300.61
425.64	304.56
426.01	308.89
426.38	313.40
426.75	317.93
427.13	322.67
427.50	327.68
427.87	332.90
428.24	338.11
428.61	343.14
428.99	348.67
429.36	354.75
429.73	360.66
430.10	366.58
430.47	372.59
430.85	378.93
431.22	385.63
431.59	392.78
431.96	399.67
432.33	407.23
432.70	414.57
433.08	423.14
433.45	431.17
433.82	439.16
434.19	448.09
434.56	456.84
434.93	465.25
435.30	473.58
435.68	482.77
436.05	491.85
436.42	500.80
436.79	508.98
437.16	517.70
437.53	527.03
437.90	536.20
438.27	545.26
438.64	554.44
439.01	563.02
439.38	570.53
439.75	577.91
440.13	586.38
440.50	594.37
440.87	600.79
441.24	607.45
441.61	614.85
441.98	620.25
442.35	626.66
442.72	633.03
443.09	639.10
443.46	642.80
443.83	645.28
444.20	647.49
444.57	650.68
444.94	652.16
445.31	653.52
445.68	654.93
446.05	655.57
446.42	654.90
446.79	654.00
447.16	652.99
447.53	652.18
447.90	648.81
448.27	645.52
448.64	640.85
449.01	637.56
449.37	631.67
449.74	626.03
450.11	619.09
450.48	611.70
450.85	604.20
451.22	597.71
451.59	591.62
451.96	585.76
452.33	577.82
452.70	570.71
453.07	562.26
453.43	553.62
453.80	545.31
454.17	537.28
454.54	529.68
454.91	521.47
455.28	513.41
455.65	505.98
456.02	498.41
456.38	492.09
456.75	484.17
457.12	477.57
457.49	471.00
457.86	464.76
458.23	459.29
458.59	453.31
458.96	447.30
459.33	441.89
459.70	436.47
460.07	432.16
460.43	427.22
460.80	422.59
461.17	418.56
461.54	414.33
461.91	410.27
462.27	406.10
462.64	402.62
463.01	398.84
463.38	395.16
463.74	391.49
464.11	388.22
464.48	385.42
464.85	382.31
465.21	379.86
465.58	377.21
465.95	374.06
466.32	371.44
466.68	368.76
467.05	366.15
467.42	363.57
467.78	360.90
468.15	358.33
468.52	356.47
468.88	353.97
469.25	351.72
469.62	349.91
469.98	347.96
470.35	346.12
470.72	344.38
471.08	342.55
471.45	341.00
471.82	339.45
472.18	337.73
472.55	336.52
472.92	335.12
473.28	333.89
473.65	332.74
474.02	331.63
474.38	330.78
474.75	329.99
475.11	329.18
475.48	328.61
475.85	328.12
476.21	327.58
476.58	327.22
476.94	326.99
477.31	326.66
477.67	326.33
478.04	326.15
478.41	326.17
478.77	326.32
479.14	326.27
479.50	326.37
479.87	326.64
480.23	326.92
480.60	327.12
480.96	327.35
481.33	327.93
481.69	328.50
482.06	328.96
482.42	329.46
482.79	330.05
483.15	330.78
483.52	331.74
483.88	332.63
484.25	333.55
484.61	334.57
484.98	335.65
485.34	337.01
485.71	338.38
486.07	339.77
486.44	341.08
486.80	342.68
487.17	344.38
487.53	346.22
487.90	348.08
488.26	350.16
488.62	352.35
488.99	354.40
489.35	356.60
489.72	359.00
490.08	361.55
490.44	364.14
490.81	366.84
491.17	369.54
491.54	372.52
491.90	375.56
492.26	378.77
492.63	382.16
492.99	385.62
493.36	389.31
493.72	393.15
494.08	397.12
494.45	401.34
494.81	405.63
495.17	410.02
495.54	414.73
495.90	419.55
496.26	424.48
496.63	429.67
496.99	435.02
497.35	440.61
497.72	446.41
498.08	452.33
498.44	458.46
498.80	464.90
499.17	471.35
499.53	478.04
499.89	484.94
500.26	491.92
500.62	499.05
500.98	506.44
501.34	513.86
501.71	521.70
502.07	529.53
502.43	537.55
502.79	545.75
503.16	554.12
503.52	562.70
503.88	571.36
504.24	580.34
504.60	589.39
504.97	598.60
505.33	607.88
505.69	617.72
506.05	627.61
506.41	637.47
506.78	647.57
507.14	657.81
507.50	668.28
507.86	678.88
508.22	689.58
508.59	700.22
508.95	711.36
509.31	722.49
509.67	733.94
510.03	745.38
510.39	757.11
510.75	768.98
511.12	780.90
511.48	793.04
511.84	805.28
512.20	817.66
512.56	830.37
512.92	843.19
513.28	855.81
513.64	868.58
514.00	881.39
514.37	894.44
514.73	907.57
515.09	920.57
515.45	933.66
515.81	946.80
516.17	960.34
516.53	973.66
516.89	986.91
517.25	1000.21
517.61	1013.73
517.97	1027.22
518.33	1040.45
518.69	1054.01
519.05	1067.83
519.41	1081.51
519.77	1095.44
520.13	1108.81
520.49	1121.98
520.85	1135.52
521.21	1148.82
521.57	1162.61
521.93	1175.69
522.29	1189.48
522.65	1203.19
523.01	1216.77
523.37	1230.03
523.73	1243.32
524.09	1256.45
524.45	1270.00
524.81	1283.52
525.17	1297.02
525.53	1310.15
525.89	1323.51
526.25	1336.68
526.61	1349.51
526.97	1362.69
527.33	1375.68
527.68	1389.15
528.04	1402.69
528.40	1415.75
528.76	1429.21
529.12	1442.09
529.48	1455.43
529.84	1467.85
530.20	1480.61
530.56	1493.28
530.91	1506.63
531.27	1519.50
531.63	1532.42
531.99	1545.17
532.35	1557.48
532.71	1570.06
533.07	1583.10
533.42	1595.46
533.78	1607.62
534.14	1619.68
534.50	1631.00
534.86	1642.59
535.21	1653.58
535.57	1665.35
535.93	1676.82
536.29	1688.06
536.65	1699.68
537.00	1710.80
537.36	1722.25
537.72	1733.39
538.08	1744.83
538.44	1755.88
538.79	1767.03
539.15	1778.01
539.51	1788.96
539.87	1800.37
540.22	1811.14
540.58	1822.09
540.94	1833.13
541.29	1843.58
541.65	1853.56
542.01	1864.08
542.37	1874.28
542.72	1884.55
543.08	1894.25
543.44	1904.81
543.79	1914.15
544.15	1923.54
544.51	1933.58
544.87	1943.51
545.22	1952.85
545.58	1961.82
545.94	1970.68
546.29	1979.22
546.65	1987.72
547.01	1995.96
547.36	2003.84
547.72	2011.75
548.07	2019.43
548.43	2026.99
548.79	2034.99
549.14	2043.29
549.50	2052.02
549.86	2059.94
550.21	2067.42
550.57	2075.22
550.92	2082.09
551.28	2089.70
551.64	2097.04
551.99	2104.64
552.35	2111.80
552.70	2118.70
553.06	2125.44
553.41	2131.87
553.77	2138.46
554.13	2144.80
554.48	2151.77
554.84	2158.80
555.19	2165.18
555.55	2171.65
555.90	2178.06
556.26	2184.83
556.61	2190.95
556.97	2195.64
557.32	2201.39
557.68	2207.94
558.03	2213.66
558.39	2219.07
558.74	2224.99
559.10	2230.55
559.45	2235.94
559.81	2241.48
560.16	2247.02
560.52	2252.85
560.87	2259.16
561.23	2265.06
561.58	2271.77
561.94	2277.04
562.29	2281.47
562.64	2287.50
563.00	2293.14
563.35	2298.57
563.71	2304.20
564.06	2309.79
564.42	2315.65
564.77	2320.82
565.12	2325.82
565.48	2330.95
565.83	2336.28
566.19	2341.52
566.54	2346.83
566.89	2351.28
567.25	2355.72
567.60	2361.29
567.96	2366.18
568.31	2370.64
568.66	2374.98
569.02	2378.66
569.37	2382.24
569.72	2386.66
570.08	2390.19
570.43	2393.25
570.78	2396.40
571.14	2398.80
571.49	2401.75
571.84	2405.19
572.20	2408.02
572.55	2410.96
572.90	2413.03
573.26	2415.63
573.61	2418.11
573.96	2420.20
574.31	2422.31
574.67	2424.29
575.02	2424.97
575.37	2426.55
575.72	2427.12
576.08	2428.33
576.43	2428.44
576.78	2428.85
577.13	2430.29
577.49	2431.29
577.84	2432.16
578.19	2433.18
578.54	2433.60
578.90	2434.03
579.25	2433.73
579.60	2433.39
579.95	2432.44
580.30	2432.48
580.66	2431.79
581.01	2429.99
581.36	2427.36
581.71	2425.60
582.06	2424.18
582.42	2423.20
582.77	2420.73
583.12	2418.97
583.47	2417.42
583.82	2416.63
584.17	2415.15
584.53	2412.86
584.88	2410.59
585.23	2408.60
585.58	2406.28
585.93	2404.20
586.28	2401.98
586.63	2399.44
586.98	2397.15
587.34	2395.00
587.69	2392.29
588.04	2389.98
588.39	2388.42
588.74	2385.80
589.09	2383.05
589.44	2379.65
589.79	2376.85
590.14	2374.52
590.49	2371.59
590.84	2367.66
591.19	2364.29
591.54	2360.98
591.89	2356.84
592.25	2353.45
592.60	2349.09
592.95	2344.91
593.30	2340.70
593.65	2336.19
594.00	2331.71
594.35	2328.48
594.70	2323.76
595.05	2319.25
595.40	2313.71
595.75	2307.71
596.10	2304.03
596.45	2299.29
596.80	2294.64
597.15	2289.41
597.50	2283.57
597.85	2278.58
598.19	2273.25
598.54	2267.37
598.89	2262.00
599.24	2257.43
599.59	2251.34
599.94	2245.32
600.29	2239.23
600.64	2233.21
600.99	2226.50
601.34	2220.98
601.69	2214.10
602.04	2207.69
602.39	2200.91
602.74	2194.73
603.08	2189.31
603.43	2182.79
603.78	2175.80
604.13	2168.80
604.48	2161.54
604.83	2155.43
605.18	2149.11
605.53	2142.27
605.87	2135.36
606.22	2128.59
606.57	2120.56
606.92	2112.46
607.27	2105.54
607.62	2098.86
607.96	2091.80
608.31	2085.32
608.66	2077.50
609.01	2069.79
609.36	2062.67
609.70	2054.93
610.05	2047.24
610.40	2038.94
610.75	2030.57
611.10	2022.76
611.44	2013.91
611.79	2005.21
612.14	1995.29
612.49	1984.71
612.83	1975.24
613.18	1965.88
613.53	1956.61
613.88	1947.10
614.22	1938.59
614.57	1928.74
614.92	1918.19
615.27	1908.00
615.61	1897.74
615.96	1888.19
616.31	1878.66
616.65	1869.23
617.00	1859.56
617.35	1849.83
617.70	1840.01
618.04	1830.12
618.39	1820.14
618.74	1810.52
619.08	1800.91
619.43	1792.15
619.78	1783.92
620.12	1775.42
620.47	1766.04
620.82	1755.78
621.16	1746.05
621.51	1736.21
621.85	1726.52
622.20	1716.33
622.55	1705.88
622.89	1696.04
623.24	1686.25
623.59	1676.45
623.93	1666.33
624.28	1656.68
624.62	1646.78
624.97	1636.69
625.32	1626.90
625.66	1618.01
626.01	1609.34
626.35	1600.08
626.70	1590.32
627.04	1580.22
627.39	1570.16
627.73	1560.84
628.08	1552.02
628.43	1542.64
628.77	1533.35
629.12	1524.57
629.46	1516.76
629.81	1508.49
630.15	1499.11
630.50	1489.38
630.84	1478.95
631.19	1469.15
631.53	1459.97
631.88	1449.90
632.22	1439.89
632.57	1430.60
632.91	1420.49
633.26	1410.64
633.60	1401.20
633.95	1391.87
634.29	1382.56
634.64	1373.31
634.98	1363.49
635.32	1354.21
635.67	1345.70
636.01	1336.54
636.36	1326.88
636.70	1317.38
637.05	1308.01
637.39	1299.15
637.73	1290.65
638.08	1283.24
638.42	1275.15
638.77	1266.35
639.11	1258.20
639.45	1250.43
639.80	1242.05
640.14	1233.28
640.49	1224.49
640.83	1215.60
641.17	1207.49
641.52	1199.37
641.86	1190.88
642.20	1183.12
642.55	1174.55
642.89	1165.75
643.23	1157.14
643.58	1148.96
643.92	1140.00
644.26	1131.35
644.61	1123.04
644.95	1114.28
645.29	1105.08
645.64	1096.03
645.98	1087.52
646.32	1079.55
646.66	1071.19
647.01	1062.95
647.35	1054.95
647.69	1046.75
648.04	1038.51
648.38	1029.63
648.72	1020.98
649.06	1012.52
649.41	1004.27
649.75	996.39
650.09	988.54
650.43	980.51
650.78	972.25
651.12	964.57
651.46	957.14
651.80	949.79
652.14	942.51
652.49	935.07
652.83	927.76
653.17	920.13
653.51	912.50
653.85	905.27
654.20	897.92
654.54	890.60
654.88	883.28
655.22	876.17
655.56	869.20
655.90	862.36
656.25	855.76
656.59	848.87
656.93	841.80
657.27	834.63
657.61	827.64
657.95	821.53
658.29	815.54
658.64	809.50
658.98	803.05
659.32	796.51
659.66	790.17
660.00	783.84
660.34	777.72
660.68	771.57
661.02	765.18
661.36	759.27
661.70	753.39
662.05	747.81
662.39	742.25
662.73	736.86
663.07	731.47
663.41	725.86
663.75	720.17
664.09	714.49
664.43	709.08
664.77	703.77
665.11	697.98
665.45	692.13
665.79	686.21
666.13	680.55
666.47	675.03
666.81	669.56
667.15	664.08
667.49	658.93
667.83	653.75
668.17	648.55
668.51	643.42
668.85	638.46
669.19	633.53
669.53	628.51
669.87	623.35
670.21	618.56
670.55	613.80
670.89	609.38
671.23	605.02
671.57	600.64
671.91	596.34
672.25	592.21
672.58	588.09
672.92	584.06
673.26	580.12
673.60	576.23
673.94	572.43
674.28	568.85
674.62	565.08
674.96	561.30
675.30	557.72
675.64	554.00
675.97	550.42
676.31	546.75
676.65	543.16
676.99	539.76
677.33	535.90
677.67	532.24
678.01	528.27
678.34	524.63
678.68	521.04
679.02	517.43
679.36	513.70
679.70	509.99
680.04	506.40
680.37	502.87
680.71	499.54
681.05	496.35
681.39	493.06
681.73	489.89
682.06	486.80
682.40	483.67
682.74	480.43
683.08	477.15
683.42	473.94
683.75	470.85
684.09	467.77
684.43	464.94
684.77	461.97
685.10	459.18
685.44	456.22
685.78	453.31
686.12	450.54
686.45	447.78
686.79	445.08
687.13	442.49
687.46	439.85
687.80	437.15
688.14	434.28
688.48	431.57
688.81	428.81
689.15	426.18
689.49	423.58
689.82	420.99
690.16	418.40
690.50	415.92
690.83	413.43
691.17	410.82
691.51	408.27
691.84	406.00
692.18	403.71
692.52	401.49
692.85	399.36
693.19	397.13
693.52	394.94
693.86	392.71
694.20	390.49
694.53	388.32
694.87	386.09
695.21	383.94
695.54	381.78
695.88	379.59
696.21	377.41
696.55	375.25
696.88	373.19
697.22	371.18
697.56	369.24
697.89	367.31
698.23	365.57
698.56	363.74
698.90	361.91
699.23	360.00
699.57	358.05
699.90	356.11
700.24	354.29
700.58	352.55
700.91	350.84
701.25	349.30
701.58	347.68
701.92	346.09
702.25	344.44
702.59	342.81
702.92	341.25
703.26	339.67
703.59	338.14
703.93	336.89
704.26	335.47
704.60	333.94
704.93	332.45
705.26	330.93
705.60	329.44
705.93	327.91
706.27	326.55
706.60	325.27
706.94	324.06
707.27	322.67
707.61	321.29
707.94	319.96
708.27	318.40
708.61	316.90
708.94	315.48
709.28	314.15
709.61	312.87
709.94	311.67
710.28	310.41
710.61	309.18
710.95	307.71
711.28	306.62
711.61	305.42
711.95	304.23
712.28	303.00
712.61	301.81
712.95	300.74
713.28	299.72
713.61	298.56
713.95	297.38
714.28	296.36
714.61	295.29
714.95	294.27
715.28	293.21
715.61	292.20
715.95	291.24
716.28	290.31
716.61	289.33
716.95	288.32
717.28	287.40
717.61	286.44
717.94	285.55
718.28	284.44
718.61	283.53
718.94	282.63
719.27	281.78
719.61	280.98
719.94	280.09
720.27	279.11
720.60	278.23
720.94	277.40
721.27	276.61
721.60	275.87
721.93	275.12
722.27	274.50
722.60	273.79
722.93	273.06
723.26	272.34
723.59	271.61
723.93	270.95
724.26	270.25
724.59	269.60
724.92	268.99
725.25	268.45
725.59	267.87
725.92	267.35
726.25	266.76
726.58	266.13
726.91	265.49
727.24	264.94
727.57	264.36
727.91	263.75
728.24	263.22
728.57	262.64
728.90	262.07
729.23	261.46
729.56	261.01
729.89	260.47
730.22	259.93
730.55	259.41
730.89	258.87
731.22	258.36
731.55	257.85
731.88	257.30
732.21	256.76
732.54	256.21
732.87	255.68
733.20	255.20
733.53	254.74
733.86	254.30
734.19	253.77
734.52	253.38
734.85	253.09
735.18	252.57
735.51	252.17
735.84	251.75
736.17	251.30
736.50	250.79
736.83	250.61
737.16	250.20
737.49	249.83
737.82	249.40
738.15	248.99
738.48	248.58
738.81	248.19
739.14	247.76
739.47	247.36
739.80	246.98
740.13	246.63
740.46	246.21
740.79	245.81
741.12	245.47
741.45	245.05
741.78	244.61
742.11	244.32
742.44	243.96
742.77	243.65
743.10	243.32
743.43	242.99
743.75	242.42
744.08	242.38
744.41	241.99
744.74	241.64
745.07	241.28
745.40	241.00
745.73	240.76
746.06	240.42
746.39	240.13
746.71	239.79
747.04	239.43
747.37	239.12
747.70	238.82
748.03	238.51
748.36	238.24
748.68	237.91
749.01	237.52
749.34	237.20
749.67	236.88
750.00	236.63
750.33	236.50
750.65	236.22
750.98	235.66
751.31	235.41
751.64	235.17
751.97	235.07
752.29	234.77
752.62	234.44
752.95	234.20
753.28	233.92
753.60	233.63
753.93	233.47
754.26	233.26
754.59	232.98
754.91	232.70
755.24	232.50
755.57	232.27
755.90	232.05
756.22	231.79
756.55	231.55
756.88	231.27
757.20	230.89
757.53	230.64
757.86	230.44
758.19	230.23
758.51	230.01
758.84	229.70
759.17	229.49
759.49	229.29
759.82	229.21
760.15	229.03
760.47	228.90
760.80	228.63
761.13	228.45
761.45	228.29
761.78	228.14
762.11	227.91
762.43	227.71
762.76	227.55
763.08	227.40
763.41	227.27
763.74	227.11
764.06	226.95
764.39	226.79
764.71	226.61
765.04	226.46
765.37	226.28
765.69	226.12
766.02	225.99
766.34	225.86
766.67	225.62
767.00	225.56
767.32	225.51
767.65	225.50
767.97	225.36
768.30	225.23
768.62	225.07
768.95	224.94
769.27	224.81
769.60	224.73
769.92	224.58
770.25	224.38
770.57	224.22
770.90	224.10
771.22	223.95
771.55	223.84
771.87	223.70
772.20	223.60
772.52	223.68
772.85	223.80
773.17	223.66
773.50	223.56
773.82	223.40
774.15	223.20
774.47	222.97
774.80	222.84
775.12	222.76
775.45	222.68
775.77	222.60
776.09	222.52
776.42	222.40
776.74	222.37
777.07	222.29
777.39	222.21
777.72	222.12
778.04	222.09
778.36	222.02
778.69	221.96
779.01	221.89
779.33	221.61
779.66	221.28
779.98	221.22
780.31	221.15
780.63	221.17
780.95	221.14
781.28	221.05
781.60	220.98
781.92	220.89
782.25	220.80
782.57	220.74
782.89	220.66
783.22	220.58
783.54	220.47
783.86	220.46
784.19	220.37
784.51	220.37
784.83	220.29
785.16	220.20
785.48	220.13
785.80	220.07
786.12	220.04
