SpectraSuite Data File
++++++++++++++++++++++++++++++++++++
Date: Tue Jan 29 16:08:09 EST 2013
User: group
Dark Spectrum Present: No
Reference Spectrum Present: No
Number of Sampled Component Spectra: 1
Spectrometers: USB2E7196
Integration Time (usec): 65000 (USB2E7196)
Spectra Averaged: 100 (USB2E7196)
Boxcar Smoothing: 10 (USB2E7196)
Correct for Electrical Dark: No (USB2E7196)
Strobe/Lamp Enabled: No (USB2E7196)
Correct for Detector Non-linearity: No (USB2E7196)
Correct for Stray Light: No (USB2E7196)
Number of Pixels in Processed Spectrum: 2048
>>>>>Begin Processed Spectral Data<<<<<
339.09	0.00
339.48	201.99
339.86	203.69
340.24	205.83
340.63	206.22
341.01	211.22
341.39	209.14
341.78	211.26
342.16	212.72
342.54	212.40
342.93	201.61
343.31	211.80
343.69	212.40
344.07	212.89
344.46	213.33
344.84	213.76
345.22	213.95
345.60	214.23
345.99	214.40
346.37	214.53
346.75	214.66
347.13	214.76
347.52	214.85
347.90	215.00
348.28	215.03
348.66	215.10
349.05	215.10
349.43	215.17
349.81	215.27
350.19	215.33
350.57	215.45
350.96	215.56
351.34	215.70
351.72	215.77
352.10	215.91
352.48	215.98
352.87	216.02
353.25	216.11
353.63	216.19
354.01	216.29
354.39	216.38
354.77	216.44
355.15	216.58
355.54	216.66
355.92	216.66
356.30	216.74
356.68	216.96
357.06	217.05
357.44	217.08
357.82	217.14
358.20	217.24
358.58	217.27
358.97	217.34
359.35	217.41
359.73	217.51
360.11	217.54
360.49	217.59
360.87	217.66
361.25	217.70
361.63	217.80
362.01	217.86
362.39	217.87
362.77	217.95
363.15	217.95
363.53	217.98
363.91	218.02
364.29	218.06
364.67	217.90
365.05	217.90
365.43	217.93
365.81	217.99
366.19	218.08
366.57	218.18
366.95	218.17
367.33	218.16
367.71	218.17
368.09	218.19
368.47	218.23
368.85	218.20
369.23	218.23
369.61	218.17
369.99	218.23
370.37	218.23
370.75	218.28
371.13	218.25
371.51	218.20
371.89	218.19
372.27	218.15
372.65	218.11
373.03	218.09
373.41	218.05
373.78	217.98
374.16	217.83
374.54	217.68
374.92	217.62
375.30	217.56
375.68	217.45
376.06	217.44
376.44	217.38
376.82	217.38
377.19	217.30
377.57	217.23
377.95	217.10
378.33	217.01
378.71	216.89
379.09	216.89
379.47	216.87
379.84	216.83
380.22	216.75
380.60	216.69
380.98	216.65
381.36	216.56
381.73	216.49
382.11	216.50
382.49	216.52
382.87	216.47
383.25	216.41
383.62	216.65
384.00	216.55
384.38	216.48
384.76	216.46
385.13	216.52
385.51	216.51
385.89	216.45
386.27	216.46
386.64	216.42
387.02	216.34
387.40	216.28
387.78	216.25
388.15	216.26
388.53	216.26
388.91	216.26
389.29	216.29
389.66	216.29
390.04	216.24
390.42	216.22
390.79	216.24
391.17	216.22
391.55	215.95
391.92	215.94
392.30	215.96
392.68	215.91
393.05	215.90
393.43	215.90
393.81	215.92
394.18	215.87
394.56	215.85
394.94	215.88
395.31	215.89
395.69	215.90
396.06	215.93
396.44	215.95
396.82	215.96
397.19	216.07
397.57	216.08
397.95	216.15
398.32	216.16
398.70	216.18
399.07	216.29
399.45	216.34
399.82	216.40
400.20	216.44
400.58	216.51
400.95	216.48
401.33	216.55
401.70	216.79
402.08	216.88
402.45	217.00
402.83	217.12
403.20	217.25
403.58	217.37
403.95	217.50
404.33	217.66
404.71	217.76
405.08	218.02
405.46	218.18
405.83	218.35
406.21	218.52
406.58	218.77
406.96	218.98
407.33	219.23
407.70	219.50
408.08	219.96
408.45	220.29
408.83	220.67
409.20	221.04
409.58	221.30
409.95	221.75
410.33	222.22
410.70	222.61
411.08	223.14
411.45	223.65
411.82	224.25
412.20	224.90
412.57	225.71
412.95	226.23
413.32	227.04
413.69	227.84
414.07	228.74
414.44	229.67
414.82	230.63
415.19	231.81
415.56	232.96
415.94	234.05
416.31	235.40
416.68	236.74
417.06	238.26
417.43	239.74
417.81	241.42
418.18	243.15
418.55	245.04
418.93	246.97
419.30	249.03
419.67	251.18
420.04	253.36
420.42	255.67
420.79	258.41
421.16	261.08
421.54	263.87
421.91	266.74
422.28	269.71
422.66	272.87
423.03	276.03
423.40	279.29
423.77	282.82
424.15	286.36
424.52	290.10
424.89	294.13
425.26	298.07
425.64	301.84
426.01	305.94
426.38	310.24
426.75	314.70
427.13	319.23
427.50	324.01
427.87	329.04
428.24	334.04
428.61	338.85
428.99	344.22
429.36	350.03
429.73	355.72
430.10	361.38
430.47	367.28
430.85	373.31
431.22	379.76
431.59	386.57
431.96	393.18
432.33	400.37
432.70	407.39
433.08	415.66
433.45	423.46
433.82	431.19
434.19	439.85
434.56	448.22
434.93	456.29
435.30	464.27
435.68	473.13
436.05	481.79
436.42	490.38
436.79	498.23
437.16	506.69
437.53	515.60
437.90	524.51
438.27	533.18
438.64	542.07
439.01	550.37
439.38	557.68
439.75	564.73
440.13	572.86
440.50	580.52
440.87	586.69
441.24	593.03
441.61	600.16
441.98	605.29
442.35	611.40
442.72	617.45
443.09	623.34
443.46	626.91
443.83	629.32
444.20	631.41
444.57	634.40
444.94	635.76
445.31	637.22
445.68	638.49
446.05	639.03
446.42	638.25
446.79	637.24
447.16	636.25
447.53	635.47
447.90	632.28
448.27	629.12
448.64	624.57
449.01	621.36
449.37	615.68
449.74	610.21
450.11	603.46
450.48	596.38
450.85	589.17
451.22	582.92
451.59	577.03
451.96	571.43
452.33	563.85
452.70	557.07
453.07	548.85
453.43	540.56
453.80	532.57
454.17	524.88
454.54	517.55
454.91	509.66
455.28	501.96
455.65	494.80
456.02	487.57
456.38	481.56
456.75	473.99
457.12	467.67
457.49	461.42
457.86	455.52
458.23	450.36
458.59	444.65
458.96	438.91
459.33	433.79
459.70	428.60
460.07	424.55
460.43	419.80
460.80	415.45
461.17	411.64
461.54	407.57
461.91	403.71
462.27	399.78
462.64	396.47
463.01	392.83
463.38	389.27
463.74	385.67
464.11	382.54
464.48	379.86
464.85	376.85
465.21	374.49
465.58	371.97
465.95	368.91
466.32	366.38
466.68	363.81
467.05	361.36
467.42	358.93
467.78	356.35
468.15	353.89
468.52	352.03
468.88	349.60
469.25	347.50
469.62	345.76
469.98	343.90
470.35	342.18
470.72	340.63
471.08	338.94
471.45	337.50
471.82	335.98
472.18	334.35
472.55	333.20
472.92	331.86
473.28	330.71
473.65	329.67
474.02	328.60
474.38	327.78
474.75	327.07
475.11	326.29
475.48	325.73
475.85	325.29
476.21	324.84
476.58	324.53
476.94	324.33
477.31	324.07
477.67	323.87
478.04	323.73
478.41	323.70
478.77	323.89
479.14	323.87
479.50	324.08
479.87	324.39
480.23	324.79
480.60	325.08
480.96	325.38
481.33	325.95
481.69	326.57
482.06	327.13
482.42	327.58
482.79	328.20
483.15	329.01
483.52	330.02
483.88	330.92
484.25	331.87
484.61	332.92
484.98	333.97
485.34	335.30
485.71	336.69
486.07	338.09
486.44	339.40
486.80	341.00
487.17	342.66
487.53	344.49
487.90	346.32
488.26	348.29
488.62	350.47
488.99	352.50
489.35	354.68
489.72	357.08
490.08	359.65
490.44	362.24
490.81	364.95
491.17	367.60
491.54	370.58
491.90	373.62
492.26	376.86
492.63	380.23
492.99	383.71
493.36	387.40
493.72	391.32
494.08	395.36
494.45	399.61
494.81	403.98
495.17	408.39
495.54	413.05
495.90	417.93
496.26	422.77
496.63	427.99
496.99	433.35
497.35	438.84
497.72	444.61
498.08	450.56
498.44	456.61
498.80	463.02
499.17	469.51
499.53	476.12
499.89	482.91
500.26	489.82
500.62	496.87
500.98	504.22
501.34	511.61
501.71	519.28
502.07	527.02
502.43	534.97
502.79	543.12
503.16	551.43
503.52	559.93
503.88	568.66
504.24	577.57
504.60	586.56
504.97	595.79
505.33	605.03
505.69	614.77
506.05	624.63
506.41	634.45
506.78	644.44
507.14	654.70
507.50	665.14
507.86	675.86
508.22	686.58
508.59	697.23
508.95	708.26
509.31	719.51
509.67	730.90
510.03	742.25
510.39	753.97
510.75	765.80
511.12	777.72
511.48	789.76
511.84	801.95
512.20	814.25
512.56	826.81
512.92	839.41
513.28	851.87
513.64	864.51
514.00	877.18
514.37	889.98
514.73	902.93
515.09	915.76
515.45	928.50
515.81	941.39
516.17	954.59
516.53	967.69
516.89	980.65
517.25	993.76
517.61	1007.15
517.97	1020.28
518.33	1033.23
518.69	1046.50
519.05	1059.98
519.41	1073.39
519.77	1086.99
520.13	1100.14
520.49	1113.24
520.85	1126.55
521.21	1139.74
521.57	1153.28
521.93	1166.17
522.29	1179.75
522.65	1193.17
523.01	1206.53
523.37	1219.44
523.73	1232.48
524.09	1245.44
524.45	1258.56
524.81	1271.75
525.17	1284.85
525.53	1297.80
525.89	1310.75
526.25	1323.67
526.61	1336.19
526.97	1349.09
527.33	1361.69
527.68	1374.85
528.04	1388.04
528.40	1400.90
528.76	1413.88
529.12	1426.57
529.48	1439.58
529.84	1451.59
530.20	1464.25
530.56	1476.72
530.91	1489.76
531.27	1502.18
531.63	1514.67
531.99	1527.12
532.35	1539.09
532.71	1551.20
533.07	1563.71
533.42	1575.74
533.78	1587.55
534.14	1599.41
534.50	1610.40
534.86	1621.77
535.21	1632.33
535.57	1643.46
535.93	1654.37
536.29	1665.24
536.65	1676.19
537.00	1686.89
537.36	1697.91
537.72	1708.46
538.08	1719.41
538.44	1729.80
538.79	1740.68
539.15	1751.21
539.51	1761.61
539.87	1772.68
540.22	1783.11
540.58	1793.68
540.94	1804.20
541.29	1814.07
541.65	1823.64
542.01	1833.81
542.37	1843.52
542.72	1853.46
543.08	1862.99
543.44	1873.18
543.79	1882.31
544.15	1891.53
544.51	1901.26
544.87	1910.86
545.22	1919.71
545.58	1928.29
545.94	1937.17
546.29	1945.61
546.65	1953.76
547.01	1961.82
547.36	1969.19
547.72	1976.84
548.07	1984.43
548.43	1992.02
548.79	1999.81
549.14	2007.71
549.50	2015.78
549.86	2023.41
550.21	2030.63
550.57	2038.01
550.92	2044.57
551.28	2051.70
551.64	2058.84
551.99	2066.13
552.35	2073.09
552.70	2079.81
553.06	2086.37
553.41	2092.48
553.77	2098.64
554.13	2104.75
554.48	2111.64
554.84	2118.58
555.19	2124.99
555.55	2131.19
555.90	2137.14
556.26	2143.70
556.61	2149.51
556.97	2154.42
557.32	2160.27
557.68	2166.44
558.03	2172.24
558.39	2177.47
558.74	2183.37
559.10	2188.93
559.45	2194.42
559.81	2199.83
560.16	2205.43
560.52	2211.32
560.87	2217.67
561.23	2223.63
561.58	2230.29
561.94	2235.32
562.29	2240.12
562.64	2246.13
563.00	2251.70
563.35	2257.53
563.71	2263.47
564.06	2269.04
564.42	2274.89
564.77	2279.97
565.12	2285.17
565.48	2290.38
565.83	2295.96
566.19	2301.66
566.54	2306.92
566.89	2311.64
567.25	2316.28
567.60	2322.00
567.96	2327.21
568.31	2331.82
568.66	2336.16
569.02	2340.06
569.37	2344.03
569.72	2348.30
570.08	2351.90
570.43	2355.03
570.78	2358.01
571.14	2360.58
571.49	2363.89
571.84	2367.48
572.20	2370.37
572.55	2373.58
572.90	2375.74
573.26	2378.72
573.61	2380.90
573.96	2383.07
574.31	2385.07
574.67	2387.00
575.02	2387.94
575.37	2389.27
575.72	2390.26
576.08	2391.99
576.43	2392.56
576.78	2393.31
577.13	2395.34
577.49	2396.48
577.84	2397.91
578.19	2399.51
578.54	2400.27
578.90	2401.46
579.25	2401.54
579.60	2401.77
579.95	2401.32
580.30	2401.86
580.66	2401.26
581.01	2399.90
581.36	2398.07
581.71	2396.96
582.06	2396.33
582.42	2395.65
582.77	2393.83
583.12	2392.47
583.47	2391.17
583.82	2390.65
584.17	2389.53
584.53	2387.40
584.88	2385.63
585.23	2383.81
585.58	2381.87
585.93	2379.95
586.28	2377.80
586.63	2375.82
586.98	2373.76
587.34	2371.87
587.69	2369.78
588.04	2367.99
588.39	2366.78
588.74	2364.47
589.09	2362.15
589.44	2359.21
589.79	2356.97
590.14	2355.33
590.49	2352.53
590.84	2348.98
591.19	2346.17
591.54	2342.95
591.89	2339.02
592.25	2336.03
592.60	2332.06
592.95	2328.00
593.30	2323.96
593.65	2319.73
594.00	2315.42
594.35	2312.45
594.70	2308.00
595.05	2303.39
595.40	2298.20
595.75	2292.74
596.10	2289.25
596.45	2284.16
596.80	2279.58
597.15	2274.42
597.50	2268.55
597.85	2263.80
598.19	2258.65
598.54	2252.79
598.89	2248.01
599.24	2243.70
599.59	2237.61
599.94	2232.07
600.29	2226.32
600.64	2220.51
600.99	2213.99
601.34	2208.48
601.69	2201.60
602.04	2195.41
602.39	2188.91
602.74	2182.97
603.08	2177.42
603.43	2170.83
603.78	2164.28
604.13	2157.32
604.48	2150.19
604.83	2144.16
605.18	2137.67
605.53	2130.67
605.87	2123.88
606.22	2116.94
606.57	2108.98
606.92	2101.12
607.27	2094.06
607.62	2087.52
607.96	2080.51
608.31	2073.95
608.66	2066.30
609.01	2058.77
609.36	2051.71
609.70	2044.03
610.05	2036.35
610.40	2028.22
610.75	2020.12
611.10	2012.63
611.44	2003.90
611.79	1995.17
612.14	1985.24
612.49	1975.00
612.83	1966.02
613.18	1956.90
613.53	1947.54
613.88	1938.11
614.22	1929.57
614.57	1919.78
614.92	1909.27
615.27	1899.28
615.61	1889.36
615.96	1879.61
616.31	1870.18
616.65	1860.64
617.00	1850.76
617.35	1841.08
617.70	1831.28
618.04	1821.13
618.39	1810.74
618.74	1801.12
619.08	1791.72
619.43	1783.01
619.78	1774.70
620.12	1765.90
620.47	1756.11
620.82	1745.89
621.16	1736.13
621.51	1726.12
621.85	1716.26
622.20	1705.69
622.55	1695.14
622.89	1685.25
623.24	1675.65
623.59	1665.73
623.93	1655.64
624.28	1646.01
624.62	1635.73
624.97	1625.48
625.32	1615.89
625.66	1607.14
626.01	1598.29
626.35	1588.71
626.70	1578.51
627.04	1568.41
627.39	1558.48
627.73	1549.15
628.08	1540.10
628.43	1530.48
628.77	1521.31
629.12	1512.50
629.46	1504.79
629.81	1496.38
630.15	1486.75
630.50	1476.86
630.84	1466.56
631.19	1456.69
631.53	1447.23
631.88	1437.20
632.22	1427.15
632.57	1417.63
632.91	1407.41
633.26	1397.57
633.60	1388.12
633.95	1378.87
634.29	1369.48
634.64	1360.01
634.98	1350.12
635.32	1340.96
635.67	1332.45
636.01	1323.24
636.36	1313.38
636.70	1303.83
637.05	1294.36
637.39	1285.40
637.73	1276.86
638.08	1269.24
638.42	1261.05
638.77	1252.28
639.11	1243.98
639.45	1236.18
639.80	1227.52
640.14	1218.86
640.49	1209.81
640.83	1201.02
641.17	1192.98
641.52	1184.65
641.86	1176.16
642.20	1168.35
642.55	1159.70
642.89	1150.79
643.23	1142.11
643.58	1134.07
643.92	1125.07
644.26	1116.46
644.61	1107.98
644.95	1099.23
645.29	1089.92
645.64	1080.69
645.98	1072.44
646.32	1064.59
646.66	1056.04
647.01	1047.74
647.35	1039.64
647.69	1031.35
648.04	1023.01
648.38	1014.08
648.72	1005.35
649.06	996.87
649.41	988.71
649.75	980.80
650.09	973.05
650.43	965.01
650.78	956.82
651.12	949.08
651.46	941.82
651.80	934.60
652.14	927.23
652.49	919.80
652.83	912.60
653.17	904.83
653.51	897.17
653.85	889.97
654.20	882.73
654.54	875.13
654.88	868.05
655.22	860.89
655.56	853.99
655.90	847.32
656.25	840.68
656.59	833.65
656.93	826.70
657.27	819.60
657.61	812.78
657.95	806.65
658.29	800.89
658.64	794.75
658.98	788.40
659.32	781.92
659.66	775.74
660.00	769.43
660.34	763.47
660.68	757.35
661.02	751.11
661.36	745.33
661.70	739.69
662.05	734.07
662.39	728.64
662.73	723.32
663.07	717.96
663.41	712.47
663.75	706.92
664.09	701.33
664.43	696.00
664.77	690.59
665.11	684.80
665.45	678.82
665.79	673.06
666.13	667.41
666.47	661.92
666.81	656.51
667.15	651.22
667.49	646.07
667.83	640.90
668.17	635.75
668.51	630.63
668.85	625.77
669.19	620.91
669.53	615.97
669.87	610.88
670.21	606.17
670.55	601.47
670.89	597.13
671.23	592.88
671.57	588.50
671.91	584.31
672.25	580.26
672.58	576.26
672.92	572.26
673.26	568.42
673.60	564.64
673.94	560.92
674.28	557.30
674.62	553.59
674.96	549.89
675.30	546.46
675.64	542.89
675.97	539.33
676.31	535.74
676.65	532.19
676.99	528.79
677.33	525.02
677.67	521.36
678.01	517.55
678.34	513.94
678.68	510.43
679.02	506.82
679.36	503.19
679.70	499.61
680.04	496.13
680.37	492.74
680.71	489.48
681.05	486.32
681.39	483.17
681.73	480.07
682.06	477.15
682.40	474.10
682.74	470.91
683.08	467.77
683.42	464.70
683.75	461.74
684.09	458.75
684.43	455.96
684.77	453.09
685.10	450.28
685.44	447.36
685.78	444.53
686.12	441.86
686.45	439.17
686.79	436.56
687.13	434.02
687.46	431.49
687.80	428.86
688.14	426.06
688.48	423.49
688.81	420.83
689.15	418.28
689.49	415.72
689.82	413.32
690.16	410.80
690.50	408.34
690.83	405.91
691.17	403.44
691.51	401.05
691.84	398.89
692.18	396.70
692.52	394.59
692.85	392.52
693.19	390.42
693.52	388.30
693.86	386.11
694.20	383.95
694.53	381.81
694.87	379.66
695.21	377.61
695.54	375.49
695.88	373.40
696.21	371.22
696.55	369.13
696.88	367.06
697.22	365.15
697.56	363.37
697.89	361.52
698.23	359.80
698.56	358.03
698.90	356.30
699.23	354.42
699.57	352.58
699.90	350.74
700.24	348.99
700.58	347.28
700.91	345.68
701.25	344.17
701.58	342.63
701.92	341.10
702.25	339.57
702.59	337.97
702.92	336.49
703.26	334.98
703.59	333.59
703.93	332.39
704.26	331.00
704.60	329.47
704.93	328.05
705.26	326.62
705.60	325.19
705.93	323.70
706.27	322.44
706.60	321.24
706.94	320.06
707.27	318.71
707.61	317.39
707.94	316.08
708.27	314.61
708.61	313.15
708.94	311.80
709.28	310.53
709.61	309.38
709.94	308.17
710.28	306.98
710.61	305.77
710.95	304.36
711.28	303.27
711.61	302.15
711.95	301.05
712.28	299.88
712.61	298.74
712.95	297.73
713.28	296.72
713.61	295.58
713.95	294.46
714.28	293.47
714.61	292.46
714.95	291.47
715.28	290.47
715.61	289.52
715.95	288.58
716.28	287.64
716.61	286.67
716.95	285.70
717.28	284.84
717.61	283.90
717.94	283.06
718.28	282.06
718.61	281.17
718.94	280.25
719.27	279.40
719.61	278.59
719.94	277.71
720.27	276.74
720.60	275.96
720.94	275.19
721.27	274.41
721.60	273.74
721.93	273.02
722.27	272.41
722.60	271.75
722.93	271.07
723.26	270.39
723.59	269.73
723.93	269.14
724.26	268.51
724.59	267.91
724.92	267.32
725.25	266.86
725.59	266.32
725.92	265.80
726.25	265.26
726.58	264.72
726.91	264.16
727.24	263.68
727.57	263.08
727.91	262.46
728.24	261.95
728.57	261.35
728.90	260.82
729.23	260.20
729.56	259.76
729.89	259.24
730.22	258.71
730.55	258.20
730.89	257.71
731.22	257.16
731.55	256.63
731.88	256.09
732.21	255.51
732.54	255.01
732.87	254.53
733.20	254.07
733.53	253.60
733.86	253.16
734.19	252.66
734.52	252.25
734.85	251.99
735.18	251.52
735.51	251.18
735.84	250.76
736.17	250.40
736.50	249.89
736.83	249.74
737.16	249.36
737.49	248.98
737.82	248.57
738.15	248.23
738.48	247.86
738.81	247.48
739.14	247.12
739.47	246.74
739.80	246.36
740.13	246.02
740.46	245.66
740.79	245.29
741.12	244.97
741.45	244.61
741.78	244.17
742.11	243.91
742.44	243.52
742.77	243.24
743.10	242.88
743.43	242.53
743.75	241.96
744.08	241.92
744.41	241.57
744.74	241.20
745.07	240.85
745.40	240.57
745.73	240.37
746.06	240.04
746.39	239.76
746.71	239.44
747.04	239.09
747.37	238.76
747.70	238.49
748.03	238.18
748.36	237.91
748.68	237.60
749.01	237.23
749.34	236.97
749.67	236.63
750.00	236.39
750.33	236.30
750.65	236.06
750.98	235.55
751.31	235.32
751.64	235.12
751.97	235.01
752.29	234.77
752.62	234.43
752.95	234.18
753.28	233.88
753.60	233.63
753.93	233.46
754.26	233.25
754.59	232.97
754.91	232.74
755.24	232.53
755.57	232.30
755.90	232.10
756.22	231.86
756.55	231.69
756.88	231.45
757.20	231.10
757.53	230.87
757.86	230.64
758.19	230.45
758.51	230.24
758.84	229.96
759.17	229.74
759.49	229.53
759.82	229.46
760.15	229.31
760.47	229.18
760.80	228.94
761.13	228.79
761.45	228.60
761.78	228.41
762.11	228.20
762.43	227.99
762.76	227.84
763.08	227.71
763.41	227.55
763.74	227.42
764.06	227.23
764.39	227.13
764.71	226.98
765.04	226.80
765.37	226.64
765.69	226.48
766.02	226.37
766.34	226.25
766.67	226.05
767.00	225.95
767.32	225.88
767.65	225.88
767.97	225.74
768.30	225.66
768.62	225.56
768.95	225.45
769.27	225.33
769.60	225.22
769.92	225.05
770.25	224.84
770.57	224.68
770.90	224.56
771.22	224.43
771.55	224.31
771.87	224.23
772.20	224.12
772.52	224.21
772.85	224.34
773.17	224.23
773.50	224.12
773.82	224.00
774.15	223.83
774.47	223.62
774.80	223.51
775.12	223.41
775.45	223.33
775.77	223.26
776.09	223.22
776.42	223.14
776.74	223.14
777.07	223.07
777.39	223.00
777.72	222.89
778.04	222.81
778.36	222.73
778.69	222.65
779.01	222.59
779.33	222.28
779.66	221.95
779.98	221.86
780.31	221.77
780.63	221.77
780.95	221.73
781.28	221.68
781.60	221.57
781.92	221.54
782.25	221.48
782.57	221.42
782.89	221.31
783.22	221.22
783.54	221.12
783.86	221.10
784.19	221.02
784.51	221.08
784.83	220.98
785.16	220.90
785.48	220.87
785.80	220.82
786.12	220.78
