SpectraSuite Data File
++++++++++++++++++++++++++++++++++++
Date: Tue Jan 29 16:16:31 EST 2013
User: group
Dark Spectrum Present: No
Reference Spectrum Present: No
Number of Sampled Component Spectra: 1
Spectrometers: USB2E7196
Integration Time (usec): 65000 (USB2E7196)
Spectra Averaged: 100 (USB2E7196)
Boxcar Smoothing: 10 (USB2E7196)
Correct for Electrical Dark: No (USB2E7196)
Strobe/Lamp Enabled: No (USB2E7196)
Correct for Detector Non-linearity: No (USB2E7196)
Correct for Stray Light: No (USB2E7196)
Number of Pixels in Processed Spectrum: 2048
>>>>>Begin Processed Spectral Data<<<<<
339.09	0.00
339.48	202.53
339.86	203.79
340.24	205.32
340.63	206.56
341.01	211.12
341.39	209.47
341.78	210.69
342.16	211.87
342.54	212.53
342.93	201.69
343.31	211.91
343.69	212.46
344.07	212.92
344.46	213.37
344.84	213.78
345.22	213.97
345.60	214.25
345.99	214.47
346.37	214.64
346.75	214.78
347.13	214.86
347.52	214.93
347.90	215.05
348.28	215.11
348.66	215.24
349.05	215.21
349.43	215.27
349.81	215.32
350.19	215.40
350.57	215.45
350.96	215.56
351.34	215.63
351.72	215.72
352.10	215.82
352.48	215.89
352.87	215.96
353.25	215.99
353.63	216.04
354.01	216.11
354.39	216.19
354.77	216.27
355.15	216.39
355.54	216.45
355.92	216.42
356.30	216.48
356.68	216.65
357.06	216.71
357.44	216.71
357.82	216.76
358.20	216.84
358.58	216.93
358.97	216.94
359.35	217.05
359.73	217.16
360.11	217.22
360.49	217.26
360.87	217.28
361.25	217.37
361.63	217.46
362.01	217.50
362.39	217.52
362.77	217.52
363.15	217.52
363.53	217.55
363.91	217.61
364.29	217.62
364.67	217.47
365.05	217.46
365.43	217.53
365.81	217.59
366.19	217.67
366.57	217.73
366.95	217.76
367.33	217.70
367.71	217.67
368.09	217.71
368.47	217.74
368.85	217.76
369.23	217.78
369.61	217.70
369.99	217.76
370.37	217.75
370.75	217.86
371.13	217.80
371.51	217.76
371.89	217.72
372.27	217.72
372.65	217.66
373.03	217.61
373.41	217.56
373.78	217.49
374.16	217.36
374.54	217.25
374.92	217.17
375.30	217.13
375.68	217.04
376.06	217.03
376.44	216.95
376.82	216.91
377.19	216.86
377.57	216.82
377.95	216.71
378.33	216.65
378.71	216.47
379.09	216.46
379.47	216.44
379.84	216.38
380.22	216.30
380.60	216.25
380.98	216.23
381.36	216.16
381.73	216.06
382.11	216.04
382.49	216.01
382.87	215.96
383.25	215.91
383.62	216.13
384.00	216.04
384.38	216.00
384.76	216.01
385.13	216.08
385.51	216.07
385.89	216.04
386.27	216.01
386.64	216.00
387.02	216.00
387.40	215.93
387.78	215.94
388.15	215.94
388.53	215.91
388.91	215.87
389.29	215.84
389.66	215.87
390.04	215.86
390.42	215.87
390.79	215.88
391.17	215.91
391.55	215.63
391.92	215.60
392.30	215.63
392.68	215.55
393.05	215.53
393.43	215.53
393.81	215.53
394.18	215.51
394.56	215.53
394.94	215.54
395.31	215.54
395.69	215.62
396.06	215.64
396.44	215.67
396.82	215.72
397.19	215.86
397.57	215.89
397.95	215.94
398.32	215.90
398.70	215.92
399.07	215.99
399.45	216.03
399.82	216.11
400.20	216.09
400.58	216.12
400.95	216.05
401.33	216.10
401.70	216.30
402.08	216.37
402.45	216.45
402.83	216.59
403.20	216.71
403.58	216.77
403.95	216.93
404.33	217.09
404.71	217.24
405.08	217.50
405.46	217.64
405.83	217.84
406.21	218.07
406.58	218.30
406.96	218.52
407.33	218.80
407.70	219.10
408.08	219.59
408.45	219.92
408.83	220.34
409.20	220.73
409.58	221.00
409.95	221.46
410.33	221.96
410.70	222.34
411.08	222.87
411.45	223.45
411.82	224.01
412.20	224.65
412.57	225.43
412.95	226.00
413.32	226.80
413.69	227.61
414.07	228.50
414.44	229.45
414.82	230.40
415.19	231.56
415.56	232.71
415.94	233.81
416.31	235.24
416.68	236.61
417.06	238.18
417.43	239.61
417.81	241.25
418.18	242.94
418.55	244.85
418.93	246.79
419.30	248.80
419.67	250.94
420.04	253.17
420.42	255.49
420.79	258.21
421.16	260.92
421.54	263.72
421.91	266.58
422.28	269.57
422.66	272.76
423.03	275.86
423.40	279.09
423.77	282.58
424.15	286.07
424.52	289.76
424.89	293.77
425.26	297.74
425.64	301.48
426.01	305.59
426.38	309.90
426.75	314.34
427.13	318.93
427.50	323.75
427.87	328.76
428.24	333.79
428.61	338.57
428.99	343.93
429.36	349.72
429.73	355.44
430.10	361.12
430.47	366.98
430.85	373.12
431.22	379.59
431.59	386.50
431.96	393.10
432.33	400.37
432.70	407.36
433.08	415.58
433.45	423.43
433.82	431.18
434.19	439.78
434.56	448.22
434.93	456.26
435.30	464.25
435.68	473.10
436.05	481.73
436.42	490.43
436.79	498.24
437.16	506.69
437.53	515.65
437.90	524.47
438.27	533.09
438.64	542.03
439.01	550.30
439.38	557.55
439.75	564.64
440.13	572.75
440.50	580.51
440.87	586.73
441.24	593.13
441.61	600.25
441.98	605.42
442.35	611.49
442.72	617.60
443.09	623.42
443.46	627.07
443.83	629.52
444.20	631.58
444.57	634.63
444.94	636.02
445.31	637.40
445.68	638.78
446.05	639.40
446.42	638.60
446.79	637.64
447.16	636.62
447.53	635.92
447.90	632.69
448.27	629.37
448.64	624.88
449.01	621.68
449.37	615.95
449.74	610.46
450.11	603.71
450.48	596.54
450.85	589.34
451.22	583.03
451.59	577.12
451.96	571.46
452.33	563.89
452.70	557.01
453.07	548.74
453.43	540.41
453.80	532.45
454.17	524.75
454.54	517.50
454.91	509.61
455.28	501.90
455.65	494.71
456.02	487.54
456.38	481.47
456.75	473.87
457.12	467.56
457.49	461.34
457.86	455.44
458.23	450.31
458.59	444.62
458.96	438.87
459.33	433.75
459.70	428.58
460.07	424.47
460.43	419.80
460.80	415.48
461.17	411.67
461.54	407.59
461.91	403.72
462.27	399.74
462.64	396.43
463.01	392.78
463.38	389.24
463.74	385.71
464.11	382.57
464.48	379.87
464.85	376.91
465.21	374.55
465.58	372.07
465.95	368.99
466.32	366.43
466.68	363.92
467.05	361.41
467.42	358.94
467.78	356.35
468.15	353.89
468.52	352.05
468.88	349.64
469.25	347.51
469.62	345.78
469.98	343.96
470.35	342.22
470.72	340.59
471.08	338.87
471.45	337.44
471.82	335.98
472.18	334.38
472.55	333.23
472.92	331.91
473.28	330.71
473.65	329.68
474.02	328.60
474.38	327.74
474.75	327.10
475.11	326.33
475.48	325.80
475.85	325.37
476.21	324.90
476.58	324.60
476.94	324.42
477.31	324.15
477.67	323.87
478.04	323.78
478.41	323.79
478.77	324.02
479.14	323.94
479.50	324.15
479.87	324.47
480.23	324.79
480.60	325.05
480.96	325.33
481.33	325.92
481.69	326.56
482.06	327.10
482.42	327.54
482.79	328.16
483.15	328.98
483.52	329.94
483.88	330.89
484.25	331.81
484.61	332.80
484.98	333.83
485.34	335.16
485.71	336.51
486.07	337.90
486.44	339.16
486.80	340.79
487.17	342.41
487.53	344.23
487.90	346.06
488.26	348.06
488.62	350.22
488.99	352.25
489.35	354.39
489.72	356.73
490.08	359.29
490.44	361.89
490.81	364.64
491.17	367.34
491.54	370.28
491.90	373.29
492.26	376.51
492.63	379.91
492.99	383.40
493.36	387.07
493.72	390.92
494.08	394.92
494.45	399.13
494.81	403.42
495.17	407.81
495.54	412.54
495.90	417.30
496.26	422.22
496.63	427.37
496.99	432.76
497.35	438.36
497.72	444.09
498.08	449.98
498.44	455.95
498.80	462.33
499.17	468.74
499.53	475.45
499.89	482.30
500.26	489.28
500.62	496.32
500.98	503.64
501.34	511.02
501.71	518.70
502.07	526.43
502.43	534.38
502.79	542.46
503.16	550.74
503.52	559.26
503.88	567.88
504.24	576.83
504.60	585.78
504.97	594.97
505.33	604.19
505.69	613.92
506.05	623.82
506.41	633.61
506.78	643.59
507.14	653.77
507.50	664.12
507.86	674.71
508.22	685.43
508.59	696.04
508.95	707.11
509.31	718.33
509.67	729.72
510.03	741.08
510.39	752.81
510.75	764.59
511.12	776.41
511.48	788.41
511.84	800.53
512.20	812.69
512.56	825.12
512.92	837.75
513.28	850.21
513.64	862.79
514.00	875.47
514.37	888.27
514.73	901.17
515.09	914.04
515.45	926.79
515.81	939.57
516.17	952.75
516.53	965.89
516.89	978.81
517.25	991.79
517.61	1005.09
517.97	1018.20
518.33	1031.14
518.69	1044.51
519.05	1058.08
519.41	1071.52
519.77	1085.29
520.13	1098.31
520.49	1111.30
520.85	1124.52
521.21	1137.50
521.57	1150.88
521.93	1163.75
522.29	1177.22
522.65	1190.64
523.01	1203.96
523.37	1216.91
523.73	1229.94
524.09	1242.75
524.45	1255.88
524.81	1269.06
525.17	1282.16
525.53	1295.08
525.89	1308.09
526.25	1321.02
526.61	1333.48
526.97	1346.27
527.33	1358.86
527.68	1372.19
528.04	1385.37
528.40	1398.13
528.76	1411.15
529.12	1423.78
529.48	1436.81
529.84	1448.74
530.20	1460.95
530.56	1473.28
530.91	1486.13
531.27	1498.63
531.63	1511.08
531.99	1523.59
532.35	1535.49
532.71	1547.66
533.07	1560.15
533.42	1571.96
533.78	1583.61
534.14	1595.21
534.50	1606.06
534.86	1617.30
535.21	1627.71
535.57	1638.76
535.93	1649.90
536.29	1660.81
536.65	1671.86
537.00	1682.39
537.36	1693.54
537.72	1704.45
538.08	1715.47
538.44	1726.18
538.79	1736.93
539.15	1747.43
539.51	1757.83
539.87	1768.90
540.22	1779.19
540.58	1789.84
540.94	1800.41
541.29	1810.35
541.65	1819.94
542.01	1830.23
542.37	1840.09
542.72	1849.86
543.08	1859.46
543.44	1869.46
543.79	1878.51
544.15	1887.62
544.51	1897.43
544.87	1906.98
545.22	1915.78
545.58	1924.32
545.94	1932.91
546.29	1941.14
546.65	1949.29
547.01	1957.21
547.36	1964.59
547.72	1972.15
548.07	1979.53
548.43	1987.09
548.79	1994.77
549.14	2002.54
549.50	2010.55
549.86	2018.09
550.21	2025.40
550.57	2032.73
550.92	2039.27
551.28	2046.42
551.64	2053.55
551.99	2060.80
552.35	2067.72
552.70	2074.35
553.06	2080.74
553.41	2086.83
553.77	2093.25
554.13	2099.34
554.48	2106.26
554.84	2113.24
555.19	2119.54
555.55	2125.72
555.90	2131.82
556.26	2138.41
556.61	2144.35
556.97	2149.15
557.32	2154.97
557.68	2161.21
558.03	2166.80
558.39	2172.03
558.74	2177.79
559.10	2183.34
559.45	2188.79
559.81	2194.22
560.16	2199.86
560.52	2205.80
560.87	2212.26
561.23	2218.08
561.58	2224.83
561.94	2229.84
562.29	2234.49
562.64	2240.72
563.00	2246.32
563.35	2251.97
563.71	2257.78
564.06	2263.47
564.42	2269.39
564.77	2274.42
565.12	2279.67
565.48	2284.96
565.83	2290.52
566.19	2296.20
566.54	2301.44
566.89	2305.94
567.25	2310.60
567.60	2316.19
567.96	2321.40
568.31	2325.76
568.66	2329.96
569.02	2333.74
569.37	2337.64
569.72	2342.07
570.08	2345.49
570.43	2348.55
570.78	2351.63
571.14	2354.34
571.49	2357.46
571.84	2361.12
572.20	2363.96
572.55	2366.98
572.90	2369.34
573.26	2372.35
573.61	2374.67
573.96	2376.87
574.31	2379.12
574.67	2380.92
575.02	2381.87
575.37	2383.28
575.72	2384.33
576.08	2385.99
576.43	2386.35
576.78	2387.01
577.13	2388.79
577.49	2390.08
577.84	2391.62
578.19	2393.18
578.54	2393.76
578.90	2394.92
579.25	2394.98
579.60	2395.11
579.95	2394.62
580.30	2394.92
580.66	2394.18
581.01	2392.80
581.36	2390.70
581.71	2389.46
582.06	2388.75
582.42	2388.01
582.77	2386.19
583.12	2384.64
583.47	2383.45
583.82	2382.93
584.17	2381.83
584.53	2379.89
584.88	2377.99
585.23	2376.10
585.58	2373.96
585.93	2372.02
586.28	2369.95
586.63	2367.73
586.98	2365.67
587.34	2363.82
587.69	2361.56
588.04	2359.83
588.39	2358.58
588.74	2356.41
589.09	2353.82
589.44	2350.85
589.79	2348.60
590.14	2346.70
590.49	2344.05
590.84	2340.42
591.19	2337.66
591.54	2334.67
591.89	2330.64
592.25	2327.51
592.60	2323.37
592.95	2319.37
593.30	2315.39
593.65	2311.07
594.00	2306.77
594.35	2303.88
594.70	2299.44
595.05	2294.95
595.40	2289.59
595.75	2284.03
596.10	2280.41
596.45	2275.70
596.80	2271.14
597.15	2266.12
597.50	2260.23
597.85	2255.54
598.19	2250.51
598.54	2244.82
598.89	2239.58
599.24	2235.23
599.59	2229.16
599.94	2223.67
600.29	2217.91
600.64	2212.15
600.99	2205.70
601.34	2200.40
601.69	2193.54
602.04	2187.26
602.39	2180.88
602.74	2174.86
603.08	2169.34
603.43	2162.91
603.78	2156.25
604.13	2149.38
604.48	2142.15
604.83	2136.24
605.18	2129.89
605.53	2123.05
605.87	2116.06
606.22	2109.52
606.57	2101.66
606.92	2094.03
607.27	2087.09
607.62	2080.51
607.96	2073.52
608.31	2066.98
608.66	2059.28
609.01	2051.73
609.36	2044.68
609.70	2037.01
610.05	2029.53
610.40	2021.29
610.75	2013.12
611.10	2005.63
611.44	1996.88
611.79	1988.26
612.14	1978.33
612.49	1967.93
612.83	1958.73
613.18	1949.59
613.53	1940.21
613.88	1930.82
614.22	1922.16
614.57	1912.27
614.92	1901.75
615.27	1891.68
615.61	1881.70
615.96	1871.99
616.31	1862.44
616.65	1853.10
617.00	1843.35
617.35	1833.66
617.70	1824.16
618.04	1814.16
618.39	1803.87
618.74	1794.21
619.08	1784.69
619.43	1776.12
619.78	1767.89
620.12	1759.22
620.47	1749.50
620.82	1739.30
621.16	1729.58
621.51	1719.62
621.85	1709.83
622.20	1699.45
622.55	1688.90
622.89	1679.05
623.24	1669.48
623.59	1659.87
623.93	1649.79
624.28	1640.14
624.62	1630.04
624.97	1619.60
625.32	1609.90
625.66	1601.19
626.01	1592.31
626.35	1582.89
626.70	1572.79
627.04	1562.70
627.39	1552.67
627.73	1543.57
628.08	1534.57
628.43	1524.87
628.77	1515.77
629.12	1506.90
629.46	1499.04
629.81	1490.71
630.15	1481.18
630.50	1471.28
630.84	1460.83
631.19	1450.99
631.53	1441.52
631.88	1431.37
632.22	1421.58
632.57	1412.29
632.91	1402.10
633.26	1392.35
633.60	1382.78
633.95	1373.61
634.29	1364.25
634.64	1354.93
634.98	1345.02
635.32	1335.82
635.67	1327.35
636.01	1318.19
636.36	1308.54
636.70	1299.16
637.05	1289.88
637.39	1280.95
637.73	1272.42
638.08	1264.93
638.42	1256.68
638.77	1247.99
639.11	1239.83
639.45	1231.98
639.80	1223.36
640.14	1214.67
640.49	1205.86
640.83	1197.21
641.17	1189.03
641.52	1180.81
641.86	1172.16
642.20	1164.26
642.55	1155.75
642.89	1146.96
643.23	1138.25
643.58	1130.18
643.92	1121.13
644.26	1112.56
644.61	1104.21
644.95	1095.51
645.29	1086.26
645.64	1077.25
645.98	1068.94
646.32	1061.09
646.66	1052.73
647.01	1044.47
647.35	1036.42
647.69	1028.08
648.04	1019.80
648.38	1010.94
648.72	1002.26
649.06	993.96
649.41	985.91
649.75	977.98
650.09	970.18
650.43	962.23
650.78	954.12
651.12	946.56
651.46	939.23
651.80	932.00
652.14	924.78
652.49	917.37
652.83	910.10
653.17	902.35
653.51	894.70
653.85	887.36
654.20	880.19
654.54	872.64
654.88	865.66
655.22	858.50
655.56	851.58
655.90	844.85
656.25	838.40
656.59	831.41
656.93	824.47
657.27	817.43
657.61	810.62
657.95	804.51
658.29	798.72
658.64	792.62
658.98	786.23
659.32	779.64
659.66	773.46
660.00	767.14
660.34	761.30
660.68	755.34
661.02	749.24
661.36	743.40
661.70	737.77
662.05	732.15
662.39	726.76
662.73	721.50
663.07	716.25
663.41	710.55
663.75	705.03
664.09	699.38
664.43	694.08
664.77	688.76
665.11	683.07
665.45	677.19
665.79	671.47
666.13	665.93
666.47	660.61
666.81	655.33
667.15	650.12
667.49	645.00
667.83	639.79
668.17	634.62
668.51	629.60
668.85	624.84
669.19	619.97
669.53	615.05
669.87	610.06
670.21	605.33
670.55	600.76
670.89	596.44
671.23	592.27
671.57	588.01
671.91	583.77
672.25	579.70
672.58	575.64
672.92	571.67
673.26	567.79
673.60	564.00
673.94	560.20
674.28	556.60
674.62	552.83
674.96	549.21
675.30	545.73
675.64	542.12
675.97	538.57
676.31	535.06
676.65	531.50
676.99	528.15
677.33	524.43
677.67	520.84
678.01	517.03
678.34	513.48
678.68	510.01
679.02	506.48
679.36	502.80
679.70	499.23
680.04	495.73
680.37	492.34
680.71	489.05
681.05	485.90
681.39	482.71
681.73	479.69
682.06	476.71
682.40	473.69
682.74	470.55
683.08	467.41
683.42	464.28
683.75	461.37
684.09	458.32
684.43	455.51
684.77	452.62
685.10	449.83
685.44	446.97
685.78	444.09
686.12	441.38
686.45	438.73
686.79	436.13
687.13	433.62
687.46	431.05
687.80	428.44
688.14	425.66
688.48	423.18
688.81	420.48
689.15	417.97
689.49	415.40
689.82	412.92
690.16	410.35
690.50	407.97
690.83	405.49
691.17	403.04
691.51	400.64
691.84	398.47
692.18	396.36
692.52	394.21
692.85	392.11
693.19	390.02
693.52	387.97
693.86	385.77
694.20	383.69
694.53	381.62
694.87	379.47
695.21	377.39
695.54	375.25
695.88	373.19
696.21	370.97
696.55	368.88
696.88	366.82
697.22	364.91
697.56	363.09
697.89	361.25
698.23	359.54
698.56	357.84
698.90	356.08
699.23	354.14
699.57	352.27
699.90	350.44
700.24	348.66
700.58	346.87
700.91	345.29
701.25	343.76
701.58	342.17
701.92	340.65
702.25	339.09
702.59	337.46
702.92	336.03
703.26	334.51
703.59	333.09
703.93	331.94
704.26	330.55
704.60	329.05
704.93	327.62
705.26	326.13
705.60	324.71
705.93	323.22
706.27	321.95
706.60	320.79
706.94	319.59
707.27	318.24
707.61	316.94
707.94	315.64
708.27	314.12
708.61	312.73
708.94	311.36
709.28	310.06
709.61	308.87
709.94	307.65
710.28	306.51
710.61	305.39
710.95	303.96
711.28	302.91
711.61	301.76
711.95	300.64
712.28	299.51
712.61	298.32
712.95	297.32
713.28	296.33
713.61	295.11
713.95	294.02
714.28	293.08
714.61	292.08
714.95	291.10
715.28	290.12
715.61	289.12
715.95	288.21
716.28	287.32
716.61	286.36
716.95	285.37
717.28	284.45
717.61	283.49
717.94	282.63
718.28	281.65
718.61	280.80
718.94	279.92
719.27	279.11
719.61	278.32
719.94	277.46
720.27	276.52
720.60	275.75
720.94	274.99
721.27	274.24
721.60	273.58
721.93	272.89
722.27	272.30
722.60	271.65
722.93	270.95
723.26	270.30
723.59	269.68
723.93	269.09
724.26	268.45
724.59	267.81
724.92	267.25
725.25	266.72
725.59	266.15
725.92	265.67
726.25	265.09
726.58	264.53
726.91	263.95
727.24	263.42
727.57	262.87
727.91	262.28
728.24	261.70
728.57	261.10
728.90	260.54
729.23	259.95
729.56	259.52
729.89	259.00
730.22	258.47
730.55	257.94
730.89	257.41
731.22	256.88
731.55	256.38
731.88	255.86
732.21	255.29
732.54	254.76
732.87	254.28
733.20	253.84
733.53	253.36
733.86	252.95
734.19	252.49
734.52	252.05
734.85	251.76
735.18	251.31
735.51	250.97
735.84	250.53
736.17	250.13
736.50	249.67
736.83	249.49
737.16	249.11
737.49	248.71
737.82	248.37
738.15	248.04
738.48	247.70
738.81	247.32
739.14	246.96
739.47	246.60
739.80	246.17
740.13	245.85
740.46	245.47
740.79	245.11
741.12	244.76
741.45	244.41
741.78	243.97
742.11	243.68
742.44	243.31
742.77	243.05
743.10	242.71
743.43	242.34
743.75	241.81
744.08	241.77
744.41	241.46
744.74	241.09
745.07	240.75
745.40	240.43
745.73	240.23
746.06	239.90
746.39	239.61
746.71	239.33
747.04	238.95
747.37	238.61
747.70	238.31
748.03	238.01
748.36	237.77
748.68	237.46
749.01	237.12
749.34	236.83
749.67	236.50
750.00	236.27
750.33	236.14
750.65	235.90
750.98	235.38
751.31	235.10
751.64	234.86
751.97	234.72
752.29	234.47
752.62	234.12
752.95	233.89
753.28	233.60
753.60	233.39
753.93	233.25
754.26	233.10
754.59	232.85
754.91	232.63
755.24	232.38
755.57	232.16
755.90	231.98
756.22	231.75
756.55	231.55
756.88	231.29
757.20	230.96
757.53	230.69
757.86	230.49
758.19	230.32
758.51	230.09
758.84	229.81
759.17	229.60
759.49	229.43
759.82	229.35
760.15	229.20
760.47	228.99
760.80	228.71
761.13	228.56
761.45	228.35
761.78	228.18
762.11	228.02
762.43	227.85
762.76	227.67
763.08	227.54
763.41	227.41
763.74	227.27
764.06	227.13
764.39	227.01
764.71	226.84
765.04	226.70
765.37	226.60
765.69	226.44
766.02	226.32
766.34	226.13
766.67	225.94
767.00	225.85
767.32	225.83
767.65	225.84
767.97	225.69
768.30	225.59
768.62	225.45
768.95	225.28
769.27	225.15
769.60	225.06
769.92	224.89
770.25	224.70
770.57	224.55
770.90	224.44
771.22	224.31
771.55	224.21
771.87	224.09
772.20	223.94
772.52	224.02
772.85	224.16
773.17	224.09
773.50	223.96
773.82	223.86
774.15	223.66
774.47	223.44
774.80	223.35
775.12	223.23
775.45	223.14
775.77	223.07
776.09	222.99
776.42	222.90
776.74	222.92
777.07	222.81
777.39	222.73
777.72	222.62
778.04	222.55
778.36	222.46
778.69	222.40
779.01	222.35
779.33	222.08
779.66	221.77
779.98	221.67
780.31	221.59
780.63	221.57
780.95	221.55
781.28	221.49
781.60	221.40
781.92	221.38
782.25	221.33
782.57	221.29
782.89	221.23
783.22	221.15
783.54	221.04
783.86	221.00
784.19	220.93
784.51	220.95
784.83	220.87
785.16	220.80
785.48	220.72
785.80	220.66
786.12	220.62
